%OpenBCI Raw EEG Data
%Number of channels = 16
%Sample Rate = 125 Hz
%Board = OpenBCI_GUI$BoardCytonSerialDaisy
Sample Index, EXG Channel 0, EXG Channel 1, EXG Channel 2, EXG Channel 3, EXG Channel 4, EXG Channel 5, EXG Channel 6, EXG Channel 7, EXG Channel 8, EXG Channel 9, EXG Channel 10, EXG Channel 11, EXG Channel 12, EXG Channel 13, EXG Channel 14, EXG Channel 15, Accel Channel 0, Accel Channel 1, Accel Channel 2, Other, Other, Other, Other, Other, Other, Other, Analog Channel 0, Analog Channel 1, Analog Channel 2, Timestamp, Other, Timestamp (Formatted)
0.0, -10505.856335861246, -10415.935267917546, -5953.923577537964, -13277.606758786054, -8325.622478201685, -4667.915960301872, -8108.631743029564, -5937.070362218662, 0.0, 0.0, 0.0, 0.0, 0.0, 0.0, 0.0, 0.0, 0.0, 0.0, 0.0, 192.0, 0.0, 0.0, 0.0, 0.0, 0.0, 0.0, 0.0, 0.0, 0.0, 1.64458776785265E9, 0.0, 2022-02-12 00:56:07.852
54.0, -10538.981621144012, -10423.132529632156, -5955.778772327754, -13290.68252929241, -8337.155978340625, -4680.1870680078355, -8119.002952456827, -5941.160731453983, -10225.319591202688, -13604.478669700466, -7193.014883162366, -6228.335944215768, -5728.953269595298, -8689.53122967854, -11743.807702518428, -16830.215374257015, 0.0, 0.0, 0.0, 192.0, 0.0, 0.0, 0.0, 0.0, 0.0, 0.0, 0.0, 0.0, 0.0, 1.644587767852656E9, 0.0, 2022-02-12 00:56:07.852
0.0, -5235.60556597776, -5216.226603535009, -2994.887887822138, -6651.610928965918, -4170.544942682379, -2331.018725755063, -4043.3635167316816, -2970.3456724102107, -5109.072340616267, -6801.568782516573, -3604.598773074004, -3121.4211131836314, -2869.1369735165804, -4344.173293611204, -5872.16089632045, -8395.85165928026, 0.008, 0.23600000000000002, 0.9440000000000001, 192.0, 0.0, 32.0, 3.5, 48.0, 14.5, 64.0, 0.0, 0.0, 0.0, 1.644587767973978E9, 0.0, 2022-02-12 00:56:07.973
4.0, -10519.088568578789, -10407.910991658091, -6000.504612982823, -13292.96240722685, -8327.298859035833, -4662.68565209933, -8092.806707955207, -5941.630118087544, -10222.972658034882, -13730.877784595226, -7240.758209318902, -6263.159962077137, -5702.332341949027, -8698.695444905215, -11804.895020114782, -16847.448569232056, 0.008, 0.23600000000000002, 0.9440000000000001, 192.0, 0.0, 0.0, 0.0, 0.0, 0.0, 0.0, 0.0, 0.0, 0.0, 1.644587767986654E9, 0.0, 2022-02-12 00:56:07.986
6.0, -10491.282998476387, -10405.765224190382, -5988.658188421511, -13303.91476200995, -8332.998553871937, -4662.260968954679, -8087.2858270747465, -5940.6242895870555, -10220.893945800537, -13725.155738014668, -7245.00504076541, -6250.173598548603, -5699.113690747463, -8676.410755683275, -11800.871706112828, -16897.695290767588, 0.008, 0.23700000000000002, 0.9470000000000001, 192.0, 0.0, 32.0, 3.5, 56.0, 14.5, 88.0, 0.0, 0.0, 0.0, 1.644587767993699E9, 0.0, 2022-02-12 00:56:07.993
8.0, -10502.928257337602, -10414.415349294586, -6000.9069443830185, -13292.5377240822, -8327.768245669395, -4666.127820745447, -8095.488917289844, -5943.977051255352, -10216.043617253736, -13711.901153552672, -7239.640622096136, -6258.0637643413265, -5693.905734289377, -8680.679938874238, -11801.229334024112, -16870.359107298747, 0.008, 0.23700000000000002, 0.9470000000000001, 192.0, 0.0, 0.0, 0.0, 0.0, 0.0, 0.0, 0.0, 0.0, 0.0, 1.644587768001094E9, 0.0, 2022-02-12 00:56:08.001
10.0, -10478.02841401439, -10424.20541336601, -5995.050787335728, -13297.008072973262, -8333.289126549857, -4664.742012589218, -8089.0516148867155, -5940.736048309333, -10221.251573711823, -13717.332627455311, -7235.259680182896, -6256.677956185098, -5702.287638460117, -8679.897627818302, -11803.486860214098, -16865.553482240855, 0.008, 0.23700000000000002, 0.9470000000000001, 192.0, 0.0, 0.0, 0.0, 0.0, 0.0, 0.0, 0.0, 0.0, 0.0, 1.644587768009359E9, 0.0, 2022-02-12 00:56:08.009
12.0, -10495.820402600813, -10424.20541336601, -6000.683426938466, -13302.126622453527, -8334.093789350247, -4669.63704462493, -8093.812536455695, -5941.965394254375, -10237.344829719643, -13734.968153830547, -7236.354915661206, -6259.270758541913, -5711.429501942337, -8681.86458133037, -11802.011645080049, -16901.226866391524, 0.008, 0.23700000000000002, 0.9470000000000001, 192.0, 0.0, 0.0, 0.0, 0.0, 0.0, 0.0, 0.0, 0.0, 0.0, 1.644587768016197E9, 0.0, 2022-02-12 00:56:08.016
14.0, -10517.926277867113, -10407.732177702448, -5994.46964197989, -13291.464840348344, -8328.550556725331, -4666.664262612375, -8088.224600341869, -5943.060629732684, -10222.905602801515, -13713.979865787014, -7234.700886571513, -6259.136648075181, -5708.590830396513, -8681.641063885816, -11799.463546212142, -16845.079284319792, 0.008, 0.23700000000000002, 0.9470000000000001, 192.0, 0.0, 0.0, 0.0, 0.0, 0.0, 0.0, 0.0, 0.0, 0.0, 1.644587768022795E9, 0.0, 2022-02-12 00:56:08.022
16.0, -10487.192629241066, -10405.474651512463, -5991.407452989513, -13304.451203876879, -8334.518472494898, -4664.071460255559, -8089.543353264732, -5940.423123886958, -10231.35456220562, -13721.422996690631, -7219.926383486555, -6245.300918257346, -5704.768682094656, -8678.914151062269, -11801.251685768568, -16897.24825587848, 0.008, 0.23650000000000002, 0.9485000000000001, 192.0, 0.0, 32.0, 3.5, 48.0, 14.5, 88.0, 0.0, 0.0, 0.0, 1.644587768032916E9, 0.0, 2022-02-12 00:56:08.032
18.0, -10495.485126433985, -10415.331770817253, -6004.23735430686, -13298.01390147375, -8321.688571177552, -4657.1200677299585, -8090.213905598392, -5939.640812831022, -10214.769567819783, -13716.527964654919, -7235.19262494953, -6251.358241004735, -5697.593772124502, -8676.835438827926, -11795.216714765635, -16864.972336885017, 0.008, 0.23650000000000002, 0.9485000000000001, 192.0, 0.0, 0.0, 0.0, 0.0, 0.0, 0.0, 0.0, 0.0, 0.0, 1.644587768039383E9, 0.0, 2022-02-12 00:56:08.039
20.0, -10485.873876318203, -10408.670950969572, -5988.702891910421, -13304.361796899057, -8329.802254414828, -4661.836285810028, -8083.754251450808, -5933.248213916804, -10218.949344032926, -13708.906019795659, -7230.878738269656, -6269.887837158184, -5676.292559658595, -8679.204723740188, -11795.909618843749, -16858.19975831506, 0.008, 0.23650000000000002, 0.9485000000000001, 192.0, 0.0, 0.0, 0.0, 0.0, 0.0, 0.0, 0.0, 0.0, 0.0, 1.644587768045969E9, 0.0, 2022-02-12 00:56:08.045
22.0, -10501.74361488147, -10432.855538470214, -5997.75534841482, -13307.312227167158, -8336.775998684883, -4670.173486491858, -8100.249838858824, -5939.529054108746, -10238.55182392023, -13725.468662437042, -7227.369514390173, -6262.891741143673, -5713.642324643412, -8677.19306673921, -11799.687063656696, -16901.495087324987, 0.008, 0.23650000000000002, 0.9485000000000001, 192.0, 0.0, 0.0, 0.0, 0.0, 0.0, 0.0, 0.0, 0.0, 0.0, 1.64458776805404E9, 0.0, 2022-02-12 00:56:08.054
24.0, -10501.0283590589, -10409.29679981432, -5991.921543111986, -13291.755413026263, -8320.146300810135, -4661.389250920922, -8076.333472291645, -5939.886682020031, -10225.230184224867, -13718.316104211344, -7231.102255714209, -6255.917996873617, -5703.785205338622, -8692.414604713274, -11796.356653732855, -16842.82175812981, 0.008, 0.23650000000000002, 0.9485000000000001, 192.0, 0.0, 0.0, 0.0, 0.0, 0.0, 0.0, 0.0, 0.0, 0.0, 1.644587768061207E9, 0.0, 2022-02-12 00:56:08.061
26.0, -10491.372405454207, -10406.905163157602, -5986.445365720435, -13313.503660381277, -8328.952888125526, -4662.3503759325, -8080.64735897152, -5933.784655783732, -10234.349695962632, -13726.787415359906, -7221.6027643207035, -6252.386421249678, -5699.963057036764, -8676.522514405551, -11792.355691475355, -16893.269645365435, 0.008, 0.23525000000000001, 0.94825, 192.0, 0.0, 32.0, 3.5, 40.0, 14.5, 80.0, 0.0, 0.0, 0.0, 1.644587768068938E9, 0.0, 2022-02-12 00:56:08.068
28.0, -10498.815536357824, -10411.174346348565, -5996.548354214234, -13302.975988742828, -8320.682742677063, -4667.290111457123, -8077.808687425696, -5936.533920351734, -10223.442044668442, -13711.320008196833, -7224.4190841220725, -6266.423316767611, -5697.638475613413, -8683.965645309168, -11789.494668185076, -16867.118104352725, 0.008, 0.23525000000000001, 0.94825, 192.0, 0.0, 0.0, 0.0, 0.0, 0.0, 0.0, 0.0, 0.0, 0.0, 1.644587768076808E9, 0.0, 2022-02-12 00:56:08.076
30.0, -10482.856390816736, -10417.63400049615, -5993.3967582460355, -13301.433718375412, -8321.666219433097, -4665.7478410897065, -8080.5356002492435, -5937.495045363313, -10225.654867369518, -13694.578551599807, -7235.19262494953, -6260.567159720321, -5693.212830211262, -8689.642988400816, -11790.656958896752, -16862.491293250478, 0.008, 0.23525000000000001, 0.94825, 192.0, 0.0, 0.0, 0.0, 0.0, 0.0, 0.0, 0.0, 0.0, 0.0, 1.644587768085338E9, 0.0, 2022-02-12 00:56:08.085
32.0, -10512.338341753286, -10432.520262303384, -6002.248049050338, -13307.625151589531, -8328.975239869982, -4671.11225975898, -8092.180859110458, -5940.98191749834, -10237.478940186375, -13725.558069414863, -7227.056589967799, -6258.488447485977, -5674.54912359108, -8684.658549387283, -11792.221581008624, -16902.098584425283, 0.008, 0.23525000000000001, 0.94825, 192.0, 0.0, 0.0, 0.0, 0.0, 0.0, 0.0, 0.0, 0.0, 0.0, 1.644587768098206E9, 0.0, 2022-02-12 00:56:08.098
34.0, -10503.732920137993, -10432.632021025662, -5998.694121681943, -13296.426927617424, -8318.805196142817, -4657.857675296984, -8083.575437495165, -5934.835187773131, -10241.748123377338, -13724.932220570116, -7224.486139355438, -6260.164828320126, -5702.332341949027, -8691.0511483015, -11796.446060710676, -16845.794540142364, 0.008, 0.23525000000000001, 0.94825, 192.0, 0.0, 0.0, 0.0, 0.0, 0.0, 0.0, 0.0, 0.0, 0.0, 1.644587768107086E9, 0.0, 2022-02-12 00:56:08.107
36.0, -10491.350053709753, -10413.543631260829, -5998.515307726301, -13311.648465591486, -8332.573870727287, -4661.232788709734, -8082.971940394872, -5935.148112195506, -10248.967736836403, -13725.80393860387, -7221.245136409419, -6255.873293384707, -5707.137967006918, -8681.23873248562, -11799.642360167785, -16891.570912786832, 0.007, 0.23662500000000003, 0.949125, 192.0, 0.0, 24.0, 3.5, 56.0, 14.5, 88.0, 0.0, 0.0, 0.0, 1.64458776811346E9, 0.0, 2022-02-12 00:56:08.113
38.0, -10511.287809763886, -10420.830299953259, -6007.858336908619, -13306.239343433303, -8321.956792111016, -4659.802277064595, -8087.665806730486, -5941.898339021009, -10242.105751288624, -13735.392836975197, -7232.108084214698, -6267.3397382902795, -5703.204059982784, -8691.364072723874, -11797.42953746671, -16866.514607252433, 0.007, 0.23662500000000003, 0.949125, 192.0, 0.0, 0.0, 0.0, 0.0, 0.0, 0.0, 0.0, 0.0, 0.0, 1.644587768120947E9, 0.0, 2022-02-12 00:56:08.120
40.0, -10511.220754530521, -10423.959544177002, -5990.334569255659, -13307.580448100622, -8329.891661392649, -4658.72939333074, -8091.443251543433, -5939.886682020031, -10233.321515717687, -13714.00221753147, -7229.537633602337, -6264.657528955642, -5700.633609370424, -8685.373805209852, -11803.196287536179, -16858.087999592783, 0.007, 0.23662500000000003, 0.949125, 192.0, 0.0, 0.0, 0.0, 0.0, 0.0, 0.0, 0.0, 0.0, 0.0, 1.644587768128923E9, 0.0, 2022-02-12 00:56:08.128
42.0, -10510.863126619235, -10437.191776894544, -6000.862240894108, -13315.87294529354, -8340.061705119813, -4670.4417074253215, -8094.997178911827, -5950.056725747196, -10250.197082781444, -13733.425883463131, -7227.101293456709, -6264.031680110894, -5706.266248973161, -8687.541924422017, -11805.699682915174, -16900.980997202518, 0.007, 0.23662500000000003, 0.949125, 192.0, 0.0, 0.0, 0.0, 0.0, 0.0, 0.0, 0.0, 0.0, 0.0, 1.644587768136943E9, 0.0, 2022-02-12 00:56:08.136
44.0, -10510.55020219686, -10420.137395875145, -5996.7942234032425, -13306.798137044685, -8333.423237016588, -4668.2735882131565, -8092.829059699662, -5948.022717001762, -10241.658716399517, -13727.56972641584, -7245.630889610159, -6286.204610610558, -5703.718150105256, -8699.857735616892, -11803.95624684766, -16849.057894832837, 0.007, 0.23662500000000003, 0.949125, 192.0, 0.0, 0.0, 0.0, 0.0, 0.0, 0.0, 0.0, 0.0, 0.0, 1.64458776814367E9, 0.0, 2022-02-12 00:56:08.143
46.0, -10508.65030391816, -10441.170387407588, -5996.95068561443, -13328.389922188511, -8341.849844676239, -4668.318291702067, -8090.951513165416, -5947.329812923648, -10250.130027548079, -13736.935107342615, -7255.018622281387, -6284.7740989654185, -5700.5442023926025, -8699.611866427884, -11801.542258446487, -16897.941159956594, 0.0075, 0.23531250000000004, 0.9475625000000001, 192.0, 0.0, 32.0, 3.5, 40.0, 14.5, 72.0, 0.0, 0.0, 0.0, 1.64458776815068E9, 0.0, 2022-02-12 00:56:08.150
48.0, -10508.024455073411, -10442.623250797184, -6007.634819464067, -13315.381206915523, -8330.74102768195, -4668.92178880236, -8100.272190603279, -5951.46488564788, -10245.056181556723, -13733.180014274123, -7236.578433105759, -6295.726453748519, -5702.578211138036, -8689.62063665636, -11800.424671223722, -16874.382421300703, 0.0075, 0.23531250000000004, 0.9475625000000001, 192.0, 0.0, 0.0, 0.0, 0.0, 0.0, 0.0, 0.0, 0.0, 0.0, 1.644587768158679E9, 0.0, 2022-02-12 00:56:08.158
50.0, -10497.385024712685, -10425.233593610954, -5995.90015362503, -13311.402596402479, -8334.853748661728, -4660.808105565084, -8087.777565452763, -5943.351202410603, -10247.961908335914, -13721.735921113006, -7247.799008822323, -6274.7381657049855, -5696.766757579656, -8700.14830829481, -11802.346921246877, -16863.76534268443, 0.0075, 0.23531250000000004, 0.9475625000000001, 192.0, 0.0, 0.0, 0.0, 0.0, 0.0, 0.0, 0.0, 0.0, 0.0, 1.644587768166923E9, 0.0, 2022-02-12 00:56:08.166
52.0, -10519.781472656903, -10433.369628592685, -6003.857374651119, -13318.644561605997, -8343.70503946603, -4663.870294555461, -8100.540411536743, -5950.056725747196, -10249.861806614615, -13739.706723655072, -7242.725162830969, -6288.953875178561, -5697.303199446583, -8689.106546533889, -11800.424671223722, -16901.785660002908, 0.0075, 0.23531250000000004, 0.9475625000000001, 192.0, 0.0, 0.0, 0.0, 0.0, 0.0, 0.0, 0.0, 0.0, 0.0, 1.644587768173392E9, 0.0, 2022-02-12 00:56:08.173
54.0, -10533.885423408203, -10440.052800184823, -6004.080892095672, -13302.573657342633, -8331.612745715707, -4663.803239322096, -8093.320798077679, -5950.7049263364, -10245.302050745733, -13734.096435796791, -7247.307270444307, -6278.269741328924, -5682.796917295089, -8687.407813955286, -11803.129232302814, -16847.96265935453, 0.0075, 0.23531250000000004, 0.9475625000000001, 192.0, 0.0, 0.0, 0.0, 0.0, 0.0, 0.0, 0.0, 0.0, 0.0, 1.644587768181524E9, 0.0, 2022-02-12 00:56:08.181
56.0, -10513.992370842978, -10445.193701409544, -5989.239333777348, -13312.922515025439, -8343.973260399493, -4663.646777110908, -8094.751309722818, -5951.3084234366925, -10256.74614390685, -13738.611488176763, -7228.084770212743, -6255.627424195698, -5705.84156582851, -8682.758651108581, -11803.66567416974, -16897.091793667292, 0.00875, 0.23465625, 0.94778125, 192.0, 0.0, 40.0, 3.5, 40.0, 14.5, 80.0, 0.0, 0.0, 0.0, 1.644587768189367E9, 0.0, 2022-02-12 00:56:08.189
58.0, -10519.736769167992, -10445.148997920633, -6002.42686300598, -13306.574619600133, -8337.31244055181, -4667.670091112864, -8098.394644069033, -5960.271472963271, -10245.816140868204, -13727.323857226833, -7232.219842936975, -6281.086061130293, -5707.316780962561, -8694.023930314057, -11802.279866013512, -16875.09767712327, 0.00875, 0.23465625, 0.94778125, 192.0, 0.0, 0.0, 0.0, 0.0, 0.0, 0.0, 0.0, 0.0, 0.0, 1.644587768196842E9, 0.0, 2022-02-12 00:56:08.196
60.0, -10486.812649585325, -10435.381285593663, -5996.816575147698, -13308.854497534574, -8339.279394063878, -4658.796448564106, -8090.862106187596, -5945.049934989207, -10244.005649567325, -13735.839871864304, -7252.761096091402, -6258.399040508157, -5701.550030893091, -8688.637159900327, -11802.10105205787, -16863.13949383968, 0.00875, 0.23465625, 0.94778125, 192.0, 0.0, 0.0, 0.0, 0.0, 0.0, 0.0, 0.0, 0.0, 0.0, 1.644587768204013E9, 0.0, 2022-02-12 00:56:08.204
62.0, -10524.542394225884, -10442.980878708468, -6007.456005508424, -13312.453128391879, -8346.007269144926, -4662.618596865964, -8106.843603473139, -5962.618406131078, -10250.755876392828, -13749.742656915505, -7249.967128034488, -6273.173543593114, -5706.780339095633, -8677.640101628316, -11803.933895103204, -16903.216171648048, 0.00875, 0.23465625, 0.94778125, 192.0, 0.0, 0.0, 0.0, 0.0, 0.0, 0.0, 0.0, 0.0, 0.0, 1.644587768219793E9, 0.0, 2022-02-12 00:56:08.219
64.0, -10523.022475602922, -10429.815701224292, -6009.557069487223, -13297.365700884546, -8329.377571270177, -4646.994727491704, -8093.700777733419, -5939.529054108746, -10252.655774671528, -13715.388025687698, -7248.044878011332, -6277.487430272989, -5694.9115627898655, -8687.027834299544, -11802.995121836082, -16844.319325008313, 0.00875, 0.23465625, 0.94778125, 192.0, 0.0, 0.0, 0.0, 0.0, 0.0, 0.0, 0.0, 0.0, 0.0, 1.644587768225852E9, 0.0, 2022-02-12 00:56:08.225
66.0, -10510.572553941316, -10424.473634299473, -5993.553220457223, -13313.168384214448, -8338.139455096658, -4641.607957077976, -8085.430632284955, -5938.143245952517, -10255.740315406361, -13729.33551422781, -7237.159578461597, -6270.536037747388, -5691.849373799489, -8676.611921383372, -11799.754118890061, -16889.089869152293, 0.009375000000000001, 0.234328125, 0.9458906250000001, 192.0, 0.0, 40.0, 3.5, 40.0, 14.5, 64.0, 0.0, 0.0, 0.0, 1.644587768233496E9, 0.0, 2022-02-12 00:56:08.233
68.0, -10511.08664406379, -10436.610631538706, -6001.108110083117, -13295.778727028219, -8334.093789350247, -4639.551596588087, -8090.906809676506, -5946.458094889891, -10249.817103125704, -13726.988581060003, -7239.752380818413, -6262.444706254567, -5689.323626676039, -8666.732450334126, -11797.340130488888, -16867.38632528619, 0.009375000000000001, 0.234328125, 0.9458906250000001, 192.0, 0.0, 0.0, 0.0, 0.0, 0.0, 0.0, 0.0, 0.0, 0.0, 1.644587768241547E9, 0.0, 2022-02-12 00:56:08.241
70.0, -10494.971036311512, -10437.705867017015, -5998.917639126496, -13306.418157388945, -8331.70215269353, -4648.000555992193, -8093.968998666883, -5946.189873956428, -10236.920146574992, -13716.058578021357, -7240.557043618804, -6266.535075489888, -5673.722109046234, -8677.751860350592, -11801.09522355738, -16860.367877527224, 0.009375000000000001, 0.234328125, 0.9458906250000001, 192.0, 0.0, 0.0, 0.0, 0.0, 0.0, 0.0, 0.0, 0.0, 0.0, 1.644587768248742E9, 0.0, 2022-02-12 00:56:08.248
72.0, -10516.719283666525, -10441.528015318872, -6008.23831656436, -13317.549326127688, -8341.045181875847, -4665.189047478324, -8094.013702155794, -5949.028545502251, -10252.946347349447, -13745.115845813258, -7235.349087160717, -6270.357223791746, -5696.945571535298, -8679.651758629294, -11802.324569502422, -16906.859505994264, 0.009375000000000001, 0.234328125, 0.9458906250000001, 192.0, 0.0, 0.0, 0.0, 0.0, 0.0, 0.0, 0.0, 0.0, 0.0, 1.644587768256217E9, 0.0, 2022-02-12 00:56:08.256
74.0, -10502.615332915228, -10446.668916543595, -6008.484185753368, -13302.238381175803, -8319.878079876671, -4651.219207193757, -8083.664844472986, -5937.204472685394, -10245.816140868204, -13732.554165429374, -7252.939910047044, -6293.200706625069, -5699.247801214195, -8687.094889532911, -11799.374139234322, -16849.77315065541, 0.009375000000000001, 0.234328125, 0.9458906250000001, 192.0, 0.0, 0.0, 0.0, 0.0, 0.0, 0.0, 0.0, 0.0, 0.0, 1.644587768264114E9, 0.0, 2022-02-12 00:56:08.264
76.0, -10521.211984302043, -10442.64560254164, -5997.978865859373, -13312.564887114155, -8325.287202034855, -4651.912111271872, -8080.31208280469, -5938.947908752908, -10249.235957769866, -13733.358828229766, -7248.8942443006335, -6264.14343883317, -5696.230315712728, -8682.535133664029, -11798.457717711653, -16891.459154064556, 0.008, 0.23800000000000002, 0.9420000000000001, 192.0, 0.0, 32.0, 3.5, 56.0, 14.5, 56.0, 0.0, 0.0, 0.0, 1.644587768271297E9, 0.0, 2022-02-12 00:56:08.271
78.0, -10525.682333193105, -10448.144131677644, -6011.747540443843, -13300.852573019574, -8322.292068277844, -4650.995689749204, -8091.979693410361, -5944.334679166637, -10256.969661351402, -13745.294659768899, -7230.766979547379, -6264.389308022179, -5693.905734289377, -8680.881104574335, -11797.831868866906, -16869.3309270538, 0.008, 0.23800000000000002, 0.9420000000000001, 192.0, 0.0, 0.0, 0.0, 0.0, 0.0, 0.0, 0.0, 0.0, 0.0, 1.644587768278421E9, 0.0, 2022-02-12 00:56:08.278
80.0, -10506.54923993936, -10443.271451386387, -6000.146985071538, -13306.194639944391, -8332.104484093725, -4651.532131616132, -8093.2760945887685, -5944.334679166637, -10252.432257226976, -13729.134348527712, -7234.38796214914, -6268.9267121466055, -5689.994179009697, -8685.060880787478, -11804.693854414685, -16859.29499379337, 0.008, 0.23800000000000002, 0.9420000000000001, 192.0, 0.0, 0.0, 0.0, 0.0, 0.0, 0.0, 0.0, 0.0, 0.0, 1.644587768285846E9, 0.0, 2022-02-12 00:56:08.285
82.0, -10511.377216741708, -10439.985744951457, -6005.466700251902, -13314.464785392856, -8342.475693520986, -4658.68468984183, -8095.377158567568, -5953.945929282419, -10255.002707839336, -13749.541491215408, -7230.923441758567, -6272.52534300391, -5695.068025001053, -8679.897627818302, -11805.118537559336, -16906.54658157189, 0.008, 0.23800000000000002, 0.9420000000000001, 192.0, 0.0, 0.0, 0.0, 0.0, 0.0, 0.0, 0.0, 0.0, 0.0, 1.644587768293807E9, 0.0, 2022-02-12 00:56:08.293
84.0, -10507.689178906581, -10422.439625554041, -6005.71256944091, -13302.841878276096, -8335.300783550832, -4658.394117163911, -8091.93498992145, -5946.4357431454355, -10244.944422834447, -13719.47839492302, -7241.898148286123, -6293.938314192094, -5693.45869940027, -8700.81886062847, -11806.459642226655, -16851.583641956287, 0.008, 0.23800000000000002, 0.9420000000000001, 192.0, 0.0, 0.0, 0.0, 0.0, 0.0, 0.0, 0.0, 0.0, 0.0, 1.644587768301854E9, 0.0, 2022-02-12 00:56:08.301
86.0, -10490.858315331736, -10451.675707301583, -6000.102281582628, -13317.616381361055, -8341.089885364758, -4661.389250920922, -8096.785318468252, -5957.902188051008, -10247.224300768888, -13736.175148031134, -7242.702811086513, -6271.407755781145, -5697.236144213217, -8686.62550289935, -11805.252648026068, -16902.43386059211, 0.01, 0.23600000000000002, 0.9480000000000001, 192.0, 0.0, 40.0, 3.5, 48.0, 14.5, 80.0, 0.0, 0.0, 0.0, 1.644587768308592E9, 0.0, 2022-02-12 00:56:08.308
88.0, -10519.51325172344, -10446.646564799139, -6009.512365998312, -13304.96529399935, -8333.266774805401, -4651.755649060685, -8098.50640279131, -5951.84486530362, -10240.87640534358, -13741.874842867237, -7237.651316839614, -6260.790677164874, -5676.717242803245, -8680.545828407507, -11804.604447436865, -16881.937310926594, 0.01, 0.23600000000000002, 0.9480000000000001, 192.0, 0.0, 0.0, 0.0, 0.0, 0.0, 0.0, 0.0, 0.0, 0.0, 1.644587768316416E9, 0.0, 2022-02-12 00:56:08.316
90.0, -10499.776661369404, -10419.422140052575, -5988.412319232502, -13302.461898620355, -8328.483501491964, -4644.357221645978, -8079.373309537567, -5937.919728507964, -10243.31274548921, -13719.791319345393, -7232.957450504, -6263.986976621983, -5692.7434435777, -8678.914151062269, -11800.58113343491, -16860.613746716233, 0.01, 0.23600000000000002, 0.9480000000000001, 192.0, 0.0, 0.0, 0.0, 0.0, 0.0, 0.0, 0.0, 0.0, 0.0, 1.644587768324415E9, 0.0, 2022-02-12 00:56:08.324
92.0, -10502.637684659683, -10417.365779562686, -5993.463813479401, -13309.659160334964, -8339.301745808334, -4645.608919335476, -8086.727033463363, -5942.233615187838, -10244.229167011878, -13722.42882519112, -7235.930232516555, -6263.025851610405, -5692.296408688594, -8666.821857311948, -11799.86587761234, -16902.612674547752, 0.01, 0.23600000000000002, 0.9480000000000001, 192.0, 0.0, 0.0, 0.0, 0.0, 0.0, 0.0, 0.0, 0.0, 0.0, 1.644587768330989E9, 0.0, 2022-02-12 00:56:08.330
94.0, -10497.072100290312, -10413.409520794097, -5996.570705958689, -13294.549381083178, -8330.249289303934, -4651.06274498257, -8092.449080043922, -5947.419219901469, -10247.403114724531, -13713.041092519892, -7236.131398216653, -6281.24252334148, -5689.837716798511, -8680.81404934097, -11804.582095692409, -16849.460226233034, 0.01, 0.23600000000000002, 0.9480000000000001, 192.0, 0.0, 0.0, 0.0, 0.0, 0.0, 0.0, 0.0, 0.0, 0.0, 1.644587768346048E9, 0.0, 2022-02-12 00:56:08.346
96.0, -10475.010928512924, -10429.68159075756, -5983.405528474514, -13299.690282307898, -8343.392115043654, -4651.979166505238, -8089.565705009188, -5947.50862687929, -10241.010515810314, -13716.505612910463, -7238.6794970845585, -6262.131781832192, -5680.718205060745, -8674.779078338037, -11804.962075348149, -16895.571875044334, 0.01, 0.23600000000000002, 0.9460000000000001, 192.0, 0.0, 40.0, 3.5, 48.0, 14.5, 72.0, 0.0, 0.0, 0.0, 1.64458776835416E9, 0.0, 2022-02-12 00:56:08.354
98.0, -10520.004990101455, -10433.056704170313, -5989.820479133186, -13297.29864565118, -8339.011173130415, -4655.309576429078, -8092.0467486437265, -5951.397830414514, -10230.192271493945, -13717.422034433132, -7227.168348690075, -6264.076383599804, -5687.088452230508, -8678.824744084448, -11805.72203465963, -16877.28814807989, 0.01, 0.23600000000000002, 0.9460000000000001, 192.0, 0.0, 0.0, 0.0, 0.0, 0.0, 0.0, 0.0, 0.0, 0.0, 1.644587768360721E9, 0.0, 2022-02-12 00:56:08.360
100.0, -10522.597792458271, -10419.958581919502, -5981.3044644957145, -13298.148011940482, -8336.351315540232, -4653.4767333837435, -8088.001082897316, -5950.548464125212, -10243.849187356138, -13732.531813684918, -7223.547366088315, -6269.440802269078, -5686.686120830313, -8686.24552324361, -11804.984427092604, -16866.335793296792, 0.01, 0.23600000000000002, 0.9460000000000001, 192.0, 0.0, 0.0, 0.0, 0.0, 0.0, 0.0, 0.0, 0.0, 0.0, 1.644587768368669E9, 0.0, 2022-02-12 00:56:08.368
102.0, -10505.31989399432, -10413.63303823865, -5991.027473333773, -13305.367625399545, -8341.782789442872, -4651.710945571774, -8092.31496957719, -5941.920690765463, -10243.960946078414, -13739.14793004369, -7216.774787518358, -6263.942273133072, -5686.060271985563, -8681.61871214136, -11801.251685768568, -16907.91003798366, 0.01, 0.23600000000000002, 0.9460000000000001, 192.0, 0.0, 0.0, 0.0, 0.0, 0.0, 0.0, 0.0, 0.0, 0.0, 1.644587768376709E9, 0.0, 2022-02-12 00:56:08.376
104.0, -10483.281073961387, -10433.615497781695, -5994.760214657809, -13287.329767624113, -8327.052989846825, -4649.296957170601, -8083.7095479618965, -5942.837112288131, -10233.746198862338, -13716.796185588382, -7251.062363512799, -6276.079270372305, -5670.011719466654, -8681.171677252254, -11802.078700313414, -16848.744970410466, 0.01, 0.23600000000000002, 0.9460000000000001, 192.0, 0.0, 0.0, 0.0, 0.0, 0.0, 0.0, 0.0, 0.0, 0.0, 1.644587768383911E9, 0.0, 2022-02-12 00:56:08.383
106.0, -10494.009911299934, -10426.0606081558, -5987.942932598941, -13295.555209583667, -8337.044219618347, -4660.8751607984495, -8088.895152675528, -5950.637871103033, -10244.810312367716, -13716.170336743635, -7233.918575515578, -6245.747953146452, -5681.947551005787, -8676.991901039113, -11804.582095692409, -16893.426107576623, 0.006, 0.23600000000000002, 0.9460000000000001, 192.0, 0.0, 24.0, 3.5, 48.0, 14.5, 72.0, 0.0, 0.0, 0.0, 1.644587768391578E9, 0.0, 2022-02-12 00:56:08.391
108.0, -10527.023437860422, -10420.405616808608, -5999.007046104318, -13291.666006048443, -8331.813911415806, -4668.430050424344, -8102.954399937917, -5957.544560139723, -10235.73550411886, -13729.782549116917, -7220.865156753678, -6256.342680018268, -5684.093318473497, -8687.72073837766, -11803.553915447465, -16882.87608419372, 0.006, 0.23600000000000002, 0.9460000000000001, 192.0, 0.0, 0.0, 0.0, 0.0, 0.0, 0.0, 0.0, 0.0, 0.0, 1.644587768398417E9, 0.0, 2022-02-12 00:56:08.398
110.0, -10489.092527519766, -10421.411445309097, -5971.737917868843, -13292.157744426459, -8330.405751515122, -4665.010233522682, -8101.859164459606, -5961.3443566971255, -10226.973620292381, -13724.507537425463, -7216.19364216252, -6255.739182917975, -5689.345978420494, -8683.160982508776, -11807.979560849615, -16868.34745029777, 0.006, 0.23600000000000002, 0.9460000000000001, 192.0, 0.0, 0.0, 0.0, 0.0, 0.0, 0.0, 0.0, 0.0, 0.0, 1.644587768406296E9, 0.0, 2022-02-12 00:56:08.406
112.0, -10482.78933558337, -10416.762282462392, -5981.952665084918, -13306.73108181132, -8332.372705027188, -4669.547637647109, -8100.808632470207, -5960.338528196637, -10231.063989527702, -13733.917621841149, -7216.19364216252, -6257.035584096383, -5684.674463829335, -8681.417546441264, -11802.52573520252, -16915.174354931638, 0.006, 0.23600000000000002, 0.9460000000000001, 192.0, 0.0, 0.0, 0.0, 0.0, 0.0, 0.0, 0.0, 0.0, 0.0, 1.644587768413623E9, 0.0, 2022-02-12 00:56:08.413
114.0, -10487.304387963342, -10419.645657497127, -5985.506592453313, -13295.465802605844, -8322.225013044479, -4659.623463108953, -8094.974827167372, -5961.187894485938, -10230.795768594238, -13720.2383542345, -7234.119741215675, -6275.833401183296, -5683.042786484098, -8681.439898185718, -11804.917371859237, -16857.596261214767, 0.006, 0.23600000000000002, 0.9460000000000001, 192.0, 0.0, 0.0, 0.0, 0.0, 0.0, 0.0, 0.0, 0.0, 0.0, 1.644587768420956E9, 0.0, 2022-02-12 00:56:08.420
116.0, -10506.03514981689, -10421.411445309097, -5985.394833731036, -13303.043043976193, -8332.953850383026, -4659.265835197668, -8092.65024574402, -5942.457132632391, -10249.303013003233, -13719.23252573401, -7218.674685797058, -6261.617691709721, -5677.700719559279, -8672.655662614783, -11802.81630788044, -16895.840095977797, 0.01, 0.23600000000000002, 0.9540000000000001, 192.0, 0.0, 40.0, 3.5, 48.0, 14.5, 104.0, 0.0, 0.0, 0.0, 1.644587768429028E9, 0.0, 2022-02-12 00:56:08.429
118.0, -10501.587152670283, -10418.237497596443, -5994.201421046427, -13292.62713106002, -8326.449492746531, -4659.2881869421235, -8096.874725446073, -5955.331737438648, -10242.038696055257, -13726.586249659807, -7224.396732377617, -6255.8956451291615, -5670.5481613335805, -8675.203761482688, -11799.910581101249, -16880.551502770366, 0.01, 0.23600000000000002, 0.9540000000000001, 192.0, 0.0, 0.0, 0.0, 0.0, 0.0, 0.0, 0.0, 0.0, 0.0, 1.644587768436078E9, 0.0, 2022-02-12 00:56:08.436
120.0, -10493.31700722182, -10412.470747526973, -5988.278208765771, -13289.34142462509, -8331.478635248975, -4658.282358441635, -8094.706606233908, -5953.051859504207, -10235.579041907673, -13701.842868547783, -7229.828206280256, -6253.302842772347, -5689.189516209307, -8679.137668506823, -11804.157412547758, -16861.619575216722, 0.01, 0.23600000000000002, 0.9540000000000001, 192.0, 0.0, 0.0, 0.0, 0.0, 0.0, 0.0, 0.0, 0.0, 0.0, 1.644587768443612E9, 0.0, 2022-02-12 00:56:08.443
122.0, -10485.158620495633, -10421.523204031373, -5984.076080808173, -13299.82439277463, -8342.162769098613, -4660.428125909344, -8106.418920328489, -5969.435688189947, -10231.891004072548, -13729.044941549892, -7206.068301924265, -6248.363107247724, -5672.7386322902, -8681.283435974532, -11808.471299227633, -16912.31333164136, 0.01, 0.23600000000000002, 0.9540000000000001, 192.0, 0.0, 0.0, 0.0, 0.0, 0.0, 0.0, 0.0, 0.0, 0.0, 1.644587768451472E9, 0.0, 2022-02-12 00:56:08.451
124.0, -10475.972053524501, -10421.143224375634, -5984.8807436085635, -13286.167476912437, -8320.950963610527, -4652.560311861076, -8102.663827259998, -5958.438629917936, -10222.480919656864, -13710.850621563271, -7219.5464038308155, -6257.728488174497, -5680.785260294111, -8678.489467917618, -11809.633589939307, -16857.19392981457, 0.01, 0.23600000000000002, 0.9540000000000001, 192.0, 0.0, 0.0, 0.0, 0.0, 0.0, 0.0, 0.0, 0.0, 0.0, 1.644587768466008E9, 0.0, 2022-02-12 00:56:08.466
126.0, -10475.681480846582, -10405.63111372365, -5980.4774499508685, -13300.092613708093, -8333.467940505498, -4658.282358441635, -8108.855260474117, -5957.5892636286335, -10226.638344125551, -13704.86035404925, -7214.941944473022, -6268.636139468687, -5688.742481320201, -8679.964683051669, -11807.554877704964, -16897.62823553422, 0.012, 0.234, 0.9540000000000001, 192.0, 0.0, 48.0, 3.5, 40.0, 14.5, 104.0, 0.0, 0.0, 0.0, 1.644587768473203E9, 0.0, 2022-02-12 00:56:08.473
128.0, -10500.089585791777, -10405.742872445926, -5990.446327977936, -13293.811773516152, -8331.992725371449, -4660.226960209246, -8107.804728484718, -5964.56300789869, -10236.249594241333, -13721.780624601917, -7216.372456118162, -6266.8703516567175, -5684.585056851513, -8680.590531896416, -11808.739520161096, -16882.898435938172, 0.012, 0.234, 0.9540000000000001, 192.0, 0.0, 0.0, 0.0, 0.0, 0.0, 0.0, 0.0, 0.0, 0.0, 1.644587768481329E9, 0.0, 2022-02-12 00:56:08.481
130.0, -10491.752385109949, -10429.770997735382, -5986.624179676078, -13305.099404466082, -8331.009248615414, -4660.226960209246, -8094.08075738916, -5957.432801417447, -10234.55086166273, -13716.863240821749, -7219.300534641807, -6262.981148121495, -5680.986425994209, -8685.262046487576, -11804.67150267023, -16863.787694428884, 0.012, 0.234, 0.9540000000000001, 192.0, 0.0, 0.0, 0.0, 0.0, 0.0, 0.0, 0.0, 0.0, 0.0, 1.64458776848909E9, 0.0, 2022-02-12 00:56:08.489
132.0, -10492.020606043412, -10435.560099549306, -5995.766043158298, -13313.526012125732, -8337.446551018542, -4668.474753913254, -8100.048673158726, -5960.2267694743605, -10237.031905297268, -13731.794206117895, -7222.362723632184, -6263.204665566047, -5668.290635143595, -8685.843191843414, -11803.106880558358, -16912.022758963438, 0.012, 0.234, 0.9540000000000001, 192.0, 0.0, 0.0, 0.0, 0.0, 0.0, 0.0, 0.0, 0.0, 0.0, 1.644587768495847E9, 0.0, 2022-02-12 00:56:08.495
134.0, -10486.700890863049, -10431.849709969725, -5996.324836769681, -13296.493982850789, -8327.723542180483, -4664.764364333673, -8102.708530748908, -5958.483333406846, -10230.2146232384, -13713.041092519892, -7233.583299348748, -6271.117183103226, -5687.64724584189, -8685.887895332324, -11803.397453236277, -16856.299860036357, 0.012, 0.234, 0.9540000000000001, 192.0, 0.0, 0.0, 0.0, 0.0, 0.0, 0.0, 0.0, 0.0, 0.0, 1.644587768503899E9, 0.0, 2022-02-12 00:56:08.503
136.0, -10489.964245553523, -10409.54266900333, -5999.632894949066, -13307.982779500817, -8339.07822836378, -4662.618596865964, -8100.071024903182, -5958.75155434031, -10232.047466283735, -13714.628066376217, -7232.018677236877, -6260.522456231411, -5687.177859208329, -8691.967569824168, -11805.677331170718, -16895.080136666315, 0.006, 0.23800000000000002, 0.962, 192.0, 0.0, 24.0, 3.5, 56.0, 15.0, 8.0, 0.0, 0.0, 0.0, 1.644587768512414E9, 0.0, 2022-02-12 00:56:08.512
138.0, -10509.857298118746, -10425.635925011149, -6000.459909493913, -13301.746642797785, -8334.429065517077, -4669.6817481138405, -8112.99033319835, -5969.435688189947, -10236.69662913044, -13726.385083959709, -7224.933174244545, -6265.708060945041, -5688.854240042477, -8684.747956365103, -11809.991217850593, -16884.373651072223, 0.006, 0.23800000000000002, 0.962, 192.0, 0.0, 0.0, 0.0, 0.0, 0.0, 0.0, 0.0, 0.0, 0.0, 1.644587768518939E9, 0.0, 2022-02-12 00:56:08.518
140.0, -10490.679501376093, -10433.280221614865, -5991.608618689611, -13300.383186386012, -8333.736161438961, -4671.358128947989, -8103.9602284384055, -5968.921598067474, -10236.629573897073, -13722.451176935576, -7225.424912622561, -6269.932540647094, -5679.22063818224, -8687.988959311124, -11806.213773037645, -16864.212377573538, 0.006, 0.23800000000000002, 0.962, 192.0, 0.0, 0.0, 0.0, 0.0, 0.0, 0.0, 0.0, 0.0, 0.0, 1.644587768525376E9, 0.0, 2022-02-12 00:56:08.525
142.0, -10504.336417238286, -10437.504701316919, -5997.308313525715, -13311.469651635845, -8347.057801134324, -4669.25706496919, -8109.168184896492, -5958.930368295953, -10245.570271679197, -13736.130444542223, -7219.389941619628, -6270.290168558379, -5684.830926040522, -8686.983130810635, -11808.71716841664, -16910.905171740673, 0.006, 0.23800000000000002, 0.962, 192.0, 0.0, 0.0, 0.0, 0.0, 0.0, 0.0, 0.0, 0.0, 0.0, 1.644587768533644E9, 0.0, 2022-02-12 00:56:08.533
144.0, -10493.69698687756, -10448.322945633287, -6001.756310672321, -13297.768032284741, -8331.724504437983, -4663.535018388631, -8103.356731338112, -5958.259815962293, -10241.368143721598, -13723.747578113984, -7235.19262494953, -6276.883933172695, -5690.284751687616, -8691.744052379616, -11807.107842815858, -16854.064685590827, 0.006, 0.23800000000000002, 0.962, 192.0, 0.0, 0.0, 0.0, 0.0, 0.0, 0.0, 0.0, 0.0, 0.0, 1.644587768541443E9, 0.0, 2022-02-12 00:56:08.541
146.0, -10489.07017577531, -10431.648544269627, -5997.308313525715, -13312.25196269178, -8347.102504623235, -4676.7225476172625, -8106.933010450961, -5968.27339747827, -10247.336059491165, -13728.19557526059, -7237.852482539712, -6267.540903990377, -5691.134117976919, -8695.521497192562, -11808.918334116737, -16896.734165756006, 0.004, 0.23600000000000002, 0.96, 192.0, 0.0, 16.0, 3.5, 48.0, 15.0, 0.0, 0.0, 0.0, 0.0, 1.644587768548111E9, 0.0, 2022-02-12 00:56:08.548
148.0, -10514.394702243175, -10430.553308791317, -6008.014799119806, -13307.178116700426, -8340.352277797732, -4679.896495329916, -8115.449025088433, -5979.315159239192, -10249.191254280955, -13744.62410743524, -7244.8485785542225, -6281.019005896927, -5695.2021354677845, -8705.95976185319, -11812.069930084936, -16891.414450575645, 0.004, 0.23600000000000002, 0.96, 192.0, 0.0, 0.0, 0.0, 0.0, 0.0, 0.0, 0.0, 0.0, 0.0, 1.644587768556013E9, 0.0, 2022-02-12 00:56:08.556
150.0, -10499.106109035743, -10441.125683918677, -5997.017740847796, -13304.518259110244, -8334.764341683906, -4669.033547524637, -8109.257591874313, -5966.440554432936, -10242.172806521989, -13725.736883370506, -7240.199415707519, -6275.140497105182, -5680.025300982631, -8707.524383965061, -11810.617066695342, -16864.681764207096, 0.004, 0.23600000000000002, 0.96, 192.0, 0.0, 0.0, 0.0, 0.0, 0.0, 0.0, 0.0, 0.0, 0.0, 1.644587768564008E9, 0.0, 2022-02-12 00:56:08.564
152.0, -10500.178992769599, -10435.046009426835, -6005.109072340617, -13313.257791192269, -8346.387248800665, -4675.984940050237, -8123.853281003629, -5979.605731917111, -10250.577062437185, -13736.800996875883, -7233.382133648651, -6270.960720892039, -5698.219620969251, -8701.57881993995, -11814.036883597004, -16914.54850608689, 0.004, 0.23600000000000002, 0.96, 192.0, 0.0, 0.0, 0.0, 0.0, 0.0, 0.0, 0.0, 0.0, 0.0, 1.644587768573827E9, 0.0, 2022-02-12 00:56:08.573
154.0, -10513.254763275954, -10442.466788585996, -6004.416168262502, -13307.580448100622, -8334.69728645054, -4671.805163837095, -8113.03503668726, -5971.179124257461, -10238.462416942408, -13717.578496644319, -7231.035200480843, -6299.906229961662, -5700.499498903692, -8706.29503802002, -11816.428520253721, -16860.52433973841, 0.005, 0.23500000000000001, 0.9570000000000001, 192.0, 0.0, 24.0, 3.5, 40.0, 14.5, 104.0, 0.0, 0.0, 0.0, 1.64458776857776E9, 0.0, 2022-02-12 00:56:08.577
156.0, -10513.545335953873, -10449.462884600507, -6004.930258384974, -13315.224744704336, -8348.085981379269, -4680.008254052193, -8108.944667451939, -5970.687385879443, -10252.253443271333, -13742.701857412083, -7231.728104558958, -6274.29113081588, -5690.955304021276, -8702.405834484796, -11814.707435930663, -16900.265741379946, 0.005, 0.23500000000000001, 0.9570000000000001, 192.0, 0.0, 0.0, 0.0, 0.0, 0.0, 0.0, 0.0, 0.0, 0.0, 1.6445877685937E9, 0.0, 2022-02-12 00:56:08.593
158.0, -10522.195461058076, -10463.723297562992, -6021.470549281901, -13312.743701069798, -8349.874120935694, -4683.293960487123, -8120.567574568699, -5975.7835836152535, -10263.429315498986, -13756.87286339675, -7247.597843122226, -6279.856715185251, -5715.6986851333, -8714.743997424126, -11821.591773222897, -16895.124840155226, 0.005, 0.23500000000000001, 0.9570000000000001, 192.0, 0.0, 0.0, 0.0, 0.0, 0.0, 0.0, 0.0, 0.0, 0.0, 1.64458776860088E9, 0.0, 2022-02-12 00:56:08.600
160.0, -10490.478335675996, -10450.133436934166, -6007.746578186343, -13309.413291145956, -8342.833321432272, -4667.02189052366, -8110.5316413082655, -5960.159714240995, -10251.158207793023, -13735.951630586582, -7258.304328716318, -6291.189049624092, -5710.915411819865, -8709.044302588023, -11820.988276122604, -16865.62053747422, 0.005, 0.23500000000000001, 0.9570000000000001, 192.0, 0.0, 0.0, 0.0, 0.0, 0.0, 0.0, 0.0, 0.0, 0.0, 1.644587768608344E9, 0.0, 2022-02-12 00:56:08.608
162.0, -10517.635705189194, -10444.098465931233, -6007.724226441887, -13311.760224313764, -8347.929519168081, -4675.627312138952, -8121.483996091366, -5966.440554432936, -10255.628556684083, -13741.226642278034, -7236.913709272589, -6275.341662805279, -5704.321647205549, -8698.181354782744, -11817.970790621137, -16910.614599062756, 0.005, 0.23500000000000001, 0.9570000000000001, 192.0, 0.0, 0.0, 0.0, 0.0, 0.0, 0.0, 0.0, 0.0, 0.0, 1.644587768616343E9, 0.0, 2022-02-12 00:56:08.616
164.0, -10523.089530836289, -10441.259794385409, -6006.941915385952, -13307.602799845077, -8340.55344349783, -4670.464059169777, -8114.286734376757, -5964.764173598787, -10244.69855364544, -13739.706723655072, -7236.600784850215, -6285.019968154427, -5697.303199446583, -8710.72068342217, -11816.674389442729, -16858.780903670897, 0.006500000000000001, 0.2375, 0.9535, 192.0, 0.0, 32.0, 3.5, 64.0, 14.5, 88.0, 0.0, 0.0, 0.0, 1.644587768624329E9, 0.0, 2022-02-12 00:56:08.624
166.0, -10494.568704911317, -10449.775809022882, -6001.6669036944995, -13326.892355310007, -8353.495103537452, -4675.515553416676, -8111.135138408558, -5971.737917868843, -10250.532358948274, -13740.265517266454, -7243.887453542645, -6290.540849034888, -5702.578211138036, -8702.249372273609, -11818.015494110048, -16898.432898334613, 0.006500000000000001, 0.2375, 0.9535, 192.0, 0.0, 0.0, 0.0, 0.0, 0.0, 0.0, 0.0, 0.0, 0.0, 1.644587768630985E9, 0.0, 2022-02-12 00:56:08.630
168.0, -10506.705702150548, -10460.817570783804, -6020.107092870127, -13319.985666273316, -8350.008231402426, -4672.587474893031, -8117.79595825624, -5965.859409077098, -10253.348678749642, -13750.279098782434, -7245.943814032533, -6297.827517727318, -5697.861993057966, -8714.051093346012, -11818.015494110048, -16896.085965166803, 0.006500000000000001, 0.2375, 0.9535, 192.0, 0.0, 0.0, 0.0, 0.0, 0.0, 0.0, 0.0, 0.0, 0.0, 1.644587768638942E9, 0.0, 2022-02-12 00:56:08.638
170.0, -10515.93697261059, -10445.573681065283, -6005.936086885463, -13314.174212714937, -8341.425161531588, -4663.132686988436, -8108.408225585012, -5958.796257829221, -10252.119332804601, -13740.779607388928, -7246.010869265899, -6305.0247794419265, -5702.064121015564, -8709.983075855145, -11819.647171455284, -16863.653583962154, 0.006500000000000001, 0.2375, 0.9535, 192.0, 0.0, 0.0, 0.0, 0.0, 0.0, 0.0, 0.0, 0.0, 0.0, 1.644587768645914E9, 0.0, 2022-02-12 00:56:08.645
172.0, -10531.717304196038, -10445.953660721025, -6004.4832234958685, -13325.998285531794, -8351.930481425581, -4673.101565015503, -8112.632705287065, -5966.976996299863, -10251.381725237576, -13746.278136524932, -7225.022581222365, -6283.254180342457, -5710.960115308776, -8703.590476940928, -11815.646209197785, -16914.503802597977, 0.006500000000000001, 0.2375, 0.9535, 192.0, 0.0, 0.0, 0.0, 0.0, 0.0, 0.0, 0.0, 0.0, 0.0, 1.644587768653101E9, 0.0, 2022-02-12 00:56:08.653
174.0, -10512.874783620213, -10462.583358595772, -6016.016723634806, -13318.711616839364, -8349.98587965797, -4676.476678428255, -8120.679333290975, -5970.642682390533, -10254.689783416961, -13751.955479616581, -7242.367534919684, -6290.853773457262, -5709.775472852644, -8714.431073001751, -11821.412959267254, -16866.29108980788, 0.00525, 0.23775000000000002, 0.95075, 192.0, 0.0, 16.0, 3.5, 56.0, 14.5, 80.0, 0.0, 0.0, 0.0, 1.644587768660817E9, 0.0, 2022-02-12 00:56:08.660
176.0, -10513.634742931694, -10461.868102773202, -6009.937049142963, -13326.981762287827, -8360.155923385135, -4676.5437336616205, -8126.84841476064, -5969.815667845687, -10259.808332897226, -13749.139159815213, -7246.703773344014, -6292.6419130136865, -5712.055350787085, -8713.000561356612, -11824.698665702184, -16906.47952633852, 0.00525, 0.23775000000000002, 0.95075, 192.0, 0.0, 0.0, 0.0, 0.0, 0.0, 0.0, 0.0, 0.0, 0.0, 1.644587768668682E9, 0.0, 2022-02-12 00:56:08.668
178.0, -10532.700780952071, -10455.49785560344, -6030.053619152739, -13323.629000619532, -8350.298804080345, -4673.950931304805, -8125.4402548599555, -5971.022662046274, -10266.625614956096, -13758.325726786343, -7244.6697645985805, -6296.598171782276, -5711.965943809265, -8709.603096199406, -11823.826947668427, -16901.5397908139, 0.00525, 0.23775000000000002, 0.95075, 192.0, 0.0, 0.0, 0.0, 0.0, 0.0, 0.0, 0.0, 0.0, 0.0, 1.644587768676638E9, 0.0, 2022-02-12 00:56:08.676
180.0, -10523.067179091833, -10454.246157913944, -6012.686313710966, -13318.4433959059, -8354.880911693683, -4671.02285278116, -8119.472339090388, -5969.256874234304, -10264.815123655215, -13738.499729454486, -7259.064288027798, -6308.891631232695, -5701.147699492896, -8712.218250300677, -11823.402264523776, -16872.348412555268, 0.00525, 0.23775000000000002, 0.95075, 192.0, 0.0, 0.0, 0.0, 0.0, 0.0, 0.0, 0.0, 0.0, 0.0, 1.64458776868322E9, 0.0, 2022-02-12 00:56:08.683
182.0, -10530.152682084166, -10472.753402322936, -6018.900098669541, -13328.524032655245, -8368.314310111322, -4677.817783095573, -8128.681257805974, -5981.617388918089, -10266.111524833623, -13749.42973249313, -7265.613349153203, -6293.670093258631, -5719.811406113077, -8706.652665931304, -11826.307991302967, -16923.891535269206, 0.00525, 0.23775000000000002, 0.95075, 192.0, 0.0, 0.0, 0.0, 0.0, 0.0, 0.0, 0.0, 0.0, 0.0, 1.644587768691287E9, 0.0, 2022-02-12 00:56:08.691
184.0, -10515.624048188216, -10462.35984115122, -6022.945764415952, -13315.716483082353, -8361.65349026364, -4675.560256905586, -8130.402342129033, -5974.08485103665, -10264.301033532744, -13744.489996968508, -7245.943814032533, -6305.427110842123, -5726.271060260661, -8710.519517722072, -11829.705456460173, -16871.700211966065, 0.0016250000000000001, 0.236875, 0.952375, 192.0, 127.5, 120.0, 3.5, 48.0, 14.5, 104.0, 0.0, 0.0, 0.0, 1.644587768699287E9, 0.0, 2022-02-12 00:56:08.699
186.0, -10533.281926307909, -10441.30449787432, -6012.216927077405, -13327.808776832675, -8362.838132719771, -4671.78281209264, -8121.953382724927, -5975.045976048229, -10267.720850434405, -13745.071142324347, -7251.777619335368, -6294.944142692583, -5710.356618208482, -8709.334875265942, -11830.755988449573, -16906.188953660603, 0.0016250000000000001, 0.236875, 0.952375, 192.0, 0.0, 0.0, 0.0, 0.0, 0.0, 0.0, 0.0, 0.0, 0.0, 1.644587768712889E9, 0.0, 2022-02-12 00:56:08.712
188.0, -10546.670621236637, -10473.602768612238, -6016.5755172461895, -13321.282067451724, -8359.015984417914, -4678.3095214735895, -8124.277964148279, -5981.192705773438, -10260.50123697534, -13758.43748550862, -7244.28978494284, -6303.348398607779, -5719.721999135256, -8704.283381019042, -11820.29537204449, -16899.036395434905, 0.0016250000000000001, 0.236875, 0.952375, 192.0, 0.0, 0.0, 0.0, 0.0, 0.0, 0.0, 0.0, 0.0, 0.0, 1.644587768720988E9, 0.0, 2022-02-12 00:56:08.720
190.0, -10524.788263414892, -10453.463846858007, -6009.8252904206865, -13320.320942440147, -8354.567987271308, -4672.989806293226, -8119.271173390291, -5976.096508037628, -10262.959928865424, -13745.138197557711, -7247.620194866681, -6301.381445095712, -5711.004818797686, -8713.1570235678, -11823.022284868037, -16872.81779918883, 0.0016250000000000001, 0.236875, 0.952375, 192.0, 0.0, 0.0, 0.0, 0.0, 0.0, 0.0, 0.0, 0.0, 0.0, 1.64458776872894E9, 0.0, 2022-02-12 00:56:08.728
192.0, -10500.26839974742, -10452.167445679599, -6019.682409725477, -13330.893317567507, -8361.228807118989, -4676.320216217067, -8119.695856534941, -5979.628083661567, -10265.083344588678, -13760.404439020687, -7248.111933244698, -6298.051035171871, -5713.03882754312, -8704.596305441417, -11822.396436023288, -16922.326913157336, 0.0016250000000000001, 0.236875, 0.952375, 192.0, 0.0, 0.0, 0.0, 0.0, 0.0, 0.0, 0.0, 0.0, 0.0, 1.644587768736064E9, 0.0, 2022-02-12 00:56:08.736
194.0, -10537.484054265506, -10443.852596742225, -6013.110996855617, -13313.570715614644, -8352.578682014786, -4669.368823691467, -8120.32170537969, -5974.688348136944, -10250.711172903917, -13734.476415452531, -7252.157598991108, -6311.283267889413, -5707.383836195927, -8710.63127644435, -11824.028113368526, -16868.2803950644, 0.0038125, 0.23543750000000002, 0.9581875, 192.0, 0.0, 24.0, 3.5, 40.0, 15.0, 16.0, 0.0, 0.0, 0.0, 1.644587768743512E9, 0.0, 2022-02-12 00:56:08.743
196.0, -10522.821309902825, -10439.851634484725, -6007.254839808326, -13323.4948901528, -8360.89353095216, -4668.944140546816, -8112.722112264885, -5967.535789911246, -10257.349641007142, -13723.211136247057, -7239.350049418217, -6300.085043917304, -5709.84252808601, -8707.256163031598, -11824.653962213275, -16901.00334894697, 0.0038125, 0.23543750000000002, 0.9581875, 192.0, 0.0, 0.0, 0.0, 0.0, 0.0, 0.0, 0.0, 0.0, 0.0, 1.644587768751564E9, 0.0, 2022-02-12 00:56:08.751
198.0, -10524.430635503608, -10453.597957324739, -6023.079874882684, -13319.426872661934, -8356.534940783375, -4668.3853469354335, -8124.277964148279, -5979.762194128299, -10252.476960715885, -13748.043924336902, -7258.8184188387895, -6299.4368433281, -5701.639437870913, -8705.848003130914, -11824.408093024265, -16898.67876752362, 0.0038125, 0.23543750000000002, 0.9581875, 192.0, 0.0, 0.0, 0.0, 0.0, 0.0, 0.0, 0.0, 0.0, 0.0, 1.64458776875871E9, 0.0, 2022-02-12 00:56:08.758
200.0, -10517.792167400381, -10456.458980615018, -6009.601772976133, -13324.478366908834, -8348.711830224018, -4662.909169543883, -8111.537469808754, -5966.842885833131, -10259.495408474852, -13740.086703310813, -7252.939910047044, -6304.0860061748035, -5719.185557268329, -8699.835383872436, -11825.749197691584, -16865.24055781848, 0.0038125, 0.23543750000000002, 0.9581875, 192.0, 0.0, 0.0, 0.0, 0.0, 0.0, 0.0, 0.0, 0.0, 0.0, 1.644587768765181E9, 0.0, 2022-02-12 00:56:08.765
202.0, -10531.22556581802, -10461.577530095283, -6017.648400980044, -13333.709637368875, -8362.234635619478, -4676.767251106173, -8120.791092013252, -5977.616426660589, -10263.943405621458, -13749.161511559667, -7234.790293549335, -6308.176375410125, -5719.967868324265, -8705.020988586068, -11826.15152909178, -16923.01981723545, 0.0038125, 0.23543750000000002, 0.9581875, 192.0, 0.0, 0.0, 0.0, 0.0, 0.0, 0.0, 0.0, 0.0, 0.0, 1.644587768773117E9, 0.0, 2022-02-12 00:56:08.773
204.0, -10523.000123858468, -10452.882701502169, -6028.511348785323, -13316.096462738093, -8355.193836116057, -4680.075309285558, -8124.792054270752, -5983.450231963424, -10262.423486998498, -13736.488072453509, -7257.454962427016, -6311.462081845055, -5718.850281101499, -8717.20268931421, -11828.72197970414, -16872.86250267774, 0.00690625, 0.23571875000000003, 0.95409375, 192.0, 0.0, 40.0, 3.5, 48.0, 14.5, 88.0, 0.0, 0.0, 0.0, 1.644587768781222E9, 0.0, 2022-02-12 00:56:08.781
206.0, -10520.139100568187, -10455.87783525918, -6021.314087070714, -13324.791291331208, -8368.26960662241, -4676.633140639441, -8127.742484538852, -5982.265589507293, -10269.106658590634, -13730.877784595226, -7252.381116435661, -6299.369788094734, -5706.959153051276, -8702.316427506976, -11835.092226873903, -16905.652511793676, 0.00690625, 0.23571875000000003, 0.95409375, 192.0, 0.0, 0.0, 0.0, 0.0, 0.0, 0.0, 0.0, 0.0, 0.0, 1.644587768788324E9, 0.0, 2022-02-12 00:56:08.788
208.0, -10534.913603653145, -10473.401602912141, -6028.824273207698, -13328.993419288805, -8371.08592642378, -4682.958684320293, -8132.816330530207, -5991.273342522782, -10275.65571971604, -13765.143008845213, -7251.062363512799, -6307.036436442904, -5722.985353825731, -8709.893668877325, -11834.86870942935, -16909.25114265098, 0.00690625, 0.23571875000000003, 0.95409375, 192.0, 0.0, 0.0, 0.0, 0.0, 0.0, 0.0, 0.0, 0.0, 0.0, 1.644587768795918E9, 0.0, 2022-02-12 00:56:08.795
210.0, -10531.51613849594, -10465.31027141932, -6017.983677146874, -13324.50071865329, -8362.435801319576, -4680.790565108128, -8118.242993145346, -5981.438574962446, -10266.379745767086, -13745.741694658005, -7255.420953681583, -6319.866337760251, -5712.480033931736, -8721.762445183092, -11832.43236928372, -16876.95287191306, 0.00690625, 0.23571875000000003, 0.95409375, 192.0, 0.0, 0.0, 0.0, 0.0, 0.0, 0.0, 0.0, 0.0, 0.0, 1.644587768803793E9, 0.0, 2022-02-12 00:56:08.803
212.0, -10523.089530836289, -10462.02456498439, -6023.951592916441, -13344.527881685244, -8371.84588573526, -4682.757518620196, -8126.960173482916, -5987.18297328746, -10271.833571414181, -13762.10317159929, -7251.330584446262, -6317.809977270363, -5721.688952647323, -8710.318352021975, -11827.38087503682, -16927.803090548885, 0.00690625, 0.23571875000000003, 0.95409375, 192.0, 0.0, 0.0, 0.0, 0.0, 0.0, 0.0, 0.0, 0.0, 0.0, 1.64458776881207E9, 0.0, 2022-02-12 00:56:08.812
214.0, -10526.218775060031, -10453.687364302561, -6029.964212174918, -13336.861233337073, -8351.282280836378, -4676.946065061816, -8120.791092013252, -5988.702891910421, -10264.1222195771, -13744.981735346526, -7249.408334423106, -6320.112206949259, -5708.1214437629515, -8707.81495664298, -11827.20206108118, -16878.316328324836, 0.00690625, 0.23571875000000003, 0.95409375, 192.0, 0.0, 0.0, 3.5, 80.0, 14.5, 104.0, 0.0, 0.0, 0.0, 1.644587768820195E9, 0.0, 2022-02-12 00:56:08.820
216.0, -10530.376199528719, -10470.317062177308, -6027.147892373549, -13334.044913535705, -8370.102449667746, -4690.960608835293, -8119.964077468405, -5993.799089646232, -10268.056126601236, -13746.76987490295, -7245.921462288077, -6312.333799878812, -5719.3867229684265, -8719.147291081821, -11828.878441915327, -16914.257933408968, 0.00690625, 0.23571875000000003, 0.95409375, 192.0, 0.0, 0.0, 0.0, 0.0, 0.0, 0.0, 0.0, 0.0, 0.0, 1.644587768825999E9, 0.0, 2022-02-12 00:56:08.825
218.0, -10552.817350961846, -10473.535713378873, -6042.235319880881, -13324.411311675467, -8369.722470012006, -4693.307542003101, -8125.775531026785, -6002.739787428354, -10274.627539471096, -13761.656136710184, -7236.779598805857, -6302.431977085112, -5718.380894467938, -8718.119110836877, -11834.19815709569, -16916.44840436559, 0.00690625, 0.23571875000000003, 0.95409375, 192.0, 0.0, 0.0, 0.0, 0.0, 0.0, 0.0, 0.0, 0.0, 0.0, 1.644587768841477E9, 0.0, 2022-02-12 00:56:08.841
220.0, -10521.636667446694, -10456.704849804026, -6031.461779053424, -13316.297628438191, -8361.65349026364, -4685.819707610573, -8126.401379871533, -5996.213078047404, -10273.599359226151, -13744.19942429059, -7243.842750053734, -6320.983924983016, -5718.693818890312, -8717.560317225494, -11837.640325741808, -16878.517494024934, 0.00690625, 0.23571875000000003, 0.95409375, 192.0, 0.0, 0.0, 0.0, 0.0, 0.0, 0.0, 0.0, 0.0, 0.0, 1.644587768848106E9, 0.0, 2022-02-12 00:56:08.848
222.0, -10536.27706006492, -10468.506570876429, -6031.350020331147, -13333.620230391054, -8369.387193845176, -4690.535925690642, -8127.049580460737, -5999.722301926888, -10277.689728461472, -13755.420000007154, -7230.319944658273, -6307.528174820921, -5715.095188033008, -8711.950029367212, -11834.846357684894, -16931.692294084107, 0.00690625, 0.23571875000000003, 0.95409375, 192.0, 0.0, 0.0, 0.0, 0.0, 0.0, 0.0, 0.0, 0.0, 0.0, 1.644587768856201E9, 0.0, 2022-02-12 00:56:08.856
224.0, -10526.285830293398, -10461.64458532865, -6038.502578556845, -13326.512375654267, -8351.684612236573, -4683.428070953854, -8123.048618203237, -5998.738825170854, -10269.352527779643, -13751.307279027376, -7246.189683221542, -6320.425131371633, -5700.834775070522, -8717.046227103023, -11832.119444861346, -16881.82555220432, -0.008, 0.242, 0.9540000000000001, 192.0, 127.5, 96.0, 3.5, 72.0, 14.5, 104.0, 0.0, 0.0, 0.0, 1.644587768864078E9, 0.0, 2022-02-12 00:56:08.864
226.0, -10497.675597390604, -10449.284070644864, -6027.214947606915, -13338.269393237757, -8365.60974903223, -4682.422242453366, -8126.244917660346, -5991.85448787862, -10261.88704513157, -13740.645496922196, -7252.3587646912065, -6303.9071922191615, -5708.434368185326, -8703.568125196472, -11828.878441915327, -16908.35707287277, -0.008, 0.242, 0.9540000000000001, 192.0, 0.0, 0.0, 0.0, 0.0, 0.0, 0.0, 0.0, 0.0, 0.0, 1.644587768871346E9, 0.0, 2022-02-12 00:56:08.871
228.0, -10533.438388519096, -10465.64554758615, -6033.316973843214, -13328.68049486643, -8370.862408979227, -4699.342513006033, -8141.533510867776, -6005.623162463089, -10275.141629593567, -13752.402514505688, -7225.804892278301, -6309.2492591439795, -5729.579118440047, -8710.653628188806, -11830.532471005019, -16916.604866576778, -0.008, 0.242, 0.9540000000000001, 192.0, 0.0, 0.0, 0.0, 0.0, 0.0, 0.0, 0.0, 0.0, 0.0, 1.644587768878648E9, 0.0, 2022-02-12 00:56:08.878
230.0, -10524.676504692616, -10468.350108665241, -6028.5560522742335, -13320.96914302935, -8360.200626874046, -4692.949914091815, -8132.928089252483, -6004.4832234958685, -10271.297129547254, -13747.753351658983, -7237.338392417239, -6314.837195257806, -5717.665638645368, -8726.67982896326, -11833.77347395104, -16886.34060458429, -0.008, 0.242, 0.9540000000000001, 192.0, 0.0, 0.0, 0.0, 0.0, 0.0, 0.0, 0.0, 0.0, 0.0, 1.644587768887367E9, 0.0, 2022-02-12 00:56:08.887
232.0, -10528.789225672392, -10449.239367155955, -6037.161473889527, -13330.312172211668, -8368.828400233793, -4695.140385048436, -8137.554900354732, -6009.355903787125, -10270.872446402604, -13759.420962264654, -7228.241232423929, -6309.62923879972, -5714.089359532519, -8709.513689221583, -11834.041694884503, -16936.453215653088, -0.008, 0.242, 0.9540000000000001, 192.0, 0.0, 0.0, 0.0, 0.0, 0.0, 0.0, 0.0, 0.0, 0.0, 1.644587768893743E9, 0.0, 2022-02-12 00:56:08.893
234.0, -10517.523946466918, -10454.983765480967, -6038.10024715665, -13318.577506372632, -8349.315327324312, -4685.26091399919, -8119.807615257218, -5996.324836769681, -10263.630481199085, -13751.351982516288, -7241.786389563846, -6310.210384155558, -5697.124385490941, -8712.844099145424, -11827.58204073692, -16883.27841559391, -0.008, 0.242, 0.9540000000000001, 192.0, 0.0, 0.0, 3.5, 40.0, 14.5, 88.0, 0.0, 0.0, 0.0, 1.644587768900339E9, 0.0, 2022-02-12 00:56:08.900
236.0, -10512.159527797643, -10437.817625739292, -6026.343229573158, -13334.4472449359, -8357.853693706238, -4678.890666829428, -8123.495653092344, -5983.204362774416, -10258.690745674461, -13742.411284734164, -7233.203319693008, -6301.761424751452, -5702.265286715661, -8706.987942098134, -11820.161261577758, -16911.553372329876, -0.008, 0.242, 0.9540000000000001, 192.0, 0.0, 0.0, 0.0, 0.0, 0.0, 0.0, 0.0, 0.0, 0.0, 1.644587768908259E9, 0.0, 2022-02-12 00:56:08.908
238.0, -10537.37229554323, -10477.089640747266, -6037.139122145071, -13333.039085035216, -8360.379440829687, -4680.790565108128, -8122.981562969871, -5987.495897709835, -10258.64604218555, -13748.401552248188, -7226.251927167407, -6311.752654522974, -5719.453778201792, -8706.406796742296, -11820.496537744588, -16916.046072965393, -0.008, 0.242, 0.9540000000000001, 192.0, 0.0, 0.0, 0.0, 0.0, 0.0, 0.0, 0.0, 0.0, 0.0, 1.644587768916752E9, 0.0, 2022-02-12 00:56:08.916
240.0, -10522.642495947182, -10453.64266081365, -6033.4287325654905, -13326.221802976348, -8357.2725483504, -4681.461117441788, -8126.222565915891, -5984.791336630743, -10255.628556684083, -13735.1916712751, -7239.9088430296, -6299.548602050377, -5710.356618208482, -8706.876183375858, -11823.402264523776, -16880.90913068165, -0.008, 0.242, 0.9540000000000001, 192.0, 0.0, 0.0, 0.0, 0.0, 0.0, 0.0, 0.0, 0.0, 0.0, 1.644587768924824E9, 0.0, 2022-02-12 00:56:08.924
242.0, -10521.770777913425, -10451.027506712378, -6040.067200668717, -13336.615364148065, -8375.13159217019, -4690.267704757179, -8136.526720109788, -5992.413281490002, -10261.909396876026, -13745.294659768899, -7230.565813847282, -6298.900401461173, -5714.022304299153, -8707.189107798233, -11826.106825602868, -16933.972172018548, -0.008, 0.242, 0.9540000000000001, 192.0, 0.0, 0.0, 0.0, 0.0, 0.0, 0.0, 0.0, 0.0, 0.0, 1.644587768931322E9, 0.0, 2022-02-12 00:56:08.931
244.0, -10516.384007499697, -10458.090657960256, -6049.924319973507, -13325.193622731404, -8367.55435079984, -4690.938257090838, -8126.356676382623, -5996.660112936511, -10266.625614956096, -13746.166377802656, -7244.088619242742, -6310.880936489218, -5716.145720022407, -8714.364017768386, -11832.231203583624, -16886.20649411756, -0.002, 0.24, 0.9480000000000001, 192.0, 127.5, 120.0, 3.5, 64.0, 14.5, 80.0, 0.0, 0.0, 0.0, 1.644587768938915E9, 0.0, 2022-02-12 00:56:08.938
246.0, -10515.154661554654, -10470.674690088594, -6041.296546613758, -13336.280087981235, -8369.834228734282, -4694.067501314581, -8128.122464194592, -5995.0954908246395, -10266.782077167283, -13754.43652325112, -7244.110970987198, -6299.749767750474, -5710.17780425284, -8714.118148579377, -11831.337133805411, -16915.219058420545, -0.002, 0.24, 0.9480000000000001, 192.0, 0.0, 0.0, 0.0, 0.0, 0.0, 0.0, 0.0, 0.0, 0.0, 1.644587768947047E9, 0.0, 2022-02-12 00:56:08.947
248.0, -10530.89028965119, -10466.561969108818, -6051.108962429638, -13336.63771589252, -8369.387193845176, -4693.799280381118, -8130.759970040318, -6001.264572294303, -10264.971585866402, -13754.592985462306, -7240.646450596625, -6310.277439388924, -5696.967923279753, -8710.228945044153, -11828.990200637603, -16919.041206722406, -0.002, 0.24, 0.9480000000000001, 192.0, 0.0, 0.0, 0.0, 0.0, 0.0, 0.0, 0.0, 0.0, 0.0, 1.644587768960915E9, 0.0, 2022-02-12 00:56:08.960
250.0, -10522.79895815837, -10457.26364341541, -6034.4792645548905, -13335.58718390312, -8361.340565841267, -4684.433899454343, -8123.182728669969, -5996.570705958689, -10256.3214607622, -13734.05173230788, -7239.417104651583, -6313.741959779497, -5703.31581870506, -8712.77704391206, -11829.548994248986, -16882.227883604515, -0.002, 0.24, 0.9480000000000001, 192.0, 0.0, 0.0, 0.0, 0.0, 0.0, 0.0, 0.0, 0.0, 0.0, 1.644587768968649E9, 0.0, 2022-02-12 00:56:08.968
252.0, -10536.008839131457, -10467.768963309403, -6039.620165779611, -13341.085713039127, -8376.763269515428, -4695.922696104371, -8130.759970040318, -5990.647493678033, -10276.348623794154, -13760.762066931971, -7227.034238223343, -6305.829442242318, -5716.257478744684, -8704.797471141514, -11829.012552382059, -16934.06157899637, -0.002, 0.24, 0.9480000000000001, 192.0, 0.0, 0.0, 0.0, 0.0, 0.0, 0.0, 0.0, 0.0, 0.0, 1.644587768976927E9, 0.0, 2022-02-12 00:56:08.976
254.0, -10548.458760793063, -10476.88847504717, -6046.392744349569, -13326.53472739872, -8367.353185099744, -4690.960608835293, -8131.631688074075, -5991.13923205605, -10275.342795293665, -13756.090552340813, -7241.920500030577, -6321.162738938659, -5715.408112455382, -8715.861584646891, -11830.599526238386, -16883.993671416483, -0.002, 0.24, 0.9460000000000001, 192.0, 127.5, 120.0, 3.5, 64.0, 14.5, 72.0, 0.0, 0.0, 0.0, 1.644587768983265E9, 0.0, 2022-02-12 00:56:08.983
0.0, -10521.077873835311, -10466.830190042281, -6035.820369222209, -13331.675628623443, -8372.315272368822, -4688.479565200754, -8122.13219668057, -5987.630008176567, -10276.259216816332, -13753.006011605981, -7237.785427306346, -6307.170546909636, -5707.048560029097, -8710.743035166626, -11829.683104715717, -16906.30071238288, -0.002, 0.24, 0.9460000000000001, 192.0, 0.0, 0.0, 0.0, 0.0, 0.0, 0.0, 0.0, 0.0, 0.0, 1.644587768991186E9, 0.0, 2022-02-12 00:56:08.991
2.0, -10538.489882765994, -10472.708698834027, -6047.622090294611, -13334.06726528016, -8378.551409071852, -4687.764309378184, -8131.363467140612, -5992.480336723368, -10268.1231818346, -13743.99825859049, -7254.370421692183, -6312.020875456438, -5707.786167596122, -8712.53117472305, -11827.62674422583, -16911.553372329876, -0.002, 0.24, 0.9460000000000001, 192.0, 0.0, 0.0, 0.0, 0.0, 0.0, 0.0, 0.0, 0.0, 0.0, 1.64458776899947E9, 0.0, 2022-02-12 00:56:08.999
4.0, -10519.982638357002, -10449.842864256247, -6034.166340132516, -13329.395750689, -8375.399813103653, -4681.550524419609, -8127.742484538852, -5988.233505276859, -10272.995862125857, -13739.282040510421, -7236.712543572491, -6306.991732953994, -5719.699647390801, -8710.340703766431, -11828.43140702622, -16871.834322432795, -0.002, 0.24, 0.9460000000000001, 192.0, 0.0, 0.0, 0.0, 0.0, 0.0, 0.0, 0.0, 0.0, 0.0, 1.644587769005843E9, 0.0, 2022-02-12 00:56:09.005
6.0, -10520.116748823733, -10445.126646176177, -6040.246014624359, -13343.477349695844, -8378.730223027495, -4684.456251198799, -8120.187594912958, -5984.903095353019, -10270.067783602213, -13750.010877848968, -7220.708694542492, -6302.946067207583, -5708.903754818887, -8699.589514683428, -11824.72101744664, -16928.25012543799, -0.002, 0.24, 0.9460000000000001, 192.0, 0.0, 0.0, 0.0, 0.0, 0.0, 0.0, 0.0, 0.0, 0.0, 1.644587769012899E9, 0.0, 2022-02-12 00:56:09.012
8.0, -10534.13129259721, -10477.06728900281, -6037.250880867348, -13325.528898898232, -8370.482429323487, -4683.428070953854, -8130.804673529229, -5985.931275597964, -10257.394344496053, -13734.3423049858, -7234.499720871416, -6317.050017958882, -5702.578211138036, -8713.805224157004, -11824.922183146738, -16876.237616090493, 0.004, 0.23800000000000002, 0.9460000000000001, 192.0, 0.0, 16.0, 3.5, 56.0, 14.5, 72.0, 0.0, 0.0, 0.0, 1.644587769020899E9, 0.0, 2022-02-12 00:56:09.020
10.0, -10519.379141256708, -10467.254873186932, -6030.880633697586, -13336.078922281138, -8369.074269422803, -4685.149155276913, -8119.584097812664, -5987.160621543005, -10269.374879524097, -13735.951630586582, -7225.603726578203, -6302.364921851746, -5708.501423418692, -8703.121090307366, -11823.804595923972, -16897.561180300854, 0.004, 0.23800000000000002, 0.9460000000000001, 192.0, 0.0, 0.0, 0.0, 0.0, 0.0, 0.0, 0.0, 0.0, 0.0, 1.644587769028976E9, 0.0, 2022-02-12 00:56:09.028
12.0, -10535.986487387001, -10458.537692849362, -6048.180883905993, -13336.034218792227, -8374.863371236726, -4686.646722155419, -8127.94365023895, -5990.625141933578, -10273.88993190407, -13743.953555101582, -7232.7562848039015, -6307.975209710027, -5703.584039638525, -8703.165793796277, -11821.927049389727, -16911.39691011869, 0.004, 0.23800000000000002, 0.9460000000000001, 192.0, 0.0, 0.0, 0.0, 0.0, 0.0, 0.0, 0.0, 0.0, 0.0, 1.644587769035441E9, 0.0, 2022-02-12 00:56:09.035
14.0, -10522.441330247084, -10462.78452429587, -6042.905872214541, -13318.912782539463, -8371.84588573526, -4684.255085498701, -8123.294487392246, -5988.3452639991365, -10270.201894068945, -13734.834043363815, -7243.038087253343, -6303.214288141047, -5698.6666558583565, -8707.926715365258, -11825.235107569111, -16870.224996832014, 0.004, 0.23800000000000002, 0.9460000000000001, 192.0, 0.0, 0.0, 0.0, 0.0, 0.0, 0.0, 0.0, 0.0, 0.0, 1.644587769043482E9, 0.0, 2022-02-12 00:56:09.043
16.0, -10525.615277959738, -10494.12167002221, -6048.560863561734, -13338.135282771025, -8384.631083563696, -4689.64185591243, -8126.624897316086, -5993.977903601874, -10272.191199325467, -13755.48705524052, -7251.084715257253, -6290.853773457262, -5725.46639746027, -8705.535078708539, -11826.732674447618, -16926.372578903745, 0.004, 0.23800000000000002, 0.9460000000000001, 192.0, 0.0, 0.0, 0.0, 0.0, 0.0, 0.0, 0.0, 0.0, 0.0, 1.644587769051511E9, 0.0, 2022-02-12 00:56:09.051
18.0, -10535.740618197993, -10465.377326652686, -6054.14879967556, -13327.674666365941, -8371.689423524072, -4679.024777296159, -8128.681257805974, -5995.6766361804775, -10265.12804807759, -13746.47930222503, -7235.483197627449, -6315.775968524929, -5706.802690840089, -8706.362093253385, -11826.129177347324, -16880.082116136804, 0.004, 0.23800000000000002, 0.9460000000000001, 192.0, 0.0, 0.0, 3.5, 40.0, 14.5, 80.0, 0.0, 0.0, 0.0, 1.644587769058764E9, 0.0, 2022-02-12 00:56:09.058
20.0, -10523.201289558565, -10442.466788585996, -6038.122598901105, -13339.454035693889, -8381.94887422906, -4679.851791841005, -8124.188557170458, -5995.475470480379, -10263.988109110369, -13735.549299186385, -7236.176101705564, -6315.843023758295, -5703.137004749418, -8696.81789837097, -11827.939668648205, -16906.77009901644, 0.004, 0.23800000000000002, 0.9460000000000001, 192.0, 0.0, 0.0, 0.0, 0.0, 0.0, 0.0, 0.0, 0.0, 0.0, 1.644587769066234E9, 0.0, 2022-02-12 00:56:09.066
22.0, -10534.623030975226, -10466.964300509013, -6048.002069950351, -13329.038122777716, -8380.764231772928, -4682.846925598017, -8125.596717071143, -5984.8807436085635, -10264.949234121947, -13744.311183012866, -7232.666877826081, -6306.4329393426115, -5708.255554229683, -8703.188145540733, -11825.883308158316, -16914.05676770887, 0.004, 0.23800000000000002, 0.9460000000000001, 192.0, 0.0, 0.0, 0.0, 0.0, 0.0, 0.0, 0.0, 0.0, 0.0, 1.64458776907329E9, 0.0, 2022-02-12 00:56:09.073
24.0, -10516.920449366624, -10481.537637893873, -6043.129389659094, -13317.594029616599, -8372.874065980204, -4677.013120295182, -8120.567574568699, -5980.991540073341, -10259.651870686039, -13741.047828322391, -7241.786389563846, -6303.504860818966, -5689.837716798511, -8705.333913008442, -11827.805558181473, -16868.369802042223, 0.004, 0.23800000000000002, 0.9460000000000001, 192.0, 0.0, 0.0, 0.0, 0.0, 0.0, 0.0, 0.0, 0.0, 0.0, 1.644587769088289E9, 0.0, 2022-02-12 00:56:09.088
26.0, -10542.42378979013, -10474.027451756889, -6038.86020646813, -13328.769901844253, -8376.60680730424, -4681.461117441788, -8116.9912954558495, -5987.562952943201, -10265.955062622435, -13753.721267428551, -7234.745590060425, -6279.789659951885, -5697.236144213217, -8699.053072816501, -11824.497500002088, -16920.404663134177, 0.004, 0.23800000000000002, 0.9460000000000001, 192.0, 0.0, 0.0, 0.0, 0.0, 0.0, 0.0, 0.0, 0.0, 0.0, 1.644587769095778E9, 0.0, 2022-02-12 00:56:09.095
28.0, -10534.623030975226, -10465.243216185954, -6039.463703568424, -13322.086730252115, -8366.995557188458, -4675.6049603944975, -8126.960173482916, -5984.321949997181, -10256.74614390685, -13746.345191758299, -7238.09835172872, -6302.096700918281, -5705.84156582851, -8700.684750161738, -11822.2399738121, -16874.42712478961, 0.004, 0.234, 0.9440000000000001, 192.0, 0.0, 16.0, 3.5, 40.0, 14.5, 64.0, 0.0, 0.0, 0.0, 1.644587769103826E9, 0.0, 2022-02-12 00:56:09.103
30.0, -10520.094397079278, -10448.479407844474, -6032.735828487376, -13332.145015257003, -8377.567932315818, -4679.181239507347, -8114.599658799131, -5985.059557564206, -10260.03185034178, -13741.71838065605, -7232.711581314991, -6295.704102004064, -5706.042731528608, -8689.263008745076, -11823.312857545956, -16898.90228496817, 0.004, 0.234, 0.9440000000000001, 192.0, 0.0, 0.0, 0.0, 0.0, 0.0, 0.0, 0.0, 0.0, 0.0, 1.644587769111058E9, 0.0, 2022-02-12 00:56:09.111
32.0, -10521.390798257686, -10459.990556238956, -6047.443276338969, -13334.82722459164, -8377.746746271461, -4684.053919798604, -8126.691952549452, -5988.479374465868, -10255.248577028344, -13753.654212195184, -7234.142092960131, -6307.148195165181, -5704.70162686129, -8693.398081469308, -11821.927049389727, -16912.425090363635, 0.004, 0.234, 0.9440000000000001, 192.0, 0.0, 0.0, 0.0, 0.0, 0.0, 0.0, 0.0, 0.0, 0.0, 1.644587769118461E9, 0.0, 2022-02-12 00:56:09.118
34.0, -10533.08076060781, -10468.707736576527, -6035.887424455575, -13326.802948332186, -8374.572798558807, -4680.254123241201, -8117.75125476733, -5990.625141933578, -10259.808332897226, -13741.807787633872, -7239.730029073958, -6312.110282434259, -5708.546126907602, -8699.030721072046, -11825.168052335746, -16872.102543366258, 0.004, 0.234, 0.9440000000000001, 192.0, 0.0, 0.0, 0.0, 0.0, 0.0, 0.0, 0.0, 0.0, 0.0, 1.6445877691264E9, 0.0, 2022-02-12 00:56:09.126
36.0, -10534.064237363844, -10476.083812246778, -6044.783418748787, -13340.92925082794, -8389.034377221391, -4693.307542003101, -8125.529661837776, -5998.112976326105, -10258.757800907828, -13757.610470963773, -7235.684363327547, -6300.956761951061, -5710.401321697393, -8691.565238423973, -11823.894002901794, -16925.43380563662, 0.003, 0.23600000000000002, 0.9470000000000001, 192.0, 0.0, 8.0, 3.5, 56.0, 14.5, 88.0, 0.0, 0.0, 0.0, 1.644587769134533E9, 0.0, 2022-02-12 00:56:09.134
38.0, -10531.203214073565, -10468.573626109795, -6045.230453637892, -13319.53863138421, -8378.506705582942, -4689.395986723422, -8130.424693873489, -5997.084796081162, -10259.517760219307, -13753.810674406372, -7242.009907008399, -6312.445558601089, -5695.246838956695, -8706.764424653582, -11829.034904126514, -16880.082116136804, 0.003, 0.23600000000000002, 0.9470000000000001, 192.0, 0.0, 0.0, 0.0, 0.0, 0.0, 0.0, 0.0, 0.0, 0.0, 1.64458776914052E9, 0.0, 2022-02-12 00:56:09.140
40.0, -10507.040978317378, -10458.492989360451, -6036.602680278144, -13330.178061744937, -8381.300673639855, -4685.640893654931, -8109.659923274508, -5988.658188421511, -10258.26606252981, -13752.916604628159, -7245.765000076891, -6299.727416006019, -5701.617086126457, -8699.72362515016, -11826.822081425438, -16898.991691945994, 0.003, 0.23600000000000002, 0.9470000000000001, 192.0, 0.0, 0.0, 0.0, 0.0, 0.0, 0.0, 0.0, 0.0, 0.0, 1.644587769148135E9, 0.0, 2022-02-12 00:56:09.148
42.0, -10544.770722957937, -10471.345242422252, -6041.028325680295, -13327.58525938812, -8377.143249171168, -4690.982960579749, -8111.202193641925, -5992.055653578717, -10252.856940371626, -13768.763991446971, -7228.218880679475, -6301.448500329077, -5717.710342134278, -8702.29407576252, -11825.43627326921, -16916.314293898857, 0.003, 0.23600000000000002, 0.9470000000000001, 192.0, 0.0, 0.0, 0.0, 0.0, 0.0, 0.0, 0.0, 0.0, 0.0, 1.644587769156643E9, 0.0, 2022-02-12 00:56:09.156
44.0, -10527.671638449627, -10463.49978011844, -6041.8776919695965, -13324.478366908834, -8374.483391580987, -4680.969379063771, -8107.335341851157, -5987.294732009737, -10248.811274625215, -13743.171244045645, -7222.385075376639, -6306.924677720628, -5705.908621061876, -8699.43305247224, -11820.00479936657, -16871.879025921706, 0.003, 0.23600000000000002, 0.9470000000000001, 192.0, 0.0, 0.0, 0.0, 0.0, 0.0, 0.0, 0.0, 0.0, 0.0, 1.64458776916408E9, 0.0, 2022-02-12 00:56:09.164
46.0, -10522.396626758175, -10461.890454517657, -6049.142008917572, -13335.721294369852, -8388.229714421, -4688.6360274119415, -8120.32170537969, -5997.241258292349, -10255.002707839336, -13764.114828600268, -7228.442398124028, -6296.598171782276, -5703.695798360801, -8691.587590168429, -11822.932877890216, -16928.138366715713, 0.0025, 0.23500000000000001, 0.9455, 192.0, 0.0, 8.0, 3.5, 40.0, 14.5, 64.0, 0.0, 0.0, 0.0, 1.644587769170828E9, 0.0, 2022-02-12 00:56:09.170
48.0, -10519.915583123635, -10458.269471915899, -6056.272215398814, -13327.317038454657, -8380.585417817285, -4681.081137786047, -8120.008780957316, -5985.573647686679, -10256.589681695663, -13755.285889540422, -7245.653241354614, -6312.423206856633, -5712.301219976094, -8696.795546626514, -11827.91731690375, -16879.85859869225, 0.0025, 0.23500000000000001, 0.9455, 192.0, 0.0, 0.0, 0.0, 0.0, 0.0, 0.0, 0.0, 0.0, 0.0, 1.644587769178685E9, 0.0, 2022-02-12 00:56:09.178
50.0, -10524.65415294816, -10459.252948671932, -6051.019555451818, -13329.619268133554, -8390.911923755637, -4684.724472132262, -8116.119577422092, -5983.89726685253, -10267.832609156681, -13745.987563847015, -7240.110008729698, -6317.385294125712, -5709.84252808601, -8695.454441959197, -11825.212755824658, -16895.6389302777, 0.0025, 0.23500000000000001, 0.9455, 192.0, 0.0, 0.0, 0.0, 0.0, 0.0, 0.0, 0.0, 0.0, 0.0, 1.644587769186827E9, 0.0, 2022-02-12 00:56:09.186
52.0, -10528.073969849822, -10475.636777357671, -6061.43546836799, -13326.937058798918, -8392.498897611964, -4690.491222201732, -8127.138987438559, -5994.246124535337, -10267.005594611835, -13774.150761860701, -7232.443360381528, -6299.526250305921, -5696.900868046388, -8695.141517536822, -11828.252593070578, -16917.476584610533, 0.0025, 0.23500000000000001, 0.9455, 192.0, 0.0, 0.0, 0.0, 0.0, 0.0, 0.0, 0.0, 0.0, 0.0, 1.644587769193817E9, 0.0, 2022-02-12 00:56:09.193
54.0, -10533.527795496917, -10460.035259727867, -6048.225587394904, -13318.890430795007, -8370.66124327913, -4676.074347028059, -8102.5520685377205, -5987.071214565184, -10253.03575432727, -13751.217872049556, -7232.979802248455, -6311.05975044486, -5703.695798360801, -8695.834421614936, -11825.615087224853, -16876.57289225732, 0.0025, 0.23500000000000001, 0.9455, 192.0, 0.0, 0.0, 0.0, 0.0, 0.0, 0.0, 0.0, 0.0, 0.0, 1.644587769208383E9, 0.0, 2022-02-12 00:56:09.208
56.0, -10505.185783527588, -10445.73014327647, -6041.497712313857, -13333.955506557884, -8375.399813103653, -4672.676881870852, -8105.703664505919, -5977.459964449402, -10244.832664112171, -13750.703781927084, -7218.562927074782, -6293.446575814078, -5699.896001803399, -8687.921904077757, -11815.132119075313, -16927.69133182661, 0.00425, 0.23450000000000001, 0.9457500000000001, 192.0, 0.0, 24.0, 3.5, 40.0, 14.5, 72.0, 0.0, 0.0, 0.0, 1.644587769216297E9, 0.0, 2022-02-12 00:56:09.216
58.0, -10535.628859475715, -10466.673727831094, -6051.690107785476, -13318.868079050551, -8368.336661855777, -4674.912056316382, -8107.044769173238, -5979.628083661567, -10239.64705939854, -13737.605659676274, -7230.923441758567, -6302.990770696494, -5698.733711091722, -8695.409738470285, -11815.2885812865, -16881.87025569323, 0.00425, 0.23450000000000001, 0.9457500000000001, 192.0, 0.0, 0.0, 0.0, 0.0, 0.0, 0.0, 0.0, 0.0, 0.0, 1.644587769223024E9, 0.0, 2022-02-12 00:56:09.223
60.0, -10515.914620866135, -10451.49689334594, -6050.885444985086, -13331.273297223246, -8380.56306607283, -4678.845963340516, -8111.55982155321, -5983.89726685253, -10258.578986952185, -13752.715438928062, -7240.691154085536, -6302.521384062932, -5692.989312766709, -8696.1026425484, -11816.249706298078, -16900.690424524597, 0.00425, 0.23450000000000001, 0.9457500000000001, 192.0, 0.0, 0.0, 0.0, 0.0, 0.0, 0.0, 0.0, 0.0, 0.0, 1.644587769231518E9, 0.0, 2022-02-12 00:56:09.231
62.0, -10509.857298118746, -10459.297652160842, -6057.032174710295, -13331.4968146678, -8387.89443825417, -4680.231771496746, -8132.972792741394, -5990.982769844863, -10260.188312552968, -13765.72415420105, -7230.007020235899, -6306.29882887588, -5705.059254772575, -8697.890782104825, -11822.307029045467, -16919.30942765587, 0.00425, 0.23450000000000001, 0.9457500000000001, 192.0, 0.0, 0.0, 0.0, 0.0, 0.0, 0.0, 0.0, 0.0, 0.0, 1.644587769238981E9, 0.0, 2022-02-12 00:56:09.238
64.0, -10527.738693682992, -10452.92740499108, -6047.979718205896, -13325.797119831697, -8381.926522484604, -4674.062690027081, -8112.140966909047, -5985.081909308661, -10254.041582827758, -13749.787360404416, -7243.172197720075, -6318.659343559664, -5698.912525047365, -8697.644912915815, -11823.268154057045, -16874.091848622782, 0.00425, 0.23450000000000001, 0.9457500000000001, 192.0, 0.0, 0.0, 0.0, 0.0, 0.0, 0.0, 0.0, 0.0, 0.0, 1.644587769246076E9, 0.0, 2022-02-12 00:56:09.246
66.0, -10535.248879819976, -10463.946815007546, -6046.057468182739, -13337.151806014992, -8380.764231772928, -4671.939274303827, -8115.359618110611, -5976.700005137922, -10262.021155598302, -13756.090552340813, -7220.060493953288, -6300.129747406215, -5688.965998764754, -8684.971473809657, -11817.926087132226, -16927.2442969375, 0.007125, 0.23825000000000002, 0.945875, 192.0, 0.0, 40.0, 3.5, 72.0, 14.5, 72.0, 0.0, 0.0, 0.0, 1.644587769253584E9, 0.0, 2022-02-12 00:56:09.253
68.0, -10529.817405917336, -10456.570739337294, -6050.639575796077, -13327.58525938812, -8368.537827555874, -4665.680785856341, -8113.973809954383, -5977.594074916134, -10251.717001404406, -13738.365618987755, -7223.7708835328685, -6304.108357919259, -5701.035940770619, -8698.203706527198, -11818.462528999155, -16883.457229549556, 0.007125, 0.23825000000000002, 0.945875, 192.0, 0.0, 0.0, 0.0, 0.0, 0.0, 0.0, 0.0, 0.0, 0.0, 1.644587769260627E9, 0.0, 2022-02-12 00:56:09.260
70.0, -10504.381120727197, -10448.300593888831, -6048.4491048394575, -13331.25094547879, -8370.03539443438, -4662.551541632598, -8109.324647107679, -5971.13442076855, -10252.70047816044, -13744.445293479597, -7226.028409722854, -6297.045206671382, -5684.629760340424, -8695.186221025733, -11820.429482511221, -16900.95864545806, 0.007125, 0.23825000000000002, 0.945875, 192.0, 0.0, 0.0, 0.0, 0.0, 0.0, 0.0, 0.0, 0.0, 0.0, 1.644587769268662E9, 0.0, 2022-02-12 00:56:09.268
72.0, -10518.46271973404, -10470.831152299781, -6057.814485766231, -13329.485157666822, -8371.75647875744, -4671.44753592581, -8116.074873933181, -5986.847697120631, -10253.907472361025, -13765.634747223228, -7236.9807645059545, -6290.898476946173, -5705.975676295242, -8693.57689542495, -11819.803633666472, -16916.53781134341, 0.007125, 0.23825000000000002, 0.945875, 192.0, 0.0, 0.0, 0.0, 0.0, 0.0, 0.0, 0.0, 0.0, 0.0, 1.644587769275775E9, 0.0, 2022-02-12 00:56:09.275
74.0, -10541.127388611721, -10462.762172551415, -6054.037040953283, -13324.545422142199, -8367.576702544296, -4668.5641608910755, -8113.638533787554, -5975.716528381888, -10257.282585773777, -13757.454008752586, -7239.551215118315, -6303.974247452527, -5703.181708238329, -8704.752767652604, -11822.798767423483, -16877.466962035534, 0.007125, 0.23825000000000002, 0.945875, 192.0, 0.0, 0.0, 0.0, 0.0, 0.0, 0.0, 0.0, 0.0, 0.0, 1.644587769283289E9, 0.0, 2022-02-12 00:56:09.283
76.0, -10522.374275013719, -10462.918634762602, -6053.254729897348, -13342.49387293981, -8379.445478850064, -4676.767251106173, -8113.012684942804, -5984.925447097475, -10258.958966607925, -13753.520101728453, -7229.850558024712, -6306.075311431327, -5692.832850555522, -8699.969494339168, -11819.267191799545, -16936.16264297517, 0.0095625, 0.241125, 0.9449375, 192.0, 0.0, 48.0, 3.5, 80.0, 14.5, 64.0, 0.0, 0.0, 0.0, 1.644587769291162E9, 0.0, 2022-02-12 00:56:09.291
78.0, -10521.211984302043, -10463.253910929432, -6062.418945124024, -13332.100311768094, -8379.110202683236, -4677.169582506369, -8128.055408961226, -5991.608618689611, -10258.064896829712, -13743.081837067824, -7218.987610219433, -6314.457215602067, -5690.687083087812, -8712.374712511863, -11821.412959267254, -16895.05778492186, 0.0095625, 0.241125, 0.9449375, 192.0, 0.0, 0.0, 0.0, 0.0, 0.0, 0.0, 0.0, 0.0, 0.0, 1.644587769299923E9, 0.0, 2022-02-12 00:56:09.299
80.0, -10523.424807003119, -10456.146056192643, -6056.451029354457, -13342.180948517436, -8386.03924346438, -4678.3542249625, -8123.808577514717, -5991.407452989513, -10265.798600411248, -13756.090552340813, -7228.3529911462065, -6306.29882887588, -5708.32260946305, -8706.049168831012, -11828.677276215229, -16910.704006040574, 0.0095625, 0.241125, 0.9449375, 192.0, 0.0, 0.0, 0.0, 0.0, 0.0, 0.0, 0.0, 0.0, 0.0, 1.644587769305897E9, 0.0, 2022-02-12 00:56:09.305
82.0, -10522.307219780352, -10473.915693034613, -6065.324671903214, -13336.704771125886, -8385.391042875177, -4677.616617395475, -8124.32266763719, -5991.072176822684, -10266.804428911737, -13764.606566978284, -7228.5318051018485, -6311.931468478617, -5710.378969952938, -8706.607962442395, -11829.660752971264, -16929.658285338675, 0.0095625, 0.241125, 0.9449375, 192.0, 0.0, 0.0, 0.0, 0.0, 0.0, 0.0, 0.0, 0.0, 0.0, 1.644587769314035E9, 0.0, 2022-02-12 00:56:09.314
84.0, -10524.251821547965, -10460.974032994991, -6059.446163111468, -13327.741721599308, -8379.870161994715, -4667.804201579595, -8114.264382632302, -5992.033301834262, -10262.579949209685, -13753.274232539445, -7246.81553206629, -6305.24829688648, -5695.760929079167, -8702.785814140536, -11826.509157003065, -16877.71283122454, 0.0095625, 0.241125, 0.9449375, 192.0, 0.0, 0.0, 0.0, 0.0, 0.0, 0.0, 0.0, 0.0, 0.0, 1.644587769320847E9, 0.0, 2022-02-12 00:56:09.320
86.0, -10514.528812709907, -10460.906977761624, -6054.551131075756, -13336.97299205935, -8397.706854070051, -4681.5952279085195, -8123.60741181462, -5994.3355315131585, -10262.088210831667, -13756.984622119026, -7230.319944658273, -6306.34353236479, -5705.260420472672, -8693.420433213763, -11827.067950614448, -16933.480433640532, 0.01078125, 0.2395625, 0.94846875, 192.0, 0.0, 48.0, 3.5, 56.0, 14.5, 96.0, 0.0, 0.0, 0.0, 1.644587769335451E9, 0.0, 2022-02-12 00:56:09.335
88.0, -10530.644420462182, -10471.904036033635, -6062.351889890658, -13329.932192555929, -8386.687444053585, -4686.847887855517, -8130.424693873489, -5998.492955981846, -10255.36033575062, -13745.67463942464, -7239.372401162673, -6319.531061593421, -5702.399397182393, -8713.626410201361, -11829.593697737897, -16895.39306108869, 0.01078125, 0.2395625, 0.94846875, 192.0, 0.0, 0.0, 0.0, 0.0, 0.0, 0.0, 0.0, 0.0, 0.0, 1.644587769343704E9, 0.0, 2022-02-12 00:56:09.343
90.0, -10525.07883609281, -10472.507533133929, -6051.868921741119, -13340.437512449922, -8386.441574864575, -4676.633140639441, -8118.2206414008915, -5994.581400702167, -10264.74806842185, -13750.547319715897, -7240.154712218608, -6301.783776495908, -5713.552917665591, -8708.373750254363, -11829.571345993441, -16908.02179670594, 0.01078125, 0.2395625, 0.94846875, 192.0, 0.0, 0.0, 0.0, 0.0, 0.0, 0.0, 0.0, 0.0, 0.0, 1.644587769351413E9, 0.0, 2022-02-12 00:56:09.351
92.0, -10538.333420554807, -10476.26262620242, -6061.569578834722, -13338.515262426767, -8389.973150488515, -4682.422242453366, -8125.529661837776, -5998.247086792838, -10269.352527779643, -13772.116753115268, -7226.229575422952, -6297.559296793855, -5715.385760710927, -8698.516630949573, -11822.95522963467, -16924.4950323695, 0.01078125, 0.2395625, 0.94846875, 192.0, 0.0, 0.0, 0.0, 0.0, 0.0, 0.0, 0.0, 0.0, 0.0, 1.644587769358136E9, 0.0, 2022-02-12 00:56:09.358
94.0, -10531.493786751484, -10452.748591035437, -6053.277081641803, -13322.980800030327, -8383.3793858742, -4671.201666736802, -8125.283792648768, -5988.680540165966, -10267.519684734307, -13745.406418491177, -7236.444322639028, -6305.807090497862, -5716.123368277952, -8706.63031418685, -11828.453758770676, -16876.818761446328, 0.01078125, 0.2395625, 0.94846875, 192.0, 0.0, 0.0, 0.0, 0.0, 0.0, 0.0, 0.0, 0.0, 0.0, 1.644587769366145E9, 0.0, 2022-02-12 00:56:09.366
96.0, -10528.677466950116, -10450.848692756736, -6048.560863561734, -13337.397675204002, -8386.195705675567, -4668.765326591173, -8106.240106372847, -5987.339435498648, -10272.280606303288, -13741.96424984506, -7218.227650907952, -6299.950933450572, -5704.433405927826, -8692.660473902282, -11822.038808112004, -16927.199593448593, 0.009390625, 0.23878125, 0.9432343750000001, 192.0, 0.0, 32.0, 3.5, 56.0, 14.5, 40.0, 0.0, 0.0, 0.0, 1.644587769374458E9, 0.0, 2022-02-12 00:56:09.374
98.0, -10529.817405917336, -10463.745649307448, -6062.351889890658, -13324.232497719824, -8379.311368383333, -4677.057823784092, -8115.5831355551645, -6001.756310672321, -10258.199007296445, -13734.990505575002, -7230.386999891639, -6304.287171874902, -5696.252667457184, -8695.38738672583, -11817.657866198762, -16887.234674362502, 0.009390625, 0.23878125, 0.9432343750000001, 192.0, 0.0, 0.0, 0.0, 0.0, 0.0, 0.0, 0.0, 0.0, 0.0, 1.644587769381292E9, 0.0, 2022-02-12 00:56:09.381
100.0, -10498.569667168817, -10455.944890492547, -6048.1585321615385, -13328.658143121977, -8386.66509230913, -4675.359091205489, -8112.543298309243, -5994.46964197989, -10254.130989805579, -13738.410322476664, -7228.598860335214, -6288.417433311633, -5694.2633622006615, -8701.690578662226, -11818.57428772143, -16903.573799559334, 0.009390625, 0.23878125, 0.9432343750000001, 192.0, 0.0, 0.0, 0.0, 0.0, 0.0, 0.0, 0.0, 0.0, 0.0, 1.644587769387703E9, 0.0, 2022-02-12 00:56:09.387
102.0, -10526.79992041587, -10467.254873186932, -6055.691070042976, -13333.910803068973, -8384.631083563696, -4670.687576614329, -8118.51121407881, -5987.6970634099325, -10257.617861940607, -13755.799979662894, -7230.878738269656, -6295.368825837234, -5732.149569052407, -8693.107508791389, -11818.551935976975, -16920.427014878635, 0.009390625, 0.23878125, 0.9432343750000001, 192.0, 0.0, 0.0, 0.0, 0.0, 0.0, 0.0, 0.0, 0.0, 0.0, 1.644587769395724E9, 0.0, 2022-02-12 00:56:09.395
104.0, -10543.94370841309, -10455.676669559083, -6044.6269565376, -13327.987590788316, -8373.455211336042, -4668.49710565771, -8113.884402976561, -5981.483278451357, -10261.663527687017, -13732.598868918285, -7230.632869080648, -6298.520421805432, -5717.531528178636, -8704.506898463595, -11821.85999415636, -16874.315366067334, 0.009390625, 0.23878125, 0.9432343750000001, 192.0, 0.0, 0.0, 0.0, 0.0, 0.0, 0.0, 0.0, 0.0, 0.0, 1.644587769404048E9, 0.0, 2022-02-12 00:56:09.404
106.0, -10526.598754715771, -10443.316154875298, -6049.879616484597, -13339.007000804782, -8384.206400419045, -4669.122954502458, -8114.532603565765, -5986.981807587363, -10260.3224230197, -13745.518177213453, -7219.188775919531, -6304.53304106391, -5695.26919070115, -8700.282418761542, -11816.897906887283, -16928.943029516107, 0.01, 0.232, 0.9440000000000001, 192.0, 0.0, 40.0, 3.5, 32.0, 14.5, 64.0, 0.0, 0.0, 0.0, 1.644587769410983E9, 0.0, 2022-02-12 00:56:09.410
108.0, -10515.154661554654, -10460.415239383608, -6051.421886852013, -13331.407407689978, -8370.996519445958, -4668.944140546816, -8114.286734376757, -5987.384138987558, -10259.964795108413, -13748.334497014821, -7225.871947511667, -6306.522346320432, -5707.428539684837, -8702.62935192935, -11819.289543544, -16891.10152615327, 0.01, 0.232, 0.9440000000000001, 192.0, 0.0, 0.0, 0.0, 0.0, 0.0, 0.0, 0.0, 0.0, 0.0, 1.644587769418418E9, 0.0, 2022-02-12 00:56:09.418
110.0, -10498.144984024166, -10472.93221627858, -6049.477285084401, -13335.967163558862, -8373.723432269506, -4672.87804757095, -8107.17887963997, -5984.143136041539, -10256.880254373582, -13744.892328368704, -7230.252889424907, -6300.867354973239, -5704.03107452763, -8693.174564024755, -11816.942610376193, -16902.702081525575, 0.01, 0.232, 0.9440000000000001, 192.0, 0.0, 0.0, 0.0, 0.0, 0.0, 0.0, 0.0, 0.0, 0.0, 1.644587769426379E9, 0.0, 2022-02-12 00:56:09.426
112.0, -10544.793074702391, -10479.391870426163, -6062.798924779764, -13342.136245028525, -8374.975129959003, -4683.606884909497, -8113.571478554187, -5989.306389010714, -10261.998803853847, -13770.641537981217, -7234.365610404684, -6293.781851980907, -5705.84156582851, -8699.701273405704, -11816.607334209364, -16932.20638420658, 0.01, 0.232, 0.9440000000000001, 192.0, 0.0, 0.0, 0.0, 0.0, 0.0, 0.0, 0.0, 0.0, 0.0, 1.644587769434609E9, 0.0, 2022-02-12 00:56:09.434
114.0, -10531.650248962671, -10457.755381793426, -6054.6181863091215, -13339.20816650488, -8367.84492347776, -4675.426146438855, -8103.468490060389, -5980.991540073341, -10256.83555088467, -13757.923395386148, -7226.09546495622, -6309.2492591439795, -5702.734673349223, -8703.501069963106, -11819.937744133204, -16883.323119082823, 0.01, 0.232, 0.9440000000000001, 192.0, 0.0, 0.0, 0.0, 0.0, 0.0, 0.0, 0.0, 0.0, 0.0, 1.644587769440998E9, 0.0, 2022-02-12 00:56:09.440
116.0, -10518.842699389781, -10443.472617086485, -6056.518084587823, -13352.619213178064, -8373.254045635944, -4676.320216217067, -8102.999103426827, -5978.622255161078, -10264.055164343736, -13759.15274133119, -7226.453092867505, -6302.543735807388, -5696.163260479362, -8693.331026235941, -11820.429482511221, -16935.648552852697, 0.012, 0.23600000000000002, 0.9460000000000001, 192.0, 0.0, 48.0, 3.5, 48.0, 14.5, 72.0, 0.0, 0.0, 0.0, 1.644587769456069E9, 0.0, 2022-02-12 00:56:09.456
118.0, -10499.642550902672, -10455.140227692154, -6059.714384044932, -13338.515262426767, -8360.357089085233, -4672.140440003925, -8105.882478461562, -5981.818554618187, -10251.2699665153, -13753.520101728453, -7239.864139540689, -6319.6428203156975, -5703.472280916248, -8698.38252048284, -11816.182651064713, -16895.102488410772, 0.012, 0.23600000000000002, 0.9460000000000001, 192.0, 0.0, 0.0, 0.0, 0.0, 0.0, 0.0, 0.0, 0.0, 0.0, 1.64458776946329E9, 0.0, 2022-02-12 00:56:09.463
120.0, -10502.235353259488, -10471.41229765562, -6049.924319973507, -13341.130416528036, -8364.514513553919, -4669.547637647109, -8094.5054405338105, -5974.688348136944, -10254.063934572212, -13749.25091853749, -7252.984613535955, -6312.043227200893, -5697.861993057966, -8698.270761760565, -11816.763796420551, -16900.802183246873, 0.012, 0.23600000000000002, 0.9460000000000001, 192.0, 0.0, 0.0, 0.0, 0.0, 0.0, 0.0, 0.0, 0.0, 0.0, 1.644587769470794E9, 0.0, 2022-02-12 00:56:09.470
122.0, -10552.884406195213, -10476.866123302714, -6058.529741588801, -13340.728085127841, -8373.835190991782, -4677.616617395475, -8104.831946472163, -5979.963359828396, -10265.195103310956, -13771.803828692893, -7209.532822314838, -6293.804203725363, -5708.1214437629515, -8703.568125196472, -11819.446005755188, -16926.43963413711, 0.012, 0.23600000000000002, 0.9460000000000001, 192.0, 0.0, 0.0, 0.0, 0.0, 0.0, 0.0, 0.0, 0.0, 0.0, 1.644587769480172E9, 0.0, 2022-02-12 00:56:09.480
124.0, -10537.573461243328, -10466.629024342183, -6058.48503809989, -13332.547346657198, -8359.93240594058, -4663.758535833184, -8095.824193456673, -5974.777755114765, -10259.964795108413, -13763.131351844235, -7221.535709087338, -6305.6729800311305, -5695.827984312533, -8699.455404216696, -11819.647171455284, -16875.72352596802, 0.012, 0.23600000000000002, 0.9460000000000001, 192.0, 0.0, 0.0, 0.0, 0.0, 0.0, 0.0, 0.0, 0.0, 0.0, 1.644587769486762E9, 0.0, 2022-02-12 00:56:09.486
126.0, -10521.927240124613, -10442.489140330452, -6054.394668864568, -13350.272280010258, -8370.080097923292, -4667.893608557416, -8089.5210015202765, -5974.151906270016, -10262.669356187505, -13763.846607666805, -7218.942906730522, -6309.338666121801, -5698.331379691527, -8687.698386633205, -11811.645246940285, -16928.205421949082, 0.004, 0.23800000000000002, 0.9480000000000001, 192.0, 0.0, 16.0, 3.5, 56.0, 14.5, 80.0, 0.0, 0.0, 0.0, 1.64458776949334E9, 0.0, 2022-02-12 00:56:09.493
128.0, -10519.155623812154, -10482.588169883273, -6057.702727043954, -13334.156672257981, -8360.89353095216, -4667.714794601774, -8104.206097627413, -5979.762194128299, -10256.41086774002, -13767.042907123912, -7232.845691781723, -6310.277439388924, -5695.60446686798, -8704.395139741318, -11813.299276029979, -16891.280340108915, 0.004, 0.23800000000000002, 0.9480000000000001, 192.0, 0.0, 0.0, 0.0, 0.0, 0.0, 0.0, 0.0, 0.0, 0.0, 1.644587769501293E9, 0.0, 2022-02-12 00:56:09.501
130.0, -10519.89323137918, -10474.765059323914, -6046.593910049666, -13346.293669497212, -8365.296824609855, -4662.640948610419, -8086.212943340892, -5970.37446145707, -10254.89094911706, -13751.284927282923, -7223.4803108549495, -6307.461119587555, -5684.540353362603, -8699.455404216696, -11811.600543451375, -16901.070404180336, 0.004, 0.23800000000000002, 0.9480000000000001, 192.0, 0.0, 0.0, 0.0, 0.0, 0.0, 0.0, 0.0, 0.0, 0.0, 1.644587769508555E9, 0.0, 2022-02-12 00:56:09.508
132.0, -10535.964135642545, -10486.164448996122, -6056.629843310099, -13340.25869849428, -8369.387193845176, -4668.407698679888, -8094.281923089257, -5970.329757968158, -10267.229112056388, -13776.2518258395, -7235.594956349726, -6312.669076045642, -5705.662751872868, -8699.589514683428, -11809.275962028023, -16926.05965448137, 0.004, 0.23800000000000002, 0.9480000000000001, 192.0, 0.0, 0.0, 0.0, 0.0, 0.0, 0.0, 0.0, 0.0, 0.0, 1.64458776951648E9, 0.0, 2022-02-12 00:56:09.516
134.0, -10519.55795521235, -10454.424971869585, -6052.047735696761, -13329.239288477815, -8362.70402225304, -4662.68565209933, -8088.068138130682, -5967.222865488871, -10255.36033575062, -13759.890348898214, -7243.619232609181, -6307.416416098645, -5696.297370946094, -8706.71972116467, -11813.880421385817, -16873.734220711496, 0.004, 0.23800000000000002, 0.9480000000000001, 192.0, 0.0, 0.0, 0.0, 0.0, 0.0, 0.0, 0.0, 0.0, 0.0, 1.644587769522903E9, 0.0, 2022-02-12 00:56:09.522
136.0, -10519.714417423536, -10450.982803223467, -6053.098267686161, -13345.287840996723, -8372.024699690903, -4668.072422513059, -8088.738690464341, -5968.876894578564, -10266.513856233818, -13775.648328739206, -7213.511432827882, -6301.917886962639, -5702.622914626946, -8690.358244223386, -11816.361465020354, -16928.74186381601, 0.006, 0.23800000000000002, 0.9400000000000001, 192.0, 0.0, 24.0, 3.5, 56.0, 14.5, 48.0, 0.0, 0.0, 0.0, 1.64458776953101E9, 0.0, 2022-02-12 00:56:09.531
138.0, -10536.344115298285, -10484.756289095438, -6049.76785776232, -13330.513337911767, -8362.525208297397, -4665.63608236743, -8091.577362010165, -5965.725298610366, -10258.64604218555, -13766.841741423816, -7224.4190841220725, -6312.400855112178, -5703.829908827533, -8695.901476848303, -11818.887212143805, -16890.92271219763, 0.006, 0.23800000000000002, 0.9400000000000001, 192.0, 0.0, 0.0, 0.0, 0.0, 0.0, 0.0, 0.0, 0.0, 0.0, 1.644587769538986E9, 0.0, 2022-02-12 00:56:09.538
140.0, -10516.495766221973, -10460.348184150242, -6040.29071811327, -13343.142073529014, -8367.979033944492, -4661.21043696528, -8085.810611940696, -5970.396813201525, -10253.102809560634, -13757.454008752586, -7220.082845697742, -6299.906229961662, -5697.169088979851, -8693.599247169406, -11815.065063841947, -16895.951854700073, 0.006, 0.23800000000000002, 0.9400000000000001, 192.0, 0.0, 0.0, 0.0, 0.0, 0.0, 0.0, 0.0, 0.0, 0.0, 1.64458776954549E9, 0.0, 2022-02-12 00:56:09.545
142.0, -10524.74355992598, -10466.047878986345, -6054.417020609024, -13345.69017239692, -8372.047051435358, -4667.178352734846, -8096.5618010236985, -5974.107202781106, -10254.64507992805, -13753.810674406372, -7221.960392231988, -6313.25022140148, -5702.55585939358, -8699.254238516598, -11814.327456274923, -16929.747692316498, 0.006, 0.23800000000000002, 0.9400000000000001, 192.0, 0.0, 0.0, 0.0, 0.0, 0.0, 0.0, 0.0, 0.0, 0.0, 1.644587769553682E9, 0.0, 2022-02-12 00:56:09.553
144.0, -10519.334437767797, -10457.755381793426, -6057.9038927440515, -13332.323829212646, -8354.277414593389, -4658.505875886188, -8078.613350226087, -5957.343394439626, -10256.589681695663, -13763.421924522154, -7238.880662784656, -6323.353209895278, -5691.089414488008, -8709.267820032575, -11812.986351607604, -16876.371726557223, 0.006, 0.23800000000000002, 0.9400000000000001, 192.0, 0.0, 0.0, 0.0, 0.0, 0.0, 0.0, 0.0, 0.0, 0.0, 1.644587769561528E9, 0.0, 2022-02-12 00:56:09.561
146.0, -10538.489882765994, -10493.674635133104, -6055.445200853968, -13351.300460255201, -8369.051917678347, -4666.820724823561, -8093.253742844313, -5972.654339391511, -10259.584815452674, -13773.279043826944, -7230.588165591737, -6305.002427697472, -5695.850336056988, -8691.0511483015, -11812.3381510184, -16930.462948139066, 0.008, 0.23600000000000002, 0.9460000000000001, 192.0, 0.0, 32.0, 3.5, 48.0, 14.5, 72.0, 0.0, 0.0, 0.0, 1.644587769568791E9, 0.0, 2022-02-12 00:56:09.568
148.0, -10536.545280998384, -10487.706719363538, -6066.442259125979, -13339.543442671711, -8361.809952474827, -4664.742012589218, -8102.0826819041595, -5975.13538302605, -10260.07655383069, -13777.704689229095, -7234.030334237855, -6300.465023573044, -5703.159356493874, -8700.036549572535, -11813.835717896905, -16899.684596024108, 0.008, 0.23600000000000002, 0.9460000000000001, 192.0, 0.0, 0.0, 0.0, 0.0, 0.0, 0.0, 0.0, 0.0, 0.0, 1.6445877695833E9, 0.0, 2022-02-12 00:56:09.583
150.0, -10501.184821270088, -10460.415239383608, -6046.035116438284, -13351.345163744112, -8372.829362491293, -4664.719660844763, -8086.414109040989, -5974.241313247838, -10248.051315313734, -13769.814523436371, -7235.14792146062, -6313.339628379301, -5712.502385676192, -8700.81886062847, -11816.674389442729, -16903.707910026063, 0.008, 0.23600000000000002, 0.9460000000000001, 192.0, 0.0, 0.0, 0.0, 0.0, 0.0, 0.0, 0.0, 0.0, 0.0, 1.644587769591181E9, 0.0, 2022-02-12 00:56:09.591
152.0, -10529.817405917336, -10462.471599873496, -6054.014689208829, -13353.78150388974, -8375.824496248306, -4672.743937104218, -8098.707568491408, -5974.978920814863, -10256.008536339825, -13777.078840384345, -7232.398656892617, -6316.848852258784, -5721.130159035941, -8699.72362515016, -11818.887212143805, -16936.073235997348, 0.008, 0.23600000000000002, 0.9460000000000001, 192.0, 0.0, 0.0, 0.0, 0.0, 0.0, 0.0, 0.0, 0.0, 0.0, 1.64458776959843E9, 0.0, 2022-02-12 00:56:09.598
154.0, -10555.94659518559, -10487.818478085814, -6049.164360662027, -13339.40933220498, -8356.490237294465, -4662.953873032793, -8089.878629431561, -5972.810801602698, -10263.965757365913, -13767.221721079555, -7238.344220917728, -6324.113169206759, -5702.868783815955, -8709.379578754852, -11817.81432840995, -16882.33964232679, 0.008, 0.23600000000000002, 0.9460000000000001, 192.0, 0.0, 0.0, 0.0, 0.0, 0.0, 0.0, 0.0, 0.0, 0.0, 1.644587769606231E9, 0.0, 2022-02-12 00:56:09.606
156.0, -10535.092417608788, -10489.986597297979, -6052.874750241608, -13348.707657898387, -8372.225865391001, -4666.35133819, -8100.60746677011, -5968.452211433913, -10272.481772003386, -13787.785325978439, -7234.052685982309, -6319.9333929936165, -5686.775527808133, -8700.975322839657, -11815.534450475508, -16928.808919049374, 0.01, 0.23600000000000002, 0.9440000000000001, 192.0, 0.0, 40.0, 3.5, 48.0, 14.5, 64.0, 0.0, 0.0, 0.0, 1.644587769613816E9, 0.0, 2022-02-12 00:56:09.613
158.0, -10539.18278684411, -10491.148888009655, -6061.547227090267, -13337.800006604197, -8363.888664709171, -4676.275512728156, -8095.354806823112, -5973.101374280617, -10260.434181741975, -13780.811581708382, -7240.266470940885, -6322.950878495083, -5698.912525047365, -8708.753729910104, -11817.121424331835, -16893.873142465727, 0.01, 0.23600000000000002, 0.9440000000000001, 192.0, 0.0, 0.0, 0.0, 0.0, 0.0, 0.0, 0.0, 0.0, 0.0, 1.644587769621848E9, 0.0, 2022-02-12 00:56:09.621
160.0, -10515.087606321289, -10452.30155614633, -6043.129389659094, -13343.007963062282, -8363.732202497984, -4667.915960301872, -8085.430632284955, -5963.154847998006, -10255.874425873093, -13757.34225003031, -7233.806816793302, -6308.735169021508, -5716.257478744684, -8704.506898463595, -11816.406168509266, -16897.024738433927, 0.01, 0.23600000000000002, 0.9440000000000001, 192.0, 0.0, 0.0, 0.0, 0.0, 0.0, 0.0, 0.0, 0.0, 0.0, 1.644587769628496E9, 0.0, 2022-02-12 00:56:09.628
162.0, -10532.119635596233, -10462.113971962212, -6051.9136252300295, -13345.421951463457, -8370.258911878933, -4670.978149292248, -8093.723129477875, -5965.792353843732, -10258.914263119015, -13765.34417454531, -7225.804892278301, -6302.253163129469, -5707.361484451471, -8698.628389671849, -11815.020360353037, -16927.400759148688, 0.01, 0.23600000000000002, 0.9440000000000001, 192.0, 0.0, 0.0, 0.0, 0.0, 0.0, 0.0, 0.0, 0.0, 0.0, 1.644587769635421E9, 0.0, 2022-02-12 00:56:09.635
164.0, -10517.188670300087, -10468.97595750999, -6044.962232704429, -13334.335486213624, -8360.84882746325, -4660.741050331718, -8092.672597488475, -5963.780696842754, -10244.162111778513, -13759.10803784228, -7236.109046472197, -6308.265782387946, -5705.819214084055, -8706.004465342101, -11818.842508654894, -16876.34937481277, 0.01, 0.23600000000000002, 0.9440000000000001, 192.0, 0.0, 0.0, 0.0, 0.0, 0.0, 0.0, 0.0, 0.0, 0.0, 1.644587769644076E9, 0.0, 2022-02-12 00:56:09.644
166.0, -10509.142042296176, -10453.575605580283, -6042.436485580979, -13345.332544485635, -8370.41537409012, -4664.093812000014, -8089.0516148867155, -5957.455153161902, -10255.405039239531, -13759.53272098693, -7220.4851770979385, -6300.934410206605, -5702.533507649125, -8701.467061217674, -11817.143776076291, -16924.427977136133, 0.012, 0.24, 0.9480000000000001, 192.0, 0.0, 48.0, 3.5, 64.0, 14.5, 80.0, 0.0, 0.0, 0.0, 1.644587769650621E9, 0.0, 2022-02-12 00:56:09.650
168.0, -10535.472397264528, -10484.309254206331, -6052.695936285965, -13333.150843757492, -8360.580606529786, -4665.2784544561455, -8089.5210015202765, -5960.472638663368, -10256.634385184572, -13769.166322847168, -7229.247060924418, -6314.524270835433, -5699.94070529231, -8706.742072909126, -11814.126290574824, -16890.96741568654, 0.012, 0.24, 0.9480000000000001, 192.0, 0.0, 0.0, 0.0, 0.0, 0.0, 0.0, 0.0, 0.0, 0.0, 1.644587769658121E9, 0.0, 2022-02-12 00:56:09.658
170.0, -10525.391760515186, -10481.492934404961, -6042.190616391971, -13339.051704293694, -8358.993632673459, -4662.126858487947, -8089.252780586813, -5959.645624118522, -10259.115428819112, -13766.90879665718, -7235.416142394083, -6307.952857965572, -5676.0690422140415, -8702.58464844044, -11814.036883597004, -16891.39209883119, 0.012, 0.24, 0.9480000000000001, 192.0, 0.0, 0.0, 0.0, 0.0, 0.0, 0.0, 0.0, 0.0, 0.0, 1.644587769666076E9, 0.0, 2022-02-12 00:56:09.666
172.0, -10526.241126804487, -10464.282091174377, -6045.163398404527, -13350.808721877185, -8360.826475718794, -4669.838210325028, -8092.538487021743, -5961.411411930491, -10256.03088808428, -13783.985529421036, -7223.592069577226, -6313.272573145935, -5714.0446560436085, -8701.020026328568, -11810.013569595048, -16922.259857923968, 0.012, 0.24, 0.9480000000000001, 192.0, 0.0, 0.0, 0.0, 0.0, 0.0, 0.0, 0.0, 0.0, 0.0, 1.644587769674165E9, 0.0, 2022-02-12 00:56:09.674
174.0, -10517.613353444738, -10452.346259635242, -6041.788284991776, -13335.274259480746, -8354.3221180823, -4664.362032933478, -8088.470469530877, -5957.745725839821, -10244.095056545146, -13749.00504934848, -7234.3432586602285, -6327.06359947486, -5713.552917665591, -8711.927677622758, -11809.141851561291, -16869.71090670954, 0.012, 0.24, 0.9480000000000001, 192.0, 0.0, 0.0, 0.0, 0.0, 0.0, 0.0, 0.0, 0.0, 0.0, 1.644587769680703E9, 0.0, 2022-02-12 00:56:09.680
176.0, -10513.970019098524, -10463.365669651708, -6044.828122237697, -13347.992402075817, -8368.537827555874, -4667.78184983514, -8096.338283579145, -5961.456115419402, -10255.293280517255, -13764.092476855812, -7223.14503468812, -6304.287171874902, -5709.306086219083, -8707.122052564866, -11816.137947575802, -16923.913887013663, 0.006, 0.24, 0.9480000000000001, 192.0, 0.0, 24.0, 3.5, 64.0, 14.5, 80.0, 0.0, 0.0, 0.0, 1.644587769688776E9, 0.0, 2022-02-12 00:56:09.688
178.0, -10520.161452312643, -10478.363690181219, -6043.889348970574, -13341.152768272492, -8362.256987363933, -4669.100602758003, -8105.927181950472, -5966.351147455114, -10245.033829812268, -13763.824255922349, -7238.590090106737, -6302.454328829566, -5709.686065874823, -8708.373750254363, -11819.825985410927, -16892.599093031775, 0.006, 0.24, 0.9480000000000001, 192.0, 0.0, 0.0, 0.0, 0.0, 0.0, 0.0, 0.0, 0.0, 0.0, 1.644587769703883E9, 0.0, 2022-02-12 00:56:09.703
180.0, -10511.131347552699, -10463.276262673888, -6042.168264647516, -13346.360724730579, -8363.799257731349, -4666.954835290294, -8085.07300437367, -5961.210246230394, -10253.773361894293, -13766.037078623425, -7220.038142208832, -6305.114186419748, -5705.595696639502, -8704.998636841612, -11822.932877890216, -16895.81774423334, 0.006, 0.24, 0.9480000000000001, 192.0, 0.0, 0.0, 0.0, 0.0, 0.0, 0.0, 0.0, 0.0, 0.0, 1.644587769710326E9, 0.0, 2022-02-12 00:56:09.710
182.0, -10524.341228525785, -10457.73303004897, -6050.281947884792, -13346.964221830873, -8366.682632766084, -4672.788640593129, -8089.297484075723, -5960.2267694743605, -10252.521664204796, -13770.328613558844, -7220.641639309125, -6317.698218548086, -5701.862955315466, -8707.636142687339, -11819.066026099448, -16929.010084749472, 0.006, 0.24, 0.9480000000000001, 192.0, 0.0, 0.0, 0.0, 0.0, 0.0, 0.0, 0.0, 0.0, 0.0, 1.644587769718568E9, 0.0, 2022-02-12 00:56:09.718
184.0, -10515.668751677127, -10478.631911114682, -6049.38787810658, -13341.756265372785, -8356.84786520575, -4665.2784544561455, -8084.3577485511005, -5957.857484562098, -10252.74518164935, -13754.190654062111, -7235.505549371905, -6326.996544241494, -5703.561687894069, -8708.373750254363, -11816.115595831347, -16872.303709066357, 0.005, 0.237, 0.9440000000000001, 192.0, 0.0, 16.0, 3.5, 40.0, 14.5, 48.0, 0.0, 0.0, 0.0, 1.644587769726324E9, 0.0, 2022-02-12 00:56:09.726
186.0, -10527.693990194082, -10469.065364487811, -6044.492846070868, -13348.864120109572, -8374.148115414157, -4673.280378971145, -8093.812536455695, -5961.120839252572, -10256.612033440118, -13774.888369427727, -7222.161557932086, -6300.465023573044, -5713.597621154502, -8700.997674584112, -11818.52958423252, -16925.478509125533, 0.005, 0.237, 0.9440000000000001, 192.0, 0.0, 0.0, 0.0, 0.0, 0.0, 0.0, 0.0, 0.0, 0.0, 1.644587769733722E9, 0.0, 2022-02-12 00:56:09.733
188.0, -10523.625972703216, -10462.046916728845, -6052.226549652404, -13338.761131615775, -8360.737068740973, -4672.006329537193, -8095.377158567568, -5964.048917776217, -10252.923995604991, -13783.672604998661, -7214.42785435055, -6318.458177859567, -5724.5499759376025, -8712.575878211961, -11821.211793567158, -16898.29878786788, 0.005, 0.237, 0.9440000000000001, 192.0, 0.0, 0.0, 0.0, 0.0, 0.0, 0.0, 0.0, 0.0, 0.0, 1.644587769740968E9, 0.0, 2022-02-12 00:56:09.740
190.0, -10511.466623719529, -10473.021623256402, -6050.259596140337, -13347.366553231068, -8362.636967019675, -4670.106431258492, -8079.619178726576, -5962.350185197614, -10254.55567295023, -13777.838799695826, -7224.217918421975, -6304.86831723074, -5712.703551376289, -8719.929602137758, -11822.999933123581, -16898.209380890057, 0.005, 0.237, 0.9440000000000001, 192.0, 0.0, 0.0, 0.0, 0.0, 0.0, 0.0, 0.0, 0.0, 0.0, 1.644587769749217E9, 0.0, 2022-02-12 00:56:09.749
192.0, -10527.023437860422, -10483.526943150395, -6051.220721151915, -13349.042934065215, -8370.214208390023, -4677.795431351117, -8086.168239851981, -5967.759307355798, -10258.780152652282, -13789.573465534862, -7234.320906915773, -6318.167605181648, -5716.36923746696, -8706.451500231207, -11819.58011622192, -16932.38519816222, 0.005, 0.237, 0.9440000000000001, 192.0, 0.0, 0.0, 0.0, 0.0, 0.0, 0.0, 0.0, 0.0, 0.0, 1.644587769755936E9, 0.0, 2022-02-12 00:56:09.755
194.0, -10531.672600707127, -10471.993443011457, -6047.935014716985, -13333.01673329076, -8355.395001816154, -4665.4572684117875, -8085.2965218182235, -5957.924539795464, -10248.230129269377, -13773.3013955714, -7235.282031927351, -6324.671962818142, -5714.491690932714, -8708.06082583199, -11818.328418532423, -16875.321194567823, 0.0055, 0.2375, 0.9440000000000001, 192.0, 0.0, 24.0, 3.5, 56.0, 14.5, 64.0, 0.0, 0.0, 0.0, 1.644587769763638E9, 0.0, 2022-02-12 00:56:09.763
196.0, -10510.572553941316, -10447.45122759953, -6043.419962337013, -13337.68824788192, -8361.832304219282, -4666.820724823561, -8075.97584438036, -5952.828342059654, -10249.481826958874, -13774.553093260896, -7208.661104281081, -6302.275514873924, -5693.9727895227425, -8694.359206480885, -11813.366331263343, -16919.711759056063, 0.0055, 0.2375, 0.9440000000000001, 192.0, 0.0, 0.0, 0.0, 0.0, 0.0, 0.0, 0.0, 0.0, 0.0, 1.644587769770643E9, 0.0, 2022-02-12 00:56:09.770
198.0, -10507.130385295199, -10450.491064845452, -6047.040944938773, -13333.128492013037, -8357.808990217327, -4671.06755627007, -8087.866972430584, -5957.611615373089, -10241.256384999322, -13771.58031124834, -7214.494909583916, -6301.716721262542, -5721.4430834583145, -8698.337816993931, -11812.584020207409, -16890.25215986397, 0.0055, 0.2375, 0.9440000000000001, 192.0, 0.0, 0.0, 0.0, 0.0, 0.0, 0.0, 0.0, 0.0, 0.0, 1.644587769778843E9, 0.0, 2022-02-12 00:56:09.778
200.0, -10505.699873650059, -10459.83409402777, -6037.966136689918, -13343.678515395943, -8355.864388449716, -4672.565123148575, -8078.546294992721, -5958.863313062587, -10249.526530447785, -13769.00986063598, -7212.572659560759, -6314.546622579887, -5710.1107490194745, -8705.937410108734, -11815.95913362016, -16891.10152615327, 0.0055, 0.2375, 0.9440000000000001, 192.0, 0.0, 0.0, 0.0, 0.0, 0.0, 0.0, 0.0, 0.0, 0.0, 1.644587769785782E9, 0.0, 2022-02-12 00:56:09.785
202.0, -10528.74452218348, -10467.88072203168, -6045.38691584908, -13347.16538753097, -8364.536865298374, -4685.819707610573, -8085.184763095947, -5968.631025389555, -10250.88998685956, -13791.071032413369, -7204.794252490313, -6311.171509167137, -5710.356618208482, -8701.131785050844, -11811.354674262366, -16928.697160327098, 0.0055, 0.2375, 0.9440000000000001, 192.0, 0.0, 0.0, 0.0, 0.0, 0.0, 0.0, 0.0, 0.0, 0.0, 1.644587769793309E9, 0.0, 2022-02-12 00:56:09.793
204.0, -10525.816443659836, -10485.516248406917, -6046.705668771943, -13331.273297223246, -8357.518417539408, -4677.348396462011, -8092.292617832735, -5968.6757288784665, -10254.242748527855, -13787.58416027834, -7224.329677144251, -6316.15594818067, -5716.905679333888, -8718.834366659446, -11814.618028952842, -16879.322156825325, 0.00575, 0.23775000000000002, 0.9460000000000001, 192.0, 0.0, 24.0, 3.5, 56.0, 14.5, 80.0, 0.0, 0.0, 0.0, 1.644587769801282E9, 0.0, 2022-02-12 00:56:09.801
206.0, -10515.087606321289, -10463.231559184977, -6035.350982588647, -13338.805835104686, -8361.809952474827, -4671.492239414721, -8075.2605885577905, -5959.623272374067, -10256.254405528833, -13782.711479987083, -7213.422025850061, -6302.700198018575, -5712.502385676192, -8703.81399438548, -11811.309970773456, -16925.29969516989, 0.00575, 0.23775000000000002, 0.9460000000000001, 192.0, 0.0, 0.0, 0.0, 0.0, 0.0, 0.0, 0.0, 0.0, 0.0, 1.644587769809508E9, 0.0, 2022-02-12 00:56:09.809
208.0, -10512.584210942294, -10462.87393127369, -6053.366488619625, -13327.741721599308, -8354.970318671503, -4666.910131801383, -8082.010815383293, -5963.08779276464, -10245.816140868204, -13787.15947713369, -7244.312136687296, -6315.328933635823, -5698.018455269153, -8707.837308387436, -11807.174898049225, -16894.610750032753, 0.00575, 0.23775000000000002, 0.9460000000000001, 192.0, 0.0, 0.0, 0.0, 0.0, 0.0, 0.0, 0.0, 0.0, 0.0, 1.644587769815598E9, 0.0, 2022-02-12 00:56:09.815
210.0, -10499.150812524655, -10443.204396153022, -6042.48118906989, -13339.856367094084, -8358.524246039897, -4667.088945757026, -8078.546294992721, -5968.340452711636, -10245.011478067814, -13779.470477041064, -7224.508491099893, -6324.873128518239, -5720.392551468915, -8694.940351836723, -11814.685084186207, -16893.604921532264, 0.00575, 0.23775000000000002, 0.9460000000000001, 192.0, 0.0, 0.0, 0.0, 0.0, 0.0, 0.0, 0.0, 0.0, 0.0, 1.644587769830865E9, 0.0, 2022-02-12 00:56:09.830
212.0, -10537.886385665703, -10470.674690088594, -6050.617224051622, -13339.856367094084, -8367.46494382202, -4678.01894879567, -8078.1886670814365, -5968.94394981193, -10249.571233936696, -13794.379090592754, -7205.621267035159, -6304.398930597178, -5704.36635069446, -8712.77704391206, -11813.00870335206, -16935.78266331943, 0.00575, 0.23775000000000002, 0.9460000000000001, 192.0, 0.0, 0.0, 0.0, 0.0, 0.0, 0.0, 0.0, 0.0, 0.0, 1.644587769839121E9, 0.0, 2022-02-12 00:56:09.839
214.0, -10530.711475695549, -10485.516248406917, -6046.951537960951, -13333.977858302338, -8359.865350707216, -4673.012158037682, -8080.289731060235, -5970.9109033239965, -10247.514873446808, -13787.24888411151, -7212.460900838483, -6312.423206856633, -5717.822100856555, -8722.96943938368, -11812.785185907505, -16882.786677215896, 0.004875, 0.238875, 0.9460000000000001, 192.0, 0.0, 16.0, 3.5, 64.0, 14.5, 72.0, 0.0, 0.0, 0.0, 1.644587769845503E9, 0.0, 2022-02-12 00:56:09.845
216.0, -10522.776606413914, -10468.93125402108, -6046.906834472041, -13350.87577711055, -8369.342490356266, -4675.135573760936, -8087.688158474942, -5972.341414969136, -10262.98228060988, -13799.765861006483, -7215.858365995689, -6310.523308577933, -5718.872632845954, -8710.407758999796, -11811.309970773456, -16932.273439439945, 0.004875, 0.238875, 0.9460000000000001, 192.0, 0.0, 0.0, 0.0, 0.0, 0.0, 0.0, 0.0, 0.0, 0.0, 1.644587769853824E9, 0.0, 2022-02-12 00:56:09.853
218.0, -10531.873766407225, -10461.73399230647, -6066.263445170337, -13336.682419381432, -8367.196722888557, -4678.3542249625, -8092.158507366003, -5976.901170838019, -10258.690745674461, -13795.295512115421, -7232.532767359348, -6325.320163407346, -5717.5091764341805, -8720.622506215872, -11813.746310919085, -16903.81966874834, 0.004875, 0.238875, 0.9460000000000001, 192.0, 0.0, 0.0, 0.0, 0.0, 0.0, 0.0, 0.0, 0.0, 0.0, 1.644587769861573E9, 0.0, 2022-02-12 00:56:09.861
220.0, -10517.591001700283, -10478.140172736666, -6051.220721151915, -13337.285916481724, -8363.151057142146, -4673.1462685044135, -8073.830076912651, -5967.804010844709, -10261.350603264644, -13786.555980033396, -7229.112950457687, -6314.904250491172, -5717.0397898006195, -8721.047189360523, -11813.612200452353, -16897.270607622937, 0.004875, 0.238875, 0.9460000000000001, 192.0, 0.0, 0.0, 0.0, 0.0, 0.0, 0.0, 0.0, 0.0, 0.0, 1.644587769868901E9, 0.0, 2022-02-12 00:56:09.868
222.0, -10518.552126711862, -10465.44438188605, -6052.070087441217, -13340.862195594573, -8365.98972868797, -4668.698271357807, -8081.541428749732, -5969.860371334597, -10260.188312552968, -13802.939808719137, -7215.545441573316, -6313.63020105722, -5713.03882754312, -8714.274610790564, -11808.3371887609, -16930.418244650155, 0.004875, 0.238875, 0.9460000000000001, 192.0, 0.0, 0.0, 0.0, 0.0, 0.0, 0.0, 0.0, 0.0, 0.0, 1.644587769876161E9, 0.0, 2022-02-12 00:56:09.876
224.0, -10506.973923084011, -10452.860349757713, -6052.830046752697, -13331.318000712157, -8352.601033759242, -4659.06466949757, -8074.187704823936, -5963.89245556503, -10246.397286224043, -13769.635709480728, -7223.86029051069, -6309.159852166159, -5708.009685040675, -8708.753729910104, -11808.113671316347, -16875.67882247911, 0.0044375000000000005, 0.2394375, 0.9490000000000001, 192.0, 0.0, 16.0, 3.5, 64.0, 14.5, 96.0, 0.0, 0.0, 0.0, 1.644587769883367E9, 0.0, 2022-02-12 00:56:09.883
226.0, -10531.762007684947, -10460.191721939054, -6046.124523416105, -13341.197471761403, -8364.17923738709, -4664.987881778226, -8068.711527432386, -5951.353126925604, -10257.751972407339, -13788.567637034374, -7207.074130424754, -6295.011197925949, -5706.623876884446, -8706.876183375858, -11804.67150267023, -16920.784642789917, 0.0044375000000000005, 0.2394375, 0.9490000000000001, 192.0, 0.0, 0.0, 0.0, 0.0, 0.0, 0.0, 0.0, 0.0, 0.0, 1.644587769891539E9, 0.0, 2022-02-12 00:56:09.891
228.0, -10548.838740448802, -10477.536675636373, -6056.071049698717, -13338.202338004392, -8362.927539697594, -4668.944140546816, -8079.93210314895, -5964.205379987405, -10256.388515995564, -13805.174983164667, -7217.601802063204, -6307.483471332011, -5720.191385768818, -8714.073445090467, -11805.09618581488, -16900.33279661331, 0.0044375000000000005, 0.2394375, 0.9490000000000001, 192.0, 0.0, 0.0, 0.0, 0.0, 0.0, 0.0, 0.0, 0.0, 0.0, 1.64458776989809E9, 0.0, 2022-02-12 00:56:09.898
230.0, -10505.83398411679, -10462.561006851318, -6047.935014716985, -13340.459864194378, -8363.821609475805, -4664.987881778226, -8073.919483890472, -5956.091696750128, -10256.433219484476, -13788.031195167447, -7217.400636363106, -6312.803186512374, -5713.12823452094, -8716.085102091445, -11805.856145126361, -16896.53300005591, 0.0044375000000000005, 0.2394375, 0.9490000000000001, 192.0, 0.0, 0.0, 0.0, 0.0, 0.0, 0.0, 0.0, 0.0, 0.0, 1.644587769905796E9, 0.0, 2022-02-12 00:56:09.905
232.0, -10497.765004368426, -10473.111030234222, -6058.417982866524, -13345.578413674642, -8367.621406033208, -4662.015099765671, -8075.573512980165, -5955.287033949738, -10257.997841596347, -13793.462669070086, -7229.5823370912485, -6322.72736105053, -5717.3303624785385, -8721.024837616067, -11802.793956135984, -16933.01104700697, 0.0044375000000000005, 0.2394375, 0.9490000000000001, 192.0, 0.0, 0.0, 0.0, 0.0, 0.0, 0.0, 0.0, 0.0, 0.0, 1.644587769913836E9, 0.0, 2022-02-12 00:56:09.913
234.0, -10545.865958436247, -10471.1217249777, -6052.3830118635915, -13337.755303115286, -8361.966414686014, -4653.275567683646, -8076.802858925207, -5954.437667660435, -10242.105751288624, -13774.977776405547, -7233.829168537756, -6331.712762321564, -5706.847394328999, -8711.838270644936, -11802.928066602715, -16870.984956143493, 0.00621875, 0.23671875, 0.9465000000000001, 192.0, 0.0, 32.0, 3.5, 40.0, 14.5, 64.0, 0.0, 0.0, 0.0, 1.644587769920993E9, 0.0, 2022-02-12 00:56:09.920
236.0, -10547.631746248217, -10488.153754252644, -6051.757163018842, -13344.863157852073, -8377.903208482649, -4673.079213271048, -8081.809649683196, -5970.486220179346, -10263.004632354336, -13789.752279490505, -7213.891412483623, -6304.354227108268, -5704.9474960502985, -8715.0569218465, -11806.012607337549, -16924.092700969304, 0.00621875, 0.23671875, 0.9465000000000001, 192.0, 0.0, 0.0, 0.0, 0.0, 0.0, 0.0, 0.0, 0.0, 0.0, 1.644587769928547E9, 0.0, 2022-02-12 00:56:09.928
238.0, -10531.292621051387, -10484.756289095438, -6058.015651466329, -13341.041009550216, -8369.186028145079, -4673.481544671243, -8089.900981176017, -5972.98961555834, -10265.485675988875, -13809.667683800184, -7227.458921367994, -6311.037398700404, -5719.364371223971, -8729.719666209181, -11808.627761438818, -16906.188953660603, 0.00621875, 0.23671875, 0.9465000000000001, 192.0, 0.0, 0.0, 0.0, 0.0, 0.0, 0.0, 0.0, 0.0, 0.0, 1.644587769936537E9, 0.0, 2022-02-12 00:56:09.936
240.0, -10516.853394133257, -10476.866123302714, -6043.621128037111, -13342.113893284071, -8365.296824609855, -4667.267759712668, -8074.567684479676, -5963.065441020184, -10262.669356187505, -13793.194448136623, -7242.881625042156, -6320.738055794008, -5719.878461346443, -8724.668171962283, -11805.990255593093, -16895.169543644137, 0.00621875, 0.23671875, 0.9465000000000001, 192.0, 0.0, 0.0, 0.0, 0.0, 0.0, 0.0, 0.0, 0.0, 0.0, 1.644587769950617E9, 0.0, 2022-02-12 00:56:09.950
242.0, -10534.980658886512, -10475.703832591038, -6050.326651373703, -13352.440399222423, -8374.572798558807, -4674.73324236074, -8082.569608994676, -5967.781659100254, -10266.55855972273, -13803.990340708535, -7206.716502513469, -6319.6428203156975, -5723.186519525829, -8721.069541104978, -11802.4363282247, -16933.413378407167, 0.00621875, 0.23671875, 0.9465000000000001, 192.0, 0.0, 0.0, 0.0, 0.0, 0.0, 0.0, 0.0, 0.0, 0.0, 1.644587769958206E9, 0.0, 2022-02-12 00:56:09.958
