%OpenBCI Raw EEG Data
%Number of channels = 16
%Sample Rate = 125 Hz
%Board = OpenBCI_GUI$BoardCytonSerialDaisy
Sample Index, EXG Channel 0, EXG Channel 1, EXG Channel 2, EXG Channel 3, EXG Channel 4, EXG Channel 5, EXG Channel 6, EXG Channel 7, EXG Channel 8, EXG Channel 9, EXG Channel 10, EXG Channel 11, EXG Channel 12, EXG Channel 13, EXG Channel 14, EXG Channel 15, Accel Channel 0, Accel Channel 1, Accel Channel 2, Other, Other, Other, Other, Other, Other, Other, Analog Channel 0, Analog Channel 1, Analog Channel 2, Timestamp, Other, Timestamp (Formatted)
0.0, -10228.515890659797, -9783.000920176617, -5769.499334037225, -13075.479933676712, -8764.633091048372, -5005.427301577009, -8128.4353886169665, -6156.698603236509, 0.0, 0.0, 0.0, 0.0, 0.0, 0.0, 0.0, 0.0, 0.0, 0.0, 0.0, 192.0, 0.0, 0.0, 0.0, 0.0, 0.0, 0.0, 0.0, 0.0, 0.0, 1.644587718082267E9, 0.0, 2022-02-12 00:55:18.082
132.0, -10246.732562390873, -9806.202030921226, -5778.931770197364, -13076.463410432747, -8771.182152173777, -5008.645952778573, -8140.997069000849, -6158.799667215308, -9768.114658369383, -13071.523674908123, -7115.007295013344, -5784.475002822281, -5876.787707422699, -8394.063519723835, -11830.19719483819, -16801.5157343764, 0.0, 0.0, 0.0, 192.0, 0.0, 0.0, 0.0, 0.0, 0.0, 0.0, 0.0, 0.0, 0.0, 1.644587718082272E9, 0.0, 2022-02-12 00:55:18.082
0.0, -5030.841235022693, -4861.169142862456, -2885.6772644135076, -6554.380840585332, -4248.2843098979365, -2438.8658927519195, -4030.0195252918634, -3043.145304101146, -4881.084547172135, -6528.162244339257, -3552.340394537496, -2885.6772644135076, -2934.694640003996, -4195.422434261136, -5913.042236929207, -8377.344414871266, 0.008, 0.23600000000000002, 0.9440000000000001, 192.0, 0.0, 32.0, 3.5, 48.0, 14.5, 64.0, 0.0, 0.0, 0.0, 1.644587718199743E9, 0.0, 2022-02-12 00:55:18.199
2.0, -10072.590121339575, -9714.381064698824, -5775.064918406596, -13102.614951445456, -8487.225590613556, -4875.988349436325, -8060.843713384118, -6082.759032578353, -9612.904144871729, -13105.721843924743, -6946.56454879815, -5791.068767436596, -5652.666765769335, -8269.139619963124, -11748.255699665035, -16742.842405181218, 0.008, 0.23600000000000002, 0.9440000000000001, 192.0, 0.0, 0.0, 0.0, 0.0, 0.0, 0.0, 0.0, 0.0, 0.0, 1.644587718207435E9, 0.0, 2022-02-12 00:55:18.207
4.0, -10040.22479536829, -9682.485125361101, -5761.85503743351, -13107.420576503346, -8493.037044171935, -4880.123422160557, -8060.508437217288, -6087.564657636244, -9607.85265062483, -13077.804515100064, -6933.712295736349, -5795.963799472309, -5634.025410893609, -8266.591521095219, -11747.026353719993, -16760.768504234376, 0.008, 0.23600000000000002, 0.9440000000000001, 192.0, 0.0, 0.0, 0.0, 0.0, 0.0, 0.0, 0.0, 0.0, 0.0, 1.644587718213933E9, 0.0, 2022-02-12 00:55:18.213
6.0, -10060.073144444603, -9709.888364063307, -5773.52264803918, -13102.68200667882, -8494.176983139156, -4885.8678204855705, -8069.627948955053, -6087.765823336342, -9606.109214557317, -13094.076585063529, -6935.343973081586, -5797.550773328635, -5649.649280267869, -8268.044384484814, -11745.551138585943, -16781.197998666525, 0.008, 0.23500000000000001, 0.9450000000000001, 192.0, 0.0, 32.0, 3.5, 40.0, 14.5, 72.0, 0.0, 0.0, 0.0, 1.644587718221972E9, 0.0, 2022-02-12 00:55:18.221
8.0, -10038.41430406741, -9698.198401713182, -5766.213627602295, -13092.422555973835, -8484.521029534464, -4877.597675037107, -8058.742649405319, -6086.15649773556, -9597.727310386575, -13088.242779760692, -6946.341031353597, -5774.774345728677, -5647.861140711444, -8276.381585166644, -11744.23238566308, -16727.956143373984, 0.008, 0.23500000000000001, 0.9450000000000001, 192.0, 0.0, 0.0, 0.0, 0.0, 0.0, 0.0, 0.0, 0.0, 0.0, 1.64458771822988E9, 0.0, 2022-02-12 00:55:18.229
10.0, -10039.777760479185, -9703.719282593642, -5760.3574705550045, -13105.610085202467, -8490.556000537395, -4872.456773812387, -8058.049745327205, -6083.273122700825, -9606.355083746324, -13097.049367076084, -6937.780313227215, -5772.561523027602, -5642.3179080865275, -8260.020108225359, -11737.482158837576, -16787.545894091832, 0.008, 0.23500000000000001, 0.9450000000000001, 192.0, 0.0, 0.0, 0.0, 0.0, 0.0, 0.0, 0.0, 0.0, 0.0, 1.644587718237327E9, 0.0, 2022-02-12 00:55:18.237
12.0, -10072.724231806307, -9702.15466048177, -5765.543075268635, -13095.752965897676, -8481.72706147755, -4871.987387178825, -8057.602710438098, -6087.095271002683, -9603.650522667233, -13083.168933769339, -6933.935813180901, -5782.463345821303, -5635.835902194489, -8267.753811806895, -11738.644449549252, -16739.087312112726, 0.008, 0.23500000000000001, 0.9450000000000001, 192.0, 0.0, 0.0, 0.0, 0.0, 0.0, 0.0, 0.0, 0.0, 0.0, 1.644587718245196E9, 0.0, 2022-02-12 00:55:18.245
14.0, -10054.306394375133, -9690.464698131645, -5762.704403722812, -13109.208716059771, -8497.529744807453, -4872.210904623378, -8057.043916826716, -6078.825125554219, -9607.919705858196, -13079.369137211936, -6926.872661933025, -5769.186409614851, -5631.20909109224, -8262.747021048906, -11739.493815838554, -16752.721876230466, 0.008, 0.23500000000000001, 0.9450000000000001, 192.0, 0.0, 0.0, 0.0, 0.0, 0.0, 0.0, 0.0, 0.0, 0.0, 1.64458771825178E9, 0.0, 2022-02-12 00:55:18.251
16.0, -10049.120789661501, -9703.965151782651, -5774.349662584026, -13112.092091094506, -8497.797965740916, -4880.0563669271905, -8065.783448908741, -6088.436375670001, -9610.847784381842, -13095.015358330651, -6940.3731155840305, -5781.077537665074, -5628.728047457701, -8264.646919327608, -11748.479217109587, -16783.83550451225, 0.006, 0.23450000000000001, 0.9475, 192.0, 0.0, 16.0, 3.5, 40.0, 14.5, 88.0, 0.0, 0.0, 0.0, 1.644587718266943E9, 0.0, 2022-02-12 00:55:18.266
18.0, -10018.096568357536, -9690.35293940937, -5760.446877532826, -13095.261227519659, -8487.337349335832, -4874.401375579998, -8063.682384929942, -6079.160401721049, -9598.889601098252, -13078.16214301135, -6947.23510113181, -5784.452651077825, -5638.8310359515, -8264.356346649689, -11750.066190965914, -16729.140785830117, 0.006, 0.23450000000000001, 0.9475, 192.0, 0.0, 0.0, 0.0, 0.0, 0.0, 0.0, 0.0, 0.0, 0.0, 1.644587718274931E9, 0.0, 2022-02-12 00:55:18.274
20.0, -10041.789417480162, -9700.366520925347, -5763.33025256756, -13109.320474782047, -8504.68230303315, -4882.6938727729175, -8066.766925664774, -6086.290608202292, -9601.504755199523, -13101.922047367341, -6931.208900357355, -5778.19416263034, -5639.166312118329, -8264.06577397177, -11750.043839221458, -16795.100783717728, 0.006, 0.23450000000000001, 0.9475, 192.0, 0.0, 0.0, 0.0, 0.0, 0.0, 0.0, 0.0, 0.0, 0.0, 1.644587718281657E9, 0.0, 2022-02-12 00:55:18.281
22.0, -10062.822409012606, -9707.139099495304, -5764.961929912798, -13097.138774053905, -8489.214895870078, -4883.565590806674, -8060.329623261646, -6098.561715908256, -9592.362891717303, -13096.78114614262, -6940.931909195413, -5776.741299240744, -5631.678477725802, -8271.911236275582, -11751.921385755704, -16751.78310296334, 0.006, 0.23450000000000001, 0.9475, 192.0, 0.0, 0.0, 0.0, 0.0, 0.0, 0.0, 0.0, 0.0, 0.0, 1.644587718289506E9, 0.0, 2022-02-12 00:55:18.289
24.0, -10044.628089025986, -9693.526887122021, -5752.80258092911, -13107.130003825427, -8489.125488892256, -4874.468430813365, -8054.629928425543, -6069.280930671804, -9604.94692384564, -13082.453677946769, -6932.773522469226, -5762.324424067071, -5631.142035858874, -8272.894713031616, -11748.702734554141, -16761.997850179418, 0.006, 0.23450000000000001, 0.9475, 192.0, 0.0, 0.0, 0.0, 0.0, 0.0, 0.0, 0.0, 0.0, 0.0, 1.644587718297635E9, 0.0, 2022-02-12 00:55:18.297
26.0, -10047.958498949827, -9695.002102256072, -5764.090211879041, -13109.700454437787, -8490.690111004127, -4877.06123317018, -8050.830131868141, -6078.467497642934, -9610.780729148475, -13102.30202702308, -6931.544176524184, -5776.04839516263, -5636.081771383497, -8265.250416427902, -11746.445208364155, -16785.109553946204, 0.005, 0.23425, 0.94675, 192.0, 0.0, 16.0, 3.5, 40.0, 14.5, 72.0, 0.0, 0.0, 0.0, 1.644587718304533E9, 0.0, 2022-02-12 00:55:18.304
28.0, -10034.189824365358, -9687.089584718893, -5752.981394884753, -13092.377852484924, -8486.48798304653, -4862.711413229873, -8049.824303367652, -6071.739622561887, -9596.430909208168, -13069.936701051796, -6938.786141727704, -5776.942464940842, -5625.040009622576, -8261.830599526238, -11743.539481584965, -16728.157309074082, 0.005, 0.23425, 0.94675, 192.0, 0.0, 0.0, 0.0, 0.0, 0.0, 0.0, 0.0, 0.0, 0.0, 1.6445877183122E9, 0.0, 2022-02-12 00:55:18.312
30.0, -10039.017801167704, -9700.008893014061, -5756.244749575228, -13113.209678317271, -8507.789195512438, -4875.809535480683, -8057.960338349383, -6075.6288260971105, -9605.215144779104, -13082.16310526885, -6918.624868229016, -5768.135877625451, -5629.644468980368, -8260.690660559017, -11745.238214163568, -16790.205751682013, 0.005, 0.23425, 0.94675, 192.0, 0.0, 0.0, 0.0, 0.0, 0.0, 0.0, 0.0, 0.0, 0.0, 1.644587718319208E9, 0.0, 2022-02-12 00:55:18.319
32.0, -10035.732094732773, -9710.670675119243, -5766.861828191499, -13095.976483342229, -8502.760053009993, -4875.742480247317, -8067.3927745095225, -6086.357663435658, -9605.148089545739, -13098.032843832118, -6941.781275484715, -5787.894819723942, -5640.507416785648, -8277.096840989214, -11745.685249052674, -16747.580975005745, 0.005, 0.23425, 0.94675, 192.0, 0.0, 0.0, 0.0, 0.0, 0.0, 0.0, 0.0, 0.0, 0.0, 1.644587718327303E9, 0.0, 2022-02-12 00:55:18.327
34.0, -10047.243243127257, -9703.696930849186, -5760.2457118327275, -13106.280637536125, -8504.34702686632, -4877.5306198037415, -8052.417105724467, -6072.387823151091, -9608.277333769482, -13085.091183792494, -6933.645240502982, -5767.353566569515, -5638.294594084572, -8269.58665485223, -11744.098275196347, -16759.293289100326, 0.005, 0.23425, 0.94675, 192.0, 0.0, 0.0, 0.0, 0.0, 0.0, 0.0, 0.0, 0.0, 0.0, 1.64458771833374E9, 0.0, 2022-02-12 00:55:18.333
36.0, -10044.60573728153, -9697.259628446058, -5777.165982385395, -13110.527468982635, -8503.944695466125, -4885.599599552107, -8062.83301864064, -6083.071957000728, -9611.85361288233, -13102.68200667882, -6949.246758132787, -5781.5469242986355, -5644.374268576416, -8275.196942710512, -11742.46659785111, -16784.573112079277, 0.006500000000000001, 0.23512500000000003, 0.9473750000000001, 192.0, 0.0, 32.0, 3.5, 48.0, 14.5, 80.0, 0.0, 0.0, 0.0, 1.644587718341851E9, 0.0, 2022-02-12 00:55:18.341
38.0, -10057.502693832243, -9704.479241905123, -5753.987223385242, -13098.010492087662, -8489.818392970372, -4882.045672183714, -8057.222730782358, -6088.771651836831, -9601.482403455067, -13090.790878628599, -6951.571339556139, -5780.876371964976, -5635.3888673053825, -8281.522486391365, -11745.08175195238, -16734.728721943942, 0.006500000000000001, 0.23512500000000003, 0.9473750000000001, 192.0, 0.0, 0.0, 0.0, 0.0, 0.0, 0.0, 0.0, 0.0, 0.0, 1.64458771834974E9, 0.0, 2022-02-12 00:55:18.349
40.0, -10062.978871223793, -9718.82906184543, -5760.960967655297, -13114.819003918054, -8503.095329176824, -4883.677349528951, -8058.4073732384895, -6075.8076400527525, -9618.71559843011, -13103.151393312382, -6931.365362568541, -5758.681089720856, -5630.3373730584835, -8265.071602472259, -11743.271260651502, -16793.759679050407, 0.006500000000000001, 0.23512500000000003, 0.9473750000000001, 192.0, 0.0, 0.0, 0.0, 0.0, 0.0, 0.0, 0.0, 0.0, 0.0, 1.64458771835689E9, 0.0, 2022-02-12 00:55:18.356
42.0, -10032.468740042299, -9700.813555814453, -5772.941502683342, -13100.513887466657, -8491.58418078234, -4870.847448211604, -8062.2295215403465, -6076.925227275518, -9608.478499469578, -13100.73740491121, -6942.407124329463, -5778.685901008356, -5634.606556249447, -8271.77712580885, -11742.198376917646, -16747.245698838913, 0.006500000000000001, 0.23512500000000003, 0.9473750000000001, 192.0, 0.0, 0.0, 0.0, 0.0, 0.0, 0.0, 0.0, 0.0, 0.0, 1.644587718364366E9, 0.0, 2022-02-12 00:55:18.364
44.0, -10046.349173349045, -9691.314064420947, -5752.914339651387, -13108.918143381852, -8495.763956995483, -4871.8979802010035, -8052.64062316902, -6076.969930764429, -9602.845859866842, -13085.001776814674, -6939.702563250371, -5790.2417528917495, -5629.264489324629, -8264.222236182957, -11740.454940850132, -16756.2534518544, 0.006500000000000001, 0.23512500000000003, 0.9473750000000001, 192.0, 0.0, 0.0, 0.0, 0.0, 0.0, 0.0, 0.0, 0.0, 0.0, 1.644587718372456E9, 0.0, 2022-02-12 00:55:18.372
46.0, -10077.172228952913, -9725.31106773747, -5771.756860227211, -13107.398224758892, -8497.149765151711, -4886.761890263783, -8059.457905227889, -6084.167192479038, -9612.434758238169, -13107.442928247801, -6937.199167871377, -5771.354528827015, -5641.848521452966, -8271.643015342119, -11737.482158837576, -16785.914216746594, 0.00725, 0.2335625, 0.9476875, 192.0, 0.0, 32.0, 3.5, 32.0, 14.5, 80.0, 0.0, 0.0, 0.0, 1.644587718386547E9, 0.0, 2022-02-12 00:55:18.386
48.0, -10061.458952600831, -9703.49576514909, -5768.761726470199, -13094.948303097284, -8485.482154546042, -4877.620026781563, -8050.964242334872, -6072.209009195449, -9607.338560502358, -13103.620779945944, -6941.937737695902, -5778.350624841527, -5636.841730694978, -8271.73242231994, -11742.46659785111, -16732.940582387517, 0.00725, 0.2335625, 0.9476875, 192.0, 0.0, 0.0, 0.0, 0.0, 0.0, 0.0, 0.0, 0.0, 0.0, 1.644587718393916E9, 0.0, 2022-02-12 00:55:18.393
50.0, -10041.856472713527, -9708.279038462524, -5759.396345543426, -13107.755852670176, -8500.658989031195, -4881.44217508342, -8059.16733254997, -6076.29937843077, -9613.708807672121, -13114.327265540036, -6926.850310188569, -5769.879313692965, -5632.751361459656, -8255.39329712311, -11738.80091176044, -16790.27280691538, 0.00725, 0.2335625, 0.9476875, 192.0, 0.0, 0.0, 0.0, 0.0, 0.0, 0.0, 0.0, 0.0, 0.0, 1.644587718402074E9, 0.0, 2022-02-12 00:55:18.402
52.0, -10046.12565590449, -9705.462718661156, -5768.6946712368335, -13099.843335132997, -8492.34414009382, -4882.224486139356, -8060.240216283824, -6080.367395921636, -9609.28316226997, -13099.552762455078, -6938.272051605231, -5779.982302186764, -5630.717352714223, -8275.152239221601, -11746.46756010861, -16750.620812251665, 0.00725, 0.2335625, 0.9476875, 192.0, 0.0, 0.0, 0.0, 0.0, 0.0, 0.0, 0.0, 0.0, 0.0, 1.644587718410026E9, 0.0, 2022-02-12 00:55:18.410
54.0, -10031.708780730818, -9701.148831981282, -5754.098982107518, -13106.727672425232, -8493.662893016684, -4879.564628549174, -8052.797085380207, -6074.667701085532, -9608.679665169677, -13087.460468704758, -6939.389638827996, -5779.401156830926, -5634.561852760537, -8267.798515295806, -11739.694981538652, -16759.98619317844, 0.00725, 0.2335625, 0.9476875, 192.0, 0.0, 0.0, 0.0, 0.0, 0.0, 0.0, 0.0, 0.0, 0.0, 1.644587718416649E9, 0.0, 2022-02-12 00:55:18.416
56.0, -10049.299603617144, -9710.82713733043, -5764.157267112407, -13108.493460237201, -8494.936942450637, -4882.5821140506405, -8054.518169703266, -6076.791116808787, -9604.85751686782, -13115.176631829338, -6939.501397550273, -5765.967758413286, -5632.237271337184, -8261.025936725848, -11741.773693772995, -16786.71887954699, 0.006625000000000001, 0.23278125, 0.9478437500000001, 192.0, 0.0, 24.0, 3.5, 32.0, 14.5, 80.0, 0.0, 0.0, 0.0, 1.644587718424702E9, 0.0, 2022-02-12 00:55:18.424
58.0, -10039.88951920146, -9690.86702953184, -5761.162133355396, -13105.051291591084, -8491.047738915413, -4879.8775529715485, -8056.753344148797, -6082.691977344987, -9600.320112743391, -13088.846276860986, -6937.780313227215, -5783.4244708328815, -5630.024448636109, -8272.760602564884, -11742.354839128833, -16732.091216098215, 0.006625000000000001, 0.23278125, 0.9478437500000001, 192.0, 0.0, 0.0, 0.0, 0.0, 0.0, 0.0, 0.0, 0.0, 0.0, 1.644587718432716E9, 0.0, 2022-02-12 00:55:18.432
60.0, -10042.504673302732, -9704.546297138488, -5759.396345543426, -13119.244649320204, -8505.911648978192, -4890.315817632177, -8057.423896482456, -6077.126392975616, -9609.841955881353, -13097.608160687467, -6945.871644720036, -5784.162078399906, -5637.601690006458, -8267.01620423987, -11743.494778096054, -16793.960844750505, 0.006625000000000001, 0.23278125, 0.9478437500000001, 192.0, 0.0, 0.0, 0.0, 0.0, 0.0, 0.0, 0.0, 0.0, 0.0, 1.64458771843969E9, 0.0, 2022-02-12 00:55:18.439
62.0, -10068.455048615342, -9720.527794424033, -5773.656758505912, -13096.669387420343, -8502.737701265538, -4893.400358367009, -8071.259626300291, -6090.2468669708815, -9604.812813378909, -13100.82681188903, -6942.585938285106, -5787.783061001666, -5633.2207480932175, -8284.629378870652, -11746.825188019895, -16753.75005647541, 0.006625000000000001, 0.23278125, 0.9478437500000001, 192.0, 0.0, 0.0, 0.0, 0.0, 0.0, 0.0, 0.0, 0.0, 0.0, 1.644587718446337E9, 0.0, 2022-02-12 00:55:18.446
64.0, -10047.46676057181, -9713.665808876254, -5758.770496698678, -13104.425442746335, -8496.926247707159, -4881.665692527973, -8059.904940116995, -6084.413061668046, -9610.110176814816, -13106.794727658598, -6935.858063204058, -5771.622749760479, -5623.9447741442655, -8268.692585074019, -11749.216824676612, -16760.500283300913, 0.006625000000000001, 0.23278125, 0.9478437500000001, 192.0, 0.0, 0.0, 0.0, 0.0, 0.0, 0.0, 0.0, 0.0, 0.0, 1.644587718454226E9, 0.0, 2022-02-12 00:55:18.454
66.0, -10054.194635652857, -9718.426730445235, -5775.780174229166, -13110.080434093528, -8500.949561709114, -4889.555858320697, -8067.750402420807, -6094.739567606398, -9604.298723256436, -13110.974503871741, -6933.108798636055, -5766.6383107469455, -5641.6697074973235, -8254.946262234005, -11744.679420552186, -16787.098859202728, 0.0053125, 0.23039062500000002, 0.9489218750000001, 192.0, 0.0, 16.0, 3.5, 16.0, 14.5, 88.0, 0.0, 0.0, 0.0, 1.644587718462802E9, 0.0, 2022-02-12 00:55:18.462
68.0, -10032.55814702012, -9698.623084857833, -5764.626653745968, -13102.749061912187, -8491.874753460259, -4880.436346582931, -8064.442344241423, -6084.882448301608, -9597.749662131031, -13087.751041382677, -6946.318679609142, -5786.643122034446, -5641.312079586039, -8271.531256619843, -11750.356763643833, -16731.621829464653, 0.0053125, 0.23039062500000002, 0.9489218750000001, 192.0, 0.0, 0.0, 0.0, 0.0, 0.0, 0.0, 0.0, 0.0, 0.0, 1.644587718468989E9, 0.0, 2022-02-12 00:55:18.468
70.0, -10036.648516255442, -9704.523945394034, -5767.130049124962, -13113.030864361628, -8502.044797187424, -4883.498535573308, -8059.815533139174, -6080.859134299652, -9598.643731909244, -13079.167971511839, -6937.713257993849, -5774.148496883929, -5638.741628973678, -8263.01524198237, -11745.595842074854, -16792.552684849823, 0.0053125, 0.23039062500000002, 0.9489218750000001, 192.0, 0.0, 0.0, 0.0, 0.0, 0.0, 0.0, 0.0, 0.0, 0.0, 1.644587718477245E9, 0.0, 2022-02-12 00:55:18.477
72.0, -10047.958498949827, -9703.49576514909, -5777.724775996778, -13102.279675278625, -8490.556000537395, -4878.827020982149, -8057.915634860473, -6083.161363978549, -9596.497964441534, -13112.248553305693, -6954.611176802061, -5790.018235447197, -5639.412181307338, -8268.044384484814, -11744.880586252284, -16749.07854188425, 0.0053125, 0.23039062500000002, 0.9489218750000001, 192.0, 0.0, 0.0, 0.0, 0.0, 0.0, 0.0, 0.0, 0.0, 0.0, 1.64458771848489E9, 0.0, 2022-02-12 00:55:18.484
74.0, -10047.042077427159, -9699.405395913767, -5762.056203133608, -13107.73350092572, -8497.373282596265, -4880.123422160557, -8054.205245280892, -6075.561770863745, -9596.855592352818, -13103.061986334562, -6937.869720205035, -5778.596494030535, -5630.605593991947, -8263.417573382565, -11745.864063008317, -16753.07950414175, 0.0053125, 0.23039062500000002, 0.9489218750000001, 192.0, 0.0, 0.0, 0.0, 0.0, 0.0, 0.0, 0.0, 0.0, 0.0, 1.644587718492217E9, 0.0, 2022-02-12 00:55:18.492
76.0, -10063.247092157257, -9723.791149114508, -5767.420621802881, -13107.889963136908, -8492.701768005105, -4885.800765252205, -8065.135248319537, -6086.87175355813, -9596.52031618599, -13103.129041567927, -6946.586900542606, -5780.004653931219, -5643.59195752048, -8280.06962300177, -11743.159501929225, -16787.970577236483, 0.006656250000000001, 0.22719531250000002, 0.9484609375000002, 192.0, 0.0, 32.0, 3.5, 0.0, 14.5, 80.0, 0.0, 0.0, 0.0, 1.644587718499587E9, 0.0, 2022-02-12 00:55:18.499
78.0, -10057.212121154324, -9718.650247889787, -5763.553770012113, -13107.420576503346, -8480.005977154491, -4876.211866880878, -8062.5200942182655, -6078.802773809764, -9595.760356874509, -13089.405070472369, -6927.744379966782, -5774.573180028579, -5622.715428199223, -8268.603178096197, -11740.343182127855, -16730.3477800307, 0.006656250000000001, 0.22719531250000002, 0.9484609375000002, 192.0, 0.0, 0.0, 0.0, 0.0, 0.0, 0.0, 0.0, 0.0, 0.0, 1.644587718514693E9, 0.0, 2022-02-12 00:55:18.514
80.0, -10043.89048145896, -9706.40149192828, -5765.476020035269, -13128.766492458164, -8497.596800040817, -4885.8678204855705, -8057.446248226911, -6084.167192479038, -9611.048950081939, -13091.103803050972, -6933.578185269616, -5774.99786317323, -5631.857291681444, -8255.63916631212, -11739.18089141618, -16790.3622138932, 0.006656250000000001, 0.22719531250000002, 0.9484609375000002, 192.0, 0.0, 0.0, 0.0, 0.0, 0.0, 0.0, 0.0, 0.0, 0.0, 1.644587718521755E9, 0.0, 2022-02-12 00:55:18.521
82.0, -10053.74760076375, -9708.703721607175, -5778.864714963998, -13114.059044606573, -8488.544343536418, -4883.29736987321, -8065.0458413417155, -6089.621018126133, -9599.046063309439, -13100.089204322006, -6949.760848255259, -5791.113470925507, -5633.891300426877, -8273.900541532104, -11741.728990284086, -16754.130036131148, 0.006656250000000001, 0.22719531250000002, 0.9484609375000002, 192.0, 0.0, 0.0, 0.0, 0.0, 0.0, 0.0, 0.0, 0.0, 0.0, 1.644587718529492E9, 0.0, 2022-02-12 00:55:18.529
84.0, -10052.719420518806, -9696.410262156756, -5764.224322345773, -13111.086262594017, -8491.718291249072, -4877.2400471258225, -8061.782486651241, -6079.20510520996, -9598.621380164788, -13087.169896026839, -6946.56454879815, -5779.1999911308285, -5635.0982946274635, -8262.903483260094, -11743.22655716259, -16755.31467858728, 0.006656250000000001, 0.22719531250000002, 0.9484609375000002, 192.0, 0.0, 0.0, 0.0, 0.0, 0.0, 0.0, 0.0, 0.0, 0.0, 1.644587718537193E9, 0.0, 2022-02-12 00:55:18.537
86.0, -10058.016783954714, -9715.655114132776, -5775.556656784614, -13110.818041660554, -8495.026349428457, -4883.29736987321, -8064.755268663796, -6085.731814590909, -9596.430909208168, -13104.850125890986, -6935.187510870399, -5767.644139247434, -5636.819378950522, -8261.58473033723, -11741.773693772995, -16786.629472569166, 0.01, 0.226, 0.9480000000000001, 192.0, 0.0, 40.0, 3.5, 8.0, 14.5, 80.0, 0.0, 0.0, 0.0, 1.644587718545356E9, 0.0, 2022-02-12 00:55:18.545
88.0, -10049.567824550608, -9710.78243384152, -5768.359395070004, -13105.45362299128, -8483.336387078332, -4870.355709833588, -8049.220806267358, -6078.311035431748, -9590.172420760682, -13095.618855430945, -6945.111685408555, -5772.4497643053255, -5625.263527067128, -8265.451582127998, -11737.862138493318, -16728.35847477418, 0.01, 0.226, 0.9480000000000001, 192.0, 0.0, 0.0, 0.0, 0.0, 0.0, 0.0, 0.0, 0.0, 0.0, 1.64458771855187E9, 0.0, 2022-02-12 00:55:18.551
90.0, -10033.072237142593, -9696.119689478837, -5761.1844850998505, -13116.897716152396, -8494.802831983905, -4872.568532534663, -8054.138190047525, -6081.283817444303, -9601.795327877442, -13101.676178178333, -6933.5111300362505, -5774.28260735066, -5619.027390364098, -8253.940433733516, -11734.330562869378, -16788.88699875915, 0.01, 0.226, 0.9480000000000001, 192.0, 0.0, 0.0, 0.0, 0.0, 0.0, 0.0, 0.0, 0.0, 0.0, 1.644587718559953E9, 0.0, 2022-02-12 00:55:18.559
92.0, -10038.660173256418, -9712.816442586953, -5769.767554970688, -13105.900657880386, -8487.337349335832, -4875.518962802764, -8065.895207631017, -6088.458727414457, -9572.872170552275, -13073.602387142468, -6933.846406203081, -5782.977435943775, -5630.180910847296, -8258.947224491505, -11736.23046114808, -16747.98330640594, 0.01, 0.226, 0.9480000000000001, 192.0, 0.0, 0.0, 0.0, 0.0, 0.0, 0.0, 0.0, 0.0, 0.0, 1.64458771856675E9, 0.0, 2022-02-12 00:55:18.566
94.0, -10065.70578404734, -9731.189576529214, -5767.442973547337, -13117.232992319226, -8495.607494784295, -4876.211866880878, -8064.8670273860735, -6083.384881423102, -9607.42796748018, -13114.483727751223, -6948.0397639322, -5780.630502775968, -5633.645431237868, -8264.959843749983, -11739.85144374984, -16754.39825706461, 0.01, 0.226, 0.9480000000000001, 192.0, 0.0, 0.0, 0.0, 0.0, 0.0, 0.0, 0.0, 0.0, 0.0, 1.644587718576312E9, 0.0, 2022-02-12 00:55:18.576
96.0, -10053.367621108011, -9716.191555999703, -5780.1387643979515, -13126.374855801447, -8496.188640140133, -4873.507305801786, -8064.129419819048, -6080.747375577375, -9608.210278536115, -13121.479823765734, -6959.170932670943, -5788.073633679585, -5639.769809218623, -8266.949149006505, -11743.18185367368, -16787.635301069655, 0.01, 0.228, 0.9500000000000001, 192.0, 0.0, 40.0, 3.5, 16.0, 14.5, 88.0, 0.0, 0.0, 0.0, 1.644587718582273E9, 0.0, 2022-02-12 00:55:18.582
98.0, -10076.434621385888, -9703.696930849186, -5769.834610204054, -13118.238820819715, -8483.939884178626, -4868.4334598104315, -8059.2343877833355, -6075.070032485728, -9593.256961495515, -13086.87932334892, -6979.019281747256, -5811.878241524487, -5636.0370678945865, -8263.618739082664, -11736.766903015006, -16726.5479834733, 0.01, 0.228, 0.9500000000000001, 192.0, 0.0, 0.0, 0.0, 0.0, 0.0, 0.0, 0.0, 0.0, 0.0, 1.644587718589609E9, 0.0, 2022-02-12 00:55:18.589
100.0, -10074.46766787382, -9744.824140646951, -5771.086307893552, -13126.888945923918, -8492.455898816097, -4883.453832084398, -8062.631852940543, -6079.786250565798, -9612.032426837972, -13120.764567943164, -6939.076714405623, -5791.359340114515, -5643.033163909097, -8271.419497897567, -11736.409275103722, -16794.251417428426, 0.01, 0.228, 0.9500000000000001, 192.0, 0.0, 0.0, 0.0, 0.0, 0.0, 0.0, 0.0, 0.0, 0.0, 1.644587718597478E9, 0.0, 2022-02-12 00:55:18.597
102.0, -10109.38109271301, -9768.204065347203, -5771.5109910382025, -13110.236896304716, -8484.319863834366, -4878.9387797044255, -8068.085678587638, -6086.134145991105, -9601.840031366353, -13123.335018555525, -6953.739458768304, -5792.611037804012, -5635.187701605285, -8271.888884531127, -11735.93988847016, -16753.705352986497, 0.01, 0.228, 0.9500000000000001, 192.0, 0.0, 0.0, 0.0, 0.0, 0.0, 0.0, 0.0, 0.0, 0.0, 1.644587718604086E9, 0.0, 2022-02-12 00:55:18.604
104.0, -10079.608569098542, -9729.356733483879, -5757.85407517601, -13116.383626029925, -8492.187677882634, -4873.507305801786, -8072.623082712064, -6078.6239598541215, -9602.152955788726, -13111.98033237223, -6934.762827725748, -5780.876371964976, -5633.824245193511, -8259.43896286952, -11739.56087107192, -16756.90165244361, 0.01, 0.228, 0.9500000000000001, 192.0, 0.0, 0.0, 0.0, 0.0, 0.0, 0.0, 0.0, 0.0, 0.0, 1.644587718612162E9, 0.0, 2022-02-12 00:55:18.612
106.0, -10089.465688403332, -9732.910660852272, -5772.7626887277, -13124.519661011656, -8495.54043955093, -4882.202134394901, -8074.567684479676, -6085.955332035463, -9601.169479032693, -13113.83552716202, -6932.840577702592, -5788.1853924018615, -5640.038030152086, -8263.708146060484, -11740.186719916668, -16795.32430116228, 0.018000000000000002, 0.224, 0.9500000000000001, 192.0, 0.0, 72.0, 3.5, 0.0, 14.5, 88.0, 0.0, 0.0, 0.0, 1.644587718620486E9, 0.0, 2022-02-12 00:55:18.620
108.0, -10067.09159220357, -9727.389779971812, -5770.99690091573, -13113.522602739646, -8481.570599266362, -4876.01070118078, -8066.923387875961, -6085.485945401901, -9597.548496430934, -13096.490573464702, -6951.034897689212, -5776.003691673719, -5640.2615475966395, -8269.16197170758, -11735.112873925314, -16737.522690000857, 0.018000000000000002, 0.224, 0.9500000000000001, 192.0, 0.0, 0.0, 0.0, 0.0, 0.0, 0.0, 0.0, 0.0, 0.0, 1.644587718633683E9, 0.0, 2022-02-12 00:55:18.633
110.0, -10069.639691071474, -9729.624954417342, -5767.912360180898, -13129.101768624994, -8493.372320338765, -4881.330416361144, -8066.722222175864, -6089.017521025839, -9601.370644732791, -13106.370044513948, -6947.257452876264, -5784.162078399906, -5635.187701605285, -8256.756753534884, -11737.437455348667, -16801.627493098676, 0.018000000000000002, 0.224, 0.9500000000000001, 192.0, 0.0, 0.0, 0.0, 0.0, 0.0, 0.0, 0.0, 0.0, 0.0, 1.644587718642049E9, 0.0, 2022-02-12 00:55:18.642
112.0, -10078.781554553694, -9745.070009835961, -5771.9803776717645, -13118.529393497634, -8482.82229695586, -4873.954340690892, -8069.113858832581, -6069.482096371901, -9601.795327877442, -13104.06781483505, -6951.057249433667, -5804.0327792206745, -5645.514207543637, -8261.852951270694, -11734.755246014029, -16758.80155072231, 0.018000000000000002, 0.224, 0.9500000000000001, 192.0, 0.0, 0.0, 0.0, 0.0, 0.0, 0.0, 0.0, 0.0, 0.0, 1.644587718650315E9, 0.0, 2022-02-12 00:55:18.650
114.0, -10048.785513494673, -9705.149794238781, -5758.591682743035, -13117.478861508234, -8481.950578922102, -4871.026262167247, -8064.64350994152, -6071.538456861789, -9592.631112650766, -13092.087279807005, -6956.220502402843, -5800.657665807923, -5635.277108583106, -8265.317471661267, -11732.117740168303, -16762.46723681298, 0.018000000000000002, 0.224, 0.9500000000000001, 192.0, 0.0, 0.0, 0.0, 0.0, 0.0, 0.0, 0.0, 0.0, 0.0, 1.644587718657079E9, 0.0, 2022-02-12 00:55:18.657
116.0, -10063.381202623988, -9729.177919528238, -5767.778249714166, -13112.963809128263, -8486.957369680093, -4876.077756414146, -8079.149792093014, -6082.87079130063, -9592.362891717303, -13103.6431316904, -6934.002868414267, -5780.295226609138, -5633.176044604307, -8256.220311667958, -11736.94571697065, -16801.627493098676, 0.018000000000000002, 0.226, 0.9520000000000001, 192.0, 0.0, 72.0, 3.5, 8.0, 14.5, 96.0, 0.0, 0.0, 0.0, 1.644587718664401E9, 0.0, 2022-02-12 00:55:18.664
118.0, -10066.219874169812, -9734.363524241868, -5755.730659452755, -13101.765585156154, -8480.67652948815, -4861.996157407303, -8064.889379130528, -6074.153610963061, -9577.27546420997, -13088.220428016237, -6932.415894557941, -5769.3428718260375, -5626.40346603435, -8256.332070390234, -11734.844652991851, -16740.40606503559, 0.018000000000000002, 0.226, 0.9520000000000001, 192.0, 0.0, 0.0, 0.0, 0.0, 0.0, 0.0, 0.0, 0.0, 0.0, 1.644587718672728E9, 0.0, 2022-02-12 00:55:18.672
120.0, -10066.46574335882, -9715.610410643865, -5756.110639108496, -13118.283524308627, -8496.658026773695, -4867.7852592212275, -8074.299463546213, -6080.34504417718, -9588.876019582274, -13088.30983499406, -6929.174891611921, -5761.877389177966, -5620.457902009238, -8242.742209761407, -11736.297516381444, -16801.26986518739, 0.018000000000000002, 0.226, 0.9520000000000001, 192.0, 0.0, 0.0, 0.0, 0.0, 0.0, 0.0, 0.0, 0.0, 0.0, 1.644587718679445E9, 0.0, 2022-02-12 00:55:18.679
122.0, -10062.218911912312, -9719.074931034438, -5759.508104265703, -13106.101823580484, -8488.097308647313, -4869.863971455571, -8070.298501288713, -6077.573427864722, -9582.215199734594, -13094.724785652732, -6934.874586448024, -5789.52649706918, -5630.762056203134, -8255.572111078753, -11736.65514429273, -16767.6081380377, 0.018000000000000002, 0.226, 0.9520000000000001, 192.0, 0.0, 0.0, 0.0, 0.0, 0.0, 0.0, 0.0, 0.0, 0.0, 1.644587718686106E9, 0.0, 2022-02-12 00:55:18.686
124.0, -10048.092609416559, -9730.854300362385, -5750.545054739125, -13110.63922770491, -8495.406329084199, -4866.86883769856, -8066.856332642596, -6068.543323104778, -9584.025691035473, -13085.5382186816, -6931.521824779728, -5783.044491177141, -5629.175082346807, -8245.513826073864, -11737.45980709312, -16762.69075425753, 0.018000000000000002, 0.226, 0.9520000000000001, 192.0, 0.0, 0.0, 0.0, 0.0, 0.0, 0.0, 0.0, 0.0, 0.0, 1.644587718693938E9, 0.0, 2022-02-12 00:55:18.693
126.0, -10086.85053430206, -9714.224602487637, -5760.670394977378, -13121.92685865484, -8503.497660577019, -4872.948512190404, -8078.568646737176, -6079.138049976594, -9598.196697020137, -13109.655750948878, -6926.872661933025, -5776.04839516263, -5634.427742293804, -8243.457465583977, -11739.918498983205, -16803.773260566388, 0.006, 0.234, 0.9520000000000001, 192.0, 0.0, 24.0, 3.5, 40.0, 14.5, 96.0, 0.0, 0.0, 0.0, 1.644587718702195E9, 0.0, 2022-02-12 00:55:18.702
128.0, -10069.460877115831, -9710.514212908056, -5751.640290217435, -13099.262189777159, -8486.376224324255, -4864.901884186493, -8064.352937263601, -6066.799887037264, -9586.953769559119, -13088.935683838807, -6934.405199814463, -5791.448747092337, -5624.1235880999075, -8254.722744789451, -11733.99528670255, -16736.762730689374, 0.006, 0.234, 0.9520000000000001, 192.0, 0.0, 0.0, 0.0, 0.0, 0.0, 0.0, 0.0, 0.0, 0.0, 1.644587718709104E9, 0.0, 2022-02-12 00:55:18.709
130.0, -10050.46189432882, -9722.740617125108, -5748.019307615675, -13112.44971900579, -8504.659951288695, -4867.62879701004, -8070.969053622372, -6070.912608017041, -9589.434813193657, -13090.835582117508, -6923.832824687103, -5767.264159591694, -5615.741683929167, -8246.810227252272, -11732.005981446026, -16792.21740868299, 0.006, 0.234, 0.9520000000000001, 192.0, 0.0, 0.0, 0.0, 0.0, 0.0, 0.0, 0.0, 0.0, 0.0, 1.644587718716665E9, 0.0, 2022-02-12 00:55:18.716
132.0, -10057.078010687592, -9729.870823606352, -5758.748144954222, -13106.347692769492, -8495.786308739938, -4873.507305801786, -8081.876704916562, -6077.7969453092755, -9579.778859588965, -13103.754890412676, -6941.42364757343, -5776.160153884906, -5625.375285789405, -8244.575052806742, -11734.956411714127, -16758.667440255576, 0.006, 0.234, 0.9520000000000001, 192.0, 0.0, 0.0, 0.0, 0.0, 0.0, 0.0, 0.0, 0.0, 0.0, 1.644587718724664E9, 0.0, 2022-02-12 00:55:18.724
134.0, -10042.66113551392, -9703.026378515528, -5748.578101227057, -13110.393358515903, -8499.720215764071, -4872.568532534663, -8077.853390914606, -6082.133183733605, -9580.13648750025, -13089.047442561085, -6934.18168236991, -5776.629540518468, -5621.35197178745, -8240.931718460526, -11735.068170436403, -16760.83555946774, 0.006, 0.234, 0.9520000000000001, 192.0, 0.0, 0.0, 0.0, 0.0, 0.0, 0.0, 0.0, 0.0, 0.0, 1.644587718732943E9, 0.0, 2022-02-12 00:55:18.732
136.0, -10054.239339141768, -9714.626933887832, -5761.877389177966, -13119.4458150203, -8503.944695466125, -4879.318759360166, -8087.062309630193, -6086.737643091398, -9586.37262420328, -13098.144602554394, -6927.811435200148, -5767.308863080605, -5616.993381618665, -8239.545910304298, -11735.17992915868, -16802.32039717679, 0.006, 0.234, 0.9520000000000001, 192.0, 0.0, 0.0, 3.5, 56.0, 14.5, 56.0, 0.0, 0.0, 0.0, 1.644587718739222E9, 0.0, 2022-02-12 00:55:18.739
138.0, -10048.427885583387, -9702.86991630434, -5759.105772865507, -13106.794727658598, -8491.651236015707, -4872.903808701492, -8075.148829835514, -6080.434451155002, -9583.690414868643, -13082.565436669045, -6935.723952737326, -5780.339930098049, -5627.319887557017, -8249.15716042008, -11736.923365226194, -16741.702466214, 0.006, 0.234, 0.9520000000000001, 192.0, 0.0, 0.0, 0.0, 0.0, 0.0, 0.0, 0.0, 0.0, 0.0, 1.64458771874735E9, 0.0, 2022-02-12 00:55:18.747
140.0, -10033.854548198527, -9687.223695185625, -5747.840493660033, -13116.741253941209, -8499.429643086152, -4869.975730177847, -8072.310158289691, -6074.108907474149, -9585.366795702792, -13090.5897129285, -6921.307077563653, -5763.017328145186, -5614.869965895411, -8235.746113746896, -11728.60851628882, -16795.391356395645, 0.006, 0.234, 0.9520000000000001, 192.0, 0.0, 0.0, 0.0, 0.0, 0.0, 0.0, 0.0, 0.0, 0.0, 1.644587718762427E9, 0.0, 2022-02-12 00:55:18.762
142.0, -10059.156722921934, -9724.282887492525, -5760.04454613263, -13107.688797436811, -8492.388843582732, -4869.707509244384, -8080.960283393894, -6078.355738920658, -9579.220065977583, -13072.708317364255, -6929.845443945581, -5772.42741256087, -5618.334486285983, -8245.714991773963, -11732.162443657213, -16759.159178633592, 0.006, 0.234, 0.9520000000000001, 192.0, 0.0, 0.0, 0.0, 0.0, 0.0, 0.0, 0.0, 0.0, 0.0, 1.644587718768923E9, 0.0, 2022-02-12 00:55:18.768
144.0, -10029.764178963207, -9703.20519247117, -5746.857016903999, -13110.527468982635, -8492.590009282829, -4860.856218440083, -8067.303367531702, -6067.403384137558, -9582.081089267862, -13086.454640204269, -6942.4294760739185, -5774.95315968432, -5612.366570516417, -8236.327259102734, -11732.341257612856, -16753.88416694214, 0.006, 0.234, 0.9520000000000001, 192.0, 0.0, 0.0, 0.0, 0.0, 0.0, 0.0, 0.0, 0.0, 0.0, 1.644587718776994E9, 0.0, 2022-02-12 00:55:18.776
146.0, -10056.541568820665, -9714.314009465457, -5753.294319307127, -13110.393358515903, -8502.223611143067, -4874.691948257917, -8078.546294992721, -6077.81929705373, -9584.450374180124, -13100.268018277648, -6931.767693968737, -5776.7636509852, -5620.0108671201315, -8232.773331734339, -11729.681400022675, -16792.23976042745, 0.006, 0.23600000000000002, 0.9420000000000001, 192.0, 0.0, 24.0, 3.5, 48.0, 14.5, 56.0, 0.0, 0.0, 0.0, 1.644587718784948E9, 0.0, 2022-02-12 00:55:18.784
148.0, -10067.337461392577, -9723.724093881143, -5755.574197241569, -13102.056157834073, -8493.126451149756, -4876.837715725626, -8077.36165253659, -6076.612302853144, -9583.019862534984, -13095.261227519659, -6935.99217367079, -5782.1951248878395, -5609.885526881877, -8252.15229417709, -11735.314039625411, -16736.49450975591, 0.006, 0.23600000000000002, 0.9420000000000001, 192.0, 0.0, 0.0, 0.0, 0.0, 0.0, 0.0, 0.0, 0.0, 0.0, 1.644587718791556E9, 0.0, 2022-02-12 00:55:18.791
150.0, -10061.66011830093, -9722.472396191644, -5756.065935619586, -13120.831623176531, -8509.465576346585, -4882.15743090599, -8080.557951993699, -6081.797907566775, -9594.262789996004, -13094.25539901917, -6924.793949698681, -5762.793810700633, -5620.837881664977, -8245.58088130723, -11736.431626848178, -16799.526429119876, 0.006, 0.23600000000000002, 0.9420000000000001, 192.0, 0.0, 0.0, 0.0, 0.0, 0.0, 0.0, 0.0, 0.0, 0.0, 1.644587718799438E9, 0.0, 2022-02-12 00:55:18.799
152.0, -10062.531836334687, -9715.342189710402, -5769.767554970688, -13111.779166672131, -8504.145861166222, -4884.169087906967, -8089.118670120081, -6084.457765156957, -9590.060662038406, -13100.35742525547, -6940.954260939868, -5784.318540611093, -5624.503567755648, -8251.81701801026, -11741.013734461516, -16768.23398688245, 0.006, 0.23600000000000002, 0.9420000000000001, 192.0, 0.0, 0.0, 0.0, 0.0, 0.0, 0.0, 0.0, 0.0, 0.0, 1.644587718807721E9, 0.0, 2022-02-12 00:55:18.807
154.0, -10041.901176202438, -9704.702759349675, -5752.534359995647, -13120.652809220888, -8502.536535565441, -4880.928084960948, -8080.177972337959, -6080.277988943814, -9595.46978419659, -13089.78505012811, -6948.084467421111, -5791.225229647784, -5622.894242154866, -8251.63820405462, -11743.673592051697, -16765.93175720355, 0.006, 0.23600000000000002, 0.9420000000000001, 192.0, 0.0, 24.0, 3.5, 48.0, 14.5, 56.0, 0.0, 0.0, 0.0, 1.644587718814653E9, 0.0, 2022-02-12 00:55:18.814
156.0, -10063.068278201614, -9718.091454278405, -5759.262235076694, -13127.000704646196, -8504.63759954424, -4882.626817539552, -8091.264437587791, -6086.737643091398, -9597.257923753015, -13098.16695429885, -6936.550967282173, -5781.949255698831, -5622.268393310117, -8252.06288719927, -11742.868929251306, -16805.04731000034, 0.006, 0.23600000000000002, 0.9420000000000001, 192.0, 0.0, 0.0, 0.0, 0.0, 0.0, 0.0, 0.0, 0.0, 0.0, 1.644587718821204E9, 0.0, 2022-02-12 00:55:18.821
158.0, -10068.94678699336, -9719.92429732374, -5758.748144954222, -13112.114442838962, -8496.412157584686, -4884.482012329342, -8093.589019011143, -6095.030140284317, -9591.55822891691, -13090.477954206224, -6948.37504009903, -5793.52745932668, -5606.756282658134, -8255.482704100932, -11739.449112349643, -16740.294306313313, 0.006, 0.23600000000000002, 0.9420000000000001, 192.0, 0.0, 0.0, 0.0, 0.0, 0.0, 0.0, 0.0, 0.0, 0.0, 1.644587718829159E9, 0.0, 2022-02-12 00:55:18.829
160.0, -10059.670813044408, -9723.768797370052, -5753.897816407421, -13128.565326758067, -8514.248849660022, -4882.336244861633, -8098.484051046855, -6084.949503534974, -9594.866287096296, -13108.828736404032, -6946.698659264882, -5770.907493937909, -5626.9399079012765, -8257.293195401811, -11743.673592051697, -16802.61096985471, 0.006, 0.23600000000000002, 0.9420000000000001, 192.0, 0.0, 0.0, 0.0, 0.0, 0.0, 0.0, 0.0, 0.0, 0.0, 1.644587718837231E9, 0.0, 2022-02-12 00:55:18.837
162.0, -10067.315109648122, -9720.840718846408, -5770.5722177710795, -13121.301009810091, -8509.68909379114, -4890.047596698713, -8106.038940672749, -6089.017521025839, -9604.276371511982, -13096.624683931434, -6945.670479019938, -5797.014331461708, -5637.959317917743, -8263.529332104843, -11747.294574653457, -16772.771391006874, 0.006, 0.23600000000000002, 0.9420000000000001, 192.0, 0.0, 0.0, 0.0, 0.0, 0.0, 0.0, 0.0, 0.0, 0.0, 1.644587718844346E9, 0.0, 2022-02-12 00:55:18.844
164.0, -10053.613490297019, -9723.053541547482, -5754.411906529893, -13122.843280177509, -8506.448090845119, -4884.571419307163, -8094.259571344802, -6078.780422065309, -9599.09076679835, -13094.009529830162, -6951.638394789505, -5790.800546503133, -5630.762056203134, -8263.551683849297, -11745.931118241682, -16767.518731059878, 0.004, 0.23600000000000002, 0.9440000000000001, 192.0, 0.0, 8.0, 3.5, 48.0, 14.5, 72.0, 0.0, 0.0, 0.0, 1.644587718851799E9, 0.0, 2022-02-12 00:55:18.851
166.0, -10078.401574897955, -9730.966059084662, -5762.726755467267, -13127.26892557966, -8512.63952405924, -4892.774509522261, -8111.403359342023, -6087.452898913968, -9603.628170922777, -13118.909373153374, -6937.981478927312, -5793.281590137672, -5629.622117235914, -8256.44382911251, -11743.13715018477, -16808.690644346552, 0.004, 0.23600000000000002, 0.9440000000000001, 192.0, 0.0, 0.0, 0.0, 0.0, 0.0, 0.0, 0.0, 0.0, 0.0, 1.644587718859894E9, 0.0, 2022-02-12 00:55:18.859
168.0, -10059.626109555496, -9718.739654867608, -5761.922092666876, -13110.907448638374, -8495.652198273207, -4882.425651839453, -8099.847507458629, -6079.160401721049, -9596.833240608365, -13098.435175232313, -6950.364345355552, -5787.738357512755, -5616.054608351542, -8267.552646106798, -11743.60653681833, -16743.088274370228, 0.004, 0.23600000000000002, 0.9440000000000001, 192.0, 0.0, 0.0, 0.0, 0.0, 0.0, 0.0, 0.0, 0.0, 0.0, 1.644587718867839E9, 0.0, 2022-02-12 00:55:18.867
170.0, -10050.75246700674, -9708.681369862721, -5759.530456010158, -13128.252402335693, -8514.874698504771, -4888.6841402869395, -8097.455870801911, -6085.530648890812, -9601.258886010515, -13102.838468890008, -6941.155426639966, -5770.326348582072, -5628.415123035326, -8252.621680810653, -11740.857272250329, -16799.682891331064, 0.004, 0.23600000000000002, 0.9440000000000001, 192.0, 0.0, 0.0, 0.0, 0.0, 0.0, 0.0, 0.0, 0.0, 0.0, 1.644587718881493E9, 0.0, 2022-02-12 00:55:18.881
172.0, -10079.049775487158, -9724.796977614997, -5768.337043325549, -13123.424425533347, -8509.912611235692, -4896.529602590752, -8101.702702248419, -6093.174945494527, -9604.85751686782, -13111.108614338473, -6956.868702992047, -5791.091119181052, -5635.992364405676, -8274.146410721112, -11743.584185073876, -16773.061963684795, 0.004, 0.23600000000000002, 0.9440000000000001, 192.0, 0.0, 0.0, 0.0, 0.0, 0.0, 0.0, 0.0, 0.0, 0.0, 1.644587718889524E9, 0.0, 2022-02-12 00:55:18.889
174.0, -10045.477455315287, -9719.521965923544, -5758.345813554027, -13122.440948777314, -8509.979666469058, -4888.102994931101, -8101.166260381492, -6083.340177934191, -9601.862383110809, -13115.042521362606, -6954.499418079784, -5792.7004447818335, -5626.716390456723, -8269.899579274605, -11741.99721121755, -16765.440018825535, -0.002, 0.23700000000000002, 0.9470000000000001, 192.0, 127.5, 96.0, 3.5, 56.0, 14.5, 88.0, 0.0, 0.0, 0.0, 1.644587718896664E9, 0.0, 2022-02-12 00:55:18.896
176.0, -10054.79813275315, -9727.412131716268, -5767.5770840140685, -13123.670294722355, -8513.645352559728, -4892.774509522261, -8101.300370848224, -6088.011692525351, -9602.28706625546, -13125.950172656796, -6946.743362753793, -5787.7160057683, -5624.503567755648, -8255.326241889745, -11743.897109496249, -16803.79561231084, -0.002, 0.23700000000000002, 0.9470000000000001, 192.0, 0.0, 0.0, 0.0, 0.0, 0.0, 0.0, 0.0, 0.0, 0.0, 1.644587718904107E9, 0.0, 2022-02-12 00:55:18.904
178.0, -10061.99539446776, -9718.180861256225, -5765.18544735735, -13111.287428294114, -8502.313018120887, -4887.678311786451, -8096.025359156771, -6085.351834935169, -9594.531010929468, -13108.73932942621, -6960.065002449156, -5797.774290773188, -5627.118721856919, -8264.44575362751, -11744.008868218527, -16738.394408034612, -0.002, 0.23700000000000002, 0.9470000000000001, 192.0, 0.0, 0.0, 0.0, 0.0, 0.0, 0.0, 0.0, 0.0, 0.0, 1.644587718912173E9, 0.0, 2022-02-12 00:55:18.912
180.0, -10059.067315944114, -9704.345131438391, -5761.452706033315, -13122.93268715533, -8512.393654870231, -4889.712320531884, -8093.2760945887685, -6079.115698232138, -9604.298723256436, -13116.16010858537, -6952.688926778905, -5774.5061247952135, -5628.146902101863, -8255.39329712311, -11745.618193819308, -16798.341786663746, -0.002, 0.23700000000000002, 0.9470000000000001, 192.0, 0.0, 0.0, 0.0, 0.0, 0.0, 0.0, 0.0, 0.0, 0.0, 1.644587718920335E9, 0.0, 2022-02-12 00:55:18.920
182.0, -10065.75048753625, -9694.935047022707, -5765.297206079627, -13116.383626029925, -8499.519050063975, -4893.936800233937, -8096.628856257064, -6083.407233167557, -9599.023711564983, -13101.78793690061, -6945.312851108653, -5783.782098744166, -5619.630887464391, -8261.361212892678, -11739.56087107192, -16766.89288221513, -0.002, 0.23700000000000002, 0.9470000000000001, 192.0, 0.0, 0.0, 0.0, 0.0, 0.0, 0.0, 0.0, 0.0, 0.0, 1.644587718926912E9, 0.0, 2022-02-12 00:55:18.926
184.0, -10049.098437917048, -9697.6396081018, -5751.126200094963, -13123.156204599883, -8496.032177928946, -4886.851297241605, -8084.6483212290195, -6076.008805752851, -9599.046063309439, -13095.752965897676, -6944.508188308262, -5795.2261919052835, -5626.537576501081, -8266.72563156195, -11736.3198681259, -16758.645088511123, -0.002, 0.2385, 0.9465000000000001, 192.0, 127.5, 120.0, 3.5, 64.0, 14.5, 72.0, 0.0, 0.0, 0.0, 1.644587718933671E9, 0.0, 2022-02-12 00:55:18.933
186.0, -10053.479379830287, -9701.77468082603, -5760.692746721834, -13125.369027300958, -8504.995227455525, -4891.366349621577, -8093.253742844313, -6086.134145991105, -9596.721481886087, -13107.711149181265, -6933.555833525162, -5777.367148085493, -5624.816492178023, -8257.941395991016, -11732.56477505741, -16801.605141354223, -0.002, 0.2385, 0.9465000000000001, 192.0, 0.0, 0.0, 0.0, 0.0, 0.0, 0.0, 0.0, 0.0, 0.0, 1.64458771894182E9, 0.0, 2022-02-12 00:55:18.941
188.0, -10053.211158896824, -9708.279038462524, -5760.469229277281, -13108.78403291512, -8497.06035817389, -4883.543239062219, -8091.286789332246, -6084.971855279428, -9591.222952750082, -13085.985253570707, -6948.2409296322985, -5779.982302186764, -5620.569660731514, -8256.600291323697, -11735.001115203038, -16733.65583821009, -0.002, 0.2385, 0.9465000000000001, 192.0, 0.0, 0.0, 0.0, 0.0, 0.0, 0.0, 0.0, 0.0, 0.0, 1.644587718950303E9, 0.0, 2022-02-12 00:55:18.950
190.0, -10047.578519294086, -9709.128404751827, -5768.2252846032725, -13120.943381898807, -8515.098215949323, -4889.3323408761435, -8093.119632377581, -6093.219648983437, -9604.455185467623, -13107.487631736713, -6939.188473127899, -5768.582912514557, -5624.525919500104, -8245.267956884856, -11739.449112349643, -16795.011376739905, -0.002, 0.2385, 0.9465000000000001, 192.0, 0.0, 0.0, 0.0, 0.0, 0.0, 0.0, 0.0, 0.0, 0.0, 1.644587718956899E9, 0.0, 2022-02-12 00:55:18.956
192.0, -10057.525045576698, -9710.558916396967, -5765.654833990912, -13109.856916648974, -8502.692997776629, -4882.000968694802, -8092.605542255109, -6077.595779609177, -9605.371606990291, -13116.964771385763, -6950.632566289016, -5783.4244708328815, -5630.762056203134, -8253.58280582223, -11738.555042571432, -16763.428361824557, -0.002, 0.2385, 0.9465000000000001, 192.0, 0.0, 0.0, 0.0, 0.0, 0.0, 0.0, 0.0, 0.0, 0.0, 1.644587718964343E9, 0.0, 2022-02-12 00:55:18.964
194.0, -10035.396818565943, -9678.81943927043, -5754.0766303630635, -13111.98033237223, -8494.176983139156, -4870.3110063446775, -8080.848524671617, -6071.896084773074, -9600.253057510026, -13088.667462905343, -6950.453752333374, -5777.188334129851, -5619.3626665309275, -8245.670288285051, -11732.967106457605, -16749.346762817713, 0.0, 0.23925, 0.9472500000000001, 192.0, 0.0, 8.0, 3.5, 64.0, 14.5, 80.0, 0.0, 0.0, 0.0, 1.644587718972535E9, 0.0, 2022-02-12 00:55:18.972
196.0, -10040.694182001851, -9697.281980190513, -5762.95027291182, -13119.803442931587, -8496.076881417857, -4876.323625603155, -8088.045786386227, -6083.5860471232, -9590.127717271771, -13092.579018185023, -6934.204034114366, -5778.484735308259, -5616.278125796095, -8241.512863816364, -11728.94379245565, -16797.246551185435, 0.0, 0.23925, 0.9472500000000001, 192.0, 0.0, 0.0, 0.0, 0.0, 0.0, 0.0, 0.0, 0.0, 0.0, 1.644587718979841E9, 0.0, 2022-02-12 00:55:18.979
198.0, -10030.881766185972, -9680.24995091557, -5762.346775811527, -13103.799593901587, -8485.683320246138, -4869.506343544286, -8075.506457746799, -6077.662834842544, -9581.254074723014, -13055.452770644757, -6948.956185454868, -5790.912305225409, -5609.214974548218, -8254.141599433613, -11728.809681988918, -16733.11939634316, 0.0, 0.23925, 0.9472500000000001, 192.0, 0.0, 0.0, 0.0, 0.0, 0.0, 0.0, 0.0, 0.0, 0.0, 1.644587718987042E9, 0.0, 2022-02-12 00:55:18.987
200.0, -10043.823426225594, -9702.422881415234, -5758.077592620563, -13116.87536440794, -8499.966084953081, -4872.3673668345655, -8075.193533324425, -6077.595779609177, -9596.22974350807, -13090.947340839784, -6939.344935339086, -5765.18544735735, -5611.427797249294, -8242.719858016952, -11727.110949410315, -16787.434135369556, 0.0, 0.23925, 0.9472500000000001, 192.0, 0.0, 0.0, 0.0, 0.0, 0.0, 0.0, 0.0, 0.0, 0.0, 1.644587718995044E9, 0.0, 2022-02-12 00:55:18.995
202.0, -10059.693164788863, -9707.384968684313, -5767.33121482506, -13110.21454456026, -8492.142974393722, -4870.892151700515, -8080.759117693797, -6084.882448301608, -9598.107290042317, -13104.336035768514, -6948.75501975477, -5770.371052070982, -5614.601744961947, -8243.211596394967, -11730.262545378513, -16758.443922811024, 0.0, 0.23925, 0.9472500000000001, 192.0, 0.0, 0.0, 0.0, 0.0, 0.0, 0.0, 0.0, 0.0, 0.0, 1.644587719008612E9, 0.0, 2022-02-12 00:55:19.008
204.0, -10036.916737188905, -9687.78248879701, -5753.875464662965, -13113.634361461922, -8491.49477380452, -4869.483991799831, -8071.460792000389, -6081.306169188759, -9588.026653292973, -13085.672329148332, -6956.086391936111, -5780.675206264878, -5622.022524121109, -8241.758733005374, -11730.933097712172, -16745.45755928249, 0.002, 0.237625, 0.9476250000000002, 192.0, 0.0, 16.0, 3.5, 48.0, 14.5, 80.0, 0.0, 0.0, 0.0, 1.644587719016726E9, 0.0, 2022-02-12 00:55:19.016
206.0, -10046.013897182214, -9701.618218614843, -5761.4750577777695, -13127.626553490943, -8498.1555936522, -4881.7550995057945, -8081.943760149928, -6094.426643184023, -9603.404653478225, -13094.456564719268, -6932.818225958136, -5773.321482339083, -5625.442341022771, -8248.084276686224, -11730.597821545342, -16797.782993052362, 0.002, 0.237625, 0.9476250000000002, 192.0, 0.0, 0.0, 0.0, 0.0, 0.0, 0.0, 0.0, 0.0, 0.0, 1.644587719025034E9, 0.0, 2022-02-12 00:55:19.025
208.0, -10032.111112131013, -9672.918578734229, -5758.94931065432, -13106.884134636419, -8482.755241722494, -4865.4383260534205, -8072.064289100682, -6082.535515133801, -9584.249208480025, -13069.288500462593, -6952.577168056628, -5790.442918591848, -5615.719332184713, -8253.225177910947, -11731.22367039009, -16732.180623076038, 0.002, 0.237625, 0.9476250000000002, 192.0, 0.0, 0.0, 0.0, 0.0, 0.0, 0.0, 0.0, 0.0, 0.0, 1.644587719031942E9, 0.0, 2022-02-12 00:55:19.031
210.0, -10022.477510270775, -9696.723186579131, -5760.111601365996, -13115.02016961815, -8495.696901762116, -4872.032090667736, -8076.579341480654, -6083.429584912013, -9583.46689742409, -13085.314701237048, -6934.718124236838, -5765.386613057449, -5610.421968748805, -8237.91423295906, -11729.502586067032, -16782.829676011763, 0.002, 0.237625, 0.9476250000000002, 192.0, 0.0, 0.0, 0.0, 0.0, 0.0, 0.0, 0.0, 0.0, 0.0, 1.644587719039191E9, 0.0, 2022-02-12 00:55:19.039
212.0, -10047.533815805176, -9699.070119746939, -5767.085345636052, -13109.812213160065, -8489.706634248094, -4876.860067470082, -8072.064289100682, -6091.520916404834, -9589.054833537917, -13094.92595135283, -6934.516958536739, -5759.150476354418, -5615.764035673623, -8245.223253395945, -11730.17313840069, -16759.248585611414, 0.002, 0.237625, 0.9476250000000002, 192.0, 0.0, 0.0, 0.0, 0.0, 0.0, 0.0, 0.0, 0.0, 0.0, 1.644587719047328E9, 0.0, 2022-02-12 00:55:19.047
214.0, -10038.056676156126, -9692.342244665891, -5757.116467608985, -13110.438062004812, -8484.073994645358, -4869.3722330775545, -8061.938948862428, -6079.652140099066, -9595.559191174412, -13072.462448175247, -6944.239967374799, -5769.991072415241, -5609.438491992771, -8243.792741750805, -11725.702789509629, -16747.960954661485, 0.004, 0.2318125, 0.9498125000000002, 192.0, 0.0, 24.0, 3.5, 8.0, 14.5, 96.0, 0.0, 0.0, 0.0, 1.64458771905527E9, 0.0, 2022-02-12 00:55:19.055
216.0, -10046.103304160037, -9690.285884176003, -5763.218493845284, -13114.483727751223, -8483.559904522885, -4872.210904623378, -8059.748477905808, -6083.4966401453785, -9585.657368380711, -13095.93177985332, -6933.779350969715, -5761.385650799948, -5611.628962949391, -8237.15427364758, -11719.131376639769, -16791.144524949137, 0.004, 0.2318125, 0.9498125000000002, 192.0, 0.0, 0.0, 0.0, 0.0, 0.0, 0.0, 0.0, 0.0, 0.0, 1.644587719061303E9, 0.0, 2022-02-12 00:55:19.061
218.0, -10031.015876652704, -9672.695061289676, -5762.637348489446, -13100.715053166754, -8470.350023549798, -4859.492762028309, -8053.02060282476, -6073.170134207026, -9576.336690942848, -13082.96776806924, -6935.0981038925775, -5771.175714871373, -5607.695055925257, -8232.48275905642, -11716.359760327312, -16721.630599693133, 0.004, 0.2318125, 0.9498125000000002, 192.0, 0.0, 0.0, 0.0, 0.0, 0.0, 0.0, 0.0, 0.0, 0.0, 1.644587719069075E9, 0.0, 2022-02-12 00:55:19.069
220.0, -10024.846795183039, -9682.596884083378, -5756.915301908887, -13115.064873107061, -8487.762032480483, -4871.2497796118, -8061.469562228866, -6077.595779609177, -9586.193810247638, -13082.87836109142, -6916.412045527941, -5756.6023774865125, -5599.559020943525, -8232.840386967706, -11720.047798162437, -16775.855931741706, 0.004, 0.2318125, 0.9498125000000002, 192.0, 0.0, 0.0, 0.0, 0.0, 0.0, 0.0, 0.0, 0.0, 0.0, 1.644587719077004E9, 0.0, 2022-02-12 00:55:19.077
222.0, -10033.251051098234, -9687.49191611909, -5768.001767158719, -13103.486669479213, -8479.49188703202, -4878.268227370766, -8070.991405366827, -6086.715291346943, -9585.187981747149, -13085.515866937145, -6927.699676477871, -5770.147534626429, -5601.816547133511, -8252.241701154911, -11722.394731330245, -16758.08629489974, 0.004, 0.2318125, 0.9498125000000002, 192.0, 0.0, 0.0, 0.0, 0.0, 0.0, 0.0, 0.0, 0.0, 0.0, 1.644587719085207E9, 0.0, 2022-02-12 00:55:19.085
224.0, -10015.727283445274, -9678.506514848055, -5756.155342597407, -13103.01728284565, -8475.781497452439, -4862.666709740962, -8050.718373145864, -6064.832933525197, -9582.75164160152, -13070.406087685358, -6935.187510870399, -5766.548903769124, -5610.1537478153405, -8250.475913342943, -11720.718350496096, -16737.567393489768, 0.006, 0.232, 0.9460000000000001, 192.0, 0.0, 24.0, 3.5, 32.0, 14.5, 72.0, 0.0, 0.0, 0.0, 1.644587719091476E9, 0.0, 2022-02-12 00:55:19.091
226.0, -10033.049885398137, -9677.76890728103, -5757.51879900918, -13110.728634682731, -8482.10704113329, -4867.181762120934, -8056.663937170975, -6076.612302853144, -9577.119001998783, -13076.597520899479, -6921.977629897312, -5756.155342597407, -5607.851518136445, -8235.276727113334, -11714.906896937717, -16784.84133301274, 0.006, 0.232, 0.9460000000000001, 192.0, 0.0, 0.0, 0.0, 0.0, 0.0, 0.0, 0.0, 0.0, 0.0, 1.644587719099756E9, 0.0, 2022-02-12 00:55:19.099
228.0, -10032.625202253486, -9697.6396081018, -5757.295281564628, -13092.154335040372, -8468.651290971195, -4861.415012051465, -8053.825265625152, -6072.611340595644, -9574.481496153057, -13067.656823117355, -6930.650106745971, -5759.150476354418, -5608.566773959014, -8240.976421949437, -11711.934114925161, -16719.820108392254, 0.006, 0.232, 0.9460000000000001, 192.0, 0.0, 0.0, 0.0, 0.0, 0.0, 0.0, 0.0, 0.0, 0.0, 1.644587719107702E9, 0.0, 2022-02-12 00:55:19.107
230.0, -10024.93620216086, -9691.761099310053, -5755.149514096918, -13112.717939939253, -8481.950578922102, -4867.449983054398, -8056.082791815137, -6073.505410373857, -9584.5621329024, -13096.870553120441, -6923.676362475916, -5747.482865748748, -5601.1683465443075, -8236.05903816927, -11715.197469615636, -16779.834542254754, 0.006, 0.232, 0.9460000000000001, 192.0, 0.0, 0.0, 0.0, 0.0, 0.0, 0.0, 0.0, 0.0, 0.0, 1.644587719114605E9, 0.0, 2022-02-12 00:55:19.114
232.0, -10037.766103478207, -9700.835907558907, -5759.016365887686, -13101.027977589129, -8475.49092477452, -4862.934930674426, -8059.077925572148, -6072.119602217627, -9579.108307255305, -13090.321491995037, -6926.2915165771865, -5766.4594967913035, -5607.359779758427, -8245.737343518418, -11715.97978067157, -16752.923041930564, 0.006, 0.232, 0.9460000000000001, 192.0, 0.0, 0.0, 0.0, 0.0, 0.0, 0.0, 0.0, 0.0, 0.0, 1.64458771912917E9, 0.0, 2022-02-12 00:55:19.129
234.0, -10019.75059744723, -9676.025471213517, -5745.605319214502, -13102.30202702308, -8467.399593281698, -4853.949529403392, -8037.195567750403, -6057.859189255141, -9576.761374087499, -13071.568378397034, -6924.033990387201, -5762.682051978356, -5600.5201459551035, -8234.472064312944, -11709.833050946361, -16728.157309074082, 0.008, 0.23800000000000002, 0.9500000000000001, 192.0, 0.0, 32.0, 3.5, 56.0, 14.5, 88.0, 0.0, 0.0, 0.0, 1.644587719137238E9, 0.0, 2022-02-12 00:55:19.137
236.0, -10022.544565504142, -9698.4889743911, -5758.368165298482, -13112.293256794603, -8478.664872487172, -4857.905788171982, -8047.455018455389, -6064.922340503018, -9580.002377033517, -13082.744250624688, -6918.647219973472, -5759.798676943622, -5600.006055832631, -8238.450674825988, -11707.061434633904, -16779.476914343468, 0.008, 0.23800000000000002, 0.9500000000000001, 192.0, 0.0, 0.0, 0.0, 0.0, 0.0, 0.0, 0.0, 0.0, 0.0, 1.644587719143994E9, 0.0, 2022-02-12 00:55:19.143
238.0, -10027.350190562032, -9681.72516604962, -5759.686918221345, -13098.010492087662, -8466.080840358834, -4858.956320161381, -8054.875797614551, -6066.15168644806, -9571.531065884956, -13071.702488863766, -6934.248737603276, -5767.621787502979, -5591.2441720061515, -8241.311698116268, -11711.08474863586, -16713.896896111597, 0.008, 0.23800000000000002, 0.9500000000000001, 192.0, 0.0, 0.0, 0.0, 0.0, 0.0, 0.0, 0.0, 0.0, 0.0, 1.64458771915175E9, 0.0, 2022-02-12 00:55:19.151
240.0, -10027.283135328667, -9696.834945301407, -5755.350679797016, -13113.656713206377, -8478.374299809253, -4865.885360942526, -8051.321870246157, -6068.8785992716075, -9586.640845136744, -13084.979425070218, -6928.973725911824, -5756.892950164432, -5601.302457011039, -8236.10374165818, -11711.08474863586, -16770.93854796154, 0.008, 0.23800000000000002, 0.9500000000000001, 192.0, 0.0, 0.0, 0.0, 0.0, 0.0, 0.0, 0.0, 0.0, 0.0, 1.644587719159927E9, 0.0, 2022-02-12 00:55:19.159
242.0, -10034.927431932383, -9702.4899366486, -5764.872522934977, -13100.424480488835, -8470.01474738297, -4861.6832329849285, -8048.393791722512, -6067.872770771119, -9587.691377126142, -13087.751041382677, -6934.89693819248, -5767.398270058426, -5609.863175137422, -8243.748038261896, -11711.017693402493, -16749.83850119573, 0.008, 0.23800000000000002, 0.9500000000000001, 192.0, 0.0, 0.0, 0.0, 0.0, 0.0, 0.0, 0.0, 0.0, 0.0, 1.644587719166868E9, 0.0, 2022-02-12 00:55:19.166
244.0, -10017.023684623682, -9672.717413034132, -5752.467304762281, -13103.978407857228, -8468.338366548822, -4853.837770681116, -8036.077980527638, -6058.015651466329, -9577.409574676702, -13067.098029505973, -6931.879452691013, -5760.960967655297, -5590.573619672492, -8245.49147432941, -11706.815565444895, -16727.017370106863, 0.006, 0.232, 0.9560000000000001, 192.0, 0.0, 24.0, 3.5, 32.0, 14.5, 112.0, 0.0, 0.0, 0.0, 1.644587719174482E9, 0.0, 2022-02-12 00:55:19.174
246.0, -10030.144158618947, -9696.20909645666, -5763.978453156764, -13111.823870161043, -8478.664872487172, -4864.633663253029, -8050.830131868141, -6067.895122515574, -9590.351234716325, -13091.170858284338, -6904.900897133458, -5760.804505444111, -5598.575544187492, -8241.15523590508, -11708.715463723596, -16782.896731245128, 0.006, 0.232, 0.9560000000000001, 192.0, 0.0, 0.0, 0.0, 0.0, 0.0, 0.0, 0.0, 0.0, 0.0, 1.644587719181378E9, 0.0, 2022-02-12 00:55:19.181
248.0, -10024.22094633829, -9689.280055675514, -5768.672319492379, -13091.416727473346, -8470.506485760985, -4862.063212640669, -8055.367535992567, -6068.833895782697, -9584.629188135767, -13074.585863898501, -6936.6180225155385, -5770.415755559892, -5594.2393057631625, -8252.509922088377, -11707.799042200928, -16715.886201368117, 0.006, 0.232, 0.9560000000000001, 192.0, 0.0, 0.0, 0.0, 0.0, 0.0, 0.0, 0.0, 0.0, 0.0, 1.644587719189542E9, 0.0, 2022-02-12 00:55:19.189
250.0, -10032.066408642104, -9705.73093959462, -5755.4847902637475, -13106.280637536125, -8486.935017935637, -4864.656014997485, -8052.081829557637, -6069.3479859051695, -9590.619455649789, -13079.860875589953, -6921.776464197214, -5747.304051793105, -5597.525012198093, -8246.318488874256, -11709.207202101614, -16772.74903926242, 0.006, 0.232, 0.9560000000000001, 192.0, 0.0, 0.0, 0.0, 0.0, 0.0, 0.0, 0.0, 0.0, 0.0, 1.644587719196517E9, 0.0, 2022-02-12 00:55:19.196
252.0, -10028.914812673906, -9697.10316623487, -5768.001767158719, -13096.602332186978, -8476.139125363723, -4864.276035341744, -8055.971033092861, -6069.549151605267, -9594.128679529273, -13090.857933861964, -6928.213766600343, -5770.661624748901, -5598.843765120955, -8248.307794130778, -11707.754338712019, -16749.27970758435, 0.006, 0.232, 0.9560000000000001, 192.0, 0.0, 0.0, 0.0, 0.0, 0.0, 0.0, 0.0, 0.0, 0.0, 1.644587719204372E9, 0.0, 2022-02-12 00:55:19.204
254.0, -10027.394894050944, -9680.473468360124, -5756.267101319683, -13102.011454345162, -8473.993357896014, -4855.134171859524, -8046.896224844007, -6059.446163111468, -9581.857571823308, -13072.797724342076, -6927.900842177969, -5764.358432812504, -5588.092576037953, -8246.609061552175, -11709.765995712996, -16729.766634674863, 0.008, 0.232, 0.9540000000000001, 192.0, 0.0, 32.0, 3.5, 32.0, 14.5, 104.0, 0.0, 0.0, 0.0, 1.644587719212136E9, 0.0, 2022-02-12 00:55:19.212
0.0, -10033.206347609324, -9697.527849379523, -5760.335118810549, -13110.102785837984, -8483.179924867145, -4864.052517897191, -8056.440419726422, -6068.230398682404, -9594.687473140655, -13098.50223046568, -6922.402313041964, -5764.492543279236, -5611.047817593553, -8249.648898798097, -11707.955504412115, -16783.56728357879, 0.008, 0.232, 0.9540000000000001, 192.0, 0.0, 0.0, 0.0, 0.0, 0.0, 0.0, 0.0, 0.0, 0.0, 1.644587719220169E9, 0.0, 2022-02-12 00:55:19.220
2.0, -10029.205385351825, -9687.000177741073, -5762.95027291182, -13094.031881574618, -8473.322805562355, -4854.86595092606, -8054.384059236534, -6066.330500403703, -9590.775917860976, -13088.779221627621, -6931.231252101809, -5764.939578168342, -5600.587201188469, -8248.754829019885, -11711.531783524964, -16717.22730603544, 0.008, 0.232, 0.9540000000000001, 192.0, 0.0, 0.0, 0.0, 0.0, 0.0, 0.0, 0.0, 0.0, 0.0, 1.644587719226811E9, 0.0, 2022-02-12 00:55:19.226
4.0, -10004.50670772871, -9680.317006148936, -5761.206836844306, -13109.58869571551, -8485.951541179604, -4858.196360849901, -8046.471541699356, -6062.463648612935, -9590.083013782862, -13064.818151571531, -6916.009714127746, -5760.335118810549, -5598.083805809475, -8246.162026663069, -11711.151803869225, -16770.983251450452, 0.008, 0.232, 0.9540000000000001, 192.0, 0.0, 0.0, 0.0, 0.0, 0.0, 0.0, 0.0, 0.0, 0.0, 1.644587719235006E9, 0.0, 2022-02-12 00:55:19.235
6.0, -10028.199556851336, -9695.292674933991, -5771.131011382462, -13098.323416510037, -8484.610436512285, -4863.337262074621, -8063.794143652219, -6074.287721429792, -9580.739984600543, -13080.576131412523, -6924.101045620567, -5751.237958817239, -5600.922477355299, -8246.877282485639, -11717.23147836107, -16754.822940209262, 0.008, 0.232, 0.9540000000000001, 192.0, 0.0, 0.0, 0.0, 0.0, 0.0, 0.0, 0.0, 0.0, 0.0, 1.644587719242897E9, 0.0, 2022-02-12 00:55:19.242
8.0, -10022.164585848403, -9677.187761925194, -5758.122296109474, -13097.429346731824, -8481.81646845537, -4857.078773627135, -8042.11295153057, -6062.508352101845, -9582.170496245682, -13072.753020853164, -6933.80170271417, -5753.383726284948, -5591.043006306053, -8244.418590595555, -11718.818452217396, -16733.25350680989, 0.002, 0.242, 0.9500000000000001, 192.0, 0.0, 8.0, 3.5, 72.0, 14.5, 88.0, 0.0, 0.0, 0.0, 1.644587719256459E9, 0.0, 2022-02-12 00:55:19.256
10.0, -10022.678675970874, -9679.400584626268, -5768.068822392085, -13104.06781483505, -8490.48894530403, -4861.482067284831, -8052.730030146841, -6062.530703846301, -9591.37941496127, -13088.622759416434, -6903.313923277131, -5751.506179750702, -5592.875849351389, -8235.522596302342, -11714.03517890396, -16782.695565545033, 0.002, 0.242, 0.9500000000000001, 192.0, 0.0, 0.0, 0.0, 0.0, 0.0, 0.0, 0.0, 0.0, 0.0, 1.644587719264622E9, 0.0, 2022-02-12 00:55:19.264
12.0, -10007.926524630371, -9670.996328711073, -5760.111601365996, -13094.344805996992, -8474.574503251852, -4849.479180512331, -8032.792274092708, -6056.965119476929, -9574.056813008407, -13068.707355106755, -6920.524766507718, -5761.117429866485, -5579.285988722562, -8241.266994627356, -11709.520126523987, -16715.238000778914, 0.002, 0.242, 0.9500000000000001, 192.0, 0.0, 0.0, 0.0, 0.0, 0.0, 0.0, 0.0, 0.0, 0.0, 1.644587719272391E9, 0.0, 2022-02-12 00:55:19.272
14.0, -10007.747710674728, -9673.231503156603, -5752.355546040005, -13107.889963136908, -8486.353872579799, -4854.284805570222, -8027.4725589123445, -6050.572520562711, -9574.70501359761, -13069.19909348477, -6903.068054088123, -5749.8521506610105, -5591.512392939615, -8232.10277940068, -11704.468632277089, -16768.74807700492, 0.002, 0.242, 0.9500000000000001, 192.0, 0.0, 0.0, 0.0, 0.0, 0.0, 0.0, 0.0, 0.0, 0.0, 1.644587719278967E9, 0.0, 2022-02-12 00:55:19.278
16.0, -10008.261800797201, -9682.798049783474, -5771.3321770825605, -13101.095032822495, -8480.073032387858, -4860.34212831761, -8036.2791462277355, -6065.816410281231, -9580.80703983391, -13087.192247771294, -6916.322638550119, -5752.891987906932, -5594.708692396724, -8248.084276686224, -11706.860268933806, -16755.51584428738, 0.002, 0.242, 0.9500000000000001, 192.0, 0.0, 0.0, 0.0, 0.0, 0.0, 0.0, 0.0, 0.0, 0.0, 1.644587719287083E9, 0.0, 2022-02-12 00:55:19.287
18.0, -10031.619373752997, -9693.571590610933, -5760.178656599362, -13105.945361369297, -8482.196448111112, -4859.20218935039, -8033.060495026171, -6050.259596140337, -9577.722499099076, -13060.705430591755, -6916.724969950315, -5746.879368648454, -5587.086747537464, -8247.123151674647, -11702.680492720663, -16732.87352715415, 0.008, 0.234, 0.9440000000000001, 192.0, 0.0, 32.0, 3.5, 40.0, 14.5, 64.0, 0.0, 0.0, 0.0, 1.64458771929494E9, 0.0, 2022-02-12 00:55:19.294
20.0, -10044.918661703905, -9697.125517979326, -5768.605264259013, -13116.40597777438, -8500.63663728674, -4870.445116811409, -8047.186797521926, -6064.207084680448, -9596.341502230347, -13091.68494840681, -6908.007789612746, -5759.664566476889, -5593.322884240495, -8246.184378407524, -11709.095443379336, -16791.256283671413, 0.008, 0.234, 0.9440000000000001, 192.0, 0.0, 0.0, 0.0, 0.0, 0.0, 0.0, 0.0, 0.0, 0.0, 1.644587719302121E9, 0.0, 2022-02-12 00:55:19.302
22.0, -10003.769100161684, -9691.045843487484, -5771.443935804837, -13092.40020422938, -8483.2022766116, -4858.464581783364, -8036.748532861297, -6056.272215398814, -9584.495077669035, -13086.119364037439, -6924.905708420958, -5769.14170612594, -5582.370529457394, -8251.124113932146, -11712.582315514364, -16719.842460136708, 0.008, 0.234, 0.9440000000000001, 192.0, 0.0, 0.0, 0.0, 0.0, 0.0, 0.0, 0.0, 0.0, 0.0, 1.64458771930922E9, 0.0, 2022-02-12 00:55:19.309
24.0, -10010.564030476098, -9666.682442031199, -5759.530456010158, -13109.208716059771, -8491.852401715803, -4858.308119572177, -8028.500739157288, -6054.417020609024, -9588.630150393266, -13089.673291405832, -6921.508243263751, -5747.639327959934, -5584.3821864583715, -8242.20576789448, -11710.861231191306, -16769.686850272043, 0.008, 0.234, 0.9440000000000001, 192.0, 0.0, 0.0, 0.0, 0.0, 0.0, 0.0, 0.0, 0.0, 0.0, 1.644587719316836E9, 0.0, 2022-02-12 00:55:19.316
26.0, -10028.803053951628, -9703.227544215626, -5770.751031726722, -13104.112518323962, -8493.551134294406, -4860.34212831761, -8040.123646274048, -6062.329538146203, -9584.852705580319, -13070.137866751895, -6942.675345262926, -5763.218493845284, -5598.8214133765005, -8243.211596394967, -11706.614399744798, -16754.17473962006, 0.008, 0.234, 0.9440000000000001, 192.0, 0.0, 0.0, 0.0, 0.0, 0.0, 0.0, 0.0, 0.0, 0.0, 1.64458771932482E9, 0.0, 2022-02-12 00:55:19.324
28.0, -10027.819577195594, -9694.286846433502, -5759.28458682115, -13099.150431054883, -8481.995282411013, -4852.831942180627, -8025.930288544928, -6047.555035061245, -9583.46689742409, -13080.442020945791, -6911.181737325399, -5752.355546040005, -5599.827241876989, -8252.264052899367, -11707.50846952301, -16730.727759686444, 0.01, 0.234, 0.9460000000000001, 192.0, 0.0, 40.0, 3.5, 40.0, 14.5, 72.0, 0.0, 0.0, 0.0, 1.644587719331762E9, 0.0, 2022-02-12 00:55:19.331
30.0, -10029.563013263109, -9684.720299806631, -5768.38174681446, -13107.800556159087, -8493.618189527773, -4863.136096374524, -8033.306364215179, -6054.081744442195, -9586.37262420328, -13109.16401257086, -6896.831917385092, -5751.2603105616945, -5581.275293979084, -8238.093046914702, -11704.200411343625, -16784.260187656902, 0.01, 0.234, 0.9460000000000001, 192.0, 0.0, 0.0, 0.0, 0.0, 0.0, 0.0, 0.0, 0.0, 0.0, 1.644587719339272E9, 0.0, 2022-02-12 00:55:19.339
32.0, -10016.84487066804, -9685.592017840389, -5767.33121482506, -13093.36132924096, -8481.63765449973, -4851.803761935683, -8033.35106770409, -6053.992337464373, -9577.655443865711, -13083.705375636266, -6919.004847884757, -5770.147534626429, -5592.451166206738, -8245.558529562775, -11706.055606133415, -16718.27783802484, 0.01, 0.234, 0.9460000000000001, 192.0, 0.0, 0.0, 0.0, 0.0, 0.0, 0.0, 0.0, 0.0, 0.0, 1.644587719347416E9, 0.0, 2022-02-12 00:55:19.347
34.0, -10008.59707696403, -9692.92339002173, -5763.486714778747, -13111.26507654966, -8496.590971540329, -4856.274110826745, -8038.1566927619815, -6042.615299536622, -9581.410536934201, -13079.950282567774, -6910.2653158027315, -5753.070801862575, -5590.394805716849, -8232.840386967706, -11707.396710800733, -16768.03282118235, 0.01, 0.234, 0.9460000000000001, 192.0, 0.0, 0.0, 0.0, 0.0, 0.0, 0.0, 0.0, 0.0, 0.0, 1.644587719354393E9, 0.0, 2022-02-12 00:55:19.354
36.0, -10037.073199400093, -9726.227489260136, -5786.106680167518, -13107.152355569882, -8498.669683774673, -4867.315872587666, -8039.587204407121, -6053.925282231007, -9592.89933358423, -13100.558590955567, -6924.011638642745, -5756.200046086317, -5601.302457011039, -8247.078448185735, -11711.062396891404, -16756.052286154307, 0.01, 0.234, 0.9460000000000001, 192.0, 0.0, 0.0, 0.0, 0.0, 0.0, 0.0, 0.0, 0.0, 0.0, 1.644587719363402E9, 0.0, 2022-02-12 00:55:19.363
38.0, -10012.396873521433, -9690.419994642734, -5764.5819502570575, -13103.598428201489, -8490.377186581754, -4853.8154189366605, -8028.366628690556, -6044.2246251374045, -9589.881848082763, -13094.702433908276, -6935.567490526139, -5756.870598419977, -5593.747567385146, -8250.028878453837, -11707.307303822912, -16732.001809120397, 0.004, 0.23, 0.9480000000000001, 192.0, 0.0, 16.0, 3.5, 24.0, 14.5, 80.0, 0.0, 0.0, 0.0, 1.644587719377111E9, 0.0, 2022-02-12 00:55:19.377
40.0, -10033.049885398137, -9694.264494689047, -5772.114488138496, -13114.506079495679, -8502.178907654155, -4864.253683597289, -8040.2130532518695, -6056.272215398814, -9593.838106851354, -13099.172782799338, -6913.171042581921, -5754.501313507714, -5595.669817408302, -8235.321430602246, -11705.005074144015, -16785.735402790953, 0.004, 0.23, 0.9480000000000001, 192.0, 0.0, 0.0, 0.0, 0.0, 0.0, 0.0, 0.0, 0.0, 0.0, 1.644587719384208E9, 0.0, 2022-02-12 00:55:19.384
42.0, -10036.693219744351, -9682.82040152793, -5778.372976585982, -13099.172782799338, -8497.038006429435, -4862.085564385124, -8036.63677413902, -6055.333442131691, -9592.117022528295, -13094.456564719268, -6926.425627043918, -5770.527514282169, -5597.390901731361, -8262.009413481881, -11706.681454978163, -16720.177736303536, 0.004, 0.23, 0.9480000000000001, 192.0, 0.0, 0.0, 0.0, 0.0, 0.0, 0.0, 0.0, 0.0, 0.0, 1.644587719391867E9, 0.0, 2022-02-12 00:55:19.391
44.0, -10015.4143590229, -9696.723186579131, -5771.488639293747, -13114.908410895874, -8507.453919345608, -4861.884398685026, -8035.429779938434, -6045.252805382348, -9598.934304587163, -13090.187381528305, -6929.331353823109, -5775.2660841066945, -5601.749491900146, -8245.15619816258, -11705.943847411138, -16766.825826981763, 0.004, 0.23, 0.9480000000000001, 192.0, 0.0, 0.0, 0.0, 0.0, 0.0, 0.0, 0.0, 0.0, 0.0, 1.64458771939962E9, 0.0, 2022-02-12 00:55:19.399
46.0, -10019.683542213863, -9720.058407790471, -5781.770441743189, -13101.45266073378, -8504.30232337741, -4865.6171400090625, -8045.935099832428, -6057.702727043954, -9597.727310386575, -13101.139736311405, -6911.248792558765, -5779.781136486667, -5600.96718084421, -8239.30004111529, -11706.592048000342, -16758.108646644192, 0.005, 0.232, 0.9510000000000001, 192.0, 0.0, 24.0, 3.5, 40.0, 14.5, 104.0, 0.0, 0.0, 0.0, 1.644587719407737E9, 0.0, 2022-02-12 00:55:19.407
48.0, -10016.911925901404, -9697.080814490417, -5767.934711925353, -13094.300102508081, -8499.340236108332, -4855.469448026353, -8030.087713013615, -6038.301412856747, -9584.606836391311, -13087.68398614931, -6925.397446798975, -5745.314746536583, -5592.160593528819, -8240.551738804787, -11707.374359056277, -16727.08442534023, 0.005, 0.232, 0.9510000000000001, 192.0, 0.0, 0.0, 0.0, 0.0, 0.0, 0.0, 0.0, 0.0, 0.0, 1.644587719414366E9, 0.0, 2022-02-12 00:55:19.414
50.0, -10027.46194928431, -9681.166372438238, -5775.802525973621, -13103.6431316904, -8510.851384502816, -4860.900921928993, -8034.1110270155705, -6044.649308282055, -9588.294874226436, -13083.437154702802, -6915.94265889438, -5742.856054646499, -5598.195564531751, -8233.130959645625, -11701.31703630889, -16780.862722499696, 0.005, 0.232, 0.9510000000000001, 192.0, 0.0, 0.0, 0.0, 0.0, 0.0, 0.0, 0.0, 0.0, 0.0, 1.644587719422871E9, 0.0, 2022-02-12 00:55:19.422
52.0, -10035.150949376935, -9693.30336967747, -5773.343834083537, -13083.459506447258, -8500.904858220203, -4860.297424828699, -8034.491006671311, -6044.045811181762, -9587.579618403866, -13089.5391809391, -6931.700638735371, -5753.719002451779, -5592.562924929014, -8247.81605575276, -11706.4132340447, -16716.333236257226, 0.005, 0.232, 0.9510000000000001, 192.0, 0.0, 0.0, 0.0, 0.0, 0.0, 0.0, 0.0, 0.0, 0.0, 1.644587719429359E9, 0.0, 2022-02-12 00:55:19.429
54.0, -10026.07614112808, -9694.510363878057, -5769.499334037225, -13103.821945646043, -8514.628829315761, -4863.091392885613, -8029.819492080152, -6046.303337371747, -9601.728272644075, -13098.815154888052, -6911.159385580944, -5744.487731991736, -5602.084768066975, -8240.507035315875, -11703.306341565412, -16763.249547868916, 0.005, 0.232, 0.9510000000000001, 192.0, 0.0, 0.0, 0.0, 0.0, 0.0, 0.0, 0.0, 0.0, 0.0, 1.644587719436147E9, 0.0, 2022-02-12 00:55:19.436
56.0, -10020.488205014253, -9714.246954232092, -5785.279665622672, -13102.570247956544, -8506.984532712047, -4871.316834845166, -8038.0449340397045, -6065.928169003507, -9599.291932498447, -13110.750986427187, -6920.122435107522, -5771.421584060381, -5611.763073416123, -8248.374849364143, -11707.262600334001, -16759.53915828933, 0.006500000000000001, 0.233, 0.9505000000000001, 192.0, 0.0, 32.0, 3.5, 40.0, 14.5, 88.0, 0.0, 0.0, 0.0, 1.644587719444005E9, 0.0, 2022-02-12 00:55:19.444
58.0, -10009.379388019966, -9695.113860978348, -5769.320520081583, -13099.820983388541, -8503.58706755484, -4863.471372541353, -8028.344276946102, -6042.034154180784, -9590.150069016227, -13087.125192537927, -6929.264298589743, -5773.768517228189, -5598.530840698581, -8249.2465673979, -11705.005074144015, -16729.74428293041, 0.006500000000000001, 0.233, 0.9505000000000001, 192.0, 0.0, 0.0, 0.0, 0.0, 0.0, 0.0, 0.0, 0.0, 0.0, 1.64458771945184E9, 0.0, 2022-02-12 00:55:19.451
60.0, -10056.809789754128, -9719.700779879187, -5776.540133540647, -13109.812213160065, -8516.77459678347, -4875.474259313853, -8041.3306404746345, -6056.093401443172, -9600.431871465667, -13116.338922541014, -6915.115644349533, -5746.924072137364, -5599.469613965704, -8247.212558652469, -11706.212068344603, -16788.37290863668, 0.006500000000000001, 0.233, 0.9505000000000001, 192.0, 0.0, 0.0, 0.0, 0.0, 0.0, 0.0, 0.0, 0.0, 0.0, 1.644587719459834E9, 0.0, 2022-02-12 00:55:19.459
62.0, -10041.074161657592, -9704.948628538685, -5776.607188774013, -13090.857933861964, -8503.54236406593, -4865.706546986884, -8033.9322130599285, -6048.963194961929, -9594.240438251549, -13105.632436946922, -6929.152539867466, -5757.85407517601, -5596.139204041863, -8248.218387152958, -11705.988550900049, -16721.96587585996, 0.006500000000000001, 0.233, 0.9505000000000001, 192.0, 0.0, 0.0, 0.0, 0.0, 0.0, 0.0, 0.0, 0.0, 0.0, 1.644587719466357E9, 0.0, 2022-02-12 00:55:19.466
64.0, -10015.257896811712, -9690.621160342833, -5770.505162537714, -13105.855954391474, -8515.411140371698, -4863.337262074621, -8027.4949106568, -6044.135218159583, -9601.705920899622, -13113.857878906474, -6918.088426362089, -5749.561577983091, -5585.276256236584, -8235.030857924326, -11701.384091542255, -16763.6071757802, 0.006500000000000001, 0.233, 0.9505000000000001, 192.0, 0.0, 0.0, 0.0, 0.0, 0.0, 0.0, 0.0, 0.0, 0.0, 1.644587719474633E9, 0.0, 2022-02-12 00:55:19.474
66.0, -10026.433769039366, -9691.045843487484, -5788.610075546512, -13097.921085109841, -8512.393654870231, -4862.48789578532, -8032.121721759048, -6046.124523416105, -9594.106327784817, -13109.767509671154, -6923.206975842354, -5769.85696194851, -5609.34908501495, -8236.640183525107, -11703.820431687884, -16752.16308261908, 0.00425, 0.23550000000000001, 0.94825, 192.0, 0.0, 8.0, 3.5, 56.0, 14.5, 72.0, 0.0, 0.0, 0.0, 1.644587719482771E9, 0.0, 2022-02-12 00:55:19.482
68.0, -10009.22292580878, -9688.341282408392, -5774.19320037284, -13098.077547321029, -8514.673532804673, -4859.157485861479, -8030.043009524705, -6041.296546613758, -9592.698167884131, -13088.332186738515, -6925.308039821153, -5763.576121756569, -5597.279143009084, -8238.473026570444, -11706.145013111236, -16719.64129443661, 0.00425, 0.23550000000000001, 0.94825, 192.0, 0.0, 0.0, 0.0, 0.0, 0.0, 0.0, 0.0, 0.0, 0.0, 1.644587719489655E9, 0.0, 2022-02-12 00:55:19.489
70.0, -10014.922620644882, -9696.67848309022, -5776.338967840549, -13101.430308989324, -8524.105968964812, -4866.041823153713, -8033.9322130599285, -6052.315956630226, -9594.843935351842, -13104.671311935344, -6910.667647202927, -5740.933804623342, -5597.636770920369, -8228.906479943571, -11702.613437487298, -16780.773315521874, 0.00425, 0.23550000000000001, 0.94825, 192.0, 0.0, 0.0, 0.0, 0.0, 0.0, 0.0, 0.0, 0.0, 0.0, 1.644587719504428E9, 0.0, 2022-02-12 00:55:19.504
72.0, -10029.518309774197, -9692.29754117698, -5773.254427105717, -13085.02412855913, -8508.593858312828, -4860.878570184537, -8032.725218859341, -6044.135218159583, -9583.109269512805, -13093.584846685511, -6918.647219973472, -5755.417735030382, -5608.164442558818, -8233.041552667804, -11699.797117685928, -16715.886201368117, 0.00425, 0.23550000000000001, 0.94825, 192.0, 0.0, 0.0, 0.0, 0.0, 0.0, 0.0, 0.0, 0.0, 0.0, 1.644587719512111E9, 0.0, 2022-02-12 00:55:19.512
74.0, -10010.295809542635, -9689.570628353433, -5765.744240968734, -13102.190268300805, -8512.907744992703, -4862.443192296409, -8018.01777100775, -6027.796092962753, -9587.937246315152, -13084.688852392299, -6907.516051234728, -5750.94738613932, -5593.635808662869, -8229.82290146624, -11694.83503041685, -16758.220405366472, 0.00425, 0.23550000000000001, 0.94825, 192.0, 0.0, 0.0, 0.0, 0.0, 0.0, 0.0, 0.0, 0.0, 0.0, 1.644587719519252E9, 0.0, 2022-02-12 00:55:19.519
76.0, -10034.435693554366, -9693.683349333209, -5780.496392309236, -13098.234009532216, -8509.376169368765, -4863.58313126363, -8029.506567657777, -6033.160511632027, -9582.03638577895, -13094.478916463724, -6913.573373982117, -5746.253519803706, -5599.693131410258, -8238.58478529272, -11694.633864716752, -16749.771445962364, 0.006125, 0.23775000000000002, 0.947125, 192.0, 0.0, 32.0, 3.5, 64.0, 14.5, 72.0, 0.0, 0.0, 0.0, 1.644587719526607E9, 0.0, 2022-02-12 00:55:19.526
78.0, -10016.308428801112, -9699.785375569509, -5770.3934038154375, -13092.042576318096, -8511.54428858093, -4853.5248462587415, -8027.137282745515, -6022.990467904862, -9577.655443865711, -13082.453677946769, -6919.921269407424, -5739.3468307670155, -5601.4589192222265, -8230.918136944549, -11694.700919950119, -16712.98047458893, 0.006125, 0.23775000000000002, 0.947125, 192.0, 0.0, 0.0, 0.0, 0.0, 0.0, 0.0, 0.0, 0.0, 0.0, 1.644587719534848E9, 0.0, 2022-02-12 00:55:19.534
80.0, -10014.877917155973, -9700.72414883663, -5780.1387643979515, -13104.961884613263, -8531.325582423877, -4862.309081829677, -8043.565814920165, -6041.117732658116, -9581.52229565648, -13102.480840978724, -6915.361513538542, -5733.5353772086355, -5605.68339892428, -8220.77044496184, -11699.081861863358, -16774.93951021904, 0.006125, 0.23775000000000002, 0.947125, 192.0, 0.0, 0.0, 0.0, 0.0, 0.0, 0.0, 0.0, 0.0, 0.0, 1.644587719542703E9, 0.0, 2022-02-12 00:55:19.542
82.0, -10029.741827218751, -9693.370424910836, -5786.509011567714, -13086.387584970902, -8526.788178299448, -4867.2488173543, -8041.956489319384, -6039.329593101692, -9587.870191081785, -13086.052308804074, -6933.779350969715, -5751.372069283971, -5623.743608444168, -8246.542006318808, -11704.356873554812, -16714.7462624009, 0.006125, 0.23775000000000002, 0.947125, 192.0, 0.0, 0.0, 0.0, 0.0, 0.0, 0.0, 0.0, 0.0, 0.0, 1.64458771954943E9, 0.0, 2022-02-12 00:55:19.549
84.0, -10021.65049572593, -9698.600733113377, -5775.981339929264, -13096.222352531238, -8530.722085323583, -4857.615215494063, -8027.517262401255, -6027.460816795924, -9600.498926699034, -13084.82296285903, -6927.27499333322, -5747.393458770926, -5622.402503776849, -8236.48372131392, -11701.249981075523, -16754.197091364516, 0.006125, 0.23775000000000002, 0.947125, 192.0, 0.0, 0.0, 0.0, 0.0, 0.0, 0.0, 0.0, 0.0, 0.0, 1.644587719556266E9, 0.0, 2022-02-12 00:55:19.556
86.0, -10037.676696500384, -9709.038997774005, -5779.803488231121, -13088.086317549505, -8523.927155009169, -4858.710450972373, -8029.68538161342, -6028.28783134077, -9589.188944004649, -13089.82975361702, -6926.760903210748, -5753.584891985046, -5620.837881664977, -8227.230099109423, -11691.92930363766, -16744.11645461517, 0.0070625, 0.237875, 0.9435625000000001, 192.0, 0.0, 32.0, 3.5, 56.0, 14.5, 48.0, 0.0, 0.0, 0.0, 1.6445877195645E9, 0.0, 2022-02-12 00:55:19.564
88.0, -10018.677713713374, -9696.410262156756, -5767.621787502979, -13083.59361691399, -8523.524823608974, -4849.233311323323, -8027.830186823629, -6018.5201190138005, -9587.400804448223, -13067.746230095176, -6925.017467143234, -5739.615051700479, -5604.007018090131, -8234.069732912747, -11689.716480936586, -16709.471250709445, 0.0070625, 0.237875, 0.9435625000000001, 192.0, 0.0, 0.0, 0.0, 0.0, 0.0, 0.0, 0.0, 0.0, 0.0, 1.644587719571531E9, 0.0, 2022-02-12 00:55:19.571
90.0, -10033.3181063316, -9712.01177978656, -5774.439069561848, -13093.45073621878, -8537.628774360273, -4860.00685215078, -8033.909861315473, -6027.550223773745, -9589.94890331613, -13082.63249190241, -6907.650161701461, -5739.950327867309, -5621.083750853986, -8222.849157196184, -11687.905989635705, -16768.479856071455, 0.0070625, 0.237875, 0.9435625000000001, 192.0, 0.0, 0.0, 0.0, 0.0, 0.0, 0.0, 0.0, 0.0, 0.0, 1.644587719579048E9, 0.0, 2022-02-12 00:55:19.579
92.0, -10046.170359393402, -9703.987503527105, -5780.7646132427, -13088.198076271783, -8530.945602768135, -4854.240102081311, -8027.316096701157, -6023.012819649318, -9593.167554517693, -13079.927930823318, -6934.18168236991, -5754.590720485535, -5627.945736401765, -8244.038610939815, -11689.895294892227, -16707.861925108664, 0.0070625, 0.237875, 0.9435625000000001, 192.0, 0.0, 0.0, 0.0, 0.0, 0.0, 0.0, 0.0, 0.0, 0.0, 1.644587719586881E9, 0.0, 2022-02-12 00:55:19.586
94.0, -10008.328856030566, -9697.863125546352, -5769.119354381484, -13099.128079310427, -8548.73759135456, -4853.234273580822, -8020.521166386744, -6026.969078417907, -9596.967351075096, -13085.560570426056, -6935.27691784822, -5745.85118840351, -5632.170216103818, -8220.792796706295, -11688.062451846892, -16749.346762817713, 0.0070625, 0.237875, 0.9435625000000001, 192.0, 0.0, 0.0, 0.0, 0.0, 0.0, 0.0, 0.0, 0.0, 0.0, 1.644587719595151E9, 0.0, 2022-02-12 00:55:19.595
96.0, -10038.280193600678, -9721.198346757692, -5785.056148178119, -13089.5391809391, -8550.257509977522, -4858.665747483462, -8041.4423991969115, -6024.823310950197, -9587.534914914957, -13098.479878721224, -6939.456694061362, -5742.99016511323, -5616.725160685201, -8233.019200923349, -11693.516277493987, -16747.625678494656, 0.0045312500000000006, 0.23593750000000002, 0.94578125, 192.0, 0.0, 8.0, 3.5, 40.0, 14.5, 80.0, 0.0, 0.0, 0.0, 1.64458771960159E9, 0.0, 2022-02-12 00:55:19.601
98.0, -10028.825405696083, -9714.023436787538, -5773.47794455027, -13082.677195391321, -8550.972765800092, -4847.199302577889, -8034.468654926855, -6018.207194591427, -9592.876981839774, -13078.653881389366, -6925.285688076698, -5741.939633123831, -5638.78633246259, -8239.925889960037, -11695.058547861403, -16706.856096608175, 0.0045312500000000006, 0.23593750000000002, 0.94578125, 192.0, 0.0, 0.0, 0.0, 0.0, 0.0, 0.0, 0.0, 0.0, 0.0, 1.644587719609896E9, 0.0, 2022-02-12 00:55:19.609
100.0, -10048.070257672103, -9724.998143315095, -5778.529438797169, -13101.78793690061, -8568.675347408695, -4865.393622564509, -8043.454056197889, -6034.255747110337, -9605.95275234613, -13097.183477542816, -6923.430493286907, -5743.213682557784, -5655.550140804069, -8238.115398659158, -11696.17613508417, -16772.659632284598, 0.0045312500000000006, 0.23593750000000002, 0.94578125, 192.0, 0.0, 0.0, 0.0, 0.0, 0.0, 0.0, 0.0, 0.0, 0.0, 1.644587719624666E9, 0.0, 2022-02-12 00:55:19.624
102.0, -10057.905025232438, -9734.02824807504, -5789.4147383469035, -13087.661634404854, -8563.109763039323, -4862.264378340767, -8044.817512609663, -6035.015706421817, -9608.366740747302, -13104.961884613263, -6936.70742949336, -5752.154380339906, -5656.533617560103, -8246.340840618712, -11698.165440340692, -16710.700596654486, 0.0045312500000000006, 0.23593750000000002, 0.94578125, 192.0, 0.0, 0.0, 0.0, 0.0, 0.0, 0.0, 0.0, 0.0, 0.0, 1.644587719631243E9, 0.0, 2022-02-12 00:55:19.631
104.0, -10043.398743080943, -9712.414111186758, -5772.717985238789, -13099.6421694329, -8576.967844601613, -4858.174009105445, -8045.152788776492, -6025.292697583759, -9618.08974958536, -13090.299140250581, -6928.213766600343, -5753.093153607029, -5657.7853152496, -8236.327259102734, -11697.78546068495, -16752.11837913017, 0.0045312500000000006, 0.23593750000000002, 0.94578125, 192.0, 0.0, 0.0, 0.0, 0.0, 0.0, 0.0, 0.0, 0.0, 0.0, 1.644587719639143E9, 0.0, 2022-02-12 00:55:19.639
106.0, -10025.472644027788, -9727.88151834983, -5792.4098721039145, -13092.713128651754, -8577.83956263537, -4864.812477208671, -8054.808742381185, -6031.260613353326, -9612.5688687049, -13101.005625844673, -6939.859025461558, -5751.7296971952555, -5666.815420009544, -8234.829692224228, -11697.472536262578, -16746.441036038523, 0.004265625, 0.23496875, 0.9458906250000001, 192.0, 0.0, 16.0, 3.5, 40.0, 14.5, 72.0, 0.0, 0.0, 0.0, 1.64458771964725E9, 0.0, 2022-02-12 00:55:19.647
108.0, -10032.871071442494, -9724.104073536882, -5778.976473686275, -13088.265131505148, -8575.246760278555, -4849.5909392346075, -8044.906919587484, -6022.029342893284, -9601.437699966156, -13092.713128651754, -6941.46835106234, -5747.549920982114, -5663.753231019167, -8234.896747457595, -11700.490021764044, -16707.280779752826, 0.004265625, 0.23496875, 0.9458906250000001, 192.0, 0.0, 0.0, 0.0, 0.0, 0.0, 0.0, 0.0, 0.0, 0.0, 1.644587719654384E9, 0.0, 2022-02-12 00:55:19.654
110.0, -10059.491999088765, -9731.480149207133, -5783.558581299613, -13097.585808943011, -8589.797745918959, -4861.951453918392, -8050.539559190222, -6027.259651095826, -9607.629133180277, -13100.491535722202, -6918.691923462382, -5747.61697621548, -5669.743498533189, -8222.379770562622, -11701.115870608792, -16770.69267877253, 0.004265625, 0.23496875, 0.9458906250000001, 192.0, 0.0, 0.0, 0.0, 0.0, 0.0, 0.0, 0.0, 0.0, 0.0, 1.644587719662025E9, 0.0, 2022-02-12 00:55:19.662
112.0, -10052.205330396335, -9727.45683520518, -5782.396290587937, -13070.987233041196, -8579.761812658526, -4859.381003306032, -8054.607576681087, -6026.298526084248, -9599.023711564983, -13087.862800104953, -6940.775446984226, -5743.61601395798, -5668.469449099237, -8241.222291138445, -11699.484193263555, -16705.224419262937, 0.004265625, 0.23496875, 0.9458906250000001, 192.0, 0.0, 0.0, 0.0, 0.0, 0.0, 0.0, 0.0, 0.0, 0.0, 1.644587719669915E9, 0.0, 2022-02-12 00:55:19.669
114.0, -10018.923582902382, -9695.404433656267, -5771.019252660186, -13082.140753524394, -8591.764699431027, -4854.6424334815065, -8049.243158011814, -6015.167357345505, -9611.317171015402, -13085.359404725958, -6912.478138503807, -5726.22635677175, -5669.989367722198, -8227.252450853879, -11701.093518864336, -16741.702466214, 0.004265625, 0.23496875, 0.9458906250000001, 192.0, 0.0, 0.0, 0.0, 0.0, 0.0, 0.0, 0.0, 0.0, 0.0, 1.644587719676991E9, 0.0, 2022-02-12 00:55:19.676
116.0, -10025.629106238974, -9727.099207293893, -5788.408909846415, -13079.503247678667, -8590.513001741529, -4860.766811462261, -8051.612442924076, -6025.493863283857, -9605.99745583504, -13089.248608261181, -6931.65593524646, -5744.264214547184, -5678.371271892938, -8230.292288099801, -11698.478364763067, -16739.310829557282, 0.004, 0.232, 0.9520000000000001, 192.0, 0.0, 16.0, 3.5, 32.0, 14.5, 96.0, 0.0, 0.0, 0.0, 1.644587719683917E9, 0.0, 2022-02-12 00:55:19.683
118.0, -10034.435693554366, -9724.506404937078, -5779.244694619739, -13077.357480210958, -8591.407071519741, -4849.099200856591, -8041.241233496814, -6015.077950367684, -9597.146165030737, -13071.300157463571, -6940.395467328485, -5747.728734937756, -5681.656978327868, -8235.544948046798, -11697.628998473763, -16698.78711685981, 0.004, 0.232, 0.9520000000000001, 192.0, 0.0, 0.0, 0.0, 0.0, 0.0, 0.0, 0.0, 0.0, 0.0, 1.644587719691664E9, 0.0, 2022-02-12 00:55:19.691
120.0, -10065.66108055843, -9731.144873040304, -5777.367148085493, -13090.030919317118, -8610.294295584476, -4860.67740448444, -8055.456942970389, -6032.3111453427255, -9616.391017006757, -13095.194172286294, -6914.914478649435, -5748.287528549138, -5688.250742942184, -8223.3408955742, -11697.584294984854, -16763.003678679906, 0.004, 0.232, 0.9520000000000001, 192.0, 0.0, 0.0, 0.0, 0.0, 0.0, 0.0, 0.0, 0.0, 0.0, 1.644587719699667E9, 0.0, 2022-02-12 00:55:19.699
122.0, -10054.999298453247, -9739.325611510947, -5783.37976734397, -13067.187436483793, -8596.547972744462, -4851.9378724024145, -8052.573567935654, -6012.887479411063, -9607.89735411374, -13091.506134451169, -6926.492682277284, -5742.140798823929, -5688.898943531388, -8237.668363770052, -11699.260675819001, -16694.294416224293, 0.004, 0.232, 0.9520000000000001, 192.0, 0.0, 0.0, 0.0, 0.0, 0.0, 0.0, 0.0, 0.0, 0.0, 1.644587719706804E9, 0.0, 2022-02-12 00:55:19.706
124.0, -10039.84481571255, -9716.057445532972, -5774.707290495311, -13081.045518046085, -8610.786033962493, -4849.859160168071, -8048.63966091152, -6016.217889334905, -9616.212203051115, -13086.432288459813, -6923.363438053541, -5726.516929449669, -5685.948513263287, -8223.787930463306, -11692.957483882605, -16724.961009616974, 0.004, 0.232, 0.9520000000000001, 192.0, 0.0, 0.0, 0.0, 0.0, 0.0, 0.0, 0.0, 0.0, 0.0, 1.644587719714199E9, 0.0, 2022-02-12 00:55:19.714
126.0, -10044.650440770441, -9736.218719031658, -5787.693654023845, -13072.887131319898, -8616.709246243148, -4861.124439373546, -8066.5657599646765, -6029.517177285812, -9615.385188506269, -13068.506189406657, -6937.780313227215, -5744.666545947379, -5693.190478466807, -8238.070695170247, -11696.109079850803, -16730.101910841695, 0.006, 0.226, 0.9480000000000001, 192.0, 0.0, 24.0, 3.5, 8.0, 14.5, 80.0, 0.0, 0.0, 0.0, 1.64458771972218E9, 0.0, 2022-02-12 00:55:19.722
128.0, -10033.049885398137, -9730.92135559575, -5775.601360273524, -13071.993061541685, -8619.0338276665, -4849.456828767876, -8054.540521447721, -6010.294677054248, -9613.686455927666, -13075.569340654534, -6936.550967282173, -5731.0096300851865, -5701.505327404181, -8240.01529693786, -11702.278161320468, -16688.415907432547, 0.006, 0.226, 0.9480000000000001, 192.0, 0.0, 0.0, 0.0, 0.0, 0.0, 0.0, 0.0, 0.0, 0.0, 1.644587719730228E9, 0.0, 2022-02-12 00:55:19.730
130.0, -10038.74958023424, -9726.383951471324, -5779.557619042113, -13081.246683746182, -8633.1377784178, -4856.117648615557, -8054.875797614551, -6016.396703290547, -9623.09654034335, -13099.373948499437, -6923.475196775818, -5733.043638830619, -5704.723978605745, -8227.408913065066, -11700.490021764044, -16748.296230828313, 0.006, 0.226, 0.9480000000000001, 192.0, 0.0, 0.0, 0.0, 0.0, 0.0, 0.0, 0.0, 0.0, 0.0, 1.644587719736816E9, 0.0, 2022-02-12 00:55:19.736
132.0, -10055.334574620078, -9726.272192749047, -5778.372976585982, -13064.102895748962, -8622.543051545985, -4854.9330061594255, -8061.380155251045, -6017.38018004658, -9618.581487963378, -13078.095087777983, -6941.937737695902, -5746.365278525982, -5715.050484544097, -8244.35153536219, -11701.40644328671, -16684.906683553065, 0.006, 0.226, 0.9480000000000001, 192.0, 0.0, 0.0, 0.0, 0.0, 0.0, 0.0, 0.0, 0.0, 0.0, 1.644587719751839E9, 0.0, 2022-02-12 00:55:19.751
134.0, -10059.693164788863, -9745.718210425164, -5774.95315968432, -13084.130058780916, -8637.51872033104, -4856.765849204761, -8062.2295215403465, -6015.837909679164, -9627.05279911194, -13082.677195391321, -6922.424664786418, -5725.108769548985, -5719.364371223971, -8233.53329104582, -11698.992454885538, -16722.815242149263, 0.006, 0.226, 0.9480000000000001, 192.0, 0.0, 0.0, 0.0, 0.0, 0.0, 0.0, 0.0, 0.0, 0.0, 1.64458771975985E9, 0.0, 2022-02-12 00:55:19.759
136.0, -10073.730060306796, -9757.966966386672, -5784.139726655451, -13077.379831955413, -8642.883139000314, -4862.420840551954, -8074.008890868294, -6025.695028983954, -9635.56881374941, -13103.73253866822, -6930.5159962792395, -5737.022249343664, -5730.897871362909, -8239.970593448948, -11703.574562498876, -16728.02319860735, 0.002, 0.232, 0.9440000000000001, 192.0, 0.0, 8.0, 3.5, 32.0, 14.5, 64.0, 0.0, 0.0, 0.0, 1.644587719766447E9, 0.0, 2022-02-12 00:55:19.766
138.0, -10056.072182187103, -9726.696875893698, -5774.5061247952135, -13071.098991763472, -8642.704325044671, -4857.324642816144, -8063.011832596283, -6017.357828302125, -9630.33850554687, -13082.073698291028, -6938.808493472158, -5746.521740737169, -5731.613127185479, -8245.335012118223, -11703.909838665706, -16689.086459766204, 0.002, 0.232, 0.9440000000000001, 192.0, 0.0, 0.0, 0.0, 0.0, 0.0, 0.0, 0.0, 0.0, 0.0, 1.644587719774999E9, 0.0, 2022-02-12 00:55:19.774
140.0, -10038.302545345134, -9718.694951378699, -5783.871505721987, -13090.723823395232, -8660.317499675453, -4869.618102266562, -8070.901998389006, -6025.605622006134, -9635.077075371395, -13090.746175139688, -6944.396429585985, -5738.6986301778115, -5745.001822114208, -8243.01043069487, -11704.781556699463, -16752.900690186107, 0.002, 0.232, 0.9440000000000001, 192.0, 0.0, 0.0, 0.0, 0.0, 0.0, 0.0, 0.0, 0.0, 0.0, 1.644587719782472E9, 0.0, 2022-02-12 00:55:19.782
142.0, -10064.834066013584, -9749.093323837915, -5788.408909846415, -13076.597520899479, -8657.501179874085, -4871.070965656158, -8066.78927740923, -6032.534662787279, -9623.968258377106, -13078.184494755806, -6965.965862985357, -5776.316616096094, -5759.441049032337, -8253.269881399856, -11706.03325438896, -16695.993148802896, 0.002, 0.232, 0.9440000000000001, 192.0, 0.0, 0.0, 0.0, 0.0, 0.0, 0.0, 0.0, 0.0, 0.0, 1.644587719789123E9, 0.0, 2022-02-12 00:55:19.789
144.0, -10073.03715622868, -9764.247806578614, -5782.686863265856, -13081.939587824296, -8677.751860350592, -4869.036956910724, -8067.906864631995, -6016.396703290547, -9644.777732464998, -13091.126154795427, -6938.942603938891, -5725.935784093832, -5755.037755374641, -8247.190206908013, -11706.480289278066, -16729.31959978576, 0.002, 0.232, 0.9440000000000001, 192.0, 0.0, 0.0, 0.0, 0.0, 0.0, 0.0, 0.0, 0.0, 0.0, 1.644587719797072E9, 0.0, 2022-02-12 00:55:19.797
146.0, -10093.466650660832, -9770.327481070457, -5793.86273549351, -13074.809381343053, -8683.496258675606, -4873.842581968615, -8087.755213708308, -6024.845662694653, -9652.444380813167, -13111.108614338473, -6943.0776766631225, -5739.011554600186, -5779.848191720032, -8251.034706954326, -11713.163460870202, -16732.60530622069, 0.004, 0.234, 0.9480000000000001, 192.0, 0.0, 16.0, 3.5, 40.0, 14.5, 80.0, 0.0, 0.0, 0.0, 1.644587719804376E9, 0.0, 2022-02-12 00:55:19.804
148.0, -10052.451199585343, -9732.061294562971, -5782.709215010312, -13070.406087685358, -8680.545828407507, -4859.828038195138, -8072.2654548007795, -6012.3510375441365, -9644.800084209453, -13082.811305858053, -6951.392525600497, -5745.314746536583, -5777.836534719055, -8253.627509311142, -11714.79513821544, -16688.952349299474, 0.004, 0.234, 0.9480000000000001, 192.0, 0.0, 0.0, 0.0, 0.0, 0.0, 0.0, 0.0, 0.0, 0.0, 1.644587719812203E9, 0.0, 2022-02-12 00:55:19.812
150.0, -10081.28494993269, -9745.74056216962, -5795.606171561024, -13087.505172193667, -8695.432090214741, -4874.2002098799, -8082.815478183685, -6028.891328441064, -9653.67372675821, -13098.234009532216, -6942.854159218569, -5736.485807476736, -5783.469174321792, -8245.826750496239, -11714.929248682172, -16751.894861685618, 0.004, 0.234, 0.9480000000000001, 192.0, 0.0, 0.0, 0.0, 0.0, 0.0, 0.0, 0.0, 0.0, 0.0, 1.644587719819063E9, 0.0, 2022-02-12 00:55:19.819
152.0, -10092.930208793905, -9751.641422705821, -5790.331159869571, -13075.926968565818, -8689.039491300522, -4871.160372633979, -8092.717300977386, -6026.566747017711, -9645.805912709942, -13091.372023984435, -6949.112647666055, -5739.525644722658, -5785.704348767323, -8261.651785570597, -11714.325751581879, -16697.02132904784, 0.004, 0.234, 0.9480000000000001, 192.0, 0.0, 0.0, 0.0, 0.0, 0.0, 0.0, 0.0, 0.0, 0.0, 1.644587719826878E9, 0.0, 2022-02-12 00:55:19.826
154.0, -10068.633862570985, -9738.11861731036, -5779.512915553202, -13090.790878628599, -8703.948104852212, -4871.205076122889, -8086.659978229997, -6026.298526084248, -9655.707735503644, -13078.87739883392, -6940.663688261949, -5741.13497032344, -5799.204802418328, -8253.336936633223, -11712.850536447828, -16727.531460229333, 0.004, 0.234, 0.9480000000000001, 192.0, 0.0, 0.0, 0.0, 0.0, 0.0, 0.0, 0.0, 0.0, 0.0, 1.644587719834816E9, 0.0, 2022-02-12 00:55:19.834
156.0, -10082.00020575526, -9767.444106035722, -5799.227154162783, -13080.82200060153, -8711.413587500285, -4878.402337837499, -8099.065196402693, -6031.886462198075, -9653.114933146828, -13095.30593100857, -6962.90367399498, -5748.354583782504, -5811.431206635381, -8265.406878639089, -11714.146937626236, -16734.482852754933, 0.004, 0.23600000000000002, 0.9440000000000001, 192.0, 0.0, 16.0, 3.5, 48.0, 14.5, 64.0, 0.0, 0.0, 0.0, 1.644587719842072E9, 0.0, 2022-02-12 00:55:19.842
158.0, -10067.046888714658, -9761.632652477343, -5787.134860412462, -13073.714145864744, -8714.833404401947, -4869.483991799831, -8096.405338812511, -6023.5716132607, -9655.171293636715, -13087.549875682578, -6956.868702992047, -5749.47217100527, -5814.851023537043, -8257.53906459082, -11717.298533594434, -16687.499485909877, 0.004, 0.23600000000000002, 0.9440000000000001, 192.0, 0.0, 0.0, 0.0, 0.0, 0.0, 0.0, 0.0, 0.0, 0.0, 1.644587719850091E9, 0.0, 2022-02-12 00:55:19.850
160.0, -10090.382109925999, -9762.638480977832, -5801.998770475241, -13085.694680892788, -8737.386314557352, -4881.062195427679, -8102.596772026632, -6031.953517431441, -9662.01092744004, -13106.146527069393, -6952.599519801083, -5735.569385954069, -5830.072561511107, -8251.749962776896, -11720.293667351445, -16752.274841341357, 0.004, 0.23600000000000002, 0.9440000000000001, 192.0, 0.0, 0.0, 0.0, 0.0, 0.0, 0.0, 0.0, 0.0, 0.0, 1.644587719856671E9, 0.0, 2022-02-12 00:55:19.856
162.0, -10106.85534558956, -9770.014556648082, -5808.994866489753, -13074.295291220582, -8729.317334808986, -4878.827020982149, -8103.17791738247, -6040.000145435351, -9653.696078502666, -13095.283579264114, -6960.824961760636, -5749.807447172099, -5838.946204059864, -8263.64109082712, -11727.133301154769, -16694.093250524194, 0.004, 0.23600000000000002, 0.9440000000000001, 192.0, 0.0, 0.0, 0.0, 0.0, 0.0, 0.0, 0.0, 0.0, 0.0, 1.644587719871788E9, 0.0, 2022-02-12 00:55:19.871
164.0, -10094.450127416865, -9770.729812470652, -5801.931715241875, -13087.035785560107, -8745.947032683735, -4883.789108251227, -8101.546240037232, -6029.673639496999, -9671.733936278099, -13097.831678132019, -6961.003775716278, -5744.957118625298, -5826.205709720339, -8257.516712846365, -11726.708618010118, -16730.638352708622, 0.004, 0.23600000000000002, 0.9440000000000001, 192.0, 0.0, 0.0, 0.0, 0.0, 0.0, 0.0, 0.0, 0.0, 0.0, 1.644587719879753E9, 0.0, 2022-02-12 00:55:19.879
166.0, -10104.798985099673, -9775.669547995276, -5814.158119458928, -13085.940550081796, -8751.177340886277, -4890.7405007768275, -8116.298391377734, -6034.926299443996, -9682.73099455011, -13103.866649134952, -6969.631549076027, -5746.94642388182, -5861.387355492992, -8271.553608364298, -11733.056513435426, -16744.965820904472, 0.004, 0.23600000000000002, 0.9440000000000001, 192.0, 0.0, 0.0, 3.5, 48.0, 14.5, 72.0, 0.0, 0.0, 0.0, 1.644587719886371E9, 0.0, 2022-02-12 00:55:19.886
168.0, -10073.193618439867, -9761.945576899718, -5803.7198547983, -13080.73259362371, -8748.517483296095, -4874.267265113266, -8103.736710993852, -6019.548299258745, -9659.015793683027, -13087.616930915945, -6976.091203223611, -5747.818141915577, -5857.118172302029, -8262.747021048906, -11735.336391369867, -16692.886256323607, 0.004, 0.23600000000000002, 0.9440000000000001, 192.0, 0.0, 0.0, 0.0, 0.0, 0.0, 0.0, 0.0, 0.0, 0.0, 1.644587719894547E9, 0.0, 2022-02-12 00:55:19.894
170.0, -10106.43066244491, -9776.116582884382, -5814.828671792588, -13089.338015239004, -8775.428983620284, -4891.142832177024, -8115.337266366157, -6038.793151234764, -9678.171238681227, -13098.524582210135, -6958.90271173748, -5737.670449932868, -5871.870323642532, -8256.376773879145, -11738.577394315887, -16756.968707676973, 0.004, 0.23600000000000002, 0.9440000000000001, 192.0, 0.0, 0.0, 0.0, 0.0, 0.0, 0.0, 0.0, 0.0, 0.0, 1.644587719902323E9, 0.0, 2022-02-12 00:55:19.902
172.0, -10142.908709395972, -9785.50431555561, -5816.952087515841, -13074.138829009395, -8768.924625983791, -4893.042730455724, -8120.433464101967, -6037.027363422795, -9692.878686532818, -13104.291332279603, -6983.891962038513, -5758.144647853929, -5891.718672718844, -8272.648843842608, -11743.159501929225, -16702.38574771711, 0.004, 0.23600000000000002, 0.9440000000000001, 192.0, 0.0, 0.0, 0.0, 0.0, 0.0, 0.0, 0.0, 0.0, 0.0, 1.644587719909519E9, 0.0, 2022-02-12 00:55:19.909
174.0, -10124.379113242521, -9783.559713788, -5800.121223940996, -13085.895846592886, -8776.054832465034, -4891.6792740439505, -8114.912583221506, -6031.238261608871, -9694.376253411325, -13105.095995079995, -6965.004737973779, -5753.6072437295015, -5886.063681371651, -8274.34757642121, -11738.867966993806, -16732.69471319851, 0.004, 0.23600000000000002, 0.9440000000000001, 192.0, 0.0, 0.0, 0.0, 0.0, 0.0, 0.0, 0.0, 0.0, 0.0, 1.644587719916933E9, 0.0, 2022-02-12 00:55:19.916
176.0, -10132.313982524156, -9814.718045558697, -5821.377732917993, -13082.096050035483, -8783.274445924097, -4900.128233448057, -8129.463568861911, -6038.323764601203, -9699.941837780696, -13124.6984749673, -6975.353595656586, -5766.325386324571, -5891.986893652308, -8280.002567768404, -11738.309173382422, -16741.143672602615, 0.004, 0.23600000000000002, 0.9440000000000001, 192.0, 0.0, 0.0, 3.5, 48.0, 14.5, 72.0, 0.0, 0.0, 0.0, 1.644587719924002E9, 0.0, 2022-02-12 00:55:19.924
178.0, -10107.414139200942, -9784.498487055122, -5812.7723113027, -13073.960015053752, -8787.051890737044, -4890.628742054551, -8129.240051417358, -6036.110941900128, -9689.213000442149, -13102.30202702308, -6988.898752796502, -5757.742316453733, -5894.065605886652, -8280.78487882434, -11739.270298394002, -16693.15447725707, 0.004, 0.23600000000000002, 0.9440000000000001, 192.0, 0.0, 0.0, 0.0, 0.0, 0.0, 0.0, 0.0, 0.0, 0.0, 1.644587719931974E9, 0.0, 2022-02-12 00:55:19.931
180.0, -10132.157520312969, -9791.829859236463, -5819.299020683649, -13090.992044328696, -8808.844841580969, -4899.725902047861, -8135.342077653656, -6036.356811089136, -9691.001139998572, -13103.866649134952, -6982.729671326837, -5734.652964431401, -5927.503815591791, -8272.134753720136, -11742.108969939825, -16756.70048674351, 0.004, 0.23600000000000002, 0.9440000000000001, 192.0, 0.0, 0.0, 0.0, 0.0, 0.0, 0.0, 0.0, 0.0, 0.0, 1.644587719939101E9, 0.0, 2022-02-12 00:55:19.939
182.0, -10142.036991362214, -9789.661740024298, -5831.748942345255, -13064.102895748962, -8805.313265957031, -4894.763814778783, -8140.70649632293, -6036.759142489332, -9690.44234638719, -13102.50319272318, -7000.164032001977, -5756.736487953244, -5930.945984237907, -8299.873268589172, -11746.244042664057, -16695.613169147156, 0.004, 0.23600000000000002, 0.9440000000000001, 192.0, 0.0, 0.0, 0.0, 0.0, 0.0, 0.0, 0.0, 0.0, 0.0, 1.644587719946601E9, 0.0, 2022-02-12 00:55:19.946
184.0, -10120.445206218386, -9809.867717011895, -5812.727607813788, -13077.983329055707, -8819.976010319711, -4902.318704404677, -8123.428597858978, -6041.050677424751, -9700.835907558907, -13114.282562051125, -6981.85795329308, -5751.148551839417, -5937.763266296776, -8283.824716070261, -11745.819359519406, -16724.133995072127, 0.003, 0.23500000000000001, 0.9470000000000001, 192.0, 0.0, 8.0, 3.5, 40.0, 14.5, 88.0, 0.0, 0.0, 0.0, 1.644587719954867E9, 0.0, 2022-02-12 00:55:19.954
186.0, -10151.648241477997, -9831.28068820008, -5835.526387158202, -13077.156314510861, -8829.497853457673, -4913.6286870990625, -8145.713287080919, -6059.222645666915, -9714.090492020905, -13138.735370485232, -6996.408938933485, -5750.634461716946, -5948.469751890869, -8289.479707417453, -11751.049667721947, -16738.528518501345, 0.003, 0.23500000000000001, 0.9470000000000001, 192.0, 0.0, 0.0, 0.0, 0.0, 0.0, 0.0, 0.0, 0.0, 0.0, 1.644587719963168E9, 0.0, 2022-02-12 00:55:19.963
188.0, -10144.316869296656, -9789.50527781311, -5834.028820279696, -13072.753020853164, -8839.80200765157, -4909.158338208001, -8146.786170814774, -6042.972927447907, -9705.26155296106, -13113.433195761823, -7005.14847101551, -5755.909473408398, -5947.754496068299, -8298.129832521658, -11755.18474044618, -16694.272064479836, 0.003, 0.23500000000000001, 0.9470000000000001, 192.0, 0.0, 0.0, 0.0, 0.0, 0.0, 0.0, 0.0, 0.0, 0.0, 1.644587719969503E9, 0.0, 2022-02-12 00:55:19.969
190.0, -10145.166235585957, -9808.928943744773, -5834.922890057908, -13087.68398614931, -8856.766981693147, -4917.540242378741, -8157.604415131143, -6058.194465421971, -9715.811576343964, -13119.26700106466, -6994.866668566069, -5746.588795970535, -5970.597978901623, -8295.537030164842, -11759.99036550407, -16761.282594356846, 0.003, 0.23500000000000001, 0.9470000000000001, 192.0, 0.0, 0.0, 0.0, 0.0, 0.0, 0.0, 0.0, 0.0, 0.0, 1.644587719977238E9, 0.0, 2022-02-12 00:55:19.977
192.0, -10168.210884119379, -9825.357475919423, -5842.321317472615, -13072.39539294188, -8849.189740322798, -4915.2603644443, -8154.989261029871, -6050.6842792849875, -9716.415073444257, -13125.950172656796, -7007.607162905594, -5753.763705940689, -5975.805935359709, -8299.962675566992, -11763.4772376391, -16702.318692483746, 0.003, 0.23500000000000001, 0.9470000000000001, 192.0, 0.0, 0.0, 0.0, 0.0, 0.0, 0.0, 0.0, 0.0, 0.0, 1.644587719985288E9, 0.0, 2022-02-12 00:55:19.985
194.0, -10138.52776748273, -9807.878411755373, -5829.983154533285, -13087.058137304562, -8861.326737562029, -4908.532489363252, -8148.32844118219, -6046.2809856272925, -9722.11476828036, -13124.676123222844, -6997.303008711697, -5750.053316361108, -5977.3705574715805, -8297.21341099899, -11764.192493461669, -16731.130091086638, 0.003, 0.23500000000000001, 0.9470000000000001, 192.0, 0.0, 0.0, 3.5, 40.0, 14.5, 64.0, 0.0, 0.0, 0.0, 1.644587719998935E9, 0.0, 2022-02-12 00:55:19.998
196.0, -10159.806628204184, -9806.224382665681, -5846.054058796652, -13082.25251224667, -8867.13819112041, -4921.697666847428, -8165.002842545849, -6059.379107878102, -9727.836814860919, -13131.471053537256, -7013.2845059972415, -5767.979415414264, -5978.197572016427, -8301.415538956588, -11765.533598128986, -16744.78700694883, 0.003, 0.23500000000000001, 0.9470000000000001, 192.0, 0.0, 0.0, 0.0, 0.0, 0.0, 0.0, 0.0, 0.0, 0.0, 1.64458772000715E9, 0.0, 2022-02-12 00:55:20.007
198.0, -10144.071000107646, -9812.929906002273, -5841.181378505395, -13069.40025918487, -8872.346147578495, -4918.635477857051, -8169.227322247902, -6056.7863055212865, -9719.656076390276, -13115.35544578498, -7020.77234038977, -5759.105772865507, -6000.348150771636, -8306.3105709923, -11766.651185351753, -16697.82599184823, 0.003, 0.23500000000000001, 0.9470000000000001, 192.0, 0.0, 0.0, 0.0, 0.0, 0.0, 0.0, 0.0, 0.0, 0.0, 1.644587720014917E9, 0.0, 2022-02-12 00:55:20.014
200.0, -10157.951433414393, -9834.789912079563, -5842.343669217071, -13085.940550081796, -8891.27807513214, -4927.017382027791, -8172.803601360751, -6069.079764971705, -9722.762968869563, -13139.025943163151, -6999.538183157228, -5731.858996374488, -6013.982714889374, -8304.947114580526, -11770.249816209056, -16766.89288221513, 0.003, 0.23500000000000001, 0.9470000000000001, 192.0, 0.0, 0.0, 0.0, 0.0, 0.0, 0.0, 0.0, 0.0, 0.0, 1.644587720021518E9, 0.0, 2022-02-12 00:55:20.021
202.0, -10165.752192229294, -9810.404158878822, -5848.088067542085, -13076.753983110666, -8876.011833669167, -4923.530509892763, -8157.0232697753045, -6067.515142859834, -9721.846547346897, -13130.912259925874, -7018.715979899881, -5761.4750577777695, -6011.076988110183, -8309.752739638418, -11763.924272528206, -16705.06795705175, 0.003, 0.23500000000000001, 0.9470000000000001, 192.0, 0.0, 0.0, 0.0, 0.0, 0.0, 0.0, 0.0, 0.0, 0.0, 1.644587720030099E9, 0.0, 2022-02-12 00:55:20.030
204.0, -10156.833846191626, -9809.398330378333, -5836.979250547797, -13086.96873032674, -8894.675540289349, -4929.029039028769, -8168.266197236324, -6065.4140788810355, -9729.222623017147, -13114.528431240135, -7013.53037518625, -5760.983319399753, -6022.319915571203, -8313.97721934047, -11762.180836460691, -16732.761768431876, -5.0E-4, 0.2335, 0.9475, 192.0, 127.5, 112.0, 3.5, 32.0, 14.5, 80.0, 0.0, 0.0, 0.0, 1.644587720037635E9, 0.0, 2022-02-12 00:55:20.037
206.0, -10184.68411978294, -9839.975516793194, -5856.760544390744, -13085.493515192691, -8903.593886327015, -4933.611146642107, -8176.916322340528, -6066.844590526175, -9738.945631855206, -13140.389399574924, -7021.688761912437, -5760.715098466289, -6041.162436147027, -8320.861556632704, -11769.534560386486, -16747.133940116637, -5.0E-4, 0.2335, 0.9475, 192.0, 0.0, 0.0, 0.0, 0.0, 0.0, 0.0, 0.0, 0.0, 0.0, 1.644587720045045E9, 0.0, 2022-02-12 00:55:20.045
208.0, -10169.216712619867, -9827.480891642677, -5842.388372705981, -13070.763715596642, -8899.034130458132, -4917.964925523392, -8166.388650702078, -6052.986508963884, -9732.754198641087, -13110.952152127285, -7028.394285249029, -5761.117429866485, -6042.235319880881, -8316.480614719465, -11771.389755176277, -16692.081593523217, -5.0E-4, 0.2335, 0.9475, 192.0, 0.0, 0.0, 0.0, 0.0, 0.0, 0.0, 0.0, 0.0, 0.0, 1.644587720051313E9, 0.0, 2022-02-12 00:55:20.051
210.0, -10164.768715473261, -9826.206842208725, -5846.255224496749, -13079.97263431223, -8916.021456244165, -4931.130103007567, -8179.375014230611, -6064.408250380547, -9737.135140554326, -13130.822852948053, -7013.753892630803, -5748.712211693789, -6044.805770493242, -8307.629323915164, -11766.56177837393, -16755.672306498564, -5.0E-4, 0.2335, 0.9475, 192.0, 0.0, 0.0, 0.0, 0.0, 0.0, 0.0, 0.0, 0.0, 0.0, 1.64458772005913E9, 0.0, 2022-02-12 00:55:20.059
212.0, -10179.990253447326, -9836.04160976906, -5860.82856188161, -13063.857026559954, -8912.691046320326, -4927.5985273836295, -8182.839534621184, -6059.244997411371, -9736.196367287203, -13136.701361739799, -7034.116331829588, -5760.5362845106465, -6045.252805382348, -8319.386341498655, -11771.680327854196, -16699.97175931594, -5.0E-4, 0.2335, 0.9475, 192.0, 0.0, 0.0, 0.0, 0.0, 0.0, 0.0, 0.0, 0.0, 0.0, 1.644587720067239E9, 0.0, 2022-02-12 00:55:20.067
214.0, -10164.478142795342, -9838.008563281128, -5850.032669309696, -13079.369137211936, -8933.43346517485, -4930.280736718266, -8187.0193108343265, -6063.648291069066, -9736.68810566522, -13137.997762918207, -7047.840302925147, -5747.147589581918, -6072.477230128912, -8316.324152508278, -11775.882455811794, -16729.006675363384, -0.0032500000000000003, 0.23475000000000001, 0.9477500000000001, 192.0, 127.5, 104.0, 3.5, 48.0, 14.5, 80.0, 0.0, 0.0, 0.0, 1.644587720074638E9, 0.0, 2022-02-12 00:55:20.074
216.0, -10194.563590832186, -9830.476025399688, -5867.154105562461, -13081.49255293519, -8942.86590133499, -4937.83562634416, -8191.735528914396, -6073.39365165158, -9753.02723086205, -13148.704248512298, -7022.918107857479, -5767.621787502979, -6090.492736159889, -8327.522376480387, -11779.61519713583, -16748.855024439697, -0.0032500000000000003, 0.23475000000000001, 0.9477500000000001, 192.0, 0.0, 0.0, 0.0, 0.0, 0.0, 0.0, 0.0, 0.0, 0.0, 1.644587720082404E9, 0.0, 2022-02-12 00:55:20.082
218.0, -10190.137945430035, -9830.453673655233, -5857.609910680046, -13068.6850033623, -8947.492712437239, -4928.626707628573, -8193.52366847082, -6068.208046937949, -9740.532605711533, -13123.491480766712, -7035.5244917302725, -5778.820011475088, -6084.502468645867, -8332.84209166075, -11780.95630180315, -16696.775459858833, -0.0032500000000000003, 0.23475000000000001, 0.9477500000000001, 192.0, 0.0, 0.0, 0.0, 0.0, 0.0, 0.0, 0.0, 0.0, 0.0, 1.644587720089869E9, 0.0, 2022-02-12 00:55:20.089
220.0, -10190.182648918944, -9852.313679732524, -5860.314471759138, -13086.812268115553, -8964.100058567532, -4936.472169932386, -8197.189354561491, -6071.046718483773, -9749.696820938208, -13144.479768810246, -7027.455511981906, -5758.055240876108, -6108.865870102152, -8325.711885179506, -11783.23617973759, -16761.64022226813, -0.0032500000000000003, 0.23475000000000001, 0.9477500000000001, 192.0, 0.0, 0.0, 0.0, 0.0, 0.0, 0.0, 0.0, 0.0, 0.0, 1.644587720097183E9, 0.0, 2022-02-12 00:55:20.097
222.0, -10196.35173038861, -9844.80349359554, -5868.964596863341, -13071.523674908123, -8960.836703877058, -4936.382762954565, -8194.551848715764, -6076.7464133198755, -9753.384858773334, -13146.871405466964, -7039.72661968787, -5770.125182881973, -6111.6151346701545, -8328.59526021424, -11780.71043261414, -16704.82208786274, -0.0032500000000000003, 0.23475000000000001, 0.9477500000000001, 192.0, 0.0, 0.0, 0.0, 0.0, 0.0, 0.0, 0.0, 0.0, 0.0, 1.644587720104453E9, 0.0, 2022-02-12 00:55:20.104
224.0, -10173.552951044197, -9828.307906187523, -5862.30377701566, -13078.63152964491, -8976.974663373789, -4934.438161186953, -8195.803546405263, -6065.928169003507, -9761.811466432986, -13141.059951908584, -7043.72758194537, -5758.345813554027, -6119.080617318227, -8331.925670138082, -11786.298368727967, -16730.12426258615, -0.0032500000000000003, 0.23475000000000001, 0.9477500000000001, 192.0, 0.0, 0.0, 3.5, 56.0, 14.5, 72.0, 0.0, 0.0, 0.0, 1.644587720119633E9, 0.0, 2022-02-12 00:55:20.119
226.0, -10206.991160749336, -9837.248603969647, -5875.983044622308, -13077.938625566796, -8983.747241943747, -4940.651946145528, -8211.986209390905, -6084.591875623689, -9761.4538385217, -13147.094922911516, -7053.405887294518, -5781.47986906527, -6136.894957649107, -8330.338696281755, -11791.95336007516, -16747.916251172574, -0.0032500000000000003, 0.23475000000000001, 0.9477500000000001, 192.0, 0.0, 0.0, 0.0, 0.0, 0.0, 0.0, 0.0, 0.0, 0.0, 1.644587720126865E9, 0.0, 2022-02-12 00:55:20.126
228.0, -10202.699625813917, -9845.541101162566, -5862.996681093774, -13061.241872458682, -8980.997977375744, -4930.034867529258, -8203.917229642539, -6059.334404389192, -9758.749277442608, -13128.453568035791, -7058.435029796962, -5770.706328237811, -6135.509149492878, -8331.3668765267, -11794.769679876528, -16692.260407478858, -0.0032500000000000003, 0.23475000000000001, 0.9477500000000001, 192.0, 0.0, 0.0, 0.0, 0.0, 0.0, 0.0, 0.0, 0.0, 0.0, 1.644587720134306E9, 0.0, 2022-02-12 00:55:20.134
230.0, -10209.382797406053, -9855.219406511713, -5864.15897180545, -13074.272939476126, -9000.868678196512, -4941.143684523545, -8212.120319857637, -6069.504448116356, -9766.684146724243, -13152.45934158079, -7052.958852405412, -5753.629595473957, -6140.113608850671, -8323.610821200708, -11793.09329904238, -16756.924004188062, -0.0032500000000000003, 0.23475000000000001, 0.9477500000000001, 192.0, 0.0, 0.0, 0.0, 0.0, 0.0, 0.0, 0.0, 0.0, 0.0, 1.644587720142246E9, 0.0, 2022-02-12 00:55:20.142
232.0, -10197.268151911278, -9845.89872907385, -5869.054003841163, -13065.041669016084, -8992.151497858942, -4939.4002484560315, -8204.498374998377, -6071.896084773074, -9768.382879302846, -13148.525434556655, -7047.035640124755, -5772.069784649585, -6145.992117642417, -8339.748780697439, -11792.28863624199, -16702.095175039194, -0.0032500000000000003, 0.23475000000000001, 0.9477500000000001, 192.0, 0.0, 0.0, 0.0, 0.0, 0.0, 0.0, 0.0, 0.0, 0.0, 1.64458772015012E9, 0.0, 2022-02-12 00:55:20.150
234.0, -10179.565570302675, -9830.364266677412, -5860.515637459235, -13079.011509300652, -9008.557678289137, -4938.7520478668275, -8212.76852044684, -6064.0059189803505, -9762.102039110905, -13144.5021205547, -7048.242634325342, -5768.314691581094, -6162.174780628059, -8330.092827092747, -11797.742461889084, -16726.59268696221, 3.749999999999999E-4, 0.236375, 0.9468750000000001, 192.0, 0.0, 16.0, 3.5, 56.0, 14.5, 72.0, 0.0, 0.0, 0.0, 1.644587720156744E9, 0.0, 2022-02-12 00:55:20.156
236.0, -10220.35750393361, -9865.23298802769, -5871.020957353229, -13071.523674908123, -9013.78798649168, -4949.7267543943835, -8219.541099016798, -6074.891218530085, -9764.806600189997, -13151.475864824757, -7059.105582130621, -5776.473078307281, -6176.5916558017325, -8341.693382465051, -11798.390662478289, -16745.5022627714, 3.749999999999999E-4, 0.236375, 0.9468750000000001, 192.0, 0.0, 0.0, 0.0, 0.0, 0.0, 0.0, 0.0, 0.0, 0.0, 1.644587720164774E9, 0.0, 2022-02-12 00:55:20.164
238.0, -10209.53925961724, -9850.726705876197, -5855.754715890255, -13060.571320125024, -9010.748149245757, -4941.83658860166, -8219.67520948353, -6068.856247527153, -9765.633614734843, -13151.788789247132, -7061.25134959833, -5774.260255606206, -6172.07660342176, -8343.593280743753, -11796.177839777212, -16691.72396561193, 3.749999999999999E-4, 0.236375, 0.9468750000000001, 192.0, 0.0, 0.0, 0.0, 0.0, 0.0, 0.0, 0.0, 0.0, 0.0, 1.644587720171946E9, 0.0, 2022-02-12 00:55:20.171
240.0, -10202.54316360273, -9852.04545879906, -5859.375698492015, -13072.507151664156, -9027.31079188714, -4944.652908403028, -8211.829747179718, -6069.169171949527, -9774.306091583501, -13159.41073410639, -7049.561387248205, -5753.629595473957, -6180.257341892403, -8331.41158001561, -11797.317778744433, -16758.60038502221, 3.749999999999999E-4, 0.236375, 0.9468750000000001, 192.0, 0.0, 0.0, 0.0, 0.0, 0.0, 0.0, 0.0, 0.0, 0.0, 1.644587720179099E9, 0.0, 2022-02-12 00:55:20.179
242.0, -10209.941591017436, -9841.227214482691, -5867.087050329095, -13062.560625381546, -9028.383675620995, -4946.105771792623, -8222.022142651336, -6071.292587672781, -9761.878521666351, -13149.151283401405, -7061.832494954168, -5775.757822484711, -6192.304932153814, -8340.955774898026, -11797.29542699998, -16701.759898872366, 3.749999999999999E-4, 0.236375, 0.9468750000000001, 192.0, 0.0, 0.0, 0.0, 0.0, 0.0, 0.0, 0.0, 0.0, 0.0, 1.644587720186396E9, 0.0, 2022-02-12 00:55:20.186
