%OpenBCI Raw EEG Data
%Number of channels = 16
%Sample Rate = 125 Hz
%Board = OpenBCI_GUI$BoardCytonSerialDaisy
Sample Index, EXG Channel 0, EXG Channel 1, EXG Channel 2, EXG Channel 3, EXG Channel 4, EXG Channel 5, EXG Channel 6, EXG Channel 7, EXG Channel 8, EXG Channel 9, EXG Channel 10, EXG Channel 11, EXG Channel 12, EXG Channel 13, EXG Channel 14, EXG Channel 15, Accel Channel 0, Accel Channel 1, Accel Channel 2, Other, Other, Other, Other, Other, Other, Other, Analog Channel 0, Analog Channel 1, Analog Channel 2, Timestamp, Other, Timestamp (Formatted)
0.0, -10383.994625090912, -10688.35832933883, -6029.651287752544, -13307.267523678247, -8464.270349057955, -5046.778028819326, -7964.932377926395, -6082.6696256005325, 0.0, 0.0, 0.0, 0.0, 0.0, 0.0, 0.0, 0.0, 0.0, 0.0, 0.0, 192.0, 0.0, 0.0, 0.0, 0.0, 0.0, 0.0, 0.0, 0.0, 0.0, 1.644587792865798E9, 0.0, 2022-02-12 00:56:32.865
94.0, -10369.734212128427, -10678.545913522948, -6018.922450413997, -13309.837974290607, -8458.548302477397, -5046.062772996756, -7952.728325453798, -6078.601608109666, -10353.730363098426, -14253.796846127136, -7242.255776197408, -6365.173323771158, -5967.558141655701, -9256.706745231957, -11669.868131860272, -16714.813317634264, 0.01, 0.23800000000000002, 0.9480000000000001, 192.0, 0.0, 40.0, 3.5, 56.0, 14.5, 80.0, 0.0, 0.0, 0.0, 1.644587792865802E9, 0.0, 2022-02-12 00:56:32.865
96.0, -10365.24151149291, -10681.049308901944, -6027.282002840281, -13331.005076289783, -8482.554076022396, -5063.184209249522, -7973.783668730697, -6095.5889338956995, -10365.979119059935, -14273.82400915909, -7249.967128034488, -6372.482344208043, -5972.073194035673, -9260.819466211733, -11671.566864438875, -16780.12511493267, 0.01, 0.23800000000000002, 0.9480000000000001, 192.0, 0.0, 0.0, 0.0, 0.0, 0.0, 0.0, 0.0, 0.0, 0.0, 1.644587792865805E9, 0.0, 2022-02-12 00:56:32.865
0.0, -5208.515251697928, -5229.481187997007, -3048.8449989372493, -6684.602103781951, -4206.620658233244, -2398.1857178432606, -4021.637621121123, -3000.185251258046, -5175.948760026546, -7135.213272000942, -3636.2488432227187, -3193.7737099854603, -2994.6420186331297, -4639.73041054373, -5840.10849477154, -8359.373612329198, 0.01, 0.23800000000000002, 0.9470000000000001, 192.0, 0.0, 40.0, 3.5, 56.0, 14.5, 72.0, 0.0, 0.0, 0.0, 1.644587792960515E9, 0.0, 2022-02-12 00:56:32.960
2.0, -10424.406579066108, -10456.794256781848, -6091.900896060574, -13383.911655415495, -8429.245165496488, -4805.312133468644, -8051.590091179621, -6019.4588922809235, -10429.97216343548, -14168.524941030139, -7272.631796912169, -6269.105526102248, -5962.506647408802, -9096.824717143145, -11735.358743114322, -16803.840315799753, 0.01, 0.23800000000000002, 0.9470000000000001, 192.0, 0.0, 0.0, 0.0, 0.0, 0.0, 0.0, 0.0, 0.0, 0.0, 1.644587792966501E9, 0.0, 2022-02-12 00:56:32.966
4.0, -10413.700093472016, -10452.346259635242, -6096.930038563018, -13374.367460533078, -8423.344304960288, -4798.673665365418, -8051.970070835361, -6016.5755172461895, -10420.338561575241, -14148.497777998184, -7260.494799672938, -6294.6312182702095, -5964.294786965226, -9104.08903409112, -11739.60557456083, -16764.27772811386, 0.01, 0.23800000000000002, 0.9470000000000001, 192.0, 0.0, 0.0, 0.0, 0.0, 0.0, 0.0, 0.0, 0.0, 0.0, 1.644587792972929E9, 0.0, 2022-02-12 00:56:32.972
6.0, -10403.664160211583, -10464.997346996946, -6087.363491936147, -13390.259550840801, -8428.038171295902, -4804.798043346173, -8051.791256879718, -6020.576479503689, -10414.460052783495, -14148.31896404254, -7266.5074189314155, -6292.239581613491, -5966.731127110855, -9108.782900426735, -11743.18185367368, -16780.102763188217, 0.01, 0.23800000000000002, 0.9470000000000001, 192.0, 0.0, 0.0, 0.0, 0.0, 0.0, 0.0, 0.0, 0.0, 0.0, 1.644587792980948E9, 0.0, 2022-02-12 00:56:32.980
8.0, -10447.942965977547, -10490.701853120549, -6108.865870102152, -13385.588036249643, -8431.972078320036, -4815.8398051070935, -8062.83301864064, -6031.618241264611, -10433.056704170313, -14188.730918017736, -7270.061346299809, -6280.6613779856425, -5958.215112473383, -9113.700284206901, -11742.913632740216, -16804.913199533607, 0.008, 0.23800000000000002, 0.9540000000000001, 192.0, 0.0, 32.0, 3.5, 56.0, 14.5, 104.0, 0.0, 0.0, 0.0, 1.644587792989467E9, 0.0, 2022-02-12 00:56:32.989
10.0, -10442.82441649728, -10479.995367526457, -6095.074843773227, -13374.769791933275, -8416.884650812704, -4804.753339857261, -8052.439457468922, -6016.128482357083, -10431.760302991905, -14172.28003409863, -7270.418974211094, -6285.601113510265, -5968.27339747827, -9125.814929701679, -11739.493815838554, -16752.721876230466, 0.008, 0.23800000000000002, 0.9540000000000001, 192.0, 0.0, 0.0, 0.0, 0.0, 0.0, 0.0, 0.0, 0.0, 0.0, 1.64458779299602E9, 0.0, 2022-02-12 00:56:32.996
12.0, -10437.549404805828, -10484.1751437396, -6095.790099595797, -13393.053518897716, -8426.942935817593, -4809.424854448421, -8050.092524301115, -6017.491938768857, -10434.73308500446, -14190.13907791842, -7261.545331662337, -6274.134668604693, -5960.807914830198, -9112.068606861665, -11735.336391369867, -16812.736310092965, 0.008, 0.23800000000000002, 0.9540000000000001, 192.0, 0.0, 0.0, 0.0, 0.0, 0.0, 0.0, 0.0, 0.0, 0.0, 1.644587793003588E9, 0.0, 2022-02-12 00:56:33.003
14.0, -10432.117930903189, -10473.26749244541, -6108.217669512948, -13382.4587920259, -8420.058598525358, -4806.608534647052, -8055.92632960395, -6020.889403926063, -10427.066436656289, -14177.309176601075, -7275.559875435815, -6296.620523526732, -5970.396813201525, -9112.47093826186, -11737.839786748862, -16767.22815838196, 0.008, 0.23800000000000002, 0.9540000000000001, 192.0, 0.0, 0.0, 0.0, 0.0, 0.0, 0.0, 0.0, 0.0, 0.0, 1.644587793011658E9, 0.0, 2022-02-12 00:56:33.011
16.0, -10404.178250334055, -10466.897245275646, -6096.773576351831, -13394.931065431962, -8427.345267217788, -4805.267429979734, -8050.852483612595, -6016.977848646385, -10436.700038516527, -14160.32185081504, -7271.089526544753, -6293.737148491997, -5968.496914922824, -9111.576868483648, -11745.864063008317, -16781.3097573888, 0.008, 0.23800000000000002, 0.9540000000000001, 192.0, 0.0, 0.0, 0.0, 0.0, 0.0, 0.0, 0.0, 0.0, 0.0, 1.644587793018671E9, 0.0, 2022-02-12 00:56:33.018
18.0, -10439.002268195423, -10481.627044871693, -6111.950410836985, -13391.868876441584, -8433.827273109826, -4808.195508503379, -8066.208132053392, -6024.644496994555, -10434.196643137533, -14187.65803428388, -7294.715320434013, -6299.839174728296, -5974.5542376702115, -9111.308647550184, -11747.316926397913, -16803.773260566388, 0.012, 0.23800000000000002, 0.9540000000000001, 192.0, 0.0, 48.0, 3.5, 56.0, 14.5, 104.0, 0.0, 0.0, 0.0, 1.644587793033121E9, 0.0, 2022-02-12 00:56:33.033
20.0, -10437.281183872365, -10493.048786288356, -6103.322637477236, -13379.59776873562, -8421.109130514757, -4800.104177010558, -8059.122629061059, -6011.747540443843, -10440.991573451945, -14179.209074879775, -7285.39464299615, -6291.747843235475, -5962.640757875533, -9117.209508086386, -11747.56279558692, -16751.492530285424, 0.012, 0.23800000000000002, 0.9540000000000001, 192.0, 0.0, 0.0, 0.0, 0.0, 0.0, 0.0, 0.0, 0.0, 0.0, 1.64458779304124E9, 0.0, 2022-02-12 00:56:33.041
22.0, -10444.903128731625, -10489.114879264222, -6103.613210155155, -13396.473335799377, -8430.519214930442, -4805.490947424287, -8059.5026087168, -6016.66492422401, -10446.691268288048, -14185.75813600518, -7270.575436422281, -6283.589456509288, -5976.878819093564, -9113.744987695813, -11742.533653084476, -16809.09297574675, 0.012, 0.23800000000000002, 0.9540000000000001, 192.0, 0.0, 0.0, 0.0, 0.0, 0.0, 0.0, 0.0, 0.0, 0.0, 1.644587793048368E9, 0.0, 2022-02-12 00:56:33.048
24.0, -10443.562024064306, -10469.98178601048, -6111.123396292138, -13386.392699050033, -8417.465796168543, -4809.04487479268, -8068.175085565458, -6024.353924316636, -10442.556195563817, -14177.018603923156, -7281.080756316275, -6309.271610888435, -5966.664071877489, -9127.156034368996, -11741.572528072898, -16763.920100202573, 0.012, 0.23800000000000002, 0.9540000000000001, 192.0, 0.0, 0.0, 0.0, 0.0, 0.0, 0.0, 0.0, 0.0, 0.0, 1.644587793055951E9, 0.0, 2022-02-12 00:56:33.055
26.0, -10420.293858086332, -10475.234445957476, -6094.851326328675, -13387.644396739532, -8421.980848548514, -4806.005037546759, -8058.228559282847, -6017.581345746678, -10443.293803130842, -14174.783429477624, -7280.432555727071, -6300.643837528687, -5970.821496346176, -9121.501043021804, -11744.03121996298, -16775.56535906379, 0.009000000000000001, 0.23800000000000002, 0.9520000000000001, 192.0, 0.0, 24.0, 3.5, 56.0, 14.5, 88.0, 0.0, 0.0, 0.0, 1.644587793063797E9, 0.0, 2022-02-12 00:56:33.063
28.0, -10416.002323150913, -10477.089640747266, -6106.92126833454, -13396.339225332646, -8435.280136499421, -4815.146901028979, -8072.913655389983, -6027.19259586246, -10442.712657775004, -14180.393717335906, -7280.186686538063, -6297.559296793855, -5972.676691135966, -9114.080263862643, -11744.23238566308, -16800.04051924235, 0.009000000000000001, 0.23800000000000002, 0.9520000000000001, 192.0, 0.0, 0.0, 0.0, 0.0, 0.0, 0.0, 0.0, 0.0, 0.0, 1.644587793071851E9, 0.0, 2022-02-12 00:56:33.071
30.0, -10427.804044223314, -10488.26551297492, -6104.2167072554485, -13387.443231039433, -8432.664982398152, -4811.145938771479, -8070.991405366827, -6025.292697583759, -10432.87789021467, -14173.531731788127, -7284.5899801957585, -6306.097663175781, -5968.698080622921, -9125.881984935044, -11752.770752045006, -16750.5537570183, 0.009000000000000001, 0.23800000000000002, 0.9520000000000001, 192.0, 0.0, 0.0, 0.0, 0.0, 0.0, 0.0, 0.0, 0.0, 0.0, 1.644587793078482E9, 0.0, 2022-02-12 00:56:33.078
32.0, -10433.146111148133, -10491.193591498566, -6092.191468738493, -13398.686158500454, -8446.120732560246, -4815.146901028979, -8069.829114655151, -6027.304354584737, -10437.92938446157, -14187.456868583784, -7266.48506718696, -6288.931523434106, -5973.838981847642, -9119.064702876176, -11751.586109588876, -16808.601237368734, 0.009000000000000001, 0.23800000000000002, 0.9520000000000001, 192.0, 0.0, 0.0, 0.0, 0.0, 0.0, 0.0, 0.0, 0.0, 0.0, 1.644587793085699E9, 0.0, 2022-02-12 00:56:33.085
34.0, -10446.579509565772, -10490.903018820647, -6101.556849665267, -13383.911655415495, -8431.547395175385, -4813.984610317303, -8076.333472291645, -6023.19163360496, -10437.258832127909, -14192.28484538613, -7283.226523783985, -6299.146270650181, -5967.066403277684, -9124.004438400798, -11750.580281088387, -16766.51290255939, 0.009000000000000001, 0.23800000000000002, 0.9520000000000001, 192.0, 0.0, 0.0, 0.0, 0.0, 0.0, 0.0, 0.0, 0.0, 0.0, 1.644587793093469E9, 0.0, 2022-02-12 00:56:33.093
36.0, -10424.1607098771, -10485.493896662461, -6088.816355325742, -13391.60065550812, -8429.267517240944, -4809.916592826437, -8059.5249604612545, -6012.66396196651, -10441.416256596596, -14180.639586524914, -7281.952474350032, -6283.9470844205725, -5964.831228832153, -9120.718731965868, -11744.23238566308, -16772.637280540144, 0.007500000000000001, 0.23600000000000002, 0.9550000000000001, 192.0, 0.0, 24.0, 3.5, 40.0, 14.5, 120.0, 0.0, 0.0, 0.0, 1.644587793101639E9, 0.0, 2022-02-12 00:56:33.101
38.0, -10415.82350919527, -10496.155678767644, -6100.953352564973, -13391.198324107925, -8434.877805099226, -4821.047761565181, -8073.606559468099, -6022.0963981266505, -10433.012000681401, -14194.363557620474, -7290.714358176513, -6306.589401553799, -5971.13442076855, -9120.629324988047, -11740.410237361222, -16800.174629709083, 0.007500000000000001, 0.23600000000000002, 0.9550000000000001, 192.0, 0.0, 0.0, 0.0, 0.0, 0.0, 0.0, 0.0, 0.0, 0.0, 1.644587793108196E9, 0.0, 2022-02-12 00:56:33.108
40.0, -10434.442512326541, -10489.964245553523, -6088.995169281384, -13380.849466425117, -8423.612525893752, -4812.33058122761, -8074.07594610166, -6009.087682853661, -10430.866233213692, -14176.146885889399, -7265.881570086667, -6300.554430550866, -5962.171371241971, -9139.650659519513, -11745.104103696836, -16746.26222208288, 0.007500000000000001, 0.23600000000000002, 0.9550000000000001, 192.0, 0.0, 0.0, 0.0, 0.0, 0.0, 0.0, 0.0, 0.0, 0.0, 1.644587793116077E9, 0.0, 2022-02-12 00:56:33.116
42.0, -10426.172366878078, -10475.793239568859, -6089.978646037418, -13396.607446266109, -8436.218909766545, -4812.5540986721635, -8077.36165253659, -6010.9428776434515, -10436.320058860787, -14176.504513800683, -7250.503569901415, -6287.903343189161, -5969.927426567963, -9117.209508086386, -11743.51712984051, -16804.712033833508, 0.007500000000000001, 0.23600000000000002, 0.9550000000000001, 192.0, 0.0, 0.0, 0.0, 0.0, 0.0, 0.0, 0.0, 0.0, 0.0, 1.644587793124048E9, 0.0, 2022-02-12 00:56:33.124
44.0, -10432.184986136555, -10476.173219224598, -6093.5325734058115, -13394.55108577622, -8424.640706138696, -4813.559927172652, -8070.07498384416, -6011.5910782326555, -10422.819605209781, -14179.969034191256, -7265.76981136439, -6295.480584559511, -5971.179124257461, -9121.56809825517, -11740.365533872311, -16763.137789146636, 0.007500000000000001, 0.23600000000000002, 0.9550000000000001, 192.0, 0.0, 0.0, 0.0, 0.0, 0.0, 0.0, 0.0, 0.0, 0.0, 1.644587793131228E9, 0.0, 2022-02-12 00:56:33.131
46.0, -10407.978046891458, -10480.665919860116, -6087.609361125155, -13400.22842886787, -8435.928337088626, -4816.935040585404, -8063.54827446321, -6010.361732287613, -10429.458073313008, -14175.85631321148, -7268.787296865857, -6297.425186327123, -5970.061537034695, -9122.484519777838, -11739.762036772017, -16769.955071205506, 0.006750000000000001, 0.23500000000000001, 0.9575, 192.0, 0.0, 24.0, 3.5, 40.0, 15.0, 0.0, 0.0, 0.0, 0.0, 1.644587793138728E9, 0.0, 2022-02-12 00:56:33.138
48.0, -10430.553308791317, -10484.018681528412, -6103.25558224387, -13404.117632403093, -8440.018706323946, -4823.640563921996, -8078.211018825891, -6022.722246971399, -10433.30257335932, -14203.483069358239, -7267.557950920815, -6297.447538071578, -5971.760269613299, -9127.871290191566, -11749.08271420988, -16805.762565822908, 0.006750000000000001, 0.23500000000000001, 0.9575, 192.0, 0.0, 0.0, 0.0, 0.0, 0.0, 0.0, 0.0, 0.0, 0.0, 1.644587793153671E9, 0.0, 2022-02-12 00:56:33.153
50.0, -10424.183061621556, -10484.331605950787, -6100.640428142599, -13392.673539241976, -8428.038171295902, -4820.913651098448, -8065.291710530724, -6019.525947514289, -10425.613573266695, -14173.598787021494, -7292.323683777295, -6301.448500329077, -5971.827324846665, -9131.447569304415, -11747.473388609098, -16748.542100017323, 0.006750000000000001, 0.23500000000000001, 0.9575, 192.0, 0.0, 0.0, 0.0, 0.0, 0.0, 0.0, 0.0, 0.0, 0.0, 1.644587793160393E9, 0.0, 2022-02-12 00:56:33.160
52.0, -10423.624268010171, -10502.12359453721, -6097.108852518661, -13408.766795249796, -8439.459912712564, -4831.418970992443, -8072.354861778601, -6030.232433108382, -10439.15873040661, -14188.060365684078, -7251.487046657449, -6288.90917168965, -5987.2276767763715, -9131.179348370952, -11750.043839221458, -16814.65856011612, 0.006750000000000001, 0.23500000000000001, 0.9575, 192.0, 0.0, 0.0, 0.0, 0.0, 0.0, 0.0, 0.0, 0.0, 0.0, 1.644587793168447E9, 0.0, 2022-02-12 00:56:33.168
54.0, -10439.82928274027, -10483.057556516833, -6106.92126833454, -13397.613274766598, -8430.608621908263, -4829.8096453916605, -8075.752326935808, -6021.559956259723, -10433.615497781695, -14184.014699937667, -7268.29555848784, -6301.917886962639, -5979.672787150477, -9142.735200254345, -11750.289708410468, -16772.592577051233, 0.006750000000000001, 0.23500000000000001, 0.9575, 192.0, 0.0, 0.0, 0.0, 0.0, 0.0, 0.0, 0.0, 0.0, 0.0, 1.644587793176297E9, 0.0, 2022-02-12 00:56:33.176
56.0, -10423.132529632156, -10465.198512697043, -6094.180773995015, -13405.79401323724, -8437.582366178318, -4826.322773256633, -8066.923387875961, -6014.139177100561, -10432.54261404784, -14179.365537090962, -7271.62596841168, -6299.526250305921, -5977.683481893955, -9132.028714660253, -11751.22848167759, -16777.59936780922, 0.008375, 0.23450000000000001, 0.95675, 192.0, 0.0, 40.0, 3.5, 40.0, 14.5, 112.0, 0.0, 0.0, 0.0, 1.644587793183533E9, 0.0, 2022-02-12 00:56:33.183
58.0, -10430.910936702603, -10502.347111981764, -6108.597649168689, -13403.22356262488, -8439.728133646027, -4830.368439003043, -8078.054556614704, -6023.750427216342, -10435.224823382476, -14187.970958706255, -7263.15465726312, -6290.362035079245, -5981.4162232179915, -9130.933479181944, -11748.792141531962, -16809.09297574675, 0.008375, 0.23450000000000001, 0.95675, 192.0, 0.0, 0.0, 0.0, 0.0, 0.0, 0.0, 0.0, 0.0, 0.0, 1.644587793191071E9, 0.0, 2022-02-12 00:56:33.191
60.0, -10430.82152972478, -10486.45502167404, -6109.44701545799, -13398.306178844712, -8437.67177315614, -4824.780502889216, -8079.641530471031, -6025.76208421732, -10436.20830013851, -14179.432592324329, -7267.826171854279, -6298.7439392499855, -5976.789412115742, -9138.868348463577, -11750.245004921557, -16749.413818051078, 0.008375, 0.23450000000000001, 0.95675, 192.0, 0.0, 0.0, 0.0, 0.0, 0.0, 0.0, 0.0, 0.0, 0.0, 1.644587793199126E9, 0.0, 2022-02-12 00:56:33.199
62.0, -10427.357009334208, -10507.018626572923, -6105.177832267026, -13411.449004584432, -8451.306337273876, -4834.078828582625, -8086.727033463363, -6031.52883428679, -10446.512454332407, -14193.491839586717, -7267.602654409726, -6293.468927558533, -5987.808822132209, -9138.220147874374, -11752.033144477982, -16814.099766504736, 0.008375, 0.23450000000000001, 0.95675, 192.0, 0.0, 0.0, 0.0, 0.0, 0.0, 0.0, 0.0, 0.0, 0.0, 1.644587793205932E9, 0.0, 2022-02-12 00:56:33.205
64.0, -10442.600899052728, -10507.443309717573, -6115.414931227557, -13401.591885279642, -8440.264575512956, -4836.537520472708, -8086.9952543968275, -6035.5745000332, -10436.632983283162, -14189.80380175159, -7281.639549927659, -6303.214288141047, -6000.839889149653, -9150.133627669053, -11755.296499168457, -16771.51969331738, 0.008375, 0.23450000000000001, 0.95675, 192.0, 0.0, 0.0, 0.0, 0.0, 0.0, 0.0, 0.0, 0.0, 0.0, 1.644587793213251E9, 0.0, 2022-02-12 00:56:33.213
66.0, -10411.1072911152, -10482.78933558337, -6106.965971823451, -13405.548144048233, -8439.884595857215, -4829.742590158295, -8078.166315336981, -6025.6726772394995, -10429.793349479836, -14182.897112714902, -7294.268285544907, -6300.062692172849, -5988.032339576762, -9144.61274678859, -11752.524882855998, -16773.79957125182, 0.0111875, 0.23425, 0.954375, 192.0, 0.0, 56.0, 3.5, 40.0, 14.5, 96.0, 0.0, 0.0, 0.0, 1.644587793221193E9, 0.0, 2022-02-12 00:56:33.221
68.0, -10446.534806076861, -10495.306312478342, -6111.816300370253, -13408.409167338512, -8447.48418897202, -4836.492816983798, -8089.945684664927, -6033.205215120937, -10441.59507055224, -14203.795993780614, -7275.671634158091, -6304.957724208561, -5977.795240616231, -9144.18806364394, -11749.887377010273, -16806.79074606785, 0.0111875, 0.23425, 0.954375, 192.0, 0.0, 0.0, 0.0, 0.0, 0.0, 0.0, 0.0, 0.0, 0.0, 1.64458779322872E9, 0.0, 2022-02-12 00:56:33.228
70.0, -10435.06836117129, -10502.79414687087, -6104.306114233269, -13394.4616787984, -8434.296659743388, -4828.133264557513, -8089.543353264732, -6026.09736038415, -10436.387114094152, -14183.098278414998, -7288.68034943108, -6305.918849220139, -5991.474508222879, -9146.892624723032, -11751.742571800063, -16747.178643605548, 0.0111875, 0.23425, 0.954375, 192.0, 0.0, 0.0, 0.0, 0.0, 0.0, 0.0, 0.0, 0.0, 0.0, 1.644587793236665E9, 0.0, 2022-02-12 00:56:33.236
72.0, -10429.078093657266, -10502.525925937405, -6097.4664804299455, -13402.754175991318, -8446.165436049156, -4832.134226815013, -8094.88542018955, -6031.797055220253, -10435.671858271582, -14191.837810497023, -7278.376195237183, -6289.289151345391, -5994.491993724346, -9137.460188562893, -11750.401467132744, -16809.94234203605, 0.0111875, 0.23425, 0.954375, 192.0, 0.0, 0.0, 0.0, 0.0, 0.0, 0.0, 0.0, 0.0, 0.0, 1.644587793243477E9, 0.0, 2022-02-12 00:56:33.243
74.0, -10430.933288447057, -10497.74265262397, -6104.753149122375, -13387.89026592854, -8435.257784754967, -4828.893223868993, -8083.620140984076, -6027.5725755182, -10425.25594535541, -14188.596807551005, -7268.630834654669, -6295.592343281787, -5992.212115789905, -9139.136569397042, -11750.647336321752, -16765.440018825535, 0.0111875, 0.23425, 0.954375, 192.0, 0.0, 0.0, 0.0, 0.0, 0.0, 0.0, 0.0, 0.0, 0.0, 1.644587793251431E9, 0.0, 2022-02-12 00:56:33.251
76.0, -10440.991573451945, -10494.948684567056, -6095.141899006593, -13391.533600274755, -8434.1401975322, -4822.05359006567, -8068.935044876939, -6023.392799305057, -10430.642715769138, -14181.62306328095, -7264.763982863901, -6286.025796654916, -5983.494935452335, -9136.163787384485, -11744.23238566308, -16762.578995535256, 0.010593749999999999, 0.23512500000000003, 0.9521875, 192.0, 0.0, 40.0, 3.5, 48.0, 14.5, 88.0, 0.0, 0.0, 0.0, 1.644587793259412E9, 0.0, 2022-02-12 00:56:33.259
78.0, -10435.314230360298, -10498.547315424361, -6099.92517232003, -13394.573437520676, -8437.649421411685, -4830.793122147694, -8085.251818329313, -6031.126502886594, -10436.297707116331, -14191.010795952177, -7262.618215396192, -6285.57876176581, -5983.494935452335, -9136.633174018047, -11745.595842074854, -16798.18532445256, 0.010593749999999999, 0.23512500000000003, 0.9521875, 192.0, 0.0, 0.0, 0.0, 0.0, 0.0, 0.0, 0.0, 0.0, 0.0, 1.644587793265311E9, 0.0, 2022-02-12 00:56:33.265
80.0, -10425.188890122045, -10505.83398411679, -6098.047625785784, -13384.246931582324, -8423.813691593848, -4821.38303773201, -8080.356786293601, -6027.5725755182, -10429.614535524195, -14178.829095224035, -7279.225561526485, -6299.012160183449, -5972.6096359026005, -9143.517511310281, -11749.127417698792, -16738.21559407897, 0.010593749999999999, 0.23512500000000003, 0.9521875, 192.0, 0.0, 0.0, 0.0, 0.0, 0.0, 0.0, 0.0, 0.0, 0.0, 1.6445877932809E9, 0.0, 2022-02-12 00:56:33.280
82.0, -10424.1607098771, -10500.357806725242, -6092.660855372054, -13395.378100321068, -8432.28500274241, -4824.177005788923, -8081.876704916562, -6026.700857484443, -10438.689343773049, -14189.848505240501, -7256.158561248608, -6295.458232815055, -5980.633912162056, -9138.555424041204, -11746.020525219505, -16799.48172563097, 0.010593749999999999, 0.23512500000000003, 0.9521875, 192.0, 0.0, 0.0, 0.0, 0.0, 0.0, 0.0, 0.0, 0.0, 0.0, 1.644587793289068E9, 0.0, 2022-02-12 00:56:33.289
84.0, -10442.265622885898, -10513.813556887337, -6102.227401998926, -13390.37130956308, -8422.137310759701, -4826.076904067624, -8083.5307340062545, -6032.132331387083, -10439.203433895522, -14197.604560566493, -7276.67746265858, -6294.944142692583, -5984.299598252725, -9143.04812467672, -11746.936946742171, -16760.075600156262, 0.010593749999999999, 0.23512500000000003, 0.9521875, 192.0, 0.0, 0.0, 0.0, 0.0, 0.0, 0.0, 0.0, 0.0, 0.0, 1.644587793296098E9, 0.0, 2022-02-12 00:56:33.296
86.0, -10429.994515179935, -10501.721263137015, -6098.137032763605, -13392.986463664349, -8429.222813752034, -4824.020543577736, -8078.613350226087, -6027.639630751566, -10442.310326374809, -14197.202229166298, -7284.366462751206, -6290.697311246075, -5998.716473426399, -9136.744932740323, -11747.674554309197, -16765.060039169795, 0.0072968749999999995, 0.2345625, 0.94809375, 192.0, 0.0, 16.0, 3.5, 40.0, 14.5, 64.0, 0.0, 0.0, 0.0, 1.644587793303822E9, 0.0, 2022-02-12 00:56:33.303
88.0, -10443.852596742225, -10511.645437675172, -6104.551983422278, -13396.65214975502, -8438.007049322969, -4832.156578559468, -8094.416033555989, -6036.6250320226, -10447.361820621709, -14203.036034469133, -7269.994291066443, -6306.29882887588, -5999.990522860351, -9140.321211853172, -11749.015658976516, -16798.766469808397, 0.0072968749999999995, 0.2345625, 0.94809375, 192.0, 0.0, 0.0, 0.0, 0.0, 0.0, 0.0, 0.0, 0.0, 0.0, 1.644587793311547E9, 0.0, 2022-02-12 00:56:33.311
90.0, -10440.142207162644, -10511.198402786065, -6103.300285732781, -13388.024376395271, -8430.407456208164, -4820.980706331815, -8091.59971375462, -6032.892290698564, -10441.036276940857, -14173.978766677234, -7273.771735879391, -6306.701160276075, -5989.842830877642, -9145.037429933242, -11748.613327576319, -16738.908498157085, 0.0072968749999999995, 0.2345625, 0.94809375, 192.0, 0.0, 0.0, 0.0, 0.0, 0.0, 0.0, 0.0, 0.0, 0.0, 1.644587793320204E9, 0.0, 2022-02-12 00:56:33.320
92.0, -10436.275355371876, -10526.330533782308, -6095.901858318074, -13395.668672998987, -8440.130465046223, -4831.709543670362, -8090.727995720863, -6039.329593101692, -10445.238404898455, -14199.951493734301, -7267.4461921985385, -6287.322197833324, -5998.045921092739, -9138.488368807837, -11750.289708410468, -16800.442850642547, 0.0072968749999999995, 0.2345625, 0.94809375, 192.0, 0.0, 0.0, 0.0, 0.0, 0.0, 0.0, 0.0, 0.0, 0.0, 1.644587793326179E9, 0.0, 2022-02-12 00:56:33.326
94.0, -10458.805913782826, -10543.18374910161, -6109.491718946901, -13389.477239784866, -8435.950688833082, -4835.688154183406, -8093.7454812223295, -6046.817427494219, -10449.418181111596, -14212.557877607094, -7293.933009378077, -6299.146270650181, -6005.176127573983, -9149.105447424108, -11755.363554401822, -16764.054210669306, 0.0072968749999999995, 0.2345625, 0.94809375, 192.0, 0.0, 0.0, 0.0, 0.0, 0.0, 0.0, 0.0, 0.0, 0.0, 1.644587793333235E9, 0.0, 2022-02-12 00:56:33.333
96.0, -10432.184986136555, -10514.349998754264, -6091.833840827208, -13394.327568331668, -8439.772837134939, -4832.424799492932, -8089.409242798, -6040.849511724653, -10448.635870055661, -14196.978711721744, -7284.813497640312, -6301.7390730069965, -6003.879726395575, -9151.944118969932, -11755.631775335285, -16767.94341420453, 0.004, 0.24, 0.9480000000000001, 192.0, 0.0, 16.0, 3.5, 64.0, 14.5, 80.0, 0.0, 0.0, 0.0, 1.644587793341194E9, 0.0, 2022-02-12 00:56:33.341
98.0, -10462.69511731805, -10526.17407157112, -6099.6345996421105, -13404.922295203483, -8443.10324705878, -4845.5452734881965, -8095.824193456673, -6053.075915941706, -10460.169370194599, -14210.523868861661, -7278.465602215005, -6309.740997521997, -6009.8252904206865, -9152.346450370127, -11752.882510767284, -16810.054100758327, 0.004, 0.24, 0.9480000000000001, 192.0, 0.0, 0.0, 0.0, 0.0, 0.0, 0.0, 0.0, 0.0, 0.0, 1.644587793348436E9, 0.0, 2022-02-12 00:56:33.348
100.0, -10438.622288539684, -10524.341228525785, -6097.220611240937, -13402.240085868847, -8432.57557542033, -4843.265395553755, -8090.4597747873995, -6049.8572647401415, -10455.386096881164, -14203.371310635963, -7288.590942453259, -6328.874090775739, -5991.720377411888, -9157.554406828214, -11755.698830568652, -16752.654820997097, 0.004, 0.24, 0.9480000000000001, 192.0, 0.0, 0.0, 0.0, 0.0, 0.0, 0.0, 0.0, 0.0, 0.0, 1.644587793355787E9, 0.0, 2022-02-12 00:56:33.355
102.0, -10433.459035570508, -10522.687199436094, -6101.042759542795, -13413.70653077442, -8449.38408725072, -4852.764886947261, -8097.947609179928, -6050.661927540533, -10457.844788771246, -14207.059348471088, -7275.671634158091, -6321.654477316675, -6026.253822595337, -9154.626328304568, -11758.984537003582, -16818.19013574006, 0.004, 0.24, 0.9480000000000001, 192.0, 0.0, 0.0, 0.0, 0.0, 0.0, 0.0, 0.0, 0.0, 0.0, 1.644587793363887E9, 0.0, 2022-02-12 00:56:33.363
104.0, -10464.617367341205, -10550.9398044276, -6109.201146268982, -13388.337300817646, -8443.259709269967, -4854.10599161458, -8101.680350503964, -6058.328575888703, -10455.207282925521, -14225.454834157807, -7290.5131924764155, -6309.852756244273, -6018.698932969443, -9166.562159843703, -11762.51611262752, -16780.840370755242, 0.004, 0.24, 0.9480000000000001, 192.0, 0.0, 0.0, 0.0, 0.0, 0.0, 0.0, 0.0, 0.0, 0.0, 1.644587793371888E9, 0.0, 2022-02-12 00:56:33.371
106.0, -10440.67864902957, -10529.325667539319, -6094.560753650756, -13394.707547987407, -8450.255805284478, -4848.6521659674845, -8093.119632377581, -6044.984584448885, -10451.608652068217, -14209.920371761367, -7276.766869636402, -6295.592343281787, -6019.86122368112, -9158.806104517711, -11760.817380048917, -16775.118324174684, 0.004, 0.24, 0.9500000000000001, 192.0, 0.0, 16.0, 3.5, 64.0, 14.5, 88.0, 0.0, 0.0, 0.0, 1.64458779337848E9, 0.0, 2022-02-12 00:56:33.378
108.0, -10456.838960270758, -10547.542339270394, -6108.262373001859, -13405.07875741467, -8455.977851865036, -4855.715317215361, -8104.161394138503, -6054.305261886748, -10463.49978011844, -14220.67156084437, -7271.648320156136, -6306.254125386969, -6029.226604607893, -9160.14720918503, -11758.202225947647, -16816.022016527895, 0.004, 0.24, 0.9500000000000001, 192.0, 0.0, 0.0, 0.0, 0.0, 0.0, 0.0, 0.0, 0.0, 0.0, 1.644587793386456E9, 0.0, 2022-02-12 00:56:33.386
110.0, -10445.953660721025, -10537.439350776596, -6104.864907844652, -13391.399489808022, -8441.560976691362, -4851.870817169049, -8098.394644069033, -6046.48215132739, -10452.279204401875, -14204.33243564754, -7296.592866968259, -6327.644744830697, -6021.917584171008, -9178.38623266056, -11755.520016613009, -16754.88999544263, 0.004, 0.24, 0.9500000000000001, 192.0, 0.0, 0.0, 0.0, 0.0, 0.0, 0.0, 0.0, 0.0, 0.0, 1.644587793401248E9, 0.0, 2022-02-12 00:56:33.401
112.0, -10426.038256411346, -10528.252783805465, -6101.355683965169, -13409.526754561277, -8453.161532063667, -4850.015622379258, -8094.326626578168, -6045.8115989937305, -10467.344280164752, -14211.395586895418, -7270.977767822477, -6314.34545687979, -6027.930203429485, -9180.688462339456, -11755.363554401822, -16811.484612403467, 0.004, 0.24, 0.9500000000000001, 192.0, 0.0, 0.0, 0.0, 0.0, 0.0, 0.0, 0.0, 0.0, 0.0, 1.644587793408081E9, 0.0, 2022-02-12 00:56:33.408
114.0, -10459.811742283315, -10528.945687883579, -6107.614172412655, -13391.645358997032, -8445.450180226586, -4850.5297125017305, -8098.864030702595, -6051.220721151915, -10460.281128916875, -14213.340188663029, -7286.713395919013, -6327.376523897234, -6011.009932876817, -9173.044165735742, -11753.62011833431, -16773.397239851623, 0.004, 0.24, 0.9500000000000001, 192.0, 0.0, 0.0, 0.0, 0.0, 0.0, 0.0, 0.0, 0.0, 0.0, 1.644587793416118E9, 0.0, 2022-02-12 00:56:33.416
116.0, -10450.267547400897, -10541.216795589542, -6085.3741866796245, -13392.964111919895, -8447.975927350037, -4845.254700810278, -8085.02830088476, -6041.162436147027, -10451.139265434655, -14202.0525577131, -7263.534636918859, -6303.348398607779, -6030.09832264165, -9171.680709323968, -11754.13420845678, -16770.02212643887, 0.004, 0.23800000000000002, 0.9420000000000001, 192.0, 0.0, 16.0, 3.5, 56.0, 14.5, 56.0, 0.0, 0.0, 0.0, 1.644587793423995E9, 0.0, 2022-02-12 00:56:33.423
118.0, -10442.690306030549, -10537.104074609766, -6103.389692710602, -13395.22163810988, -8451.574558207341, -4854.307157314677, -8097.791146968741, -6052.226549652404, -10455.989593981456, -14226.885345802946, -7261.746497362435, -6298.274552616424, -6036.133293644583, -9173.021813991287, -11754.84946427935, -16809.875286802686, 0.004, 0.23800000000000002, 0.9420000000000001, 192.0, 0.0, 0.0, 0.0, 0.0, 0.0, 0.0, 0.0, 0.0, 0.0, 1.644587793430563E9, 0.0, 2022-02-12 00:56:33.430
120.0, -10441.572718807784, -10529.839757661792, -6097.958218807962, -13379.307196057702, -8437.560014433862, -4841.499607741786, -8087.017606141282, -6043.5764245482005, -10439.426951340074, -14200.107955945488, -7269.971939321988, -6301.873183473728, -6027.304354584737, -9178.185066960463, -11752.99426948956, -16748.005658150396, 0.004, 0.23800000000000002, 0.9420000000000001, 192.0, 0.0, 0.0, 0.0, 0.0, 0.0, 0.0, 0.0, 0.0, 0.0, 1.644587793438895E9, 0.0, 2022-02-12 00:56:33.438
122.0, -10429.927459946568, -10513.522984209418, -6090.895067560085, -13397.970902677884, -8452.066296585357, -4843.6006717205855, -8082.614312483587, -6034.81454072172, -10444.612556053706, -14203.438365869328, -7256.2926717153405, -6300.241506128491, -6020.867052181608, -9164.14817144253, -11747.85336826484, -16801.448679143035, 0.004, 0.23800000000000002, 0.9420000000000001, 192.0, 0.0, 0.0, 0.0, 0.0, 0.0, 0.0, 0.0, 0.0, 0.0, 1.644587793446729E9, 0.0, 2022-02-12 00:56:33.446
124.0, -10453.821474769293, -10522.88836513619, -6100.215744997949, -13377.854332668107, -8444.824331381838, -4849.7697531902495, -8092.940818421939, -6044.492846070868, -10443.606727553217, -14205.651188570404, -7267.021509053888, -6309.830404499818, -6017.737807957865, -9180.19672396144, -11743.628888562786, -16769.195111894027, 0.004, 0.23800000000000002, 0.9420000000000001, 192.0, 0.0, 0.0, 0.0, 0.0, 0.0, 0.0, 0.0, 0.0, 0.0, 1.644587793453912E9, 0.0, 2022-02-12 00:56:33.453
126.0, -10430.262736113398, -10528.56570822784, -6092.325579205225, -13381.564722247687, -8446.456008727075, -4838.593880962597, -8088.4034142975115, -6033.696953498955, -10443.249099641931, -14194.967054720766, -7254.929215303567, -6294.251238614469, -6018.296601569248, -9175.905189026022, -11745.03704846347, -16762.333126346246, 0.004, 0.24, 0.9480000000000001, 192.0, 0.0, 16.0, 3.5, 64.0, 14.5, 80.0, 0.0, 0.0, 0.0, 1.644587793460418E9, 0.0, 2022-02-12 00:56:33.460
128.0, -10450.0663817008, -10542.736714212504, -6097.108852518661, -13394.372271820579, -8454.43558149762, -4848.115724100558, -8093.656074244509, -6042.302375114247, -10453.553253835827, -14220.112767232988, -7247.1955117220305, -6304.220116641536, -6019.324781814192, -9167.702098810923, -11742.153673428737, -16804.309702433315, 0.004, 0.24, 0.9480000000000001, 192.0, 0.0, 0.0, 0.0, 0.0, 0.0, 0.0, 0.0, 0.0, 0.0, 1.64458779346869E9, 0.0, 2022-02-12 00:56:33.468
130.0, -10430.195680880033, -10507.9797515845, -6095.4101199400575, -13383.665786226486, -8434.564880676851, -4838.929157129426, -8081.429670027455, -6035.19452037746, -10452.21214916851, -14205.67354031486, -7268.697889888035, -6314.814843513352, -6023.258688838326, -9181.157848973018, -11744.299440896446, -16744.764655204377, 0.004, 0.24, 0.9480000000000001, 192.0, 0.0, 0.0, 0.0, 0.0, 0.0, 0.0, 0.0, 0.0, 0.0, 1.644587793476535E9, 0.0, 2022-02-12 00:56:33.476
132.0, -10421.63496275365, -10518.350961011764, -6085.083614001705, -13394.215809609392, -8444.243186026, -4839.890282141004, -8083.038995628238, -6030.791226719764, -10447.339468877253, -14201.829040268547, -7261.590035151248, -6305.829442242318, -6022.074046382195, -9168.48440986686, -11739.315001882911, -16801.89571403214, 0.004, 0.24, 0.9480000000000001, 192.0, 0.0, 0.0, 0.0, 0.0, 0.0, 0.0, 0.0, 0.0, 0.0, 1.644587793483381E9, 0.0, 2022-02-12 00:56:33.483
134.0, -10447.183006666066, -10542.334382812309, -6090.380977437613, -13377.74257394583, -8438.744656889994, -4842.348974031088, -8088.1128416195925, -6037.250880867348, -10442.578547308272, -14200.264418156674, -7257.76788684939, -6295.838212470796, -6026.879671440086, -9179.704985583423, -11740.27612689449, -16766.60230953721, 0.004, 0.24, 0.9480000000000001, 192.0, 0.0, 0.0, 0.0, 0.0, 0.0, 0.0, 0.0, 0.0, 0.0, 1.644587793491073E9, 0.0, 2022-02-12 00:56:33.491
136.0, -10429.167500635089, -10541.015629889445, -6081.373224422125, -13382.011757136794, -8445.71840116005, -4846.416991521954, -8086.794088696729, -6033.071104654206, -10442.265622885898, -14189.557932562582, -7245.6085378657035, -6296.508764804455, -6021.6270114930885, -9185.069404252697, -11739.51616758301, -16760.455579812, 0.004, 0.24, 0.9480000000000001, 192.0, 0.0, 16.0, 3.5, 64.0, 14.5, 80.0, 0.0, 0.0, 0.0, 1.644587793499017E9, 0.0, 2022-02-12 00:56:33.499
138.0, -10446.981840965967, -10548.27994683742, -6100.528669420322, -13389.879571185062, -8460.202331567089, -4862.219674851856, -8102.395606326534, -6049.410229851035, -10450.915747990102, -14223.711398090292, -7247.553139633315, -6293.29011360289, -6025.76208421732, -9183.8177065632, -11738.71150478262, -16808.243609457448, 0.004, 0.24, 0.9480000000000001, 192.0, 0.0, 0.0, 0.0, 0.0, 0.0, 0.0, 0.0, 0.0, 0.0, 1.644587793506085E9, 0.0, 2022-02-12 00:56:33.506
140.0, -10426.73116048946, -10517.121615066722, -6084.68128260151, -13378.904864657507, -8451.462799485063, -4855.022413137247, -8101.702702248419, -6046.906834472041, -10446.937137477058, -14213.809575296591, -7257.633776382659, -6311.462081845055, -6032.869938954108, -9193.920695056999, -11739.873795494295, -16746.955126160996, 0.004, 0.24, 0.9480000000000001, 192.0, 0.0, 0.0, 0.0, 0.0, 0.0, 0.0, 0.0, 0.0, 0.0, 1.644587793512564E9, 0.0, 2022-02-12 00:56:33.512
142.0, -10415.309419072797, -10520.362618012741, -6084.748337834876, -13395.691024743443, -8462.996299624003, -4857.168180604956, -8095.868896945584, -6034.121636643606, -10455.319041647797, -14202.879572257945, -7237.897186028623, -6307.572878309832, -6031.886462198075, -9184.890590297055, -11733.682362280175, -16802.834487299264, 0.004, 0.24, 0.9480000000000001, 192.0, 0.0, 0.0, 0.0, 0.0, 0.0, 0.0, 0.0, 0.0, 0.0, 1.644587793528682E9, 0.0, 2022-02-12 00:56:33.528
144.0, -10455.676669559083, -10525.838795404292, -6100.260448486859, -13378.189608834937, -8446.791284893905, -4856.229407337833, -8107.491804062343, -6031.797055220253, -10446.713620032504, -14200.28676990113, -7257.566721149293, -6319.128730193225, -6019.034209136273, -9191.752575844834, -11732.073036679392, -16768.256338626903, 0.004, 0.24, 0.9480000000000001, 192.0, 0.0, 0.0, 0.0, 0.0, 0.0, 0.0, 0.0, 0.0, 0.0, 1.644587793535709E9, 0.0, 2022-02-12 00:56:33.535
146.0, -10440.075151929279, -10551.096266638788, -6084.144840734582, -13378.636643724043, -8447.663002927662, -4855.625910237541, -8091.1079753766035, -6033.048752909751, -10455.207282925521, -14201.493764101717, -7247.284918699851, -6291.770194979929, -6038.4131715790245, -9198.033416036775, -11732.743589013051, -16757.08046639925, 0.002, 0.234, 0.9400000000000001, 192.0, 0.0, 8.0, 3.5, 40.0, 14.5, 48.0, 0.0, 0.0, 0.0, 1.644587793543176E9, 0.0, 2022-02-12 00:56:33.543
148.0, -10455.900187003635, -10557.33240334182, -6096.103024018172, -13383.97871064886, -8451.060468084868, -4865.326567331143, -8091.733824221352, -6041.073029169206, -10457.129532948677, -14215.888287530934, -7248.62602336717, -6295.033549670405, -6031.685296497977, -9193.7195293569, -11725.971010443094, -16800.2640366869, 0.002, 0.234, 0.9400000000000001, 192.0, 0.0, 0.0, 0.0, 0.0, 0.0, 0.0, 0.0, 0.0, 0.0, 1.644587793551405E9, 0.0, 2022-02-12 00:56:33.551
150.0, -10427.20054712302, -10525.592926215282, -6094.851326328675, -13370.679422697953, -8437.202386522578, -4859.828038195138, -8086.145888107525, -6039.039020423773, -10453.64266081365, -14193.625950053449, -7267.043860798342, -6317.385294125712, -6026.47734003989, -9213.411416222027, -11723.244097619547, -16738.506166756888, 0.002, 0.234, 0.9400000000000001, 192.0, 0.0, 0.0, 0.0, 0.0, 0.0, 0.0, 0.0, 0.0, 0.0, 1.644587793559286E9, 0.0, 2022-02-12 00:56:33.559
152.0, -10418.68453248555, -10532.857243163258, -6080.434451155002, -13390.058385140705, -8453.519159974952, -4864.745421975305, -8091.5103067768, -6034.523968043801, -10454.02264046939, -14197.42574661085, -7254.660994370102, -6312.758483023463, -6030.701819741943, -9198.458099181425, -11722.282972607967, -16797.201847696524, 0.002, 0.234, 0.9400000000000001, 192.0, 0.0, 0.0, 0.0, 0.0, 0.0, 0.0, 0.0, 0.0, 0.0, 1.644587793565826E9, 0.0, 2022-02-12 00:56:33.565
154.0, -10458.962375994013, -10543.317859568342, -6093.7113873614535, -13374.926254144462, -8449.719363417551, -4860.990328906814, -8093.499612033322, -6029.986563919373, -10446.758323521415, -14207.796956038113, -7268.653186399125, -6309.405721355167, -6030.120674386105, -9199.016892792808, -11729.32377211139, -16769.46333282749, 0.002, 0.234, 0.9400000000000001, 192.0, 0.0, 0.0, 0.0, 0.0, 0.0, 0.0, 0.0, 0.0, 0.0, 1.644587793573895E9, 0.0, 2022-02-12 00:56:33.573
156.0, -10446.758323521415, -10544.793074702391, -6082.982550022906, -13379.575416991165, -8453.787380908416, -4849.3003665566885, -8075.461754257889, -6022.47637778239, -10461.30930916182, -14189.647339540405, -7235.773770305368, -6300.286209617402, -6026.924374928996, -9199.240410237362, -11725.591030787353, -16754.688829742532, 0.006, 0.23600000000000002, 0.9440000000000001, 192.0, 0.0, 24.0, 3.5, 48.0, 14.5, 64.0, 0.0, 0.0, 0.0, 1.644587793581033E9, 0.0, 2022-02-12 00:56:33.581
158.0, -10446.177178165577, -10526.0846645933, -6095.097195517683, -13388.136135117547, -8463.890369402216, -4863.158448118978, -8096.718263234886, -6036.7144390004205, -10463.723297562992, -14206.366444392974, -7246.949642533022, -6304.488337575, -6031.484130797879, -9195.686482868969, -11725.769844742996, -16800.576961109276, 0.006, 0.23600000000000002, 0.9440000000000001, 192.0, 0.0, 0.0, 0.0, 0.0, 0.0, 0.0, 0.0, 0.0, 0.0, 1.644587793588047E9, 0.0, 2022-02-12 00:56:33.588
160.0, -10428.832224468259, -10546.447103792085, -6098.762881608353, -13370.075925597659, -8451.887482629714, -4861.660881240473, -8094.438385300445, -6038.14495064556, -10455.743724792448, -14190.42965059634, -7265.926273575577, -6321.498015105488, -6026.298526084248, -9219.11111105813, -11732.520071568499, -16738.84144292372, 0.006, 0.23600000000000002, 0.9440000000000001, 192.0, 0.0, 0.0, 0.0, 0.0, 0.0, 0.0, 0.0, 0.0, 0.0, 1.644587793595639E9, 0.0, 2022-02-12 00:56:33.595
162.0, -10424.719503488483, -10543.742542712993, -6096.661817629554, -13381.922350158973, -8461.632843212228, -4862.53259927423, -8092.180859110458, -6035.798017477753, -10456.995422481945, -14213.116671218477, -7264.428706697072, -6318.413474370655, -6034.434561065979, -9213.165547033019, -11728.273240121991, -16795.480763373467, 0.006, 0.23600000000000002, 0.9440000000000001, 192.0, 0.0, 0.0, 0.0, 0.0, 0.0, 0.0, 0.0, 0.0, 0.0, 1.644587793603447E9, 0.0, 2022-02-12 00:56:33.603
164.0, -10479.078946003789, -10569.983490703522, -6097.82410834123, -13370.165332575481, -8459.084744344324, -4873.574361035152, -8105.860126717106, -6049.521988573312, -10456.280166659375, -14216.715302075781, -7254.951567048021, -6303.370750352234, -6041.832988480686, -9219.558145947236, -11728.340295355356, -16767.071696170773, 0.007, 0.23600000000000002, 0.9470000000000001, 192.0, 0.0, 32.0, 3.5, 48.0, 14.5, 88.0, 0.0, 0.0, 0.0, 1.644587793611661E9, 0.0, 2022-02-12 00:56:33.611
166.0, -10446.914785732602, -10546.491807280994, -6087.654064614066, -13374.725088444364, -8457.989508866014, -4868.031128410235, -8095.287751589746, -6044.962232704429, -10470.473524388495, -14207.372272893463, -7251.151770490619, -6308.802224254874, -6036.423866322501, -9212.8749743551, -11730.46371107861, -16761.193187379027, 0.007, 0.23600000000000002, 0.9470000000000001, 192.0, 0.0, 0.0, 0.0, 0.0, 0.0, 0.0, 0.0, 0.0, 0.0, 1.644587793618206E9, 0.0, 2022-02-12 00:56:33.618
168.0, -10447.741800277448, -10546.625917747728, -6095.901858318074, -13382.36938504808, -8468.271311315455, -4874.669596513462, -8103.088510404648, -6045.118694915616, -10472.30636743383, -14223.823156812568, -7257.812590338301, -6321.118035449748, -6047.108000172138, -9208.8740120976, -11728.899088966738, -16804.533219877867, 0.007, 0.23600000000000002, 0.9470000000000001, 192.0, 0.0, 0.0, 0.0, 0.0, 0.0, 0.0, 0.0, 0.0, 0.0, 1.64458779362668E9, 0.0, 2022-02-12 00:56:33.626
170.0, -10435.850672227225, -10532.119635596233, -6097.555887407767, -13366.83492265164, -8455.597872209295, -4866.108878387079, -8098.394644069033, -6036.982659933885, -10460.348184150242, -14195.168220420865, -7248.29074720034, -6335.803131556885, -6046.392744349569, -9207.577610919192, -11727.736798255062, -16735.6004399777, 0.007, 0.23600000000000002, 0.9470000000000001, 192.0, 0.0, 0.0, 0.0, 0.0, 0.0, 0.0, 0.0, 0.0, 0.0, 1.64458779363418E9, 0.0, 2022-02-12 00:56:33.634
172.0, -10456.794256781848, -10561.713345255059, -6091.722082104931, -13369.763001175286, -8467.801924681893, -4881.665692527973, -8107.692969762442, -6039.463703568424, -10466.941948764557, -14200.577342579048, -7251.19647397953, -6300.241506128491, -6048.136180417083, -9214.573706933703, -11727.982667444072, -16790.719841804486, 0.007, 0.23600000000000002, 0.9470000000000001, 192.0, 0.0, 0.0, 0.0, 0.0, 0.0, 0.0, 0.0, 0.0, 0.0, 1.64458779364774E9, 0.0, 2022-02-12 00:56:33.647
174.0, -10464.952643508035, -10576.510200084473, -6103.009713054862, -13363.057477838693, -8460.291738544911, -4888.080643186646, -8115.538432066254, -6050.192540906971, -10470.585283110773, -14214.18955495233, -7247.866064055689, -6295.39117758169, -6044.6940117709655, -9227.314201273228, -11725.121644153793, -16764.74711474742, 0.0075, 0.23600000000000002, 0.9495, 192.0, 0.0, 32.0, 3.5, 48.0, 14.5, 96.0, 0.0, 0.0, 0.0, 1.644587793655938E9, 0.0, 2022-02-12 00:56:33.655
176.0, -10441.59507055224, -10540.479188022517, -6094.560753650756, -13367.326661029658, -8457.609529210273, -4883.163259406479, -8104.407263327511, -6033.227566865393, -10467.701908076038, -14202.231371668742, -7245.563834376792, -6305.24829688648, -6035.842720966664, -9225.123730316607, -11725.345161598345, -16751.760751218888, 0.0075, 0.23600000000000002, 0.9495, 192.0, 0.0, 0.0, 0.0, 0.0, 0.0, 0.0, 0.0, 0.0, 0.0, 1.64458779366387E9, 0.0, 2022-02-12 00:56:33.663
178.0, -10446.624213054683, -10552.727943984026, -6099.947524064484, -13376.200303578415, -8468.897160160204, -4894.719111289873, -8117.192461155947, -6049.231415895393, -10473.893341290157, -14211.708511317793, -7246.323793688273, -6317.161776681159, -6058.395631122069, -9230.264631541328, -11728.94379245565, -16802.923894277083, 0.0075, 0.23600000000000002, 0.9495, 192.0, 0.0, 0.0, 0.0, 0.0, 0.0, 0.0, 0.0, 0.0, 0.0, 1.644587793670877E9, 0.0, 2022-02-12 00:56:33.670
180.0, -10449.284070644864, -10544.99424040249, -6095.276009473326, -13367.21490230738, -8460.649366456195, -4882.895038473015, -8107.2459348733355, -6043.799941992753, -10461.197550439543, -14195.861124498979, -7263.020546796388, -6331.668058832653, -6052.874750241608, -9230.488148985882, -11732.832995990873, -16739.04260862382, 0.0075, 0.23600000000000002, 0.9495, 192.0, 0.0, 0.0, 0.0, 0.0, 0.0, 0.0, 0.0, 0.0, 0.0, 1.644587793678412E9, 0.0, 2022-02-12 00:56:33.678
182.0, -10453.754419535926, -10550.492769538496, -6089.688073359499, -13380.827114680662, -8468.807753182382, -4884.4596605848865, -8097.455870801911, -6037.675564011999, -10472.64164360066, -14204.175973436353, -7267.602654409726, -6320.671000560642, -6067.20221843746, -9216.8759366126, -11725.881603465272, -16792.88796101665, 0.0075, 0.23600000000000002, 0.9495, 192.0, 0.0, 0.0, 0.0, 0.0, 0.0, 0.0, 0.0, 0.0, 0.0, 1.644587793686499E9, 0.0, 2022-02-12 00:56:33.686
184.0, -10463.522131862896, -10560.439295821106, -6094.15842225056, -13370.366498275578, -8457.67658444364, -4884.2808466292445, -8109.838737230151, -6042.704706514443, -10459.16354169411, -14205.986464737232, -7243.306308186807, -6314.457215602067, -6063.7153463024315, -9222.73209365989, -11722.908821452716, -16764.143617647125, 0.00475, 0.23700000000000002, 0.9477500000000001, 192.0, 0.0, 8.0, 3.5, 56.0, 14.5, 72.0, 0.0, 0.0, 0.0, 1.644587793694394E9, 0.0, 2022-02-12 00:56:33.694
186.0, -10429.167500635089, -10547.542339270394, -6085.3741866796245, -13374.523922744265, -8455.217892553555, -4884.72788151835, -8097.902905691017, -6041.050677424751, -10446.803027010326, -14195.749365776703, -7241.451113397016, -6300.57678229532, -6049.209064150938, -9226.598945450658, -11724.473443564588, -16751.000791907405, 0.00475, 0.23700000000000002, 0.9477500000000001, 192.0, 0.0, 0.0, 0.0, 0.0, 0.0, 0.0, 0.0, 0.0, 0.0, 1.644587793701004E9, 0.0, 2022-02-12 00:56:33.701
188.0, -10459.87879751668, -10564.641423778705, -6102.406215954568, -13382.905826915006, -8467.980738637536, -4898.4295008694535, -8107.469452317889, -6061.502523601356, -10474.653300601638, -14213.854278785502, -7250.4812181569605, -6316.066541202848, -6046.146875160561, -9224.49788147186, -11721.523013296488, -16800.84518204274, 0.00475, 0.23700000000000002, 0.9477500000000001, 192.0, 0.0, 0.0, 0.0, 0.0, 0.0, 0.0, 0.0, 0.0, 0.0, 1.644587793708303E9, 0.0, 2022-02-12 00:56:33.708
190.0, -10453.955585236024, -10576.599607062293, -6093.5325734058115, -13365.382059262045, -8463.666851957661, -4890.405224609998, -8108.005894184816, -6051.533645574289, -10470.138248221667, -14200.733804790236, -7269.211980010507, -6332.942108266605, -6066.442259125979, -9245.26265207084, -11728.094426166348, -16733.767596932365, 0.00475, 0.23700000000000002, 0.9477500000000001, 192.0, 0.0, 0.0, 0.0, 0.0, 0.0, 0.0, 0.0, 0.0, 0.0, 1.644587793716232E9, 0.0, 2022-02-12 00:56:33.716
192.0, -10463.946815007546, -10559.433467320618, -6087.318788447236, -13384.358690304602, -8473.188695095623, -4892.238067655333, -8107.93883895145, -6048.270290883815, -10478.006062269935, -14203.416014124872, -7251.062363512799, -6308.444596343589, -6057.814485766231, -9230.82342515271, -11728.899088966738, -16787.635301069655, 0.00475, 0.23700000000000002, 0.9477500000000001, 192.0, 0.0, 0.0, 0.0, 0.0, 0.0, 0.0, 0.0, 0.0, 0.0, 1.644587793723435E9, 0.0, 2022-02-12 00:56:33.723
194.0, -10472.239312200465, -10577.180752418131, -6096.795928096286, -13378.480181512856, -8465.589101980819, -4895.143794434523, -8111.001027941827, -6052.785343263787, -10473.759230823425, -14215.19538345282, -7251.174122235075, -6333.366791411257, -6062.910683502041, -9242.491035758381, -11726.194527887646, -16764.769466491874, 0.004375, 0.23650000000000002, 0.9468750000000001, 192.0, 0.0, 16.0, 3.5, 48.0, 14.5, 72.0, 0.0, 0.0, 0.0, 1.644587793730665E9, 0.0, 2022-02-12 00:56:33.730
196.0, -10437.996439694934, -10549.151664871177, -6086.3129599467475, -13381.74353620333, -8466.572578736852, -4893.892096745026, -8095.958303923405, -6050.237244395882, -10464.952643508035, -14196.755194277192, -7257.991404293944, -6325.0966459627925, -6059.736735789387, -9246.916681160532, -11725.881603465272, -16752.207786107992, 0.004375, 0.23650000000000002, 0.9468750000000001, 192.0, 0.0, 0.0, 0.0, 0.0, 0.0, 0.0, 0.0, 0.0, 0.0, 1.644587793738856E9, 0.0, 2022-02-12 00:56:33.738
198.0, -10466.517265619907, -10570.117601170256, -6094.270180972837, -13387.89026592854, -8469.768878193961, -4904.576230594663, -8105.547202294732, -6059.446163111468, -10463.790352796359, -14220.604505611003, -7259.824247339278, -6327.242413430502, -6063.000090479862, -9239.361791534639, -11723.020580174993, -16803.728557077477, 0.004375, 0.23650000000000002, 0.9468750000000001, 192.0, 0.0, 0.0, 0.0, 0.0, 0.0, 0.0, 0.0, 0.0, 0.0, 1.644587793746721E9, 0.0, 2022-02-12 00:56:33.746
200.0, -10455.274338158886, -10565.691955768103, -6092.459689671957, -13374.278053555257, -8454.659098942173, -4903.212774182889, -8104.541373794244, -6050.572520562711, -10465.667899330605, -14202.432537368839, -7247.1955117220305, -6330.259898931969, -6046.817427494219, -9245.083838115197, -11723.93700169766, -16734.371094032656, 0.004375, 0.23650000000000002, 0.9468750000000001, 192.0, 0.0, 0.0, 0.0, 0.0, 0.0, 0.0, 0.0, 0.0, 0.0, 1.644587793753428E9, 0.0, 2022-02-12 00:56:33.753
202.0, -10449.865216000702, -10562.294490610897, -6090.91741930454, -13388.382004306557, -8462.929244390636, -4916.132082478057, -8101.769757481785, -6056.205160165448, -10463.768001051903, -14207.595790338015, -7248.1342849891535, -6312.19968941208, -6060.608453823144, -9250.06827712873, -11723.109987152815, -16790.94335924904, 0.004375, 0.23650000000000002, 0.9468750000000001, 192.0, 0.0, 0.0, 0.0, 0.0, 0.0, 0.0, 0.0, 0.0, 0.0, 1.644587793760279E9, 0.0, 2022-02-12 00:56:33.760
204.0, -10469.870027288203, -10584.601531577293, -6096.930038563018, -13375.55210298921, -8460.783476922927, -4923.284640703755, -8114.912583221506, -6067.179866693004, -10466.204341197532, -14229.165223737387, -7251.844674568734, -6330.751637309985, -6068.342157404681, -9261.042983656285, -11721.03127491847, -16772.145542162125, 0.0061875, 0.23625000000000002, 0.9444375, 192.0, 0.0, 32.0, 3.5, 48.0, 14.5, 56.0, 0.0, 0.0, 0.0, 1.644587793776388E9, 0.0, 2022-02-12 00:56:33.776
206.0, -10437.191776894544, -10556.348926585786, -6091.051529771273, -13376.714393700886, -8462.39280252371, -4914.165128965989, -8101.300370848224, -6051.5783490632, -10460.325832405786, -14208.489860116228, -7247.396677422128, -6333.523253622443, -6052.5618258192335, -9264.015765668843, -11722.84176621935, -16749.525576773354, 0.0061875, 0.23625000000000002, 0.9444375, 192.0, 0.0, 0.0, 0.0, 0.0, 0.0, 0.0, 0.0, 0.0, 0.0, 1.644587793782961E9, 0.0, 2022-02-12 00:56:33.782
208.0, -10457.084829459767, -10569.84938023679, -6091.610323382655, -13384.31398681569, -8468.159552593179, -4922.390570925542, -8107.402397084523, -6067.112811459639, -10458.492989360451, -14214.144851463421, -7246.592014621737, -6333.478550133533, -6072.320767917725, -9254.7844952088, -11719.444301062143, -16798.766469808397, 0.0061875, 0.23625000000000002, 0.9444375, 192.0, 0.0, 0.0, 0.0, 0.0, 0.0, 0.0, 0.0, 0.0, 0.0, 1.644587793791051E9, 0.0, 2022-02-12 00:56:33.791
210.0, -10459.677631816583, -10575.794944261903, -6082.759032578353, -13366.700812184909, -8457.363660021265, -4919.149567979523, -8106.50832730631, -6067.492791115379, -10451.765114279404, -14206.38879613743, -7249.184816978553, -6330.461064632066, -6062.7765730353085, -9267.234416870406, -11714.884545193261, -16734.616963221666, 0.0061875, 0.23625000000000002, 0.9444375, 192.0, 0.0, 0.0, 0.0, 0.0, 0.0, 0.0, 0.0, 0.0, 0.0, 1.644587793799052E9, 0.0, 2022-02-12 00:56:33.799
212.0, -10444.567852564795, -10556.840664963802, -6073.371299907124, -13377.608463479099, -8470.573540994352, -4918.791940068239, -8103.17791738247, -6059.334404389192, -10458.627099827183, -14209.316874661074, -7235.326735416262, -6308.9586864660605, -6056.160456676538, -9252.25874808535, -11713.23051610357, -16784.394298123636, 0.0061875, 0.23625000000000002, 0.9444375, 192.0, 0.0, 0.0, 0.0, 0.0, 0.0, 0.0, 0.0, 0.0, 0.0, 1.644587793807592E9, 0.0, 2022-02-12 00:56:33.807
214.0, -10456.771905037393, -10558.762914986959, -6088.570486136733, -13365.538521473232, -8469.858285171782, -4918.635477857051, -8118.578269312176, -6067.135163204094, -10452.59212882425, -14213.38489215194, -7220.775749775858, -6319.508709848966, -6062.553055590756, -9258.003146410365, -11713.968123670593, -16764.36713509168, 0.00609375, 0.23112500000000002, 0.9442187500000001, 192.0, 0.0, 24.0, 3.5, 8.0, 14.5, 64.0, 0.0, 0.0, 0.0, 1.644587793813643E9, 0.0, 2022-02-12 00:56:33.813
216.0, -10431.983820436457, -10545.32951656932, -6074.824163296719, -13371.081754098148, -8468.181904337634, -4914.008666754802, -8096.0924143901375, -6059.177942178005, -10452.323907890786, -14197.179877421842, -7230.47640686946, -6321.788587783407, -6049.2761193843035, -9255.656213242557, -11711.420024802688, -16742.350666803202, 0.00609375, 0.23112500000000002, 0.9442187500000001, 192.0, 0.0, 0.0, 0.0, 0.0, 0.0, 0.0, 0.0, 0.0, 0.0, 1.644587793821763E9, 0.0, 2022-02-12 00:56:33.821
218.0, -10429.189852379544, -10570.452877337084, -6085.39653842408, -13375.395640778022, -8472.898122417704, -4921.87648080307, -8099.199306869425, -6063.5365323467895, -10462.918634762602, -14204.466546114272, -7237.9195377730775, -6324.9178320071505, -6079.920361032529, -9257.44435279898, -11710.03421664646, -16795.547818606832, 0.00609375, 0.23112500000000002, 0.9442187500000001, 192.0, 0.0, 0.0, 0.0, 0.0, 0.0, 0.0, 0.0, 0.0, 0.0, 1.644587793828722E9, 0.0, 2022-02-12 00:56:33.828
220.0, -10442.980878708468, -10563.143856900198, -6086.983512280406, -13360.26350978178, -8458.257729799478, -4914.478053388364, -8087.889324175039, -6062.5977590796665, -10443.718486275493, -14190.273188385152, -7250.8611978127, -6336.496035634999, -6063.335366646692, -9266.139181392096, -11708.871925934784, -16725.83272765073, 0.00609375, 0.23112500000000002, 0.9442187500000001, 192.0, 0.0, 0.0, 0.0, 0.0, 0.0, 0.0, 0.0, 0.0, 0.0, 1.644587793835662E9, 0.0, 2022-02-12 00:56:33.835
222.0, -10460.571701594794, -10566.206045890576, -6079.741547076887, -13374.769791933275, -8470.506485760985, -4923.284640703755, -8092.627893999565, -6060.004956722851, -10457.576567837783, -14208.869839771967, -7233.248023181918, -6309.942163222095, -6069.705613816454, -9260.774762722822, -11707.910800923206, -16779.186341665547, 0.00609375, 0.23112500000000002, 0.9442187500000001, 192.0, 0.0, 0.0, 0.0, 0.0, 0.0, 0.0, 0.0, 0.0, 0.0, 1.644587793843369E9, 0.0, 2022-02-12 00:56:33.843
224.0, -10468.953605765535, -10580.868790253257, -6094.4713466729345, -13363.593919705621, -8468.427773526642, -4924.871614560082, -8105.122519150081, -6068.386860893591, -10459.811742283315, -14218.324627676562, -7229.850558024712, -6314.8818987467175, -6075.450012141468, -9263.769896479833, -11713.31992308139, -16762.802512979808, 0.006046875, 0.2305625, 0.946109375, 192.0, 0.0, 24.0, 3.5, 24.0, 14.5, 80.0, 0.0, 0.0, 0.0, 1.64458779385115E9, 0.0, 2022-02-12 00:56:33.851
226.0, -10443.606727553217, -10558.584101031316, -6083.675454101021, -13365.180893561948, -8469.120677604757, -4923.731675592861, -8103.334379593656, -6073.81833479623, -10460.92932950608, -14205.360615892485, -7240.154712218608, -6310.0092184554605, -6074.108907474149, -9267.770858737333, -11715.733911482563, -16742.529480758843, 0.006046875, 0.2305625, 0.946109375, 192.0, 0.0, 0.0, 0.0, 0.0, 0.0, 0.0, 0.0, 0.0, 0.0, 1.644587793858541E9, 0.0, 2022-02-12 00:56:33.858
228.0, -10447.808855510815, -10565.66960402365, -6093.197297238982, -13376.803800678706, -8475.982663152536, -4928.492597161841, -8111.872745975584, -6072.119602217627, -10469.892379032657, -14225.074854502065, -7249.967128034488, -6324.113169206759, -6064.9446922474735, -9271.704765761468, -11717.70086499463, -16798.98998725295, 0.006046875, 0.2305625, 0.946109375, 192.0, 0.0, 0.0, 0.0, 0.0, 0.0, 0.0, 0.0, 0.0, 0.0, 1.644587793865865E9, 0.0, 2022-02-12 00:56:33.865
230.0, -10455.900187003635, -10572.822162249347, -6087.341140191691, -13358.587128947633, -8459.084744344324, -4918.836643557149, -8102.730882493363, -6063.268311413326, -10461.845751028748, -14204.980636236745, -7249.363630934195, -6333.523253622443, -6080.702672088465, -9270.74364074989, -11712.403501558721, -16727.844384651708, 0.006046875, 0.2305625, 0.946109375, 192.0, 0.0, 0.0, 0.0, 0.0, 0.0, 0.0, 0.0, 0.0, 0.0, 1.644587793873829E9, 0.0, 2022-02-12 00:56:33.873
232.0, -10447.205358410522, -10559.656984765172, -6083.742509334387, -13368.064268596681, -8471.378203794742, -4926.5479953942295, -8100.741577236841, -6063.558884091245, -10460.079963216778, -14204.801822281102, -7231.258717925396, -6303.951895708072, -6078.936884276496, -9272.732946006412, -11712.917591681195, -16779.74513527693, 0.006046875, 0.2305625, 0.946109375, 192.0, 0.0, 0.0, 0.0, 0.0, 0.0, 0.0, 0.0, 0.0, 0.0, 1.644587793881891E9, 0.0, 2022-02-12 00:56:33.881
234.0, -10465.824361541792, -10566.742487757503, -6090.269218715337, -13365.247948795313, -8469.880636916238, -4939.176731011478, -8119.807615257218, -6075.5841226082, -10462.605710340227, -14220.537450377638, -7236.734895316947, -6314.412512113156, -6082.49081164489, -9279.080841431718, -11716.94090568315, -16765.238853125436, 0.0040234375, 0.23228125, 0.9470546875000001, 192.0, 0.0, 8.0, 3.5, 40.0, 14.5, 80.0, 0.0, 0.0, 0.0, 1.644587793895529E9, 0.0, 2022-02-12 00:56:33.895
236.0, -10430.128625646666, -10562.875635966735, -6080.814430810742, -13362.923367371961, -8464.471514758054, -4935.108713520613, -8109.391702341045, -6072.253712684359, -10462.493951617951, -14213.943685763323, -7239.282994184851, -6319.687523804609, -6075.897047030574, -9286.233399657416, -11718.103196394826, -16743.021219136863, 0.0040234375, 0.23228125, 0.9470546875000001, 192.0, 0.0, 0.0, 0.0, 0.0, 0.0, 0.0, 0.0, 0.0, 0.0, 1.644587793903384E9, 0.0, 2022-02-12 00:56:33.903
238.0, -10461.26460567291, -10584.400365877196, -6092.526744905323, -13368.958338374894, -8467.53370374843, -4941.858940346115, -8110.12930990807, -6072.320767917725, -10470.16059996612, -14233.568517395082, -7234.209148193497, -6307.304657376369, -6079.070994743228, -9277.337405364206, -11713.118757381291, -16797.894751774642, 0.0040234375, 0.23228125, 0.9470546875000001, 192.0, 0.0, 0.0, 0.0, 0.0, 0.0, 0.0, 0.0, 0.0, 0.0, 1.644587793911491E9, 0.0, 2022-02-12 00:56:33.911
240.0, -10458.425934127084, -10571.324595370841, -6085.687111101998, -13353.625041678553, -8456.290776287411, -4937.209777499411, -8107.894135462539, -6068.096288215672, -10462.113971962212, -14221.09624398902, -7240.869968041178, -6320.045151715894, -6080.9708930219285, -9287.865077002654, -11713.498737037033, -16729.185489319025, 0.0040234375, 0.23228125, 0.9470546875000001, 192.0, 0.0, 0.0, 0.0, 0.0, 0.0, 0.0, 0.0, 0.0, 0.0, 1.644587793918202E9, 0.0, 2022-02-12 00:56:33.918
242.0, -10430.039218668846, -10543.630783990715, -6083.206067467459, -13367.796047663218, -8466.01378512547, -4942.797713613238, -8108.609391285109, -6074.757108063353, -10465.243216185954, -14215.374197408462, -7238.835959295745, -6304.644799786187, -6074.064203985239, -9275.54926580778, -11712.649370747731, -16780.88507424415, 0.0040234375, 0.23228125, 0.9470546875000001, 192.0, 0.0, 0.0, 0.0, 0.0, 0.0, 0.0, 0.0, 0.0, 0.0, 1.644587793926211E9, 0.0, 2022-02-12 00:56:33.926
244.0, -10452.279204401875, -10558.204121375577, -6096.058320529261, -13362.40927724949, -8468.606587482285, -4947.715097393406, -8124.32266763719, -6076.67935808651, -10467.009003997922, -14205.964112992779, -7238.925366273566, -6326.191881441103, -6086.290608202292, -9291.776632282334, -11716.5162225385, -16770.290347372335, 0.006, 0.24, 0.9520000000000001, 192.0, 0.0, 24.0, 3.5, 64.0, 14.5, 96.0, 0.0, 0.0, 0.0, 1.644587793935882E9, 0.0, 2022-02-12 00:56:33.935
246.0, -10455.87783525918, -10574.967929717057, -6081.4402796554905, -13355.614346935075, -8461.699898445595, -4935.30987922071, -8104.094338905137, -6064.743526547376, -10458.180064938077, -14199.795031523114, -7238.053648239809, -6319.709875549063, -6065.34702364767, -9286.45691710197, -11713.118757381291, -16741.769521447364, 0.006, 0.24, 0.9520000000000001, 192.0, 0.0, 0.0, 0.0, 0.0, 0.0, 0.0, 0.0, 0.0, 0.0, 1.644587793941601E9, 0.0, 2022-02-12 00:56:33.941
248.0, -10455.900187003635, -10588.75895604598, -6085.620055868632, -13359.861178381585, -8465.410288025176, -4947.893911349048, -8103.088510404648, -6074.466535385434, -10471.54640812235, -14241.950421565822, -7217.244174151919, -6321.922698250139, -6083.675454101021, -9284.042928700797, -11707.307303822912, -16796.352481407223, 0.006, 0.24, 0.9520000000000001, 192.0, 0.0, 0.0, 0.0, 0.0, 0.0, 0.0, 0.0, 0.0, 0.0, 1.644587793947866E9, 0.0, 2022-02-12 00:56:33.947
250.0, -10450.647527056639, -10565.75901100147, -6084.100137245672, -13341.912727583973, -8460.179979822633, -4946.1504752815335, -8106.374216839578, -6068.8785992716075, -10455.542559092351, -14223.733749834748, -7231.951622003511, -6311.1268056782255, -6078.243980198381, -9294.436489872514, -11706.569696255887, -16728.514936985368, 0.006, 0.24, 0.9520000000000001, 192.0, 0.0, 0.0, 0.0, 0.0, 0.0, 0.0, 0.0, 0.0, 0.0, 1.644587793955747E9, 0.0, 2022-02-12 00:56:33.955
252.0, -10430.329791346765, -10544.547205513383, -6073.617169096133, -13352.887434111528, -8472.719308462061, -4948.609167171618, -8107.2459348733355, -6070.778497550309, -10461.73399230647, -14225.320723691073, -7226.363685889684, -6307.997561454483, -6080.456802899457, -9287.730966535923, -11707.620228245287, -16777.59936780922, 0.006, 0.24, 0.9520000000000001, 192.0, 0.0, 0.0, 0.0, 0.0, 0.0, 0.0, 0.0, 0.0, 0.0, 1.644587793963844E9, 0.0, 2022-02-12 00:56:33.963
254.0, -10437.147073405633, -10556.974775430534, -6095.4101199400575, -13347.791236375719, -8467.667814215161, -4946.083420048168, -8119.0476559457375, -6071.784326050798, -10458.716506805004, -14223.890212045933, -7231.258717925396, -6328.002372741982, -6075.20414295246, -9301.320827164749, -11707.933152667661, -16764.12126590267, 0.01, 0.23, 0.9440000000000001, 192.0, 0.0, 40.0, 3.5, 24.0, 14.5, 64.0, 0.0, 0.0, 0.0, 1.644587793970674E9, 0.0, 2022-02-12 00:56:33.970
0.0, -10446.73597177696, -10575.861999495268, -6082.602570367167, -13345.712524141374, -8468.159552593179, -4941.83658860166, -8103.89317320504, -6065.302320158758, -10452.279204401875, -14207.931066504845, -7239.104180229209, -6325.498977362988, -6074.332424918703, -9296.93988525151, -11705.340350310846, -16735.35457078869, 0.01, 0.23, 0.9440000000000001, 192.0, 0.0, 0.0, 0.0, 0.0, 0.0, 0.0, 0.0, 0.0, 0.0, 1.644587793978417E9, 0.0, 2022-02-12 00:56:33.978
2.0, -10443.15969266411, -10583.550999587895, -6085.150669235071, -13356.597823691109, -8479.91657017667, -4951.291376506255, -8110.5316413082655, -6079.339215676691, -10459.342355649753, -14227.980581281256, -7228.598860335214, -6310.255087644468, -6086.849401813674, -9301.857269031676, -11706.07795787787, -16795.391356395645, 0.01, 0.23, 0.9440000000000001, 192.0, 0.0, 0.0, 0.0, 0.0, 0.0, 0.0, 0.0, 0.0, 0.0, 1.644587793987E9, 0.0, 2022-02-12 00:56:33.987
4.0, -10429.59218377974, -10541.149740356177, -6082.6696256005325, -13339.11875952706, -8460.492904245008, -4938.327364722177, -8109.704626763419, -6072.276064428815, -10443.45026534203, -14209.071005472066, -7218.272354396863, -6316.580631325321, -6077.461669142445, -9303.22072544345, -11706.07795787787, -16726.70444568449, 0.01, 0.23, 0.9440000000000001, 192.0, 0.0, 0.0, 0.0, 0.0, 0.0, 0.0, 0.0, 0.0, 0.0, 1.644587793993622E9, 0.0, 2022-02-12 00:56:33.993
6.0, -10433.168462892589, -10578.410098363174, -6078.266331942837, -13352.127474800049, -8477.927264920148, -4950.93374859497, -8111.492766319843, -6077.05933774225, -10456.146056192643, -14225.611296368992, -7216.2606973958855, -6309.539831821899, -6082.8484395561745, -9301.767862053855, -11709.251905590523, -16774.581882307753, 0.01, 0.23, 0.9440000000000001, 192.0, 0.0, 0.0, 0.0, 0.0, 0.0, 0.0, 0.0, 0.0, 0.0, 1.644587794001084E9, 0.0, 2022-02-12 00:56:34.001
8.0, -10457.30834690432, -10588.915418257167, -6083.250770956371, -13339.655201393987, -8466.416116525665, -4953.437143973964, -8106.083644161659, -6081.6190936111325, -10456.906015504124, -14232.428578427862, -7226.43074112305, -6322.235622672513, -6098.5840676527105, -9308.808661557277, -11709.363664312801, -16764.903576958608, 0.006, 0.23600000000000002, 0.9420000000000001, 192.0, 0.0, 24.0, 3.5, 48.0, 14.5, 56.0, 0.0, 0.0, 0.0, 1.64458779400826E9, 0.0, 2022-02-12 00:56:34.008
10.0, -10456.101352703734, -10573.157438416176, -6073.728927818409, -13339.856367094084, -8462.079878101335, -4942.283623490765, -8091.666768987986, -6070.622035339122, -10450.938099734558, -14219.486918388238, -7223.18973817703, -6319.151081937681, -6084.010730267851, -9304.762995810866, -11705.072129377382, -16733.87935565464, 0.006, 0.23600000000000002, 0.9420000000000001, 192.0, 0.0, 0.0, 0.0, 0.0, 0.0, 0.0, 0.0, 0.0, 0.0, 1.644587794023444E9, 0.0, 2022-02-12 00:56:34.023
12.0, -10450.289899145353, -10582.388708876219, -6084.927151790518, -13348.908823598484, -8475.848552685804, -4952.051335817735, -8105.994237183838, -6075.047680741272, -10467.187817953565, -14231.601563883016, -7220.462825353483, -6311.4397301006, -6092.973779794429, -9298.057472474275, -11703.865135176795, -16786.09303070224, 0.006, 0.23600000000000002, 0.9420000000000001, 192.0, 0.0, 0.0, 0.0, 0.0, 0.0, 0.0, 0.0, 0.0, 0.0, 1.64458779403073E9, 0.0, 2022-02-12 00:56:34.030
14.0, -10429.30161110182, -10550.246900349486, -6081.261465699848, -13338.4482071934, -8464.851494413793, -4949.100905549634, -8105.524850550277, -6071.359642906147, -10458.515341104907, -14219.285752688142, -7233.560947604293, -6334.886710034217, -6099.589896153199, -9309.658027846579, -11702.524030509476, -16721.98822760442, 0.006, 0.23600000000000002, 0.9420000000000001, 192.0, 0.0, 0.0, 0.0, 0.0, 0.0, 0.0, 0.0, 0.0, 0.0, 1.644587794040186E9, 0.0, 2022-02-12 00:56:34.040
16.0, -10441.840939741247, -10573.604473305282, -6071.24788418387, -13350.07111431016, -8477.547285264407, -4951.425486972987, -8104.988408683349, -6071.091421972683, -10456.034297470367, -14220.67156084437, -7229.7611510468905, -6316.11124469176, -6082.200238966971, -9305.411196400071, -11697.740757196041, -16767.094047915227, 0.006, 0.23600000000000002, 0.9420000000000001, 192.0, 0.0, 0.0, 0.0, 0.0, 0.0, 0.0, 0.0, 0.0, 0.0, 1.644587794046725E9, 0.0, 2022-02-12 00:56:34.046
18.0, -10467.746611564948, -10605.299246942908, -6088.592837881189, -13343.186777017925, -8476.429698041642, -4955.404097486031, -8118.84649024564, -6084.68128260151, -10468.55127436534, -14233.121482505976, -7214.6737235395585, -6311.350323122779, -6093.376111194624, -9313.100196492696, -11704.111004365803, -16759.293289100326, 0.004, 0.234, 0.9400000000000001, 192.0, 0.0, 16.0, 3.5, 40.0, 14.5, 48.0, 0.0, 0.0, 0.0, 1.644587794053537E9, 0.0, 2022-02-12 00:56:34.053
20.0, -10445.350163620731, -10573.090383182811, -6073.505410373857, -13340.661029894476, -8465.142067091712, -4946.843379359649, -8100.942742936939, -6079.294512187781, -10461.26460567291, -14218.19051720983, -7223.167386432575, -6319.48635810451, -6081.9096662890515, -9315.447129660502, -11703.55221075442, -16729.252544552393, 0.004, 0.234, 0.9400000000000001, 192.0, 0.0, 0.0, 0.0, 0.0, 0.0, 0.0, 0.0, 0.0, 0.0, 1.644587794061338E9, 0.0, 2022-02-12 00:56:34.061
22.0, -10430.955640191512, -10573.000976204989, -6082.580218622711, -13343.298535740201, -8472.451087528598, -4949.6149956721065, -8104.340208094145, -6069.258578927348, -10467.41133539812, -14225.253668457708, -7217.400636363106, -6314.926602235628, -6094.985436795407, -9308.361626668171, -11698.32190255188, -16784.327242890267, 0.004, 0.234, 0.9400000000000001, 192.0, 0.0, 0.0, 0.0, 0.0, 0.0, 0.0, 0.0, 0.0, 0.0, 1.644587794069795E9, 0.0, 2022-02-12 00:56:34.069
24.0, -10430.374494835674, -10553.174978873132, -6081.9096662890515, -13329.35104720009, -8462.772782179449, -4942.887120591059, -8111.269248875291, -6071.627863839611, -10453.64266081365, -14218.503441632205, -7236.354915661206, -6333.187977455614, -6097.019445540839, -9314.754225582388, -11698.433661274155, -16717.964913602464, 0.004, 0.234, 0.9400000000000001, 192.0, 0.0, 0.0, 0.0, 0.0, 0.0, 0.0, 0.0, 0.0, 0.0, 1.644587794075719E9, 0.0, 2022-02-12 00:56:34.075
26.0, -10421.433797053553, -10562.428601077629, -6072.924265018019, -13342.963259573373, -8470.908817161182, -4940.6295944010735, -8106.3071616062125, -6071.158477206049, -10458.157713193621, -14212.803746796102, -7220.932211987044, -6316.021837713938, -6091.431509427012, -9304.584181855224, -11694.678568205663, -16763.853044969208, 0.004, 0.234, 0.9400000000000001, 192.0, 0.0, 0.0, 0.0, 0.0, 0.0, 0.0, 0.0, 0.0, 0.0, 1.644587794083012E9, 0.0, 2022-02-12 00:56:34.083
28.0, -10453.776771280382, -10599.487793384527, -6086.715291346943, -13337.777654859741, -8470.282968316433, -4951.805466628726, -8117.348923367134, -6079.741547076887, -10464.997346996946, -14224.717226590781, -7222.80975852129, -6322.839119772807, -6096.438300185001, -9317.190565728017, -11694.477402505565, -16754.822940209262, 0.01, 0.24, 0.9480000000000001, 192.0, 0.0, 40.0, 3.5, 64.0, 14.5, 80.0, 0.0, 0.0, 0.0, 1.644587794091463E9, 0.0, 2022-02-12 00:56:34.091
30.0, -10448.278242144375, -10571.726926771036, -6076.880523786607, -13334.670762380454, -8465.879674658738, -4947.670393904495, -8110.5316413082655, -6072.588988851188, -10467.321928420297, -14214.971866008267, -7224.910822500089, -6332.048038488393, -6089.06222451475, -9321.102121007696, -11697.114908351292, -16721.608247948676, 0.01, 0.24, 0.9480000000000001, 192.0, 0.0, 0.0, 0.0, 0.0, 0.0, 0.0, 0.0, 0.0, 0.0, 1.644587794098982E9, 0.0, 2022-02-12 00:56:34.098
32.0, -10433.883718715158, -10570.408173848173, -6080.546209877278, -13340.817492105663, -8473.278102073444, -4955.471152719397, -8114.778472754774, -6079.607436610155, -10461.219902183999, -14226.52771789166, -7228.218880679475, -6311.976171967527, -6071.5831603506995, -9314.195431971006, -11696.26554206199, -16777.331146875757, 0.01, 0.24, 0.9480000000000001, 192.0, 0.0, 0.0, 0.0, 0.0, 0.0, 0.0, 0.0, 0.0, 0.0, 1.644587794105699E9, 0.0, 2022-02-12 00:56:34.105
34.0, -10446.244233398942, -10572.486886082517, -6066.576369592711, -13330.06630302266, -8457.72128793255, -4947.0892485486565, -8104.854298216617, -6077.305206931259, -10454.0673439583, -14214.614238096981, -7217.579450318748, -6325.320163407346, -6091.990303038395, -9317.145862239107, -11694.83503041685, -16715.77444264584, 0.01, 0.24, 0.9480000000000001, 192.0, 0.0, 0.0, 0.0, 0.0, 0.0, 0.0, 0.0, 0.0, 0.0, 1.644587794114247E9, 0.0, 2022-02-12 00:56:34.114
36.0, -10426.77586397837, -10571.302243626385, -6059.848494511663, -13340.795140361208, -8464.449163013598, -4950.643175917051, -8099.445176058433, -6072.499581873368, -10458.917672505102, -14214.055444485599, -7196.591162275215, -6302.655494529664, -6079.763898821342, -9305.053568488785, -11689.112983836292, -16759.829730967253, 0.01, 0.24, 0.9480000000000001, 192.0, 0.0, 0.0, 0.0, 0.0, 0.0, 0.0, 0.0, 0.0, 0.0, 1.644587794121925E9, 0.0, 2022-02-12 00:56:34.121
38.0, -10437.661163528104, -10569.447048836595, -6075.293549930281, -13330.267468722757, -8464.493866502507, -4954.59943468564, -8108.207059884913, -6073.05837548475, -10456.347221892742, -14222.929087034356, -7206.649447280103, -6307.6622852876535, -6071.426698139513, -9315.60359187169, -11689.60472221431, -16752.274841341357, 0.012, 0.24, 0.9440000000000001, 192.0, 0.0, 48.0, 3.5, 64.0, 14.5, 64.0, 0.0, 0.0, 0.0, 1.64458779412876E9, 0.0, 2022-02-12 00:56:34.128
40.0, -10415.667046984083, -10541.999106645479, -6061.234302667893, -13329.440454177911, -8458.302433288389, -4942.305975235221, -8099.601638269621, -6065.5928928366775, -10448.322945633287, -14202.700758302302, -7209.421063592561, -6322.883823261717, -6085.195372723982, -9316.922344794553, -11686.229608801557, -16716.40029149059, 0.012, 0.24, 0.9440000000000001, 192.0, 0.0, 0.0, 0.0, 0.0, 0.0, 0.0, 0.0, 0.0, 0.0, 1.644587794143342E9, 0.0, 2022-02-12 00:56:34.143
42.0, -10416.87404118467, -10565.736659257014, -6071.739622561887, -13338.805835104686, -8465.097363602801, -4950.397306728042, -8100.451004558922, -6067.224570181915, -10454.424971869585, -14210.166240950375, -7201.396787333106, -6326.8624337747615, -6085.150669235071, -9310.105062735685, -11683.659158189197, -16771.22912063946, 0.012, 0.24, 0.9440000000000001, 192.0, 0.0, 0.0, 0.0, 0.0, 0.0, 0.0, 0.0, 0.0, 0.0, 1.644587794151526E9, 0.0, 2022-02-12 00:56:34.151
44.0, -10434.263698370898, -10581.38288037573, -6063.849456769163, -13324.59012563111, -8451.753372162982, -4948.430353215976, -8101.79210922624, -6065.190561436482, -10449.619346811694, -14219.57632536606, -7221.625116065159, -6307.952857965572, -6079.920361032529, -9327.315905966272, -11683.16741981118, -16706.856096608175, 0.012, 0.24, 0.9440000000000001, 192.0, 0.0, 0.0, 0.0, 0.0, 0.0, 0.0, 0.0, 0.0, 0.0, 1.644587794158455E9, 0.0, 2022-02-12 00:56:34.158
46.0, -10434.867195471192, -10565.803714490381, -6049.834912995686, -13342.315058984168, -8460.090572844812, -4940.920167078993, -8093.2760945887685, -6060.921378245518, -10457.531864348874, -14216.156508464397, -7198.222839620453, -6298.229849127513, -6074.86886678563, -9310.239173202417, -11681.64750118822, -16751.716047729977, 0.012, 0.24, 0.9440000000000001, 192.0, 0.0, 0.0, 0.0, 0.0, 0.0, 0.0, 0.0, 0.0, 0.0, 1.644587794167034E9, 0.0, 2022-02-12 00:56:34.167
48.0, -10436.521224560884, -10565.781362745925, -6063.558884091245, -13324.97010528685, -8457.698936188095, -4947.804504371226, -8106.173051139481, -6070.622035339122, -10449.64169855615, -14218.749310821213, -7201.977932688944, -6311.1268056782255, -6062.083668957194, -9308.965123768465, -11678.965291853583, -16738.014428378872, 0.004, 0.23800000000000002, 0.9400000000000001, 192.0, 0.0, 16.0, 3.5, 56.0, 14.5, 48.0, 0.0, 0.0, 0.0, 1.644587794173204E9, 0.0, 2022-02-12 00:56:34.173
50.0, -10415.868212684181, -10563.322670855841, -6057.7250787884095, -13325.864175065062, -8455.843741398305, -4947.826856115682, -8099.400472569522, -6064.229436424904, -10448.390000866651, -14210.56857235057, -7188.18690636002, -6307.8410992432955, -6059.5802735782, -9318.978705284442, -11683.972082611572, -16704.285645995813, 0.004, 0.23800000000000002, 0.9400000000000001, 192.0, 0.0, 0.0, 0.0, 0.0, 0.0, 0.0, 0.0, 0.0, 0.0, 1.644587794181316E9, 0.0, 2022-02-12 00:56:34.181
52.0, -10420.115044130689, -10579.259464652476, -6061.167247434527, -13341.152768272492, -8471.668776472661, -4966.803487158238, -8113.638533787554, -6084.547172134778, -10460.92932950608, -14237.681238374858, -7195.607685519181, -6303.750730007974, -6088.436375670001, -9319.179870984539, -11685.827277401362, -16771.810265995297, 0.004, 0.23800000000000002, 0.9400000000000001, 192.0, 0.0, 0.0, 0.0, 0.0, 0.0, 0.0, 0.0, 0.0, 0.0, 1.644587794189227E9, 0.0, 2022-02-12 00:56:34.189
54.0, -10438.778750750871, -10573.403307605186, -6063.491828857878, -13329.507509411278, -8455.083782086824, -4958.5333417097745, -8108.296466862735, -6069.8173725387305, -10456.50368410393, -14229.925183048867, -7210.181022904042, -6331.757465810474, -6090.492736159889, -9330.601612401202, -11686.453126246111, -16713.963951344962, 0.004, 0.23800000000000002, 0.9400000000000001, 192.0, 0.0, 0.0, 0.0, 0.0, 0.0, 0.0, 0.0, 0.0, 0.0, 1.644587794196395E9, 0.0, 2022-02-12 00:56:34.196
56.0, -10430.463901813497, -10543.116693868244, -6056.696898543465, -13338.336448471124, -8451.82042739635, -4948.698574149439, -8088.31400731969, -6060.4296398675015, -10458.87296901619, -14224.404302168407, -7203.251982122896, -6336.026649001437, -6085.620055868632, -9325.348952454204, -11675.321957507367, -16750.911384929586, 0.006, 0.24, 0.9410000000000001, 192.0, 0.0, 32.0, 3.5, 72.0, 14.5, 56.0, 0.0, 0.0, 0.0, 1.644587794202872E9, 0.0, 2022-02-12 00:56:34.202
58.0, -10423.959544177002, -10550.738638727504, -6059.96025323394, -13325.953582042883, -8440.108113301769, -4941.098981034635, -8088.135193364048, -6058.8426660111745, -10452.189797424055, -14229.679313859859, -7218.540575330327, -6307.3717126097345, -6079.652140099066, -9316.877641305642, -11667.87882660375, -16738.12618710115, 0.006, 0.24, 0.9410000000000001, 192.0, 0.0, 0.0, 0.0, 0.0, 0.0, 0.0, 0.0, 0.0, 0.0, 1.644587794210868E9, 0.0, 2022-02-12 00:56:34.210
60.0, -10420.740892975438, -10564.596720289794, -6041.162436147027, -13317.616381361055, -8439.079933056824, -4933.45468443092, -8090.549181765221, -6057.613320066133, -10442.511492074907, -14201.203191423798, -7195.585333774726, -6307.304657376369, -6068.431564382501, -9315.60359187169, -11665.397782969212, -16696.88721858111, 0.006, 0.24, 0.9410000000000001, 192.0, 0.0, 0.0, 0.0, 0.0, 0.0, 0.0, 0.0, 0.0, 0.0, 1.644587794218854E9, 0.0, 2022-02-12 00:56:34.218
62.0, -10410.235573081443, -10565.490790068006, -6047.309165872236, -13321.349122685091, -8453.67562218614, -4937.589757155151, -8101.881516204062, -6071.20318069496, -10453.64266081365, -14227.377084180962, -7182.956598157478, -6283.097718131271, -6074.667701085532, -9301.969027753954, -11669.64461441572, -16760.388524578633, 0.006, 0.24, 0.9410000000000001, 192.0, 0.0, 0.0, 0.0, 0.0, 0.0, 0.0, 0.0, 0.0, 0.0, 1.644587794225996E9, 0.0, 2022-02-12 00:56:34.225
64.0, -10414.77297720587, -10546.51415902545, -6055.6687182985215, -13311.313189424658, -8436.353020233277, -4933.901719320026, -8092.493783532833, -6062.977738735407, -10438.421122839585, -14213.161374707386, -7201.240325121918, -6303.728378263519, -6059.423811367013, -9311.490870891914, -11667.208274270091, -16693.73562261291, 0.006, 0.24, 0.9410000000000001, 192.0, 0.0, 0.0, 0.0, 0.0, 0.0, 0.0, 0.0, 0.0, 0.0, 1.644587794233509E9, 0.0, 2022-02-12 00:56:34.233
66.0, -10426.77586397837, -10539.85333917777, -6045.453971082446, -13325.886526809518, -8444.131427303724, -4935.891024576548, -8081.250856071813, -6050.773686262809, -10446.73597177696, -14212.24495318472, -7182.911894668567, -6306.879974231717, -6078.311035431748, -9309.814490057766, -11662.603814912298, -16733.544079487812, 0.005, 0.238, 0.9445000000000001, 192.0, 0.0, 16.0, 3.5, 48.0, 14.5, 80.0, 0.0, 0.0, 0.0, 1.64458779424161E9, 0.0, 2022-02-12 00:56:34.241
68.0, -10444.746666520437, -10567.256577879974, -6056.29456714327, -13322.82433781914, -8441.851549369281, -4946.575158426185, -8091.376196310067, -6064.6317678251, -10444.478445586974, -14230.349866193517, -7196.322941341751, -6310.277439388924, -6086.178849480016, -9316.117681994163, -11662.11207653428, -16731.42066376456, 0.005, 0.238, 0.9445000000000001, 192.0, 0.0, 0.0, 0.0, 0.0, 0.0, 0.0, 0.0, 0.0, 0.0, 1.644587794248594E9, 0.0, 2022-02-12 00:56:34.248
70.0, -10429.636887268649, -10563.747354000492, -6043.419962337013, -13319.583334873121, -8438.05175281188, -4940.696649634439, -8082.390795039034, -6058.8426660111745, -10445.64073629865, -14219.106938732499, -7193.797194218301, -6310.076273688826, -6078.713366831943, -9320.632734374134, -11660.525102677955, -16695.68022438052, 0.005, 0.238, 0.9445000000000001, 192.0, 0.0, 0.0, 0.0, 0.0, 0.0, 0.0, 0.0, 0.0, 0.0, 1.64458779425517E9, 0.0, 2022-02-12 00:56:34.255
72.0, -10439.516358317895, -10575.213798906065, -6043.487017570379, -13330.625096634043, -8448.065334327857, -4942.931824079969, -8088.537524764243, -6057.948596232963, -10459.252948671932, -14239.67054363138, -7193.32780758474, -6304.689503275097, -6085.932980291007, -9315.715350593968, -11661.441524200622, -16757.08046639925, 0.005, 0.238, 0.9445000000000001, 192.0, 0.0, 0.0, 0.0, 0.0, 0.0, 0.0, 0.0, 0.0, 0.0, 1.644587794271582E9, 0.0, 2022-02-12 00:56:34.271
74.0, -10442.198567652533, -10571.861037237768, -6050.706631029443, -13306.887544022507, -8431.56974691984, -4928.134969250556, -8085.967074151883, -6056.361622376636, -10448.993497966945, -14223.689046345837, -7200.8826972106335, -6318.614640070754, -6073.840686540686, -9316.788234327822, -11663.028498056949, -16687.343023698693, 0.005, 0.238, 0.9445000000000001, 192.0, 0.0, 0.0, 0.0, 0.0, 0.0, 0.0, 0.0, 0.0, 0.0, 1.644587794278333E9, 0.0, 2022-02-12 00:56:34.278
76.0, -10444.456093842518, -10578.275987896443, -6039.463703568424, -13319.672741850942, -8438.007049322969, -4925.028076771268, -8075.908789146994, -6048.404401350546, -10448.881739244669, -14222.124424233965, -7197.507583797883, -6309.7186457775415, -6071.650215584066, -9306.774652811844, -11664.347250979812, -16723.888125883117, 0.006500000000000001, 0.238, 0.94425, 192.0, 0.0, 32.0, 3.5, 56.0, 14.5, 64.0, 0.0, 0.0, 0.0, 1.644587794286084E9, 0.0, 2022-02-12 00:56:34.286
78.0, -10465.44438188605, -10599.018406750967, -6049.38787810658, -13315.984704015817, -8435.615412666251, -4924.73750409335, -8090.906809676506, -6057.76978227732, -10450.871044501191, -14237.882404074957, -7211.8574037381895, -6316.379465625223, -6090.7162536044425, -9305.969990011454, -11664.235492257536, -16721.898820626597, 0.006500000000000001, 0.238, 0.94425, 192.0, 0.0, 0.0, 0.0, 0.0, 0.0, 0.0, 0.0, 0.0, 0.0, 1.64458779429381E9, 0.0, 2022-02-12 00:56:34.293
80.0, -10503.79997537136, -10630.377904221763, -6040.983622191385, -13320.991494773805, -8431.346229475288, -4922.59173662564, -8077.652225214509, -6053.522950830812, -10463.276262673888, -14245.705514634314, -7233.471540626471, -6336.518387379455, -6080.30034068827, -9313.860155804177, -11664.906044591195, -16683.811448074754, 0.006500000000000001, 0.238, 0.94425, 192.0, 0.0, 0.0, 0.0, 0.0, 0.0, 0.0, 0.0, 0.0, 0.0, 1.644587794301816E9, 0.0, 2022-02-12 00:56:34.301
82.0, -10544.770722957937, -10655.30009928943, -6042.10120941415, -13335.430721691933, -8438.38702897871, -4928.000858783825, -8082.927236905961, -6058.440334610979, -10480.64356811566, -14264.168055554397, -7220.105197442198, -6340.139369981214, -6089.06222451475, -9310.306228435782, -11665.934224836139, -16747.111588372183, 0.006500000000000001, 0.238, 0.94425, 192.0, 0.0, 0.0, 0.0, 0.0, 0.0, 0.0, 0.0, 0.0, 0.0, 1.644587794308632E9, 0.0, 2022-02-12 00:56:34.308
84.0, -10555.94659518559, -10679.283521089974, -6047.24211063887, -13317.839898805607, -8425.266554983444, -4930.414847184998, -8070.387908266534, -6057.814485766231, -10478.989539025968, -14262.737543909258, -7238.545386617826, -6358.288986478924, -6091.610323382655, -9323.404350686593, -11664.526064935455, -16683.006785274363, 0.006500000000000001, 0.238, 0.94425, 192.0, 0.0, 0.0, 0.0, 0.0, 0.0, 0.0, 0.0, 0.0, 0.0, 1.644587794316562E9, 0.0, 2022-02-12 00:56:34.316
86.0, -10595.308017171386, -10712.587620328382, -6040.961270446929, -13331.16153850097, -8433.067313798347, -4935.868672832093, -8068.085678587638, -6056.4957328433675, -10491.014777542923, -14272.795828914146, -7249.229520467463, -6336.339573423812, -6090.358625693158, -9330.713371123478, -11660.234530000036, -16725.765672417365, 0.00725, 0.238, 0.9441250000000001, 192.0, 0.0, 32.0, 3.5, 56.0, 14.5, 64.0, 0.0, 0.0, 0.0, 1.644587794323548E9, 0.0, 2022-02-12 00:56:34.323
88.0, -10611.535383645938, -10730.491367637083, -6045.00693619334, -13323.226669219337, -8430.921546330637, -4938.684992633462, -8080.110917104593, -6062.798924779764, -10504.671693405115, -14298.835611204579, -7241.071133741276, -6353.662175376675, -6083.764861078842, -9327.673533877556, -11661.240358500525, -16725.944486373006, 0.00725, 0.238, 0.9441250000000001, 192.0, 0.0, 0.0, 0.0, 0.0, 0.0, 0.0, 0.0, 0.0, 0.0, 1.64458779433146E9, 0.0, 2022-02-12 00:56:34.331
90.0, -10587.551961845395, -10704.339826624373, -6029.204252863437, -13311.760224313764, -8424.394836949687, -4933.857015831115, -8069.292672788224, -6058.10505844415, -10493.74169036647, -14271.678241691381, -7239.037124995843, -6349.191826485614, -6087.922285547529, -9326.734760610434, -11660.301585233401, -16684.34788994168, 0.00725, 0.238, 0.9441250000000001, 192.0, 0.0, 0.0, 0.0, 0.0, 0.0, 0.0, 0.0, 0.0, 0.0, 1.64458779433817E9, 0.0, 2022-02-12 00:56:34.338
92.0, -10586.054394966888, -10708.966637726622, -6031.148854631049, -13325.908878553973, -8438.655249912174, -4937.925033321981, -8081.02733862726, -6062.463648612935, -10496.759175867937, -14287.995015143755, -7222.116854443176, -6341.413419415167, -6091.386805938102, -9314.709522093479, -11658.44639044361, -16749.726742473453, 0.00725, 0.238, 0.9441250000000001, 192.0, 0.0, 0.0, 0.0, 0.0, 0.0, 0.0, 0.0, 0.0, 0.0, 1.644587794346622E9, 0.0, 2022-02-12 00:56:34.346
94.0, -10584.825049021847, -10695.130907908788, -6040.067200668717, -13312.386073158512, -8418.3375142023, -4939.601414156129, -8077.674576958964, -6059.982604978395, -10492.60175139925, -14267.833741645069, -7245.6085378657035, -6355.070335277359, -6087.810526825253, -9317.637600617123, -11657.775838109952, -16688.46061092146, 0.00725, 0.238, 0.9441250000000001, 192.0, 0.0, 0.0, 0.0, 0.0, 0.0, 0.0, 0.0, 0.0, 0.0, 1.6445877943543E9, 0.0, 2022-02-12 00:56:34.354
96.0, -10548.838740448802, -10683.239779858564, -6024.935069672474, -13325.193622731404, -8428.216985251545, -4946.351640981632, -8075.752326935808, -6064.274139913815, -10491.484164176485, -14272.795828914146, -7233.382133648651, -6341.100494992793, -6091.5879716382, -9334.624926403158, -11657.418210198666, -16725.11747182816, 0.008625, 0.238, 0.9450625000000001, 192.0, 0.0, 40.0, 3.5, 56.0, 14.5, 72.0, 0.0, 0.0, 0.0, 1.644587794361165E9, 0.0, 2022-02-12 00:56:34.361
98.0, -10559.321708598342, -10673.96380590961, -6035.90977620003, -13323.852518064085, -8426.898232328682, -4946.441047959453, -8083.418975283978, -6060.988433478884, -10479.525980892895, -14283.278797063685, -7227.14599694562, -6344.430904916633, -6093.018483283339, -9342.269223006871, -11659.78749511093, -16727.93379162953, 0.008625, 0.238, 0.9450625000000001, 192.0, 0.0, 0.0, 0.0, 0.0, 0.0, 0.0, 0.0, 0.0, 0.0, 1.6445877943688E9, 0.0, 2022-02-12 00:56:34.368
100.0, -10528.543356483384, -10652.975517866078, -6018.453063780435, -13314.39773015949, -8417.242278723988, -4933.141760008545, -8075.595864724621, -6049.253767639848, -10474.519190134906, -14252.34398273754, -7220.4851770979385, -6337.725381580041, -6086.648236113577, -9328.902879822597, -11662.35794572329, -16685.085497508706, 0.008625, 0.238, 0.9450625000000001, 192.0, 0.0, 0.0, 0.0, 0.0, 0.0, 0.0, 0.0, 0.0, 0.0, 1.644587794376662E9, 0.0, 2022-02-12 00:56:34.376
102.0, -10513.768853398426, -10618.86675582728, -6017.916621913508, -13320.142128484504, -8429.71455213005, -4938.148550766534, -8079.239199070836, -6053.634709553088, -10464.013870240911, -14243.895023333434, -7192.61255176217, -6312.356151623268, -6070.264407427837, -9313.837804059722, -11659.094591032816, -16746.731608716444, 0.008625, 0.238, 0.9450625000000001, 192.0, 0.0, 0.0, 0.0, 0.0, 0.0, 0.0, 0.0, 0.0, 0.0, 1.644587794390287E9, 0.0, 2022-02-12 00:56:34.390
104.0, -10506.660998661639, -10631.651953655715, -6028.712514485421, -13307.02165448924, -8424.260726482955, -4944.7423153808495, -8081.250856071813, -6063.782401535797, -10456.146056192643, -14228.04763651462, -7201.8214704777565, -6326.236584930013, -6087.341140191691, -9322.264411719372, -11663.095553290315, -16689.24292197739, 0.008625, 0.238, 0.9450625000000001, 192.0, 0.0, 0.0, 0.0, 0.0, 0.0, 0.0, 0.0, 0.0, 0.0, 1.64458779439835E9, 0.0, 2022-02-12 00:56:34.398
106.0, -10512.114824308734, -10647.700506174626, -6026.47734003989, -13316.25292494928, -8434.520177187942, -4942.373030468587, -8080.066213615682, -6059.848494511663, -10477.939007036568, -14250.600546670026, -7213.064397938776, -6321.922698250139, -6107.0330270568165, -9330.154577512096, -11663.967271324072, -16722.994056104908, 0.0083125, 0.238, 0.9455312500000002, 192.0, 0.0, 32.0, 3.5, 56.0, 14.5, 72.0, 0.0, 0.0, 0.0, 1.644587794406322E9, 0.0, 2022-02-12 00:56:34.406
108.0, -10504.22465851601, -10635.407046724207, -6031.3723720756025, -13323.137262241515, -8428.798130607383, -4950.576120683685, -8089.453946286911, -6060.519046845323, -10474.675652346094, -14262.312860764607, -7212.863232238678, -6336.786608312918, -6101.243925242892, -9334.893147336621, -11656.077105531349, -16725.430396250536, 0.0083125, 0.238, 0.9455312500000002, 192.0, 0.0, 0.0, 0.0, 0.0, 0.0, 0.0, 0.0, 0.0, 0.0, 1.644587794413474E9, 0.0, 2022-02-12 00:56:34.413
110.0, -10479.816553570814, -10604.785156820435, -6016.776682946287, -13323.316076197158, -8417.912831057649, -4942.015402557302, -8080.557951993699, -6052.874750241608, -10461.286957417364, -14249.460607702806, -7232.733933059447, -6340.16172172567, -6087.050567513772, -9352.483970222947, -11649.30452696139, -16687.5888928877, 0.0083125, 0.238, 0.9455312500000002, 192.0, 0.0, 0.0, 0.0, 0.0, 0.0, 0.0, 0.0, 0.0, 0.0, 1.644587794421552E9, 0.0, 2022-02-12 00:56:34.421
112.0, -10484.935103051079, -10621.48190992855, -6018.654229480533, -13332.480291423833, -8432.664982398152, -4944.764667125305, -8088.693986975431, -6059.468514855924, -10474.921521535101, -14257.931918851367, -7193.551325029293, -6318.949916237583, -6088.637541370099, -9334.490815936424, -11651.606756640287, -16751.35841981869, 0.0083125, 0.238, 0.9455312500000002, 192.0, 0.0, 0.0, 0.0, 0.0, 0.0, 0.0, 0.0, 0.0, 0.0, 1.644587794429221E9, 0.0, 2022-02-12 00:56:34.429
114.0, -10479.436573915074, -10591.597627591806, -6023.012819649318, -13316.25292494928, -8419.902136314171, -4938.282661233266, -8092.426728299467, -6057.859189255141, -10448.635870055661, -14230.998066782722, -7204.816604234768, -6324.314334906857, -6094.136070506104, -9340.682249150545, -11657.64172764322, -16689.757012099864, 0.0083125, 0.238, 0.9455312500000002, 192.0, 0.0, 0.0, 0.0, 0.0, 0.0, 0.0, 0.0, 0.0, 0.0, 1.64458779443707E9, 0.0, 2022-02-12 00:56:34.437
116.0, -10439.248137384431, -10580.175886175142, -6009.802938676231, -13325.171270986948, -8425.646534639185, -4938.483826933364, -8077.74163219233, -6052.450067096957, -10447.473579343985, -14224.627819612959, -7192.701958739992, -6314.926602235628, -6086.447070413479, -9328.880528078143, -11656.144160764714, -16722.859945638174, 0.00715625, 0.242, 0.946765625, 192.0, 0.0, 24.0, 3.5, 88.0, 14.5, 80.0, 0.0, 0.0, 0.0, 1.644587794443174E9, 0.0, 2022-02-12 00:56:34.443
118.0, -10448.859387500213, -10580.66762455316, -6021.425845792991, -13313.861288292563, -8423.366656704744, -4939.534358922763, -8088.828097442162, -6061.077840456705, -10444.769018264893, -14238.195328497332, -7183.068356879754, -6307.796395754385, -6081.06029999975, -9328.813472844777, -11655.004221797493, -16728.224364307447, 0.00715625, 0.242, 0.946765625, 192.0, 0.0, 0.0, 0.0, 0.0, 0.0, 0.0, 0.0, 0.0, 0.0, 1.6445877944509E9, 0.0, 2022-02-12 00:56:34.450
120.0, -10435.202471638022, -10546.067124136343, -6021.068217881706, -13302.037215475704, -8414.247144966977, -4926.480940160864, -8079.93210314895, -6049.499636828857, -10433.615497781695, -14218.548145121116, -7183.336577813217, -6323.263802917458, -6092.213820482948, -9330.84748159021, -11656.099457275803, -16679.229340461414, 0.00715625, 0.242, 0.946765625, 192.0, 0.0, 0.0, 0.0, 0.0, 0.0, 0.0, 0.0, 0.0, 0.0, 1.644587794458507E9, 0.0, 2022-02-12 00:56:34.458
122.0, -10450.02167821189, -10580.511162341973, -6011.993409632852, -13316.67760809393, -8423.389008449198, -4937.12037052159, -8084.916542162484, -6058.82031426672, -10446.691268288048, -14230.841604571535, -7180.676720223037, -6294.653570014664, -6093.174945494527, -9322.42087393056, -11656.278271231446, -16744.675248226555, 0.00715625, 0.242, 0.946765625, 192.0, 0.0, 0.0, 0.0, 0.0, 0.0, 0.0, 0.0, 0.0, 0.0, 1.644587794467266E9, 0.0, 2022-02-12 00:56:34.467
124.0, -10446.087771187757, -10557.399458575184, -6018.251898080337, -13303.82535503213, -8411.631990865706, -4930.794826840738, -8093.209039355403, -6061.502523601356, -10440.902166474125, -14224.24783995722, -7193.417214562562, -6304.957724208561, -6088.436375670001, -9335.496644436913, -11656.747657865008, -16687.052451020772, 0.00715625, 0.242, 0.946765625, 192.0, 0.0, 0.0, 0.0, 0.0, 0.0, 0.0, 0.0, 0.0, 0.0, 1.6445877944734E9, 0.0, 2022-02-12 00:56:34.473
126.0, -10406.882811413147, -10540.70270546707, -6009.199441575938, -13320.276238951235, -8417.734017102006, -4926.190367482945, -8080.468545015878, -6054.372317120114, -10437.527053061372, -14200.66674955687, -7186.242304592408, -6303.080177674316, -6079.62978835461, -9320.36451344067, -11657.328803220846, -16723.083463082727, 0.006, 0.242, 0.9480000000000001, 192.0, 0.0, 24.0, 3.5, 72.0, 14.5, 80.0, 0.0, 0.0, 0.0, 1.644587794481472E9, 0.0, 2022-02-12 00:56:34.481
128.0, -10425.278297099865, -10547.788208459402, -6022.766950460309, -13312.073148736137, -8420.058598525358, -4932.426504185975, -8098.953437680417, -6073.505410373857, -10431.246212869431, -14206.791127537625, -7182.353101057184, -6307.908154476661, -6084.569523879233, -9324.901917565097, -11655.317146219868, -16727.50910848488, 0.006, 0.242, 0.9480000000000001, 192.0, 0.0, 0.0, 0.0, 0.0, 0.0, 0.0, 0.0, 0.0, 0.0, 1.644587794489206E9, 0.0, 2022-02-12 00:56:34.489
130.0, -10415.19766035052, -10533.237222818998, -6007.254839808326, -13303.73594805431, -8419.56686014734, -4922.7258470923725, -8090.213905598392, -6047.130351916594, -10423.244288354432, -14195.145868676409, -7176.496944009894, -6299.10156716127, -6086.514125646845, -9318.263449461872, -11662.514407934477, -16683.409116674557, 0.006, 0.242, 0.9480000000000001, 192.0, 0.0, 0.0, 0.0, 0.0, 0.0, 0.0, 0.0, 0.0, 0.0, 1.644587794496117E9, 0.0, 2022-02-12 00:56:34.496
132.0, -10424.786558721848, -10532.27609780742, -6013.021589877795, -13306.887544022507, -8437.828235367328, -4936.315707721199, -8090.325664320668, -6062.642462568577, -10427.692285501038, -14203.684235058337, -7162.057717091766, -6290.227924612514, -6079.20510520996, -9319.425740173549, -11662.916739334672, -16744.56348950428, 0.006, 0.242, 0.9480000000000001, 192.0, 0.0, 0.0, 0.0, 0.0, 0.0, 0.0, 0.0, 0.0, 0.0, 1.644587794502833E9, 0.0, 2022-02-12 00:56:34.502
134.0, -10412.62720973816, -10541.283850822909, -6018.743636458354, -13295.510506094755, -8420.796206092382, -4929.990164040347, -8090.236257342846, -6066.621073081622, -10420.606782508705, -14209.719206061269, -7169.9925863734, -6297.358131093756, -6082.714329089443, -9334.915499081077, -11663.430829457144, -16687.275968465325, 0.006, 0.242, 0.9480000000000001, 192.0, 0.0, 0.0, 0.0, 0.0, 0.0, 0.0, 0.0, 0.0, 0.0, 1.644587794518886E9, 0.0, 2022-02-12 00:56:34.518
136.0, -10392.689453684026, -10525.548222726373, -6004.080892095672, -13311.089671980104, -8432.597927164785, -4933.812312342205, -8088.425766041967, -6066.509314359345, -10425.34535233323, -14206.277037415151, -7169.925531140034, -6282.158944864148, -6075.539419119289, -9327.204147243994, -11658.4016869547, -16718.233134535927, 0.006, 0.23600000000000002, 0.9480000000000001, 192.0, 0.0, 24.0, 3.5, 48.0, 14.5, 80.0, 0.0, 0.0, 0.0, 1.644587794525774E9, 0.0, 2022-02-12 00:56:34.525
138.0, -10418.818642952281, -10558.89702545369, -6020.531776014778, -13307.558096356166, -8432.57557542033, -4940.40607695652, -8098.84167895814, -6074.667701085532, -10423.043122654333, -14215.19538345282, -7183.649502235592, -6299.638009028198, -6095.96891355144, -9339.050571805308, -11660.16747476667, -16732.6500097096, 0.006, 0.23600000000000002, 0.9480000000000001, 192.0, 0.0, 0.0, 0.0, 0.0, 0.0, 0.0, 0.0, 0.0, 0.0, 1.644587794533471E9, 0.0, 2022-02-12 00:56:34.533
140.0, -10412.850727182715, -10530.666772206638, -6008.953572386929, -13304.473555621333, -8421.422054937131, -4924.871614560082, -8083.664844472986, -6061.100192201161, -10426.351180833719, -14199.951493734301, -7186.644635992603, -6312.937296979106, -6084.658930857055, -9341.352801484205, -11654.11015201928, -16682.49269515189, 0.006, 0.23600000000000002, 0.9480000000000001, 192.0, 0.0, 0.0, 0.0, 0.0, 0.0, 0.0, 0.0, 0.0, 0.0, 1.644587794541726E9, 0.0, 2022-02-12 00:56:34.541
142.0, -10420.606782508705, -10528.632763461204, -6012.8204241776975, -13308.228648689825, -8431.636802153207, -4928.582004139663, -8090.213905598392, -6069.705613816454, -10425.30064884432, -14198.498630344706, -7165.27636829333, -6301.068520673338, -6082.446108155979, -9333.820263602765, -11653.484303174533, -16748.609155250688, 0.006, 0.23600000000000002, 0.9480000000000001, 192.0, 0.0, 0.0, 0.0, 0.0, 0.0, 0.0, 0.0, 0.0, 0.0, 1.644587794548546E9, 0.0, 2022-02-12 00:56:34.548
144.0, -10418.036331896345, -10530.309144295352, -6025.896194684052, -13299.869096263541, -8419.075121769325, -4921.272983702777, -8090.2809608317575, -6065.458782369946, -10422.529032531862, -14203.863049013979, -7166.416307260551, -6306.656456787165, -6075.785288308298, -9329.528728667347, -11655.607718897787, -16686.02427077583, 0.006, 0.23600000000000002, 0.9480000000000001, 192.0, 0.0, 0.0, 0.0, 0.0, 0.0, 0.0, 0.0, 0.0, 0.0, 1.644587794564532E9, 0.0, 2022-02-12 00:56:34.564
146.0, -10391.460107738985, -10522.038998846889, -5997.017740847796, -13310.06149173516, -8421.958496804058, -4920.8483005581265, -8081.273207816269, -6061.77074453482, -10421.456148798008, -14205.740595548225, -7165.633996204615, -6303.549564307877, -6086.268256457836, -9326.399484443604, -11652.16555025167, -16715.372111245648, 0.002, 0.23600000000000002, 0.9520000000000001, 192.0, 0.0, 8.0, 3.5, 48.0, 14.5, 96.0, 0.0, 0.0, 0.0, 1.644587794564544E9, 0.0, 2022-02-12 00:56:34.564
148.0, -10398.746776431415, -10520.876708135213, -6007.590115975156, -13305.009997488261, -8419.835081080804, -4932.135931508056, -8091.800879454718, -6070.197352194471, -10416.62817199566, -14207.595790338015, -7161.968310113944, -6300.6214857842315, -6083.116660489638, -9342.448036962514, -11652.679640374141, -16729.274896296847, 0.002, 0.23600000000000002, 0.9520000000000001, 192.0, 0.0, 0.0, 0.0, 0.0, 0.0, 0.0, 0.0, 0.0, 0.0, 1.644587794571515E9, 0.0, 2022-02-12 00:56:34.571
150.0, -10379.52427619985, -10516.384007499697, -5994.38023500207, -13300.494945108288, -8409.530926886908, -4920.311858691199, -8076.713451947386, -6058.440334610979, -10410.235573081443, -14182.986519692722, -7165.969272371444, -6297.20166888257, -6078.199276709471, -9351.835769633743, -11646.912890304673, -16682.179770729515, 0.002, 0.23600000000000002, 0.9520000000000001, 192.0, 0.0, 0.0, 0.0, 0.0, 0.0, 0.0, 0.0, 0.0, 0.0, 1.644587794578213E9, 0.0, 2022-02-12 00:56:34.578
152.0, -10399.81966016527, -10507.242144017477, -5996.168374558494, -13314.665951092953, -8426.227679995023, -4924.9610215379025, -8081.094393860626, -6065.43643062549, -10424.093654643733, -14197.649264055404, -7157.542664711794, -6295.05590141486, -6082.8484395561745, -9329.238155989427, -11641.839044313318, -16746.575146505256, 0.002, 0.23600000000000002, 0.9520000000000001, 192.0, 0.0, 0.0, 0.0, 0.0, 0.0, 0.0, 0.0, 0.0, 0.0, 1.644587794585728E9, 0.0, 2022-02-12 00:56:34.585
154.0, -10410.950828904013, -10527.872804149723, -5998.8505838931305, -13286.234532145803, -8415.632953123208, -4924.513986648797, -8091.711472476897, -6070.599683594666, -10419.377436563664, -14184.66290052687, -7162.884731636612, -6302.34257010729, -6080.166230221538, -9344.593804430224, -11643.962460036571, -16686.5383608983, 0.002, 0.23600000000000002, 0.9520000000000001, 192.0, 0.0, 0.0, 0.0, 0.0, 0.0, 0.0, 0.0, 0.0, 0.0, 1.644587794593854E9, 0.0, 2022-02-12 00:56:34.593
156.0, -10386.050985580801, -10497.563838668328, -5993.910848368508, -13300.24907591928, -8423.187842749101, -4925.095132004635, -8081.519077005277, -6066.643424826077, -10412.716616715983, -14190.295540129608, -7167.176266572031, -6278.917941918128, -6054.349965375658, -9336.658935148589, -11647.02464902695, -16711.92994259953, 0.012, 0.23600000000000002, 0.9500000000000001, 192.0, 0.0, 48.0, 3.5, 48.0, 14.5, 88.0, 0.0, 0.0, 0.0, 1.644587794600838E9, 0.0, 2022-02-12 00:56:34.600
158.0, -10403.753567189404, -10516.495766221973, -6008.685351453466, -13294.907008994462, -8423.746636360484, -4924.223413970878, -8094.818364956184, -6077.528724375811, -10428.675762257071, -14197.291636144118, -7155.173379799531, -6289.557372278854, -6098.069977530239, -9329.148749011607, -11649.237471728024, -16725.095120083704, 0.012, 0.23600000000000002, 0.9500000000000001, 192.0, 0.0, 0.0, 0.0, 0.0, 0.0, 0.0, 0.0, 0.0, 0.0, 1.644587794608596E9, 0.0, 2022-02-12 00:56:34.608
160.0, -10379.904255855592, -10501.564800925828, -5993.776737901776, -13282.613549544043, -8411.788453076893, -4917.07085574518, -8082.949588650416, -6069.906779516552, -10415.48823302844, -14171.453019553785, -7172.093650352198, -6290.227924612514, -6076.657006342055, -9342.023353817864, -11649.25982347248, -16678.49173289439, 0.012, 0.23600000000000002, 0.9500000000000001, 192.0, 0.0, 0.0, 0.0, 0.0, 0.0, 0.0, 0.0, 0.0, 0.0, 1.644587794617554E9, 0.0, 2022-02-12 00:56:34.617
162.0, -10387.593255948217, -10505.006969571945, -6005.019665362795, -13301.858401520063, -8428.90988932966, -4928.202024483922, -8083.731899706352, -6068.67743357151, -10420.606782508705, -14182.606540036983, -7151.597100686682, -6279.163811107137, -6084.502468645867, -9338.022391560364, -11647.918718805162, -16742.708294714488, 0.012, 0.23600000000000002, 0.9500000000000001, 192.0, 0.0, 0.0, 0.0, 0.0, 0.0, 0.0, 0.0, 0.0, 0.0, 1.644587794624455E9, 0.0, 2022-02-12 00:56:34.624
164.0, -10400.601971221206, -10517.479242978006, -6013.9380114004625, -13296.62809331752, -8411.833156565805, -4922.882309303559, -8082.770774694774, -6072.544285362278, -10412.940134160535, -14185.869894727457, -7170.8866561516115, -6300.196802639581, -6087.855230314163, -9338.648240405111, -11650.600928139798, -16686.58306438721, 0.012, 0.23600000000000002, 0.9500000000000001, 192.0, 0.0, 0.0, 0.0, 0.0, 0.0, 0.0, 0.0, 0.0, 0.0, 1.644587794638093E9, 0.0, 2022-02-12 00:56:34.638
166.0, -10387.570904203762, -10506.728053895004, -6000.057578093717, -13312.430776647423, -8416.102339756768, -4925.095132004635, -8076.735803691841, -6068.4092126380465, -10416.44935804002, -14191.077851185544, -7164.672871193036, -6293.133651391703, -6066.956349248451, -9334.110836280684, -11646.376448437744, -16714.92507635654, 0.01, 0.23, 0.9480000000000001, 192.0, 0.0, 40.0, 3.5, 24.0, 14.5, 80.0, 0.0, 0.0, 0.0, 1.644587794645992E9, 0.0, 2022-02-12 00:56:34.645
168.0, -10424.518337788384, -10536.724094954026, -6015.502633512335, -13312.140203969504, -8421.578517148318, -4937.88032983307, -8095.175992867469, -6080.9708930219285, -10432.743779747938, -14215.038921241632, -7173.770031186346, -6295.569991537332, -6104.484928188912, -9341.33044973975, -11645.437675170622, -16732.985285876428, 0.01, 0.23, 0.9480000000000001, 192.0, 0.0, 0.0, 0.0, 0.0, 0.0, 0.0, 0.0, 0.0, 0.0, 1.644587794654761E9, 0.0, 2022-02-12 00:56:34.654
170.0, -10399.81966016527, -10515.042902832378, -6011.568726488201, -13306.932247511417, -8411.296714698878, -4921.720018591884, -8083.106050861604, -6070.823201039219, -10426.842919211736, -14185.42285983835, -7174.954673642478, -6310.72447427803, -6098.382901952613, -9349.891167866132, -11645.080047259336, -16681.844494562687, 0.01, 0.23, 0.9480000000000001, 192.0, 0.0, 0.0, 0.0, 0.0, 0.0, 0.0, 0.0, 0.0, 0.0, 1.644587794662149E9, 0.0, 2022-02-12 00:56:34.662
172.0, -10396.355139774698, -10518.842699389781, -6012.887479411063, -13309.145070212493, -8420.125653758723, -4929.699591362428, -8078.121611848071, -6066.710480059443, -10428.094616901233, -14197.604560566493, -7180.073223122743, -6302.521384062932, -6084.010730267851, -9336.32365898176, -11638.329820433835, -16741.054265624793, 0.01, 0.23, 0.9480000000000001, 192.0, 0.0, 0.0, 0.0, 0.0, 0.0, 0.0, 0.0, 0.0, 0.0, 1.644587794668789E9, 0.0, 2022-02-12 00:56:34.668
174.0, -10412.515451015885, -10502.056539303845, -6020.107092870127, -13289.877866492017, -8412.302543199366, -4926.905623305514, -8085.229466584858, -6074.824163296719, -10425.792387222336, -14192.374252363952, -7167.019804360843, -6301.180279395614, -6100.506317675868, -9343.6550311631, -11640.743808835008, -16688.617073132646, 0.01, 0.23, 0.9480000000000001, 192.0, 0.0, 0.0, 0.0, 0.0, 0.0, 0.0, 0.0, 0.0, 0.0, 1.644587794676893E9, 0.0, 2022-02-12 00:56:34.676
176.0, -10383.77110764636, -10498.03322530189, -6006.941915385952, -13301.858401520063, -8419.499804913976, -4923.150530237023, -8080.870876416073, -6067.291625415281, -10426.977029678468, -14182.0477464256, -7161.633033947115, -6290.384386823701, -6090.8280123267195, -9337.195377015518, -11641.771989079953, -16713.87454436714, 0.008, 0.23800000000000002, 0.9480000000000001, 192.0, 0.0, 32.0, 3.5, 56.0, 14.5, 80.0, 0.0, 0.0, 0.0, 1.644587794683839E9, 0.0, 2022-02-12 00:56:34.683
178.0, -10395.05873859629, -10505.40930097214, -6014.452101522935, -13297.477459606822, -8422.226717737522, -4926.525643649775, -8086.190591596436, -6073.840686540686, -10417.052855140311, -14193.581246564538, -7164.024670603832, -6279.834363440796, -6086.87175355813, -9337.642411904622, -11639.760332078975, -16726.63739045112, 0.008, 0.23800000000000002, 0.9480000000000001, 192.0, 0.0, 0.0, 0.0, 0.0, 0.0, 0.0, 0.0, 0.0, 0.0, 1.644587794690317E9, 0.0, 2022-02-12 00:56:34.690
180.0, -10388.017939092868, -10494.300483977853, -5999.096453082139, -13293.67766304942, -8410.08972049829, -4913.941611521436, -8080.446193271422, -6062.3071864017475, -10422.417273809586, -14179.365537090962, -7164.248188048386, -6283.030662897905, -6084.211895967948, -9343.006830573897, -11638.910965789672, -16674.5354741258, 0.008, 0.23800000000000002, 0.9480000000000001, 192.0, 0.0, 0.0, 0.0, 0.0, 0.0, 0.0, 0.0, 0.0, 0.0, 1.644587794698315E9, 0.0, 2022-02-12 00:56:34.698
182.0, -10347.024839761834, -10471.367594166708, -6001.5551449722225, -13301.277256164225, -8412.794281577382, -4910.253573686311, -8075.104126346604, -6052.6735845415105, -10418.416311552086, -14170.42483930884, -7150.613623930648, -6295.212363626047, -6094.6501606285765, -9327.919403066564, -11638.285116944924, -16736.829785922742, 0.008, 0.23800000000000002, 0.9480000000000001, 192.0, 0.0, 0.0, 0.0, 0.0, 0.0, 0.0, 0.0, 0.0, 0.0, 1.644587794706284E9, 0.0, 2022-02-12 00:56:34.706
184.0, -10426.865270956192, -10517.635705189194, -6005.064368851706, -13292.493020593289, -8411.408473421154, -4924.893966304537, -8085.2965218182235, -6064.318843402725, -10411.688436471039, -14179.410240579873, -7158.950824612478, -6290.630256012709, -6091.833840827208, -9338.156502027095, -11638.888614045218, -16682.045660262786, 0.008, 0.23800000000000002, 0.9480000000000001, 192.0, 0.0, 0.0, 0.0, 0.0, 0.0, 0.0, 0.0, 0.0, 0.0, 1.644587794713247E9, 0.0, 2022-02-12 00:56:34.713
186.0, -10407.1063288577, -10527.112844838244, -5999.834060649164, -13305.792308544196, -8424.99833404998, -4931.197158240933, -8088.805745697707, -6069.6385585830885, -10434.30840185981, -14214.10014797451, -7165.343423526696, -6292.284285102402, -6103.724968877432, -9355.747324913422, -11641.861396057773, -16714.701558911987, 0.008, 0.24, 0.9440000000000001, 192.0, 0.0, 32.0, 3.5, 64.0, 14.5, 64.0, 0.0, 0.0, 0.0, 1.644587794720851E9, 0.0, 2022-02-12 00:56:34.720
188.0, -10402.859497411191, -10526.621106460227, -6017.38018004658, -13309.323884168136, -8423.746636360484, -4932.158283252512, -8100.987446425849, -6070.353814405658, -10439.225785639976, -14225.745406835726, -7156.961519355956, -6292.776023480418, -6097.39942519658, -9358.250720292417, -11643.403666425189, -16733.07469285425, 0.008, 0.24, 0.9440000000000001, 192.0, 0.0, 0.0, 0.0, 0.0, 0.0, 0.0, 0.0, 0.0, 0.0, 1.644587794729322E9, 0.0, 2022-02-12 00:56:34.729
190.0, -10375.635072664629, -10482.431707672085, -6008.774758431287, -13304.048872476682, -8410.939086787592, -4917.719056334384, -8078.166315336981, -6056.898064243564, -10435.87302397168, -14200.934970490334, -7173.680624208525, -6312.825538256829, -6099.187564753004, -9364.41980176208, -11645.080047259336, -16675.764820070843, 0.008, 0.24, 0.9440000000000001, 192.0, 0.0, 0.0, 0.0, 0.0, 0.0, 0.0, 0.0, 0.0, 0.0, 1.64458779473593E9, 0.0, 2022-02-12 00:56:34.735
192.0, -10362.313432969266, -10477.380213425186, -6005.109072340617, -13321.058550007172, -8420.326819458822, -4921.317687191688, -8079.820344426674, -6063.380070135602, -10423.132529632156, -14199.660921056382, -7155.709821666458, -6292.664264758142, -6097.175907752026, -9346.18077828655, -11641.034381512927, -16737.634448723133, 0.008, 0.24, 0.9440000000000001, 192.0, 0.0, 0.0, 0.0, 0.0, 0.0, 0.0, 0.0, 0.0, 0.0, 1.644587794743648E9, 0.0, 2022-02-12 00:56:34.743
194.0, -10375.031575564335, -10475.569722124306, -6005.936086885463, -13313.011922003261, -8404.993522762481, -4918.255498201311, -8089.275132331269, -6063.156552691049, -10403.015959622378, -14186.339281361019, -7160.56015021326, -6315.39598886919, -6096.371244951635, -9355.412048746592, -11639.849739056795, -16684.951387041972, 0.006, 0.238, 0.9460000000000001, 192.0, 0.0, 16.0, 3.5, 48.0, 14.5, 80.0, 0.0, 0.0, 0.0, 1.644587794750545E9, 0.0, 2022-02-12 00:56:34.750
196.0, -10366.850837093692, -10495.395719456163, -5985.774813386776, -13312.5425353697, -8416.348208945778, -4927.5985273836295, -8072.913655389983, -6051.555997318745, -10416.20348885101, -14190.0496709406, -7156.425077489028, -6298.8556979722625, -6091.856192571663, -9357.937795870042, -11646.130579248736, -16708.73364314242, 0.006, 0.238, 0.9460000000000001, 192.0, 0.0, 0.0, 0.0, 0.0, 0.0, 0.0, 0.0, 0.0, 0.0, 1.644587794765769E9, 0.0, 2022-02-12 00:56:34.765
198.0, -10401.116061343679, -10512.740673153481, -6000.392854260547, -13311.223782446836, -8412.324894943822, -4931.912414063503, -8081.1838008384475, -6063.5812358357, -10422.327866831763, -14214.077796230054, -7151.84296987569, -6281.130764619204, -6101.78036710982, -9358.787162159344, -11644.387143181222, -16730.079559097238, 0.006, 0.238, 0.9460000000000001, 192.0, 0.0, 0.0, 0.0, 0.0, 0.0, 0.0, 0.0, 0.0, 0.0, 1.644587794773192E9, 0.0, 2022-02-12 00:56:34.773
200.0, -10381.401822734097, -10485.337434451276, -5992.301522767726, -13302.663064320453, -8400.366711660232, -4920.177748224467, -8074.165353079481, -6053.835875253186, -10413.096596371723, -14199.146830933909, -7164.9410921265, -6302.655494529664, -6086.335311691202, -9359.033031348352, -11639.670925101153, -16676.211854959947, 0.006, 0.238, 0.9460000000000001, 192.0, 0.0, 0.0, 0.0, 0.0, 0.0, 0.0, 0.0, 0.0, 0.0, 1.644587794781204E9, 0.0, 2022-02-12 00:56:34.781
202.0, -10372.014090062868, -10490.165411253622, -5996.056615836217, -13316.744663327298, -8415.94587754558, -4926.279774460766, -8081.921408405472, -6066.710480059443, -10416.248192339921, -14206.209982181786, -7169.254978806374, -6286.785755966396, -6078.512201131845, -9345.890205608632, -11637.63691635572, -16738.953201645996, 0.006, 0.238, 0.9460000000000001, 192.0, 0.0, 0.0, 0.0, 0.0, 0.0, 0.0, 0.0, 0.0, 0.0, 1.644587794789186E9, 0.0, 2022-02-12 00:56:34.789
204.0, -10379.904255855592, -10482.096431505255, -5998.112976326105, -13302.81952653164, -8407.586325119297, -4923.64226861504, -8083.620140984076, -6060.608453823144, -10415.756453961903, -14208.646322327415, -7156.201560044475, -6303.549564307877, -6100.036931042306, -9356.95431911401, -11643.11309374727, -16687.03009927632, 0.004, 0.236, 0.9470000000000001, 192.0, 0.0, 8.0, 3.5, 40.0, 14.5, 80.0, 0.0, 0.0, 0.0, 1.644587794795838E9, 0.0, 2022-02-12 00:56:34.795
206.0, -10352.165740986555, -10469.892379032657, -5990.289865766748, -13314.911820281963, -8409.508575142452, -4921.742370336338, -8070.969053622372, -6060.831971267698, -10411.867250426681, -14190.0496709406, -7158.347327512184, -6279.00734889595, -6088.458727414457, -9343.811493374287, -11644.789474581417, -16707.057262308273, 0.004, 0.236, 0.9470000000000001, 192.0, 0.0, 0.0, 0.0, 0.0, 0.0, 0.0, 0.0, 0.0, 0.0, 1.644587794803903E9, 0.0, 2022-02-12 00:56:34.803
208.0, -10372.684642396527, -10490.545390909361, -5996.548354214234, -13301.791346286696, -8412.57076413283, -4923.396399426031, -8081.78729793874, -6064.587064336189, -10408.82741318076, -14199.593865823015, -7147.8196558737345, -6280.8401919412845, -6083.027253511817, -9354.607385946201, -11641.816692568862, -16729.096082341206, 0.004, 0.236, 0.9470000000000001, 192.0, 0.0, 0.0, 0.0, 0.0, 0.0, 0.0, 0.0, 0.0, 0.0, 1.644587794811871E9, 0.0, 2022-02-12 00:56:34.811
210.0, -10361.173494002043, -10466.517265619907, -5989.082871566162, -13294.34821538308, -8403.630066350706, -4910.186518452945, -8069.069155343671, -6052.226549652404, -10393.896447884614, -14189.021490695655, -7147.238510517897, -6285.645816999176, -6092.616151883144, -9349.42178123257, -11642.464893158067, -16669.215758945436, 0.004, 0.236, 0.9470000000000001, 192.0, 0.0, 0.0, 0.0, 0.0, 0.0, 0.0, 0.0, 0.0, 0.0, 1.644587794817832E9, 0.0, 2022-02-12 00:56:34.817
212.0, -10358.714802111961, -10474.69800409055, -5992.122708812083, -13308.072186478637, -8417.197575235079, -4915.036846999747, -8078.769812437274, -6057.658023555044, -10405.0052648789, -14192.150734919398, -7133.447484188972, -6284.081194887304, -6071.91843651753, -9339.408199716592, -11640.609698368276, -16732.292381798314, 0.004, 0.236, 0.9470000000000001, 192.0, 0.0, 0.0, 0.0, 0.0, 0.0, 0.0, 0.0, 0.0, 0.0, 1.644587794825469E9, 0.0, 2022-02-12 00:56:34.825
214.0, -10363.565130658762, -10481.090603004766, -5997.598886203634, -13297.432756117913, -8407.251048952467, -4913.315762676688, -8074.567684479676, -6052.226549652404, -10406.793404435326, -14199.124479189453, -7148.9372430965, -6278.068575628827, -6087.184677980505, -9344.660859663589, -11643.090742002814, -16678.558788127757, 0.003, 0.235, 0.9465000000000001, 192.0, 0.0, 8.0, 3.5, 40.0, 14.5, 72.0, 0.0, 0.0, 0.0, 1.644587794833499E9, 0.0, 2022-02-12 00:56:34.833
216.0, -10343.38150541562, -10454.581434080772, -5982.75732788531, -13315.224744704336, -8408.94978153107, -4909.784187052749, -8066.856332642596, -6045.431619337991, -10397.450375253007, -14188.775621506647, -7150.971251841933, -6281.533096019399, -6088.637541370099, -9340.503435194902, -11632.406608153178, -16697.06603253675, 0.003, 0.235, 0.9465000000000001, 192.0, 0.0, 0.0, 0.0, 0.0, 0.0, 0.0, 0.0, 0.0, 0.0, 1.644587794841503E9, 0.0, 2022-02-12 00:56:34.841
218.0, -10388.822601893258, -10493.786393855382, -5998.157679815016, -13314.487137137312, -8409.910906542647, -4924.849262815626, -8078.322777548168, -6056.741602032376, -10410.034407381345, -14199.795031523114, -7138.566033669238, -6292.664264758142, -6090.313922204247, -9353.914481868087, -11628.718570318053, -16720.624771192644, 0.003, 0.235, 0.9465000000000001, 192.0, 0.0, 0.0, 0.0, 0.0, 0.0, 0.0, 0.0, 0.0, 0.0, 1.644587794848003E9, 0.0, 2022-02-12 00:56:34.848
220.0, -10361.262900979866, -10469.624158099194, -5985.171316286483, -13308.742738812298, -8400.836098293794, -4910.879422531059, -8065.291710530724, -6049.969023462418, -10396.466898496974, -14193.603598308993, -7145.025687816821, -6287.813936211341, -6081.261465699848, -9356.797856902822, -11627.82450053984, -16666.06416297724, 0.003, 0.235, 0.9465000000000001, 192.0, 0.0, 0.0, 0.0, 0.0, 0.0, 0.0, 0.0, 0.0, 0.0, 1.644587794856148E9, 0.0, 2022-02-12 00:56:34.856
222.0, -10374.763354630872, -10482.40935592763, -5991.407452989513, -13321.103253496081, -8422.09260727079, -4915.819158055682, -8075.528809491255, -6056.696898543465, -10400.266695054377, -14211.216772939775, -7137.783722613302, -6281.823668697318, -6091.856192571663, -9345.867853864176, -11630.886689530218, -16737.679152212044, 0.003, 0.235, 0.9465000000000001, 192.0, 0.0, 0.0, 0.0, 0.0, 0.0, 0.0, 0.0, 0.0, 0.0, 1.644587794864101E9, 0.0, 2022-02-12 00:56:34.864
224.0, -10374.092802297211, -10458.001250982434, -6002.270400794792, -13303.73594805431, -8406.200516963067, -4910.387684153043, -8079.93210314895, -6054.640538053577, -10412.023712637867, -14204.466546114272, -7151.351231497673, -6283.745918720475, -6067.626901582111, -9356.440228991536, -11638.262765200468, -16683.699689352477, 0.0035, 0.2375, 0.94625, 192.0, 0.0, 16.0, 3.5, 64.0, 14.5, 72.0, 0.0, 0.0, 0.0, 1.644587794871392E9, 0.0, 2022-02-12 00:56:34.871
226.0, -10355.00441253238, -10480.420050671108, -5984.970150586385, -13313.101328981082, -8406.535793129897, -4901.82696602666, -8061.178989550947, -6041.609471036133, -10415.287067328343, -14189.80380175159, -7145.025687816821, -6285.377596065712, -6093.487869916901, -9341.710429395489, -11634.082988987326, -16698.228323248426, 0.0035, 0.2375, 0.94625, 192.0, 0.0, 0.0, 0.0, 0.0, 0.0, 0.0, 0.0, 0.0, 0.0, 1.644587794886024E9, 0.0, 2022-02-12 00:56:34.886
228.0, -10372.885808096626, -10489.472507175507, -5991.362749500603, -13300.293779408192, -8408.592153619786, -4910.052407986213, -8072.667786200976, -6055.244035153871, -10410.146166103623, -14210.233296183742, -7144.690411649992, -6275.609883738743, -6094.203125739471, -9346.828978875754, -11631.244317441502, -16719.663646181067, 0.0035, 0.2375, 0.94625, 192.0, 0.0, 0.0, 0.0, 0.0, 0.0, 0.0, 0.0, 0.0, 0.0, 1.644587794894649E9, 0.0, 2022-02-12 00:56:34.894
230.0, -10366.113229526667, -10475.50266689094, -5992.4579849789125, -13301.791346286696, -8408.033360008403, -4904.866803272582, -8074.724146690864, -6053.567654319722, -10401.652503210606, -14186.160467405376, -7173.032423619321, -6282.091889630782, -6083.943675034485, -9352.796894645322, -11634.641782598708, -16668.075819978218, 0.0035, 0.2375, 0.94625, 192.0, 0.0, 0.0, 0.0, 0.0, 0.0, 0.0, 0.0, 0.0, 0.0, 1.644587794901102E9, 0.0, 2022-02-12 00:56:34.901
232.0, -10382.742927401416, -10486.991463540968, -5984.724281397376, -13314.084805737115, -8427.658191640163, -4921.429445913965, -8078.635701970542, -6072.968968506929, -10421.813776709292, -14204.28773215863, -7139.9518418254665, -6285.869334443729, -6093.621980383633, -9345.107894552695, -11640.54264313491, -16740.78604469133, 0.0035, 0.2375, 0.94625, 192.0, 0.0, 0.0, 0.0, 0.0, 0.0, 0.0, 0.0, 0.0, 0.0, 1.644587794908722E9, 0.0, 2022-02-12 00:56:34.908
234.0, -10395.975160118956, -10472.507533133929, -5993.3967582460355, -13303.400671887479, -8416.057636267858, -4922.6140883700955, -8084.916542162484, -6064.341195147181, -10417.030503395856, -14213.563706107583, -7147.909062851556, -6291.032587412905, -6086.514125646845, -9366.856141907709, -11640.855567557284, -16691.88042782312, 0.00575, 0.23875, 0.949125, 192.0, 0.0, 32.0, 3.5, 64.0, 14.5, 96.0, 0.0, 0.0, 0.0, 1.644587794916338E9, 0.0, 2022-02-12 00:56:34.916
236.0, -10373.086973796722, -10480.464754160019, -5983.025548818773, -13320.522108140243, -8426.406493950664, -4919.238974957344, -8082.189629338936, -6061.837799768186, -10417.879869685159, -14211.015607239677, -7138.409571458051, -6286.361072821745, -6096.125375762627, -9357.7589819144, -11638.77685532294, -16709.046567564794, 0.00575, 0.23875, 0.949125, 192.0, 0.0, 0.0, 0.0, 0.0, 0.0, 0.0, 0.0, 0.0, 0.0, 1.644587794923584E9, 0.0, 2022-02-12 00:56:34.923
238.0, -10371.947034829502, -10491.64062638767, -6009.042979364751, -13330.714503611864, -8430.005124807969, -4924.446931415431, -8095.354806823112, -6077.01463425334, -10427.49111980094, -14227.891174303435, -7155.7992286442795, -6300.956761951061, -6089.4869076594005, -9365.626795962668, -11644.767122836964, -16738.863794668174, 0.00575, 0.23875, 0.949125, 192.0, 0.0, 0.0, 0.0, 0.0, 0.0, 0.0, 0.0, 0.0, 0.0, 1.64458779493098E9, 0.0, 2022-02-12 00:56:34.930
