%OpenBCI Raw EEG Data
%Number of channels = 16
%Sample Rate = 125 Hz
%Board = OpenBCI_GUI$BoardCytonSerialDaisy
Sample Index, EXG Channel 0, EXG Channel 1, EXG Channel 2, EXG Channel 3, EXG Channel 4, EXG Channel 5, EXG Channel 6, EXG Channel 7, EXG Channel 8, EXG Channel 9, EXG Channel 10, EXG Channel 11, EXG Channel 12, EXG Channel 13, EXG Channel 14, EXG Channel 15, Accel Channel 0, Accel Channel 1, Accel Channel 2, Other, Other, Other, Other, Other, Other, Other, Analog Channel 0, Analog Channel 1, Analog Channel 2, Timestamp, Other, Timestamp (Formatted)
0.0, -10222.145643490034, -9181.828401306677, -5847.01518380823, -11977.048155909557, -8930.237165717741, -5722.024228814153, -9010.099948656554, -6091.498564660378, 0.0, 0.0, 0.0, 0.0, 0.0, 0.0, 0.0, 0.0, 0.0, 0.0, 0.0, 192.0, 0.0, 0.0, 0.0, 0.0, 0.0, 0.0, 0.0, 0.0, 0.0, 1.644588072554129E9, 0.0, 2022-02-12 01:01:12.554
66.0, -10246.866672857604, -9186.924599042488, -5857.989890335785, -11989.431022337798, -8952.72302063978, -5726.4275224718485, -9011.105777157043, -6091.163288493549, -8043.275242242246, -10371.589406918218, -9274.297568118283, -8056.954509848894, -6688.13367940589, -9494.283437047416, -10598.705482328593, -15367.293699657166, 0.0, 0.0, 0.0, 192.0, 0.0, 0.0, 0.0, 0.0, 0.0, 0.0, 0.0, 0.0, 0.0, 1.644588072554136E9, 0.0, 2022-02-12 01:01:12.554
68.0, -10261.663527687017, -9206.661189396524, -5857.699317657866, -11977.070507654013, -8938.619069888482, -5723.074760803552, -9007.574201533103, -6096.997093796384, -8034.491006671311, -10350.534063641318, -9291.106079948673, -8061.983652351339, -6695.129775420401, -9495.021044614441, -10607.19914522161, -15311.593152474541, 0.0, 0.0, 0.0, 192.0, 0.0, 0.0, 0.0, 0.0, 0.0, 0.0, 0.0, 0.0, 0.0, 1.64458807255414E9, 0.0, 2022-02-12 01:01:12.554
0.0, -5255.342156331797, -4838.504473984775, -3215.9913439740353, -6347.649556118197, -4666.753669590195, -3238.0301640069683, -4810.453034693365, -3564.9467784102894, -4024.0739612667517, -5188.59984738825, -4641.496198355699, -4027.516129912869, -3339.395325111786, -4748.046964174147, -5302.549040621405, -7690.162383337305, 0.004, 0.23600000000000002, 0.9540000000000001, 192.0, 0.0, 16.0, 3.5, 48.0, 14.5, 104.0, 0.0, 0.0, 0.0, 1.644588072682449E9, 0.0, 2022-02-12 01:01:12.682
2.0, -10495.708643878537, -9688.698910319676, -6436.363629861311, -12699.32242623835, -9348.259490520893, -6484.531639162498, -9618.536784474467, -7139.169530769531, -8254.2980616448, -10525.45881574855, -9507.381559298225, -9000.198125862853, -7130.094722520676, -10503.665864904628, -10934.004000902654, -15464.948471182404, 0.004, 0.23600000000000002, 0.9540000000000001, 192.0, 0.0, 0.0, 0.0, 0.0, 0.0, 0.0, 0.0, 0.0, 0.0, 1.644588072688495E9, 0.0, 2022-02-12 01:01:12.688
4.0, -10490.79126009837, -9669.655224043754, -6435.715429272107, -12680.211684729062, -9343.118589296173, -6484.397528695766, -9621.397807764746, -7141.248243003874, -8241.311698116268, -10538.579289743817, -9502.911210407163, -8999.080538640088, -7128.016010286333, -10496.043920045367, -10927.879622921899, -15429.632714943018, 0.004, 0.23600000000000002, 0.9540000000000001, 192.0, 0.0, 0.0, 0.0, 0.0, 0.0, 0.0, 0.0, 0.0, 0.0, 1.644588072695764E9, 0.0, 2022-02-12 01:01:12.695
6.0, -10458.02360272689, -9639.972107407106, -6430.686286769663, -12669.974585768532, -9350.829941133254, -6488.733767120096, -9612.680627427177, -7138.007240057856, -8219.161119361057, -10504.582286427294, -9494.283437047416, -8985.91536115591, -7120.036437515788, -10493.36171071073, -10928.192547344273, -15415.662874658452, 0.004, 0.23600000000000002, 0.9540000000000001, 192.0, 0.0, 0.0, 0.0, 0.0, 0.0, 0.0, 0.0, 0.0, 0.0, 1.644588072703802E9, 0.0, 2022-02-12 01:01:12.703
8.0, -10449.0158497114, -9625.66699095571, -6438.598804306842, -12661.905606020166, -9350.002926588408, -6492.131232277302, -9617.732121674077, -7142.410533715551, -8205.951238387972, -10497.74265262397, -9488.092003833295, -8991.749166458747, -7124.618545129126, -10485.918579807112, -10912.434567503282, -15427.710464919863, 0.002, 0.23600000000000002, 0.9500000000000001, 192.0, 0.0, 8.0, 3.5, 48.0, 14.5, 88.0, 0.0, 0.0, 0.0, 1.644588072711837E9, 0.0, 2022-02-12 01:01:12.711
10.0, -10446.78067526587, -9628.550365990444, -6434.419028093699, -12639.732675520501, -9342.269223006871, -6486.14096476328, -9609.640790181254, -7144.17632152752, -8170.099040281659, -10462.002213239934, -9480.313596762848, -8993.582009504082, -7114.381446168595, -10486.678539118593, -10907.8748116344, -15376.413211394933, 0.002, 0.23600000000000002, 0.9500000000000001, 192.0, 0.0, 0.0, 0.0, 0.0, 0.0, 0.0, 0.0, 0.0, 0.0, 1.644588072718462E9, 0.0, 2022-02-12 01:01:12.718
12.0, -10429.368666335185, -9618.156804818727, -6429.3675338468, -12647.041695957387, -9349.46648472148, -6492.287694488489, -9586.529086414468, -7140.667097648036, -8166.321595468712, -10467.009003997922, -9460.465247686536, -8970.9173406264, -7108.346475165663, -10475.301501190843, -10896.698939406746, -15401.871848329527, 0.002, 0.23600000000000002, 0.9500000000000001, 192.0, 0.0, 0.0, 0.0, 0.0, 0.0, 0.0, 0.0, 0.0, 0.0, 1.644588072725537E9, 0.0, 2022-02-12 01:01:12.725
14.0, -10406.636942224139, -9593.927513829174, -6436.60949905032, -12630.814329482833, -9337.441246204526, -6485.671578129719, -9585.590313147344, -7134.967402811933, -8137.4207898879995, -10429.212204123998, -9454.25146272796, -8976.371166273495, -7100.545716350761, -10468.573626109795, -10883.310244478018, -15365.237339167279, 0.002, 0.23600000000000002, 0.9500000000000001, 192.0, 0.0, 0.0, 0.0, 0.0, 0.0, 0.0, 0.0, 0.0, 0.0, 1.644588072733799E9, 0.0, 2022-02-12 01:01:12.733
16.0, -10376.260921509376, -9585.255036980514, -6431.736818759063, -12616.553916520348, -9339.94464158352, -6481.6482641277635, -9571.866342051786, -7129.714742864936, -8114.4655483323995, -10392.57769496175, -9454.92201506162, -8964.68120392337, -7089.056919700733, -10452.167445679599, -10876.448258930239, -15346.148949402446, 0.005, 0.23500000000000001, 0.9490000000000001, 192.0, 0.0, 32.0, 3.5, 40.0, 14.5, 80.0, 0.0, 0.0, 0.0, 1.644588072741555E9, 0.0, 2022-02-12 01:01:12.741
18.0, -10368.43781095002, -9573.162743230194, -6431.200376892135, -12602.226448324496, -9344.079714307753, -6486.431537441199, -9574.012109519495, -7134.341553967185, -8106.374216839578, -10411.509622515396, -9438.359372420236, -8950.644308405437, -7090.219210412409, -10441.863291485703, -10868.222816970685, -15356.386048362978, 0.005, 0.23500000000000001, 0.9490000000000001, 192.0, 0.0, 0.0, 0.0, 0.0, 0.0, 0.0, 0.0, 0.0, 0.0, 1.644588072748291E9, 0.0, 2022-02-12 01:01:12.748
20.0, -10347.628336862128, -9550.98981273053, -6425.299516355934, -12580.992291091954, -9324.633696631634, -6481.067118771925, -9559.41642039018, -7132.17343475502, -8062.162466306981, -10369.108363283678, -9422.57904083479, -8945.369296713985, -7066.012271167311, -10435.649506527127, -10860.064430244498, -15305.491126238243, 0.005, 0.23500000000000001, 0.9490000000000001, 192.0, 0.0, 0.0, 0.0, 0.0, 0.0, 0.0, 0.0, 0.0, 0.0, 1.644588072756077E9, 0.0, 2022-02-12 01:01:12.756
22.0, -10316.84998474717, -9533.287231121925, -6422.79612097694, -12578.198323035042, -9335.429589203548, -6483.034072283992, -9545.93831848363, -7126.294925963274, -8051.701849901897, -10356.256110221877, -9402.887153969665, -8933.902851808412, -7077.165791650509, -10421.992590664935, -10841.221909668673, -15325.65239973693, 0.005, 0.23500000000000001, 0.9490000000000001, 192.0, 0.0, 0.0, 0.0, 0.0, 0.0, 0.0, 0.0, 0.0, 0.0, 1.644588072764173E9, 0.0, 2022-02-12 01:01:12.764
24.0, -10278.114411606122, -9488.606093955766, -6424.047818666437, -12550.415104677095, -9318.554022139791, -6467.767830821018, -9535.544757311913, -7113.621486857115, -8007.467747624844, -10312.357284111653, -9394.415842821103, -8927.66671510538, -7060.469038542395, -10401.563096232783, -10830.403665352305, -15285.799239373118, 0.005, 0.23500000000000001, 0.9490000000000001, 192.0, 0.0, 0.0, 0.0, 0.0, 0.0, 0.0, 0.0, 0.0, 0.0, 1.64458807277139E9, 0.0, 2022-02-12 01:01:12.771
26.0, -10292.643045502073, -9505.21344008606, -6424.092522155348, -12547.084694753254, -9322.979667541942, -6468.818362810417, -9530.090931664818, -7115.364922924629, -7986.0324246922055, -10275.812181927227, -9384.46931653849, -8920.111825479487, -7040.598337721627, -10385.022805335857, -10817.529060546049, -15266.733201352741, 0.0035, 0.23550000000000001, 0.9505000000000001, 192.0, 0.0, 8.0, 3.5, 48.0, 14.5, 96.0, 0.0, 0.0, 0.0, 1.644588072778807E9, 0.0, 2022-02-12 01:01:12.778
28.0, -10283.210609341933, -9484.672186931633, -6413.74366447254, -12531.57258410127, -9322.979667541942, -6472.864028556827, -9530.336800853825, -7117.778911325802, -7990.927456727917, -10309.630371288105, -9371.192380332039, -8915.417959143873, -7038.050238853722, -10385.29102626932, -10807.202554607697, -15279.160771269891, 0.0035, 0.23550000000000001, 0.9505000000000001, 192.0, 0.0, 0.0, 0.0, 0.0, 0.0, 0.0, 0.0, 0.0, 0.0, 1.64458807278675E9, 0.0, 2022-02-12 01:01:12.786
30.0, -10235.869614585592, -9454.407924939147, -6403.573620745376, -12501.688301764525, -9304.047739988297, -6459.631795839286, -9520.658495504678, -7110.112262977632, -7937.775008413198, -10253.773361894293, -9348.773580643367, -8895.61431355647, -7019.2077182778985, -10371.790572618314, -10795.959627146678, -15219.191040896303, 0.0035, 0.23550000000000001, 0.9505000000000001, 192.0, 0.0, 0.0, 0.0, 0.0, 0.0, 0.0, 0.0, 0.0, 0.0, 1.644588072800488E9, 0.0, 2022-02-12 01:01:12.800
32.0, -10212.690855585439, -9438.091151486773, -6403.730082956563, -12496.368586584162, -9314.597763371201, -6462.068135984914, -9504.11820460775, -7112.749768823358, -7930.421284487401, -10238.350658220132, -9330.981592056942, -8876.727089491736, -7019.431235722451, -10354.087991009712, -10782.637987451315, -15241.453378373788, 0.0035, 0.23550000000000001, 0.9505000000000001, 192.0, 0.0, 0.0, 0.0, 0.0, 0.0, 0.0, 0.0, 0.0, 0.0, 1.644588072808598E9, 0.0, 2022-02-12 01:01:12.808
34.0, -10179.319701113665, -9397.14275564465, -6405.093539368337, -12466.126676336131, -9296.26933291785, -6445.304327643434, -9499.089062105306, -7104.479623374895, -7892.713891591298, -10218.278791699266, -9318.621077373156, -8871.47442954474, -7012.189270518932, -10350.310546196764, -10766.611786676858, -15202.874267443929, 0.0035, 0.23550000000000001, 0.9505000000000001, 192.0, 0.0, 0.0, 0.0, 0.0, 0.0, 0.0, 0.0, 0.0, 0.0, 1.644588072816413E9, 0.0, 2022-02-12 01:01:12.816
36.0, -10138.684229693918, -9359.256548792906, -6382.518277468476, -12458.03534484331, -9289.764975281356, -6438.017658951004, -9483.97928285352, -7105.239582686375, -7850.178521892849, -10155.269224079755, -9294.235324172418, -8855.247063070186, -6984.070775994155, -10315.955914968958, -10754.810065604457, -15177.4826857427, 0.00475, 0.23375, 0.9492500000000001, 192.0, 0.0, 24.0, 3.5, 32.0, 14.5, 80.0, 0.0, 0.0, 0.0, 1.644588072823444E9, 0.0, 2022-02-12 01:01:12.823
38.0, -10118.1876800284, -9341.933946840041, -6386.9662746150825, -12443.931394092011, -9281.181905410518, -6436.721257772596, -9451.032811526396, -7075.243541627353, -7831.201890850293, -10148.139017598513, -9280.489001332404, -8841.076057085522, -6979.063985236166, -10314.70421727946, -10735.36404792834, -15181.81892416703, 0.00475, 0.23375, 0.9492500000000001, 192.0, 0.0, 0.0, 0.0, 0.0, 0.0, 0.0, 0.0, 0.0, 0.0, 1.644588072831037E9, 0.0, 2022-02-12 01:01:12.831
40.0, -10095.299493706167, -9328.299382722305, -6388.26267579349, -12420.193841480475, -9269.670757016034, -6433.077923426381, -9450.317555703827, -7082.887838231068, -7793.338035743003, -10109.85047934657, -9272.397669839582, -8828.357914490452, -6969.899770009491, -10300.332045594698, -10719.74017855408, -15124.37494091689, 0.00475, 0.23375, 0.9492500000000001, 192.0, 0.0, 0.0, 0.0, 0.0, 0.0, 0.0, 0.0, 0.0, 0.0, 1.644588072838903E9, 0.0, 2022-02-12 01:01:12.838
42.0, -10085.665891845929, -9313.837804059722, -6390.766071172485, -12415.11999548912, -9279.572579809736, -6430.507472814021, -9440.214567210027, -7082.016120197311, -7788.554762429567, -10092.393766926976, -9269.179018638019, -8824.312248744041, -6963.99890947329, -10291.950141423958, -10710.866536005324, -15143.105702770437, 0.00475, 0.23375, 0.9492500000000001, 192.0, 0.0, 0.0, 0.0, 0.0, 0.0, 0.0, 0.0, 0.0, 0.0, 1.644588072847387E9, 0.0, 2022-02-12 01:01:12.847
44.0, -10085.263560445734, -9319.917478551564, -6391.101347339314, -12386.398003864051, -9264.798076724777, -6418.124606385781, -9429.351619404748, -7074.394175338051, -7771.790954088087, -10093.153726238457, -9250.69412597348, -8797.244286208665, -6953.515941323751, -10270.336004535677, -10698.237800388075, -15098.17869641527, 0.00475, 0.23375, 0.9492500000000001, 192.0, 0.0, 0.0, 0.0, 0.0, 0.0, 0.0, 0.0, 0.0, 0.0, 1.644588072853249E9, 0.0, 2022-02-12 01:01:12.853
46.0, -10045.41040008192, -9290.703748548478, -6367.386146472233, -12374.484524069372, -9260.171265622528, -6415.867080195794, -9411.470223840503, -7067.554541534727, -7732.206014657738, -10053.121751919003, -9212.115015043619, -8776.88184700988, -6931.633583502005, -10251.98522233787, -10684.960864181623, -15074.93288218175, 0.005375, 0.232875, 0.9476250000000002, 192.0, 0.0, 24.0, 3.5, 32.0, 14.5, 72.0, 0.0, 0.0, 0.0, 1.644588072860718E9, 0.0, 2022-02-12 01:01:12.860
48.0, -10022.656324226418, -9258.517236532836, -6370.448335462611, -12364.15801813102, -9253.622204497124, -6407.194603347136, -9407.759834260922, -7061.541922276249, -7723.913517464819, -10044.628089025986, -9199.083948026175, -8769.952806228734, -6928.772560211726, -10235.73550411886, -10667.034765128466, -15085.393498586835, 0.005375, 0.232875, 0.9476250000000002, 192.0, 0.0, 0.0, 0.0, 0.0, 0.0, 0.0, 0.0, 0.0, 0.0, 1.644588072868555E9, 0.0, 2022-02-12 01:01:12.868
50.0, -9990.626274421964, -9228.297678029261, -6360.54651266891, -12329.222241547375, -9236.97015487792, -6392.487155495543, -9398.170935889595, -7063.888855444057, -7674.940845363241, -9990.223943021769, -9182.409546662515, -8770.444544606751, -6920.860042674547, -10220.245745211334, -10657.15529407922, -15026.854279858386, 0.005375, 0.232875, 0.9476250000000002, 192.0, 0.0, 0.0, 0.0, 0.0, 0.0, 0.0, 0.0, 0.0, 0.0, 1.644588072876635E9, 0.0, 2022-02-12 01:01:12.876
52.0, -9964.83236132054, -9203.978980061887, -6353.908044565684, -12316.548802441217, -9236.478416499904, -6389.849649649817, -9383.75406071592, -7047.527378502772, -7653.997260808619, -9972.096678268514, -9160.080153951663, -8737.63218374636, -6897.569524952117, -10194.362425132087, -10641.620831682781, -15044.26628878907, 0.005375, 0.232875, 0.9476250000000002, 192.0, 0.0, 0.0, 0.0, 0.0, 0.0, 0.0, 0.0, 0.0, 0.0, 1.644588072883316E9, 0.0, 2022-02-12 01:01:12.883
54.0, -9941.027753475637, -9184.018872263297, -6362.222893503058, -12286.66452010447, -9212.092663299163, -6380.305454767401, -9358.98832785944, -7036.105637086111, -7625.476434883647, -9940.82658777554, -9146.66910727848, -8709.781910155049, -6886.527763191196, -10191.88138149755, -10626.779273364458, -15002.759099335564, 0.005375, 0.232875, 0.9476250000000002, 192.0, 0.0, 0.0, 0.0, 0.0, 0.0, 0.0, 0.0, 0.0, 0.0, 1.644588072891217E9, 0.0, 2022-02-12 01:01:12.891
56.0, -9904.214430357746, -9162.069459208185, -6334.104398978281, -12275.220426943353, -9210.460985953927, -6366.760297627485, -9343.453865463003, -7031.165901561488, -7580.638835506301, -9896.078395376015, -9123.266830833772, -8689.061843044978, -6861.873789056992, -10166.020413162758, -10609.300209200408, -14971.287843142492, 0.0066875, 0.23543750000000002, 0.9478125000000002, 192.0, 0.0, 32.0, 3.5, 56.0, 14.5, 80.0, 0.0, 0.0, 0.0, 1.64458807289943E9, 0.0, 2022-02-12 01:01:12.899
58.0, -9898.96177041075, -9151.027697447265, -6341.391067670712, -12265.787990783214, -9208.15875627503, -6362.714631881075, -9339.877586350154, -7021.353485745608, -7566.914864410743, -9903.096843134981, -9112.716807450868, -8684.591494153916, -6862.700803601838, -10143.91453789646, -10586.568485089361, -14978.663918812743, 0.0066875, 0.23543750000000002, 0.9478125000000002, 192.0, 0.0, 0.0, 0.0, 0.0, 0.0, 0.0, 0.0, 0.0, 0.0, 1.644588072905871E9, 0.0, 2022-02-12 01:01:12.905
60.0, -9878.152296322858, -9127.37955181355, -6337.993602513505, -12237.110702647054, -9190.791450833256, -6352.678698620642, -9315.60359187169, -7016.681971154449, -7529.922727337209, -9858.90744434684, -9103.239667801818, -8677.885970817324, -6848.887425528458, -10125.29553476519, -10571.346947115297, -14918.828298905886, 0.0066875, 0.23543750000000002, 0.9478125000000002, 192.0, 0.0, 0.0, 0.0, 0.0, 0.0, 0.0, 0.0, 0.0, 0.0, 1.644588072920805E9, 0.0, 2022-02-12 01:01:12.920
62.0, -9847.172778507804, -9094.99187409781, -6324.336686651312, -12232.0368566557, -9188.802145576734, -6340.318183936856, -9301.991379498408, -7003.405034947996, -7521.138491766274, -9842.635374383375, -9075.590559910603, -8657.098848473888, -6836.63866956695, -10109.157575268457, -10554.9407666851, -14934.630982235789, 0.0066875, 0.23543750000000002, 0.9478125000000002, 192.0, 0.0, 0.0, 0.0, 0.0, 0.0, 0.0, 0.0, 0.0, 0.0, 1.644588072929684E9, 0.0, 2022-02-12 01:01:12.929
64.0, -9829.313734688012, -9071.947225564389, -6328.248241930991, -12203.516030730729, -9160.840113263144, -6325.29781166289, -9283.528838578324, -6991.916238297968, -7483.833430270366, -9806.134975687859, -9056.74803933478, -8650.952118748679, -6820.143082158934, -10089.353929681056, -10531.292621051387, -14890.151010769727, 0.0066875, 0.23543750000000002, 0.9478125000000002, 192.0, 0.0, 0.0, 0.0, 0.0, 0.0, 0.0, 0.0, 0.0, 0.0, 1.644588072935604E9, 0.0, 2022-02-12 01:01:12.935
66.0, -9782.55388528751, -9044.655745584458, -6300.934410206605, -12181.141934530966, -9143.025772932264, -6297.24637237148, -9257.623166754624, -6958.410973359463, -7439.800493693411, -9762.5043705111, -9040.095989715575, -8623.906507957758, -6804.094529640023, -10075.495848118764, -10510.594905685772, -14856.019896986474, 0.0053437499999999995, 0.23571875000000003, 0.9499062500000002, 192.0, 0.0, 16.0, 3.5, 48.0, 14.5, 96.0, 0.0, 0.0, 0.0, 1.644588072943589E9, 0.0, 2022-02-12 01:01:12.943
68.0, -9761.677355966254, -9029.389504121484, -6300.666189273142, -12168.423791935897, -9136.47671180686, -6292.284285102402, -9242.044000869275, -6956.913406480958, -7423.193147563118, -9755.664736707777, -9011.038721923676, -8593.150507587256, -6791.756366700693, -10033.407513309421, -10487.706719363538, -14853.695315563122, 0.0053437499999999995, 0.23571875000000003, 0.9499062500000002, 192.0, 0.0, 0.0, 0.0, 0.0, 0.0, 0.0, 0.0, 0.0, 0.0, 1.644588072951554E9, 0.0, 2022-02-12 01:01:12.951
70.0, -9743.818312146463, -8997.001826405743, -6295.9276194486165, -12130.761102528704, -9122.171595355463, -6273.084136615293, -9224.453177982949, -6943.882339463514, -7380.344853442294, -9714.135195509816, -8991.369186803006, -8577.347824257353, -6769.717546667761, -10022.768082948694, -10470.652338344138, -14789.881085143219, 0.0053437499999999995, 0.23571875000000003, 0.9499062500000002, 192.0, 0.0, 0.0, 0.0, 0.0, 0.0, 0.0, 0.0, 0.0, 0.0, 1.644588072959637E9, 0.0, 2022-02-12 01:01:12.959
72.0, -9706.021512272539, -8973.308977283117, -6285.5340582768995, -12119.07114017858, -9129.748836725812, -6268.770249935419, -9220.228698280895, -6941.937737695902, -7365.793867801889, -9709.933067552218, -8970.157381314919, -8554.325527468387, -6751.657337147873, -9999.857544882005, -10455.900187003635, -14803.40389053868, 0.0053437499999999995, 0.23571875000000003, 0.9499062500000002, 192.0, 0.0, 0.0, 0.0, 0.0, 0.0, 0.0, 0.0, 0.0, 0.0, 1.644588072966176E9, 0.0, 2022-02-12 01:01:12.966
74.0, -9685.189686440193, -8943.111770523998, -6284.461174543045, -12086.527000251652, -9103.686702690924, -6255.4262584956, -9202.839041094667, -6932.70646723586, -7324.957230682044, -9675.86900900233, -8949.102038038021, -8540.668611606194, -6748.505741179674, -9976.365861459477, -10430.843881469236, -14761.002631306963, 0.0053437499999999995, 0.23571875000000003, 0.9499062500000002, 192.0, 0.0, 0.0, 0.0, 0.0, 0.0, 0.0, 0.0, 0.0, 0.0, 1.644588072973271E9, 0.0, 2022-02-12 01:01:12.973
76.0, -9647.996383666561, -8917.787244056135, -6281.6001512527655, -12076.647529202406, -9097.18234505443, -6252.408772994134, -9170.183142445463, -6923.050513631167, -7308.573401996304, -9636.149959105249, -8944.609337402504, -8525.804701543415, -6726.086941491001, -9960.317308940568, -10414.39299755013, -14736.974506017508, 0.005671875, 0.23485937500000004, 0.9499531250000002, 192.0, 0.0, 24.0, 3.5, 40.0, 14.5, 88.0, 0.0, 0.0, 0.0, 1.644588072981388E9, 0.0, 2022-02-12 01:01:12.981
78.0, -9617.553307718434, -8893.133269921931, -6270.379575536201, -12066.321023264054, -9092.08614731862, -6247.826665380796, -9164.796372031733, -6918.043722873178, -7281.639549927659, -9637.28989807247, -8917.362560911484, -8514.762939782493, -6721.169557710834, -9947.509759367676, -10397.785651419837, -14748.01626777843, 0.005671875, 0.23485937500000004, 0.9499531250000002, 192.0, 0.0, 0.0, 0.0, 0.0, 0.0, 0.0, 0.0, 0.0, 0.0, 1.644588072988317E9, 0.0, 2022-02-12 01:01:12.988
80.0, -9597.928476086674, -8872.726127234237, -6252.989918349972, -12029.351237934976, -9066.672213872936, -6227.37481920419, -9151.675898036468, -6903.9844756107905, -7228.285935912841, -9571.79928681842, -8907.23722067323, -8504.68230303315, -6697.0743771880125, -9937.943212740805, -10378.518447699362, -14682.123325124185, 0.005671875, 0.23485937500000004, 0.9499531250000002, 192.0, 0.0, 0.0, 0.0, 0.0, 0.0, 0.0, 0.0, 0.0, 0.0, 1.644588072997365E9, 0.0, 2022-02-12 01:01:12.997
82.0, -9575.442621164635, -8856.699926459782, -6244.339793245768, -12018.33182791851, -9066.001661539276, -6224.759665102919, -9133.660392005491, -6899.424719741907, -7225.111988200187, -9590.798269605431, -8870.312138833064, -8468.405421782187, -6678.544781034563, -9904.080319891014, -10357.843084078204, -14695.891999708654, 0.005671875, 0.23485937500000004, 0.9499531250000002, 192.0, 0.0, 0.0, 0.0, 0.0, 0.0, 0.0, 0.0, 0.0, 0.0, 1.644588073003879E9, 0.0, 2022-02-12 01:01:13.003
84.0, -9572.492190896535, -8847.960394377757, -6246.217339780014, -11988.738118259684, -9045.21453919584, -6207.682932339065, -9117.745949953312, -6876.000091552746, -7193.640732007115, -9571.106382740305, -8852.095467101988, -8442.47739821403, -6670.453449541742, -9890.356348795456, -10333.27851692182, -14651.501435220414, 0.005671875, 0.23485937500000004, 0.9499531250000002, 192.0, 0.0, 0.0, 0.0, 0.0, 0.0, 0.0, 0.0, 0.0, 0.0, 1.644588073011794E9, 0.0, 2022-02-12 01:01:13.011
86.0, -9535.276536378447, -8815.572716662016, -6230.61582215021, -11969.917949428314, -9028.048399454165, -6190.002702474917, -9094.880115375534, -6863.416059424408, -7156.380374000118, -9529.330972353337, -8837.186853550298, -8429.42397945213, -6638.155178803823, -9865.992947339171, -10319.465138848442, -14617.124452248152, 0.008, 0.23800000000000002, 0.9460000000000001, 192.0, 0.0, 32.0, 3.5, 56.0, 14.5, 72.0, 0.0, 0.0, 0.0, 1.644588073018476E9, 0.0, 2022-02-12 01:01:13.018
88.0, -9507.895649420698, -8802.318132200018, -6216.8024440768295, -11955.098742854447, -9017.140748159974, -6174.22237088947, -9079.636225657014, -6848.999184250735, -7152.714687909447, -9515.40583555768, -8799.948847287757, -8402.512479127941, -6635.383562491365, -9839.66259237082, -10296.778118226304, -14622.310056961782, 0.008, 0.23800000000000002, 0.9460000000000001, 192.0, 0.0, 0.0, 0.0, 0.0, 0.0, 0.0, 0.0, 0.0, 0.0, 1.644588073026523E9, 0.0, 2022-02-12 01:01:13.026
90.0, -9476.78202113891, -8758.911044467814, -6203.480804381466, -11926.376751229376, -8990.341006558063, -6156.788010214331, -9064.79466733869, -6841.399591135931, -7099.517536105816, -9493.076442846828, -8789.97996926069, -8395.024644735413, -6610.059036023502, -9818.763711305108, -10276.214513327423, -14555.612451507146, 0.008, 0.23800000000000002, 0.9460000000000001, 192.0, 0.0, 0.0, 0.0, 0.0, 0.0, 0.0, 0.0, 0.0, 0.0, 1.644588073035234E9, 0.0, 2022-02-12 01:01:13.035
92.0, -9451.613956882235, -8739.174454113776, -6192.014359475895, -11915.714969124196, -8988.351701301539, -6152.518827023367, -9043.06877172813, -6833.263556154198, -7081.2561608858305, -9463.907416332653, -8762.710841025215, -8375.936254970582, -6593.362282915388, -9800.234115151658, -10257.662565429517, -14571.92922495952, 0.008, 0.23800000000000002, 0.9460000000000001, 192.0, 0.0, 0.0, 0.0, 0.0, 0.0, 0.0, 0.0, 0.0, 0.0, 1.644588073048139E9, 0.0, 2022-02-12 01:01:13.048
94.0, -9428.122273459707, -8727.484491763651, -6197.267019422891, -11883.975491997659, -8964.368279500995, -6135.755018681886, -9022.30400112915, -6814.577497789562, -7057.518608274295, -9446.33894519078, -8748.673945507282, -8352.958661670526, -6586.030910734047, -9793.774461004074, -10231.600431394629, -14526.979866859898, 0.008, 0.23800000000000002, 0.9460000000000001, 192.0, 0.0, 0.0, 0.0, 0.0, 0.0, 0.0, 0.0, 0.0, 0.0, 1.644588073056334E9, 0.0, 2022-02-12 01:01:13.056
96.0, -9386.659787495111, -8678.712985362172, -6175.4740685789675, -11863.545997565509, -8951.024288061177, -6114.319695749247, -9001.181602618886, -6796.941971414325, -7022.046389823722, -9419.650962311145, -8728.780892942059, -8342.006306887426, -6561.10871566638, -9765.343042056924, -10211.796785807228, -14493.921636810499, 0.01, 0.232, 0.9460000000000001, 192.0, 0.0, 40.0, 3.5, 32.0, 14.5, 72.0, 0.0, 0.0, 0.0, 1.644588073064282E9, 0.0, 2022-02-12 01:01:13.064
98.0, -9356.864912136187, -8672.76742133706, -6169.215580131481, -11848.413866569266, -8948.655003148915, -6101.713311876454, -8994.565486260115, -6786.369596286964, -6985.434232405929, -9403.803575492331, -8694.202744269698, -8304.857707602705, -6539.271061333545, -9732.97771608564, -10188.550971573708, -14498.414337446016, 0.01, 0.232, 0.9460000000000001, 192.0, 0.0, 0.0, 0.0, 0.0, 0.0, 0.0, 0.0, 0.0, 0.0, 1.644588073070687E9, 0.0, 2022-02-12 01:01:13.070
100.0, -9347.90186260961, -8632.936612717702, -6157.905597437096, -11819.267191799545, -8919.128348723454, -6082.91549478954, -8973.0184046052, -6770.075174579046, -6962.970729228346, -9350.584071944246, -8687.519572677562, -8285.679910860052, -6526.329401293922, -9728.864995105863, -10171.675404509951, -14431.783787224746, 0.01, 0.232, 0.9460000000000001, 192.0, 0.0, 0.0, 0.0, 0.0, 0.0, 0.0, 0.0, 0.0, 0.0, 1.644588073078782E9, 0.0, 2022-02-12 01:01:13.078
102.0, -9325.058379776285, -8622.252478868066, -6145.723896708953, -11801.363444490844, -8914.09920622101, -6071.985491750896, -8956.522817197183, -6756.977052328236, -6948.777371499225, -9354.428571990558, -8647.71111580266, -8264.579864094241, -6500.177860281213, -9699.763023825053, -10149.278956565733, -14442.132644907553, 0.01, 0.232, 0.9460000000000001, 192.0, 0.0, 0.0, 0.0, 0.0, 0.0, 0.0, 0.0, 0.0, 0.0, 1.644588073086703E9, 0.0, 2022-02-12 01:01:13.086
104.0, -9294.190620683506, -8606.002760649057, -6146.617966487166, -11772.61910112132, -8890.831040243034, -6056.585139821189, -8939.088456522042, -6742.71663936575, -6914.065112360134, -9363.749249428422, -8640.491502343595, -8245.022087695848, -6491.95241832166, -9675.15375317976, -10128.067151077646, -14399.440812997917, 0.01, 0.232, 0.9460000000000001, 192.0, 0.0, 0.0, 0.0, 0.0, 0.0, 0.0, 0.0, 0.0, 0.0, 1.644588073093815E9, 0.0, 2022-02-12 01:01:13.093
106.0, -9238.870053156621, -8562.88624559477, -6125.674381932543, -11754.380077645788, -8877.62115926995, -6037.0050116783395, -8924.872747048468, -6721.460130388753, -6878.592893909561, -9302.974856254443, -8613.89292644178, -8223.318543829744, -6468.393679665766, -9656.668860515221, -10107.61530490104, -14367.813094593657, 0.008, 0.23600000000000002, 0.9500000000000001, 192.0, 0.0, 32.0, 3.5, 48.0, 14.5, 88.0, 0.0, 0.0, 0.0, 1.644588073100495E9, 0.0, 2022-02-12 01:01:13.100
108.0, -9235.87491939961, -8555.823094346893, -6114.92319284954, -11739.650278049741, -8871.407374311373, -6023.616316749611, -8923.352828425506, -6709.367836638432, -6854.050678497634, -9310.350931924693, -8585.1262313278, -8204.587781976197, -6447.114818944314, -9638.362781806325, -10087.006996513248, -14372.03757429571, 0.008, 0.23600000000000002, 0.9500000000000001, 192.0, 0.0, 0.0, 0.0, 0.0, 0.0, 0.0, 0.0, 0.0, 0.0, 1.644588073108407E9, 0.0, 2022-02-12 01:01:13.108
110.0, -9206.415320207516, -8525.089445720845, -6108.552945679778, -11711.911763180706, -8835.51047271615, -6003.656208951022, -8869.909807432867, -6694.347464364465, -6823.629954293961, -9274.766954751845, -8565.41199271822, -8183.912418355038, -6424.159577388714, -9617.150976318238, -10064.118810191014, -14306.725776997302, 0.008, 0.23600000000000002, 0.9500000000000001, 192.0, 0.0, 0.0, 0.0, 0.0, 0.0, 0.0, 0.0, 0.0, 0.0, 1.644588073116501E9, 0.0, 2022-02-12 01:01:13.116
112.0, -9178.43093614947, -8504.145861166222, -6087.564657636244, -11698.679530463163, -8833.610574437449, -5992.256819278815, -8855.559987492561, -6679.528257790596, -6807.648457008417, -9278.231475142416, -8557.275957736487, -8165.740450112874, -6415.308286584412, -9600.94596158814, -10042.45996981382, -14318.102814925054, 0.008, 0.23600000000000002, 0.9500000000000001, 192.0, 0.0, 0.0, 0.0, 0.0, 0.0, 0.0, 0.0, 0.0, 0.0, 1.644588073122965E9, 0.0, 2022-02-12 01:01:13.122
114.0, -9172.440668635449, -8496.34510235132, -6083.63075061211, -11669.197579526613, -8807.168460746821, -5972.296711480226, -8837.522129717128, -6667.972405907203, -6788.425956776853, -9271.92828320602, -8544.379001185776, -8136.906699765528, -6397.561001486898, -9578.638920621745, -10018.521251502187, -14274.986299870767, 0.008, 0.23600000000000002, 0.9500000000000001, 192.0, 0.0, 0.0, 0.0, 0.0, 0.0, 0.0, 0.0, 0.0, 0.0, 1.64458807313099E9, 0.0, 2022-02-12 01:01:13.130
116.0, -9135.76145598429, -8456.87192164325, -6060.317881145225, -11648.611622883276, -8791.566943117017, -5948.425048401958, -8818.299629485564, -6641.530292216575, -6750.562101669562, -9227.180090806496, -8491.740642993527, -8118.578269312176, -6367.8331813613395, -9551.772123786464, -9996.348321002522, -14239.737598864747, 0.002, 0.24, 0.9480000000000001, 192.0, 0.0, 8.0, 3.5, 64.0, 14.5, 80.0, 0.0, 0.0, 0.0, 1.644588073139E9, 0.0, 2022-02-12 01:01:13.139
118.0, -9104.22314455785, -8433.96138357656, -6050.080782184695, -11628.852680784785, -8777.127716198887, -5935.103408706595, -8802.69811185576, -6631.874338611882, -6730.512586893152, -9228.632954196091, -8469.925340405147, -8100.808632470207, -6353.8633410767725, -9525.419417073657, -9970.912035812384, -14245.549052423126, 0.002, 0.24, 0.9480000000000001, 192.0, 0.0, 0.0, 0.0, 0.0, 0.0, 0.0, 0.0, 0.0, 0.0, 1.644588073146147E9, 0.0, 2022-02-12 01:01:13.146
120.0, -9043.538158361693, -8381.255970150945, -6037.4743983119015, -11585.870276197229, -8746.282308850565, -5905.442643814403, -8778.066489466011, -6605.052245265513, -6678.365967078921, -9184.644721108047, -8449.808770395372, -8074.210056568391, -6315.641858058198, -9500.20664932807, -9949.387305901922, -14174.671670755348, 0.002, 0.24, 0.9480000000000001, 192.0, 0.0, 0.0, 0.0, 0.0, 0.0, 0.0, 0.0, 0.0, 0.0, 1.644588073153608E9, 0.0, 2022-02-12 01:01:13.153
122.0, -9062.850065571078, -8412.28019145491, -6032.557014531733, -11586.116145386237, -8746.885805950858, -5899.720597233844, -8761.772067758093, -6600.559544629997, -6684.535048548585, -9190.567933388702, -8437.381200478221, -8056.328661004146, -6314.5913260687985, -9480.179486296116, -9928.041389947104, -14184.595845293505, 0.002, 0.24, 0.9480000000000001, 192.0, 0.0, 0.0, 0.0, 0.0, 0.0, 0.0, 0.0, 0.0, 0.0, 1.64458807316861E9, 0.0, 2022-02-12 01:01:13.168
124.0, -9014.100910914054, -8375.712737526028, -6028.041962151762, -11557.170636316614, -8722.72357019467, -5876.251265555771, -8749.88093970787, -6584.376881644354, -6650.091010342957, -9194.837116579667, -8434.654287654674, -8039.833073596129, -6297.469889816033, -9469.473000702024, -9909.891773449395, -14146.888452397401, 0.002, 0.24, 0.9480000000000001, 192.0, 0.0, 0.0, 0.0, 0.0, 0.0, 0.0, 0.0, 0.0, 0.0, 1.644588073175736E9, 0.0, 2022-02-12 01:01:13.175
126.0, -9026.372018620017, -8363.151057142146, -6007.3665985306025, -11537.769322129408, -8712.754692167604, -5856.849951368565, -8731.999544143622, -6565.869637235361, -6616.205765748712, -9136.432008317948, -8407.13929023019, -8027.584317634621, -6279.968473907527, -9443.567328878324, -9892.658578474353, -14110.589219401983, 0.008, 0.23800000000000002, 0.9520000000000001, 192.0, 0.0, 32.0, 3.5, 56.0, 14.5, 96.0, 0.0, 0.0, 0.0, 1.644588073183369E9, 0.0, 2022-02-12 01:01:13.183
128.0, -9029.59066982158, -8374.237522391979, -6000.549316471734, -11517.540993397355, -8689.888857589825, -5846.63520415249, -8694.694482647716, -6543.450837546688, -6619.804396606016, -9169.311424411706, -8374.081060180792, -7994.526087585222, -6255.627424195698, -9425.037732724873, -9867.043479328571, -14115.84187934898, 0.008, 0.23800000000000002, 0.9520000000000001, 192.0, 0.0, 0.0, 0.0, 0.0, 0.0, 0.0, 0.0, 0.0, 0.0, 1.644588073191147E9, 0.0, 2022-02-12 01:01:13.191
130.0, -9008.714140500324, -8359.84299896276, -5991.988598345351, -11483.521638336379, -8663.558502621472, -5821.4671398958135, -8682.15515400829, -6534.15251185328, -6600.06780625198, -9161.19774117443, -8367.241426377466, -7981.29385486768, -6239.131836787682, -9411.179651162583, -9843.730609861686, -14047.512596549106, 0.008, 0.23800000000000002, 0.9520000000000001, 192.0, 0.0, 0.0, 0.0, 0.0, 0.0, 0.0, 0.0, 0.0, 0.0, 1.6445880731995E9, 0.0, 2022-02-12 01:01:13.199
132.0, -8967.877503380478, -8329.13170208117, -5973.459002191902, -11476.547894066322, -8664.76549682206, -5811.00652349073, -8673.035642270523, -6513.47714823212, -6582.164058943279, -9145.95385145591, -8344.241481332956, -7945.843988161563, -6216.578926632277, -9386.458621795015, -9826.318600931001, -14060.700125777737, 0.008, 0.23800000000000002, 0.9520000000000001, 192.0, 0.0, 0.0, 0.0, 0.0, 0.0, 0.0, 0.0, 0.0, 0.0, 1.644588073205893E9, 0.0, 2022-02-12 01:01:13.205
134.0, -8938.708476866303, -8296.632265643151, -5962.216074730883, -11441.41095178258, -8633.316592373443, -5793.1698314153955, -8653.299051916487, -6500.826060870417, -6550.357526583377, -9139.315383352683, -8317.553498453319, -7937.797360157652, -6200.1280427131705, -9369.04661286433, -9805.307961143013, -14021.159889836299, 0.008, 0.23800000000000002, 0.9520000000000001, 192.0, 0.0, 0.0, 0.0, 0.0, 0.0, 0.0, 0.0, 0.0, 0.0, 1.644588073213967E9, 0.0, 2022-02-12 01:01:13.213
136.0, -8888.931141964335, -8267.887922273627, -5948.849731546608, -11417.583992193222, -8614.295257841975, -5770.482810793258, -8629.18151964921, -6479.658958871241, -6515.913488377749, -9099.775147411245, -8289.859687073194, -7915.110339535516, -6176.725766268464, -9351.299327766816, -9784.07380391047, -13985.978244063646, 0.008, 0.232, 0.9480000000000001, 192.0, 0.0, 32.0, 3.5, 32.0, 14.5, 80.0, 0.0, 0.0, 0.0, 1.644588073220841E9, 0.0, 2022-02-12 01:01:13.220
138.0, -8859.069211372043, -8255.661518056575, -5939.149074453006, -11403.16711701955, -8605.443967037674, -5756.669432719878, -8613.155318874755, -6467.2090372096345, -6519.24389830159, -9117.053045875198, -8274.3028729323, -7897.921848049385, -6155.715126480476, -9320.945658796509, -9758.995146631616, -13992.460249955684, 0.008, 0.232, 0.9480000000000001, 192.0, 0.0, 0.0, 0.0, 0.0, 0.0, 0.0, 0.0, 0.0, 0.0, 1.644588073227958E9, 0.0, 2022-02-12 01:01:13.227
140.0, -8856.94579564879, -8237.646012025596, -5919.010152698774, -11366.264386923836, -8575.514981212018, -5731.881348118943, -8590.155373830245, -6445.75136253254, -6466.404374409244, -9088.308702505672, -8253.448695355499, -7867.501123845712, -6137.476103004945, -9301.45493763148, -9738.051562076995, -13923.505118311063, 0.008, 0.232, 0.9480000000000001, 192.0, 0.0, 0.0, 0.0, 0.0, 0.0, 0.0, 0.0, 0.0, 0.0, 1.644588073235572E9, 0.0, 2022-02-12 01:01:13.235
142.0, -8826.055684811556, -8191.936694614494, -5897.038387899207, -11356.027287963307, -8568.854161364337, -5718.850281101499, -8572.542199199463, -6432.720295515096, -6460.168237706213, -9075.456449443871, -8223.698523485486, -7847.7421817472205, -6122.20986154197, -9278.656158287067, -9713.039960031505, -13933.630458549316, 0.008, 0.232, 0.9480000000000001, 192.0, 0.0, 0.0, 0.0, 0.0, 0.0, 0.0, 0.0, 0.0, 0.0, 1.644588073243667E9, 0.0, 2022-02-12 01:01:13.243
144.0, -8798.227762964698, -8176.849267107162, -5896.211373354361, -11331.172148129004, -8545.898919808737, -5708.993161796709, -8558.997042059545, -6428.071132668392, -6440.901033985739, -9057.843274813089, -8207.538212244299, -7834.085265885028, -6102.428567699024, -9276.510390819358, -9698.131346479815, -13901.376891300308, 0.008, 0.232, 0.9480000000000001, 192.0, 0.0, 0.0, 0.0, 0.0, 0.0, 0.0, 0.0, 0.0, 0.0, 1.644588073251444E9, 0.0, 2022-02-12 01:01:13.251
146.0, -8767.717631783204, -8171.4624966934325, -5866.505904973257, -11310.742653696854, -8532.845501046837, -5690.5082691321695, -8543.842559318848, -6415.7329697290625, -6408.781577203462, -9034.776274535212, -8177.050432807259, -7803.3069137700695, -6072.566637106734, -9256.818503954233, -9683.267436417036, -13865.50234144954, 0.004, 0.234, 0.9520000000000001, 192.0, 0.0, 16.0, 3.5, 40.0, 14.5, 96.0, 0.0, 0.0, 0.0, 1.644588073258236E9, 0.0, 2022-02-12 01:01:13.258
148.0, -8750.864416463903, -8144.506292880332, -5861.365003748537, -11292.23540928786, -8512.416006614687, -5670.16818167784, -8510.650218802717, -6386.720405426074, -6406.166423102191, -9065.26405397225, -8150.004822016338, -7778.742346613687, -6059.379107878102, -9228.051808840253, -9660.24513962807, -13870.777353140993, 0.004, 0.234, 0.9520000000000001, 192.0, 0.0, 0.0, 0.0, 0.0, 0.0, 0.0, 0.0, 0.0, 0.0, 1.644588073266134E9, 0.0, 2022-02-12 01:01:13.266
150.0, -8711.324180522464, -8115.449025088433, -5849.764448376232, -11257.366687937581, -8485.057471401391, -5644.1954546207735, -8494.624018028262, -6366.7155941385745, -6371.834143618839, -9034.731571046303, -8134.000972986338, -7758.53636962609, -6033.473436054402, -9207.510555685825, -9635.23353758258, -13799.564695306384, 0.004, 0.234, 0.9520000000000001, 192.0, 0.0, 0.0, 0.0, 0.0, 0.0, 0.0, 0.0, 0.0, 0.0, 1.644588073274305E9, 0.0, 2022-02-12 01:01:13.274
152.0, -8672.946235292702, -8092.158507366003, -5830.318430700116, -11249.141245978028, -8478.709575976083, -5627.744570701668, -8470.998224139003, -6356.8584748337835, -6360.032422546437, -9028.607193065547, -8110.866917475095, -7742.465465362724, -6017.156662602028, -9188.712738598912, -9616.972162362596, -13810.785271022949, 0.004, 0.234, 0.9520000000000001, 192.0, 0.0, 0.0, 0.0, 0.0, 0.0, 0.0, 0.0, 0.0, 0.0, 1.644588073281314E9, 0.0, 2022-02-12 01:01:13.281
154.0, -8680.322310962953, -8078.702757203908, -5825.959840531331, -11222.319152631659, -8460.559959478374, -5610.131396070886, -8468.807753182382, -6341.189901970613, -6343.313317693868, -9029.791835521679, -8098.215830113391, -7719.644334273856, -5995.073139080184, -9167.903264511022, -9593.6145894068, -13770.44037228112, 0.004, 0.23500000000000001, 0.9500000000000001, 192.0, 0.0, 16.0, 3.5, 48.0, 14.5, 80.0, 0.0, 0.0, 0.0, 1.644588073295853E9, 0.0, 2022-02-12 01:01:13.295
156.0, -8639.32921163192, -8034.848634582596, -5808.81605253411, -11198.02280640874, -8442.209177280567, -5592.205297017729, -8439.884595857215, -6327.532986108421, -6320.894518005195, -9002.567410775115, -8074.634739713042, -7697.605514240923, -5981.438574962446, -9152.569967814681, -9575.599083375822, -13738.544432943396, 0.004, 0.23500000000000001, 0.9500000000000001, 192.0, 0.0, 0.0, 0.0, 0.0, 0.0, 0.0, 0.0, 0.0, 0.0, 1.644588073304043E9, 0.0, 2022-02-12 01:01:13.304
158.0, -8629.628554538316, -8038.134341017526, -5794.376825615982, -11188.724480715333, -8428.440502696098, -5586.706767881724, -8425.959459061558, -6315.8206720138405, -6326.795378541396, -9000.600457263048, -8050.025469067749, -7692.531668249568, -5971.693214379932, -9141.192929886929, -9552.554434842401, -13749.25091853749, 0.004, 0.23500000000000001, 0.9500000000000001, 192.0, 0.0, 0.0, 0.0, 0.0, 0.0, 0.0, 0.0, 0.0, 0.0, 1.644588073310912E9, 0.0, 2022-02-12 01:01:13.310
160.0, -8617.402150321264, -8033.127550259537, -5785.324369111582, -11160.851855379566, -8398.891496526181, -5568.132468239363, -8409.396816420176, -6300.040340428393, -6298.922753205628, -8986.16123034492, -8039.073114284649, -7671.789249395043, -5946.122818723062, -9132.587508271636, -9534.963611956075, -13687.515400351931, 0.004, 0.23500000000000001, 0.9500000000000001, 192.0, 0.0, 0.0, 0.0, 0.0, 0.0, 0.0, 0.0, 0.0, 0.0, 1.64458807331851E9, 0.0, 2022-02-12 01:01:13.318
162.0, -8577.41487949072, -8011.222840693336, -5771.153363126918, -11154.660422165445, -8394.868182524227, -5557.403630900816, -8392.275380167412, -6287.836287955795, -6297.179317138114, -9004.333198587085, -8014.396788405989, -7647.783475850043, -5930.566004582168, -9117.477729019849, -9512.075425633839, -13704.212153460045, 0.004, 0.23500000000000001, 0.9500000000000001, 192.0, 0.0, 0.0, 0.0, 0.0, 0.0, 0.0, 0.0, 0.0, 0.0, 1.644588073326457E9, 0.0, 2022-02-12 01:01:13.326
164.0, -8561.947472327647, -7971.86141870754, -5766.392441557938, -11120.149328726451, -8370.258911878933, -5543.210273171696, -8373.94694971406, -6276.816877939329, -6276.772174450419, -9000.332236329585, -7996.604799819565, -7633.9030425432975, -5920.597126555101, -9115.510775507782, -9487.667320688644, -13666.37065009721, 0.005, 0.2325, 0.9490000000000001, 192.0, 0.0, 24.0, 3.5, 24.0, 14.5, 80.0, 0.0, 0.0, 0.0, 1.644588073333564E9, 0.0, 2022-02-12 01:01:13.333
166.0, -8531.616155101796, -7961.311395324636, -5754.054278618608, -11098.848116260544, -8348.689478479562, -5522.0431711725205, -8350.097638380246, -6252.520531716411, -6252.09584857176, -8988.843439679556, -7982.031462434705, -7609.137309686817, -5890.936361662908, -9090.007435084277, -9469.852980357764, -13626.718655433495, 0.005, 0.2325, 0.9490000000000001, 192.0, 0.0, 0.0, 0.0, 0.0, 0.0, 0.0, 0.0, 0.0, 0.0, 1.644588073341653E9, 0.0, 2022-02-12 01:01:13.341
168.0, -8533.560756869407, -7958.606834245544, -5733.289508019628, -11085.638235287457, -8332.12683583818, -5501.904249418289, -8333.31147829431, -6232.225147750992, -6252.989918349972, -8982.897875654446, -7958.360965056535, -7587.679635009723, -5873.904332387964, -9067.990966795798, -9443.187349222582, -13638.229803827979, 0.005, 0.2325, 0.9490000000000001, 192.0, 0.0, 0.0, 0.0, 0.0, 0.0, 0.0, 0.0, 0.0, 0.0, 1.644588073348139E9, 0.0, 2022-02-12 01:01:13.348
170.0, -8508.057416445901, -7929.080179820083, -5720.169034024362, -11055.977470395264, -8311.3620652392, -5480.8936096303005, -8316.16769029709, -6216.243650465447, -6223.060932524316, -8951.650136905926, -7940.814845659119, -7572.346338313382, -5852.603119922057, -9056.636280612503, -9422.556689090336, -13569.319375672267, 0.005, 0.2325, 0.9490000000000001, 192.0, 0.0, 0.0, 0.0, 0.0, 0.0, 0.0, 0.0, 0.0, 0.0, 1.644588073356095E9, 0.0, 2022-02-12 01:01:13.356
172.0, -8484.431622556642, -7914.104511035027, -5703.651094871891, -11051.462418015291, -8306.109405292202, -5468.242522268596, -8297.392224954632, -6202.899659025629, -6215.304877198324, -8992.30796007013, -7912.47283368979, -7547.580605456902, -5835.101704013551, -9036.005620480255, -9404.09414817025, -13579.869399055171, 0.005, 0.2325, 0.9490000000000001, 192.0, 0.0, 0.0, 0.0, 0.0, 0.0, 0.0, 0.0, 0.0, 0.0, 1.644588073363197E9, 0.0, 2022-02-12 01:01:13.363
174.0, -8446.545415704897, -7882.700310075321, -5700.767719837156, -11022.360446734483, -8284.517620148375, -5453.847998839378, -8293.190096997036, -6196.618818833687, -6205.313647426802, -8992.8220501926, -7897.653627115921, -7532.6496401607565, -5822.450616651848, -9031.401161122461, -9383.75406071592, -13545.984154460926, 0.0055, 0.23525000000000001, 0.9475, 192.0, 0.0, 24.0, 3.5, 56.0, 14.5, 72.0, 0.0, 0.0, 0.0, 1.644588073370642E9, 0.0, 2022-02-12 01:01:13.370
176.0, -8420.125653758723, -7855.78880975113, -5682.931027761821, -11003.137946502919, -8269.139619963124, -5432.211510206641, -8267.642053084619, -6172.635397033143, -6179.966769214484, -8956.992203830743, -7887.103603733016, -7514.790596340967, -5799.294209396149, -9016.805471993146, -9369.694813453534, -13508.76849994284, 0.0055, 0.23525000000000001, 0.9475, 192.0, 0.0, 0.0, 0.0, 0.0, 0.0, 0.0, 0.0, 0.0, 0.0, 1.64458807337886E9, 0.0, 2022-02-12 01:01:13.378
178.0, -8417.421092679631, -7852.592510294022, -5679.667673071346, -10988.877533540432, -8256.913215746072, -5427.964678760133, -8250.25239589839, -6160.543103282822, -6187.119327440182, -8968.190427802852, -7871.032699469651, -7494.606971097824, -5796.43318610587, -9011.396349834962, -9339.676420650056, -13521.57604951573, 0.0055, 0.23525000000000001, 0.9475, 192.0, 0.0, 0.0, 0.0, 0.0, 0.0, 0.0, 0.0, 0.0, 0.0, 1.644588073386763E9, 0.0, 2022-02-12 01:01:13.386
180.0, -8399.539697115386, -7839.963774676773, -5661.02631819562, -10955.014640690642, -8226.403084564578, -5406.194079660664, -8235.366134091155, -6145.545082753311, -6164.9687486849725, -8952.00776481721, -7854.827684739553, -7479.094860445841, -5771.086307893552, -9004.601419520548, -9320.833900074233, -13455.683106861487, 0.0055, 0.23525000000000001, 0.9475, 192.0, 0.0, 0.0, 0.0, 0.0, 0.0, 0.0, 0.0, 0.0, 0.0, 1.644588073393347E9, 0.0, 2022-02-12 01:01:13.393
182.0, -8385.458098108542, -7826.0833413700275, -5648.017602922631, -10950.566643544036, -8216.031875137314, -5390.301989352941, -8215.76365420385, -6124.489739476412, -6176.614007546188, -8952.097171795032, -7837.438027553324, -7465.57205505038, -5754.300147807616, -8982.96493088781, -9301.41023414257, -13464.71321162143, 0.0055, 0.23525000000000001, 0.9475, 192.0, 0.0, 0.0, 0.0, 0.0, 0.0, 0.0, 0.0, 0.0, 0.0, 1.644588073401266E9, 0.0, 2022-02-12 01:01:13.401
184.0, -8360.826475718794, -7792.980407831718, -5635.858253938944, -10925.26446882063, -8189.209781790946, -5365.692718707647, -8197.792851661785, -6111.25750675887, -6148.920196166062, -8954.332346240562, -7809.341884773003, -7450.082296142852, -5735.904662120898, -8970.738526670757, -9281.450126343982, -13428.503385603832, 0.00575, 0.23362500000000003, 0.94675, 192.0, 0.0, 24.0, 3.5, 32.0, 14.5, 72.0, 0.0, 0.0, 0.0, 1.644588073416452E9, 0.0, 2022-02-12 01:01:13.416
186.0, -8316.838242630749, -7762.827904561509, -5610.377265259894, -10908.366550012417, -8170.479019937399, -5344.972651597578, -8171.104868782148, -6087.922285547529, -6115.683152161021, -8931.66767736288, -7790.812288619553, -7426.478853998048, -5708.948458307798, -8945.34694496953, -9257.109076632152, -13391.064213641193, 0.00575, 0.23362500000000003, 0.94675, 192.0, 0.0, 0.0, 0.0, 0.0, 0.0, 0.0, 0.0, 0.0, 0.0, 1.644588073423089E9, 0.0, 2022-02-12 01:01:13.423
188.0, -8313.194908284535, -7756.904692280852, -5610.176099559796, -10893.346177738451, -8163.147647756058, -5338.289480005441, -8152.128237739592, -6078.6239598541215, -6127.618983700155, -8940.67543037837, -7764.101953995461, -7397.5780484173365, -5700.588905881514, -8934.551052397615, -9236.076085099709, -13405.525792303777, 0.00575, 0.23362500000000003, 0.94675, 192.0, 0.0, 0.0, 0.0, 0.0, 0.0, 0.0, 0.0, 0.0, 0.0, 1.64458807343106E9, 0.0, 2022-02-12 01:01:13.431
190.0, -8317.039408330847, -7744.231253174693, -5606.599820446947, -10861.897273289833, -8138.583080599676, -5316.451825672606, -8137.599603843642, -6062.709517801943, -6121.204033041481, -8933.366409941484, -7767.521770897123, -7398.203897262085, -5691.759966821667, -8930.594793629027, -9217.658247668534, -13338.381151960035, 0.00575, 0.23362500000000003, 0.94675, 192.0, 0.0, 0.0, 0.0, 0.0, 0.0, 0.0, 0.0, 0.0, 0.0, 1.644588073439305E9, 0.0, 2022-02-12 01:01:13.439
192.0, -8290.127908006658, -7738.263337405127, -5582.124660268386, -10853.604776096914, -8127.004876971827, -5305.8570988007905, -8117.371275111589, -6049.589043806678, -6126.6355069441215, -8936.875633820968, -7740.073828706006, -7372.968777772043, -5663.172085663329, -8915.395607399418, -9196.938180558465, -13345.35489623009, 0.00575, 0.23362500000000003, 0.94675, 192.0, 0.0, 0.0, 0.0, 0.0, 0.0, 0.0, 0.0, 0.0, 0.0, 1.64458807344601E9, 0.0, 2022-02-12 01:01:13.446
194.0, -8257.96374773547, -7708.468462046202, -5574.77093634259, -10821.28415361454, -8098.6181615135865, -5285.42760436864, -8102.172088881981, -6032.24409010936, -6104.082596788717, -8934.77456984217, -7723.779406998087, -7356.294376408384, -5661.249835640173, -8901.448118859305, -9171.121915712585, -13313.615419103555, 0.006875, 0.23481250000000004, 0.9473750000000001, 192.0, 0.0, 32.0, 3.5, 48.0, 14.5, 80.0, 0.0, 0.0, 0.0, 1.644588073453634E9, 0.0, 2022-02-12 01:01:13.453
196.0, -8238.897709715095, -7690.877639159876, -5557.247168689629, -10805.190897606719, -8092.024396899271, -5273.759993762969, -8094.237219600346, -6029.427770307991, -6086.737643091398, -8904.979694483245, -7702.209973598716, -7326.231280115996, -5635.880605683399, -8889.355825108985, -9160.549540585225, -13275.751563996264, 0.006875, 0.23481250000000004, 0.9473750000000001, 192.0, 0.0, 0.0, 0.0, 0.0, 0.0, 0.0, 0.0, 0.0, 0.0, 1.644588073461628E9, 0.0, 2022-02-12 01:01:13.461
198.0, -8223.922040930038, -7675.18671455225, -5549.692279063735, -10791.981016633632, -8080.334434549146, -5260.348947089786, -8072.533675734244, -6009.087682853661, -6085.105965746161, -8923.263421447686, -7687.636636213856, -7312.5296607648925, -5628.415123035326, -8881.465659316262, -9143.875139221565, -13289.72140428083, 0.006875, 0.23481250000000004, 0.9473750000000001, 192.0, 0.0, 0.0, 0.0, 0.0, 0.0, 0.0, 0.0, 0.0, 0.0, 1.64458807346881E9, 0.0, 2022-02-12 01:01:13.468
200.0, -8208.521689000332, -7637.434618167236, -5536.974136468665, -10765.762420387557, -8047.2538527552915, -5236.611394478249, -8055.16637029247, -5997.665941437, -6065.5928928366775, -8902.789223526624, -7674.583217451956, -7311.076797375298, -5611.248983293651, -8867.607577753972, -9119.198813342908, -13219.04518831315, 0.006875, 0.23481250000000004, 0.9473750000000001, 192.0, 0.0, 0.0, 0.0, 0.0, 0.0, 0.0, 0.0, 0.0, 0.0, 1.644588073475214E9, 0.0, 2022-02-12 01:01:13.475
202.0, -8188.628636435108, -7626.705780828689, -5524.054828173498, -10758.408696461762, -8038.179044506436, -5215.399588990163, -8036.25679448328, -5966.954644555408, -6068.275102171315, -8889.467583831261, -7644.520121159569, -7285.05936682932, -5585.0303870475755, -8845.546405976584, -9097.092938076608, -13229.438749484867, 0.006875, 0.23481250000000004, 0.9473750000000001, 192.0, 0.0, 0.0, 0.0, 0.0, 0.0, 0.0, 0.0, 0.0, 0.0, 1.644588073483228E9, 0.0, 2022-02-12 01:01:13.483
204.0, -8181.654892165053, -7628.806844807487, -5518.824519970956, -10730.9831060151, -8021.72816058733, -5208.98463833149, -8029.148939746492, -5972.587284158145, -6050.237244395882, -8884.952531451288, -7627.063408739974, -7275.515171946904, -5568.24422696164, -8841.70190593027, -9078.161010522963, -13196.648740368932, 0.0054375, 0.23540625000000004, 0.9486875000000001, 192.0, 0.0, 16.0, 3.5, 48.0, 14.5, 88.0, 0.0, 0.0, 0.0, 1.644588073491279E9, 0.0, 2022-02-12 01:01:13.491
206.0, -8153.737563340374, -7600.6212950493455, -5501.501918018093, -10711.157108683243, -7994.794308518685, -5192.086719523278, -7986.680625281409, -5937.1597691964835, -6032.534662787279, -8892.842697244012, -7617.005123735085, -7245.049744254321, -5552.173322698274, -8833.610574437449, -9061.128981248019, -13165.065725453584, 0.0054375, 0.23540625000000004, 0.9486875000000001, 192.0, 0.0, 0.0, 0.0, 0.0, 0.0, 0.0, 0.0, 0.0, 0.0, 1.644588073498355E9, 0.0, 2022-02-12 01:01:13.498
208.0, -8126.580193827176, -7569.351204556371, -5493.65645571428, -10696.896695720756, -7989.005206704761, -5181.916675796113, -7984.534857813699, -5934.142283695017, -6043.598776292655, -8903.057444460088, -7589.601885032879, -7226.207223678497, -5535.297755634518, -8811.303533471053, -9042.040591483188, -13177.403888392913, 0.0054375, 0.23540625000000004, 0.9486875000000001, 192.0, 0.0, 0.0, 0.0, 0.0, 0.0, 0.0, 0.0, 0.0, 0.0, 1.644588073506113E9, 0.0, 2022-02-12 01:01:13.506
210.0, -8103.826117971674, -7541.590337942879, -5480.156002063275, -10670.745154708047, -7962.071354636116, -5159.363765640708, -7966.497000038266, -5918.02667594274, -6022.945764415952, -8865.461810286262, -7576.436707548703, -7216.864194496178, -5517.326953092451, -8795.925533285801, -9024.293306385673, -13116.763605685665, 0.0054375, 0.23540625000000004, 0.9486875000000001, 192.0, 0.0, 0.0, 0.0, 0.0, 0.0, 0.0, 0.0, 0.0, 0.0, 1.644588073513842E9, 0.0, 2022-02-12 01:01:13.513
212.0, -8103.602600527121, -7542.7302769101, -5469.963606591655, -10671.438058786161, -7959.791476701675, -5148.59022481325, -7956.90810166694, -5903.654504257978, -6020.487072525868, -8866.288824831108, -7549.167579313229, -7194.154822129586, -5502.843022685412, -8783.810887791025, -9006.546021288159, -13131.247536092704, 0.0054375, 0.23540625000000004, 0.9486875000000001, 192.0, 0.0, 0.0, 0.0, 0.0, 0.0, 0.0, 0.0, 0.0, 0.0, 1.644588073521918E9, 0.0, 2022-02-12 01:01:13.521
214.0, -8084.961245651394, -7535.2871460064825, -5457.871312841334, -10640.100913059821, -7937.3726770130015, -5124.539747779339, -7943.988793371773, -5891.115175618551, -6006.80780491922, -8866.42293529784, -7528.134587780784, -7186.242304592408, -5494.259952814574, -8771.78564927407, -8986.54121000066, -13096.311759509059, 0.0017187499999999998, 0.23670312500000001, 0.94834375, 192.0, 127.5, 120.0, 3.5, 56.0, 14.5, 80.0, 0.0, 0.0, 0.0, 1.644588073528516E9, 0.0, 2022-02-12 01:01:13.528
216.0, -8053.579396436143, -7495.098709475841, -5439.2746614545185, -10616.966857548578, -7921.681752405376, -5107.932401649046, -7914.596249413044, -5871.669157942433, -5992.726205912377, -8842.327754775019, -7510.7225788501, -7164.9410921265, -5473.584589193415, -8765.728326526681, -8968.637462691959, -13054.603404355455, 0.0017187499999999998, 0.23670312500000001, 0.94834375, 192.0, 0.0, 0.0, 0.0, 0.0, 0.0, 0.0, 0.0, 0.0, 0.0, 1.64458807354402E9, 0.0, 2022-02-12 01:01:13.544
218.0, -8041.509454430277, -7487.879096016776, -5441.308670199951, -10609.76959583397, -7919.983019826773, -5101.919782390569, -7908.158947009915, -5859.599215936568, -6003.790319417753, -8855.090600859, -7505.604029369835, -7143.4163622160395, -5465.113278044853, -8746.148198383833, -8952.074820050577, -13070.719012107733, 0.0017187499999999998, 0.23670312500000001, 0.94834375, 192.0, 0.0, 0.0, 0.0, 0.0, 0.0, 0.0, 0.0, 0.0, 0.0, 1.644588073551453E9, 0.0, 2022-02-12 01:01:13.551
220.0, -8040.861253841073, -7462.129886404263, -5426.31064967044, -10588.66954906816, -7887.818859555586, -5087.86053512818, -7891.685711346354, -5851.01614606573, -5985.797165131231, -8822.457053954251, -7503.212392713117, -7130.206481242953, -5449.556463903959, -8742.996602415635, -8933.858148319501, -13010.302246845038, 0.0017187499999999998, 0.23670312500000001, 0.94834375, 192.0, 0.0, 0.0, 0.0, 0.0, 0.0, 0.0, 0.0, 0.0, 0.0, 1.64458807355818E9, 0.0, 2022-02-12 01:01:13.558
222.0, -8018.665971596954, -7452.071601399375, -5415.805329776446, -10586.166153689164, -7877.984091995251, -5075.500020444396, -7870.429202369357, -5833.805302835143, -5989.596961688633, -8823.306420243553, -7466.443773084137, -7117.153062481054, -5429.372838660817, -8729.026762131067, -8911.640514330926, -13020.941677205763, 0.0017187499999999998, 0.23670312500000001, 0.94834375, 192.0, 0.0, 0.0, 0.0, 0.0, 0.0, 0.0, 0.0, 0.0, 0.0, 1.644588073566286E9, 0.0, 2022-02-12 01:01:13.566
224.0, -7998.839974265096, -7444.606118751302, -5410.507966340539, -10565.244920878999, -7850.357335848491, -5053.841180067204, -7848.770361992164, -5811.990000246764, -5985.618351175589, -8831.196586036276, -7452.518636288481, -7107.1394809650765, -5411.625553563304, -8709.178413054755, -8890.987502454222, -12987.414060522802, 0.008, 0.242, 0.9500000000000001, 192.0, 0.0, 32.0, 3.5, 72.0, 14.5, 88.0, 0.0, 0.0, 0.0, 1.644588073574052E9, 0.0, 2022-02-12 01:01:13.574
226.0, -7977.449354821367, -7412.374903246749, -5393.654751021237, -10544.27898457992, -7840.433161310335, -5035.736267058404, -7834.26407984067, -5800.702369296833, -5974.107202781106, -8806.587315390983, -7447.131865874751, -7092.87906800259, -5395.73346325558, -8696.236753015131, -8876.794144725101, -12947.158568758794, 0.008, 0.242, 0.9500000000000001, 192.0, 0.0, 0.0, 0.0, 0.0, 0.0, 0.0, 0.0, 0.0, 0.0, 1.644588073580909E9, 0.0, 2022-02-12 01:01:13.580
228.0, -7971.436735562889, -7403.881240353733, -5390.614913775315, -10529.70564719506, -7832.878271684441, -5028.47195011043, -7830.799559450097, -5792.029892448175, -5979.382214472558, -8804.463899667728, -7420.063903339375, -7071.77902123678, -5395.152317899742, -8687.139593021822, -8868.434592298818, -12970.13616205885, 0.008, 0.242, 0.9500000000000001, 192.0, 0.0, 0.0, 0.0, 0.0, 0.0, 0.0, 0.0, 0.0, 0.0, 1.644588073588766E9, 0.0, 2022-02-12 01:01:13.588
230.0, -7940.8371974035745, -7357.903702009166, -5374.476954278583, -10496.245085745464, -7799.909448612863, -5001.582801530695, -7802.859878880964, -5771.309825338105, -5945.094638478117, -8791.83516405048, -7400.327312985339, -7053.294128572242, -5361.714108194603, -8678.534171406529, -8845.948737376779, -12904.422033360248, 0.008, 0.242, 0.9500000000000001, 192.0, 0.0, 0.0, 0.0, 0.0, 0.0, 0.0, 0.0, 0.0, 0.0, 1.644588073595821E9, 0.0, 2022-02-12 01:01:13.595
232.0, -7914.37273196849, -7362.396402644683, -5352.907520879212, -10495.351015967253, -7801.362312002459, -4989.624618247106, -7791.594599675489, -5757.5411507536355, -5946.41339140098, -8780.54753310055, -7384.144649999696, -7033.982221362856, -5355.612081958304, -8660.116333975355, -8821.406521964851, -12911.976922986141, 0.008, 0.242, 0.9500000000000001, 192.0, 0.0, 0.0, 0.0, 0.0, 0.0, 0.0, 0.0, 0.0, 0.0, 1.644588073603829E9, 0.0, 2022-02-12 01:01:13.603
234.0, -7919.446577959845, -7362.776382300423, -5353.399259257229, -10473.69217559006, -7778.362366957947, -4976.258275062833, -7771.053346521062, -5746.655851203901, -5947.150998968005, -8784.123812213398, -7364.877446279222, -7014.580907175649, -5341.0163928289885, -8643.598394822884, -8803.368664189418, -12887.971149441142, 0.002, 0.23800000000000002, 0.9500000000000001, 192.0, 0.0, 8.0, 3.5, 56.0, 14.5, 88.0, 0.0, 0.0, 0.0, 1.644588073610419E9, 0.0, 2022-02-12 01:01:13.610
236.0, -7890.188144467848, -7320.330419579795, -5327.404180455706, -10454.290861402853, -7760.235102204693, -4956.275815519788, -7748.567491599023, -5721.957173580787, -5931.728295293844, -8769.058736450523, -7350.6840885501015, -6997.057139522689, -5321.928003064157, -8633.294240628988, -8787.141297714865, -12847.805064654955, 0.002, 0.23800000000000002, 0.9500000000000001, 192.0, 0.0, 0.0, 0.0, 0.0, 0.0, 0.0, 0.0, 0.0, 0.0, 1.644588073618557E9, 0.0, 2022-02-12 01:01:13.618
238.0, -7877.917036761884, -7308.5957537407585, -5319.648125129715, -10448.948794478036, -7752.948433512263, -4938.327364722177, -7740.945546739763, -5715.139891521918, -5935.617498829067, -8770.601006817938, -7322.766759725423, -6987.5129446402725, -5304.068959244366, -8615.502252042563, -8765.348346870942, -12862.579567739913, 0.002, 0.23800000000000002, 0.9500000000000001, 192.0, 0.0, 0.0, 0.0, 0.0, 0.0, 0.0, 0.0, 0.0, 0.0, 1.644588073626396E9, 0.0, 2022-02-12 01:01:13.626
240.0, -7872.887894259441, -7286.646340685647, -5314.350761693807, -10424.563041277295, -7729.076770433995, -4924.692800604439, -7721.05249417454, -5696.342074435005, -5912.014056684263, -8739.509730280606, -7312.373198553705, -6980.0474619922, -5282.946560734101, -8603.052330380957, -8752.227872875676, -12803.883886800277, 0.002, 0.23800000000000002, 0.9500000000000001, 192.0, 0.0, 0.0, 0.0, 0.0, 0.0, 0.0, 0.0, 0.0, 0.0, 1.644588073633706E9, 0.0, 2022-02-12 01:01:13.633
242.0, -7842.891853200419, -7291.071986087798, -5301.386749909729, -10414.616514994683, -7727.601555299945, -4915.617992355585, -7706.009770156118, -5679.622969582435, -5917.26671663126, -8757.324070611487, -7291.988407610465, -6957.718069281348, -5278.006825209478, -8597.46439426713, -8735.329954067463, -12816.91495381772, 0.002, 0.23800000000000002, 0.9500000000000001, 192.0, 0.0, 0.0, 0.0, 0.0, 0.0, 0.0, 0.0, 0.0, 0.0, 1.644588073640969E9, 0.0, 2022-02-12 01:01:13.640
244.0, -7828.296164071103, -7283.114765061709, -5296.737587063025, -10391.370700761165, -7703.685188732767, -4897.334265391143, -7694.0068833836185, -5667.798896765577, -5913.846899729598, -8762.241454391653, -7290.736709920969, -6949.537330810706, -5266.272159370442, -8588.300179040454, -8720.331933537953, -12789.444659882149, 0.008, 0.23600000000000002, 0.9460000000000001, 192.0, 0.0, 32.0, 3.5, 48.0, 14.5, 72.0, 0.0, 0.0, 0.0, 1.644588073649259E9, 0.0, 2022-02-12 01:01:13.649
246.0, -7805.229163793227, -7232.7562848039015, -5277.112755431265, -10367.47668593844, -7681.04287159954, -4879.050538426703, -7664.23435976915, -5646.989422677687, -5894.780861709221, -8712.911154378791, -7266.418011953594, -6922.804644442159, -5240.210025335554, -8565.88137935178, -8700.081253061444, -12747.42338030617, 0.008, 0.23600000000000002, 0.9460000000000001, 192.0, 0.0, 0.0, 0.0, 0.0, 0.0, 0.0, 0.0, 0.0, 0.0, 1.644588073663057E9, 0.0, 2022-02-12 01:01:13.663
248.0, -7790.164088030349, -7223.14503468812, -5276.419851353151, -10360.033555034823, -7677.0419093420405, -4871.182724378434, -7661.306281245504, -5646.318870344027, -5904.235649613816, -8726.568070240983, -7242.009907008399, -6905.616152956028, -5229.101208341266, -8557.722992625593, -8678.310653961975, -12767.249377638029, 0.008, 0.23600000000000002, 0.9460000000000001, 192.0, 0.0, 0.0, 0.0, 0.0, 0.0, 0.0, 0.0, 0.0, 0.0, 1.644588073670593E9, 0.0, 2022-02-12 01:01:13.670
250.0, -7770.941587798785, -7203.162575145076, -5250.715345229548, -10334.373752400132, -7655.539531176035, -4849.836808423616, -7650.935071818241, -5623.542442744069, -5874.016091110241, -8698.471927460663, -7234.007982493399, -6886.192487024366, -5219.579365203305, -8540.69096335065, -8660.742182820104, -12702.317559995361, 0.008, 0.23600000000000002, 0.9460000000000001, 192.0, 0.0, 0.0, 0.0, 0.0, 0.0, 0.0, 0.0, 0.0, 0.0, 1.644588073678952E9, 0.0, 2022-02-12 01:01:13.678
252.0, -7749.349802654959, -7180.319092311752, -5234.8903101551905, -10328.383484886108, -7648.834007839443, -4836.7386861728055, -7623.643591838311, -5605.459881479726, -5871.646806197979, -8686.178468010243, -7212.080921182743, -6871.976777550791, -5198.9040015821465, -8527.54813761093, -8641.676144799727, -12710.721815910556, 0.008, 0.23600000000000002, 0.9460000000000001, 192.0, 0.0, 0.0, 0.0, 0.0, 0.0, 0.0, 0.0, 0.0, 0.0, 1.644588073685958E9, 0.0, 2022-02-12 01:01:13.685
254.0, -7760.145695226872, -7171.713670696458, -5232.99041187649, -10308.736301509894, -7632.539586131524, -4822.768845888239, -7616.714551057166, -5593.0099598181205, -5866.550608462168, -8699.902439105803, -7186.868153437156, -6855.391783164952, -5184.8224025753025, -8517.333390394853, -8626.700476014672, -12687.073670276843, 0.004, 0.234, 0.9400000000000001, 192.0, 0.0, 16.0, 3.5, 40.0, 14.5, 48.0, 0.0, 0.0, 0.0, 1.644588073693526E9, 0.0, 2022-02-12 01:01:13.693
0.0, -7729.680267534289, -7146.7020686509695, -5214.8184436343245, -10295.638179259084, -7615.641667323312, -4806.921459069426, -7592.21703913415, -5580.180058500774, -5858.615739180535, -8672.56625563696, -7175.357005042673, -6841.69016381385, -5171.031376246378, -8507.029236200957, -8611.456586296152, -12653.45664661606, 0.004, 0.234, 0.9400000000000001, 192.0, 0.0, 0.0, 0.0, 0.0, 0.0, 0.0, 0.0, 0.0, 0.0, 1.644588073701371E9, 0.0, 2022-02-12 01:01:13.701
2.0, -7706.434453300769, -7145.159798283554, -5207.777644130903, -10286.406908799043, -7613.227678922139, -4796.594953131074, -7589.154850143773, -5573.608645630914, -5864.851875883565, -8686.692558132716, -7157.073278078232, -6823.652306038417, -5162.358899397719, -8489.036081914435, -8598.783147189994, -12677.082440505319, 0.004, 0.234, 0.9400000000000001, 192.0, 0.0, 0.0, 0.0, 0.0, 0.0, 0.0, 0.0, 0.0, 0.0, 1.64458807370964E9, 0.0, 2022-02-12 01:01:13.709
4.0, -7693.224572327683, -7119.254126459852, -5206.235373763487, -10261.46236198692, -7580.6611872507565, -4774.332615653589, -7576.995501160086, -5562.879808292367, -5846.255224496749, -8650.61684258185, -7149.540740196793, -6805.525041285163, -5148.500817835429, -8476.541456763918, -8582.93576037118, -12619.437291555083, 0.004, 0.234, 0.9400000000000001, 192.0, 0.0, 0.0, 0.0, 0.0, 0.0, 0.0, 0.0, 0.0, 0.0, 1.644588073715441E9, 0.0, 2022-02-12 01:01:13.715
6.0, -7685.0885373459505, -7111.475719389406, -5183.235428718976, -10257.617861940607, -7575.810858703954, -4762.7767637701945, -7549.659317691246, -5541.958575482199, -5847.618680908523, -8657.612938596361, -7131.435827187995, -6788.381253287942, -5131.379381582664, -8467.377241537242, -8566.350765985342, -12628.221527126017, 0.004, 0.234, 0.9400000000000001, 192.0, 0.0, 0.0, 0.0, 0.0, 0.0, 0.0, 0.0, 0.0, 0.0, 1.644588073723149E9, 0.0, 2022-02-12 01:01:13.723
8.0, -7669.37526099387, -7083.1337074200765, -5187.012873531923, -10242.753951877827, -7557.057745105952, -4752.182036898379, -7543.490236221581, -5539.075200447464, -5839.996736049264, -8656.070668228946, -7128.574803897715, -6793.410395790386, -5121.8351867002475, -8456.715459432062, -8550.190454744155, -12606.026244881898, 0.004, 0.234, 0.9400000000000001, 192.0, 0.0, 0.0, 3.5, 48.0, 14.5, 48.0, 0.0, 0.0, 0.0, 1.644588073731281E9, 0.0, 2022-02-12 01:01:13.731
10.0, -7661.663909156789, -7084.407756854029, -5174.0712134923, -10228.404131937521, -7541.925614109709, -4737.251071602234, -7528.022829058508, -5518.958630437688, -5816.572107860102, -8625.113502158345, -7121.5787078832045, -6775.618407203961, -5110.189927839033, -8446.38895349371, -8532.063189990902, -12568.721183385991, 0.004, 0.234, 0.9400000000000001, 192.0, 0.0, 0.0, 0.0, 0.0, 0.0, 0.0, 0.0, 0.0, 0.0, 1.644588073739349E9, 0.0, 2022-02-12 01:01:13.739
12.0, -7651.717382874177, -7074.550637549239, -5168.282111678375, -10216.133024231556, -7538.595204185868, -4722.722437706285, -7524.066570289919, -5509.794415211012, -5833.224157479305, -8652.740258305104, -7094.3989866255515, -6755.457133705275, -5103.126776591155, -8432.061485297858, -8517.713370050595, -12588.435421995571, 0.004, 0.234, 0.9400000000000001, 192.0, 0.0, 0.0, 0.0, 0.0, 0.0, 0.0, 0.0, 0.0, 0.0, 1.644588073745605E9, 0.0, 2022-02-12 01:01:13.745
14.0, -7633.679525098744, -7048.510855258805, -5158.78262028487, -10190.473221596863, -7520.937326066176, -4705.511594475698, -7510.364950938815, -5495.265781315063, -5804.725683298789, -8629.650906282772, -7084.452460342939, -6745.465903933752, -5081.982026336435, -8417.37638919072, -8503.520012321474, -12526.230517176453, 0.004, 0.234, 0.9400000000000001, 192.0, 0.0, 0.0, 0.0, 0.0, 0.0, 0.0, 0.0, 0.0, 0.0, 1.644588073753682E9, 0.0, 2022-02-12 01:01:13.753
16.0, -7602.4988415835915, -7024.952116602912, -5141.437666587552, -10188.640378551529, -7519.976201054597, -4698.046111827625, -7506.766320081511, -5483.75463292058, -5803.406930375926, -8611.344827573876, -7052.400058794029, -6729.462054903753, -5077.086994300723, -8403.942990773081, -8494.78048023945, -12542.659049351103, 0.004, 0.234, 0.9400000000000001, 192.0, 0.0, 0.0, 0.0, 0.0, 0.0, 0.0, 0.0, 0.0, 0.0, 1.644588073761681E9, 0.0, 2022-02-12 01:01:13.761
18.0, -7595.927428713731, -7014.603258920105, -5133.413390328096, -10170.848389965104, -7499.524354877992, -4686.1773355218575, -7498.183250210674, -5478.613731695858, -5799.741244285256, -8614.161147375244, -7039.816026665691, -6709.479595360708, -5062.692470871505, -8390.621351077718, -8474.552151507396, -12523.637714819637, 0.004, 0.23600000000000002, 0.9460000000000001, 192.0, 0.0, 16.0, 3.5, 48.0, 14.5, 72.0, 0.0, 0.0, 0.0, 1.644588073768813E9, 0.0, 2022-02-12 01:01:13.768
20.0, -7584.460983808159, -7005.260229737786, -5120.807006455303, -10159.381945059533, -7479.363081379304, -4669.994672536215, -7474.758622021512, -5455.725545373624, -5789.302979624627, -8583.159277815734, -7034.563366718694, -6704.718673791728, -5038.4855316264075, -8387.715624298527, -8463.063354857368, -12490.244208603408, 0.004, 0.23600000000000002, 0.9460000000000001, 192.0, 0.0, 0.0, 0.0, 0.0, 0.0, 0.0, 0.0, 0.0, 0.0, 1.644588073776244E9, 0.0, 2022-02-12 01:01:13.776
22.0, -7593.289922868004, -6997.951209300901, -5118.638887243139, -10155.179817101935, -7469.640072541246, -4661.568064876565, -7457.726592746568, -5450.472885426627, -5802.1552326864285, -8602.202964091655, -7024.683895669448, -6690.033577684591, -5040.09485722719, -8377.2773596379, -8445.874863371237, -12511.456014091495, 0.004, 0.23600000000000002, 0.9460000000000001, 192.0, 0.0, 0.0, 0.0, 0.0, 0.0, 0.0, 0.0, 0.0, 0.0, 1.644588073791381E9, 0.0, 2022-02-12 01:01:13.791
24.0, -7572.435745291204, -6996.4312906779405, -5111.86630867318, -10128.804758644672, -7450.909310687699, -4641.607957077976, -7451.33399383235, -5431.719771828624, -5775.556656784614, -8595.184516332689, -7013.1056920415995, -6685.898504960359, -5024.023952963824, -8370.169504901112, -8431.681505642116, -12458.75060066588, 0.004, 0.23600000000000002, 0.9460000000000001, 192.0, 0.0, 0.0, 0.0, 0.0, 0.0, 0.0, 0.0, 0.0, 0.0, 1.644588073797919E9, 0.0, 2022-02-12 01:01:13.797
26.0, -7542.6855734211895, -6969.966825242856, -5094.8342793982365, -10121.831014374617, -7448.383563564249, -4629.91799472785, -7435.285441313439, -5418.219318177619, -5780.228171375772, -8596.32445529991, -6995.872497066557, -6665.2231413392, -5013.205708647455, -8346.610766245218, -8419.05277002487, -12466.529007736328, 0.004, 0.23600000000000002, 0.9460000000000001, 192.0, 0.0, 0.0, 0.0, 0.0, 0.0, 0.0, 0.0, 0.0, 0.0, 1.64458807380591E9, 0.0, 2022-02-12 01:01:13.805
28.0, -7544.160788555239, -6951.28076687822, -5096.287142787832, -10100.976836797814, -7424.824824908355, -4613.1541863863695, -7421.51676672897, -5401.030826691488, -5770.795735215633, -8589.328359285399, -6985.791860317214, -6655.2766150565885, -4990.965722914425, -8334.98785912846, -8405.306447184856, -12450.189882539498, 0.004, 0.234, 0.9500000000000001, 192.0, 0.0, 16.0, 3.5, 40.0, 14.5, 88.0, 0.0, 0.0, 0.0, 1.644588073813976E9, 0.0, 2022-02-12 01:01:13.813
30.0, -7510.6331718722795, -6922.826996186614, -5069.263883741365, -10087.074051746613, -7406.161118288174, -4594.691645466286, -7410.586763690325, -5393.587695787871, -5739.883272633943, -8542.121474995789, -6960.467333849351, -6634.243623524145, -4970.98326337138, -8318.671085676086, -8394.242333679478, -12412.728358832403, 0.004, 0.234, 0.9500000000000001, 192.0, 0.0, 0.0, 0.0, 0.0, 0.0, 0.0, 0.0, 0.0, 0.0, 1.644588073821108E9, 0.0, 2022-02-12 01:01:13.821
32.0, -7512.0413317729635, -6924.168100853933, -5076.818773367259, -10090.069185503626, -7413.738359658523, -4592.188250087292, -7408.083368311331, -5392.805384731935, -5753.4284297738595, -8567.468353208107, -6948.978537199323, -6625.638201908851, -4975.9677023849135, -8307.383454726154, -8382.507667840442, -12439.863376601146, 0.004, 0.234, 0.9500000000000001, 192.0, 0.0, 0.0, 0.0, 0.0, 0.0, 0.0, 0.0, 0.0, 0.0, 1.644588073828559E9, 0.0, 2022-02-12 01:01:13.828
34.0, -7502.0053985125305, -6919.764807196237, -5071.208485508977, -10067.94095849287, -7385.709272111568, -4574.5303719675985, -7390.93958031411, -5389.050291663443, -5743.995993613719, -8551.576262900384, -6958.90271173748, -6627.3369344874545, -4970.871504649103, -8304.924762836072, -8373.65637703614, -12390.488373099372, 0.004, 0.234, 0.9500000000000001, 192.0, 0.0, 0.0, 0.0, 0.0, 0.0, 0.0, 0.0, 0.0, 0.0, 1.644588073836527E9, 0.0, 2022-02-12 01:01:13.836
36.0, -7478.6478255567345, -6912.344028037075, -5058.33388070272, -10068.678566059896, -7385.865734322755, -4562.035746817082, -7369.504257381471, -5357.690794192647, -5738.922147622365, -8542.568509884895, -6939.479045805818, -6605.8569080659045, -4954.398268985542, -8289.814983584283, -8355.193836116057, -12404.949951761957, 0.006, 0.234, 0.9490000000000001, 192.0, 0.0, 32.0, 3.5, 40.0, 14.5, 80.0, 0.0, 0.0, 0.0, 1.644588073843588E9, 0.0, 2022-02-12 01:01:13.843
38.0, -7492.751776308033, -6886.036024813178, -5052.544778888796, -10052.294737374155, -7364.296300923384, -4548.244720488157, -7371.784135315912, -5350.359422011307, -5733.825949886555, -8538.411085416208, -6922.335257808597, -6597.966742273181, -4942.976527568881, -8280.270788701868, -8339.257042319423, -12384.632216052081, 0.006, 0.234, 0.9490000000000001, 192.0, 0.0, 0.0, 0.0, 0.0, 0.0, 0.0, 0.0, 0.0, 0.0, 1.644588073850728E9, 0.0, 2022-02-12 01:01:13.850
40.0, -7474.177476665674, -6882.772670122704, -5039.938395016003, -10040.738885490762, -7351.9134344951435, -4534.23017671468, -7353.232187418007, -5334.959070081601, -5718.425597956848, -8513.06420720389, -6909.505356491251, -6580.01829147557, -4926.525643649775, -8272.537085120332, -8332.395056771644, -12349.763494701803, 0.006, 0.234, 0.9490000000000001, 192.0, 0.0, 0.0, 0.0, 0.0, 0.0, 0.0, 0.0, 0.0, 0.0, 1.644588073858404E9, 0.0, 2022-02-12 01:01:13.858
42.0, -7456.385488079249, -6867.059393770623, -5043.313508428754, -10040.917699446405, -7352.338117639794, -4530.743304579652, -7348.538321082392, -5335.517863692983, -5728.841510873021, -8528.509262622507, -6893.3003417611535, -6582.007596732092, -4918.657829601506, -8261.048288470303, -8321.286239777355, -12377.993747948856, 0.006, 0.234, 0.9490000000000001, 192.0, 0.0, 0.0, 0.0, 0.0, 0.0, 0.0, 0.0, 0.0, 0.0, 1.644588073866209E9, 0.0, 2022-02-12 01:01:13.866
44.0, -7433.7431709460225, -6858.565730877606, -5037.189130448, -10021.739902703752, -7333.45089357506, -4513.532461349066, -7343.956213469054, -5324.654915887704, -5705.998028039698, -8493.953465694603, -6903.112757577033, -6580.420622875765, -4904.665637572484, -8263.082297215737, -8311.719693150484, -12327.255288035309, 0.006, 0.234, 0.9490000000000001, 192.0, 0.0, 0.0, 0.0, 0.0, 0.0, 0.0, 0.0, 0.0, 0.0, 1.644588073874313E9, 0.0, 2022-02-12 01:01:13.874
46.0, -7426.076522597853, -6843.947690003835, -5018.793644761282, -10021.628143981474, -7328.68997200608, -4502.311885632502, -7321.7385794804795, -5316.608287883793, -5706.5344699066245, -8478.307244575888, -6878.659949142927, -6547.34004108191, -4895.926105490459, -8239.590613793209, -8297.146355765624, -12339.973430630378, 0.007, 0.23500000000000001, 0.9505000000000001, 192.0, 0.0, 32.0, 3.5, 48.0, 14.5, 96.0, 0.0, 0.0, 0.0, 1.644588073880915E9, 0.0, 2022-02-12 01:01:13.880
48.0, -7435.151330846707, -6819.2266606362655, -5016.580822060207, -10004.953742617816, -7317.8270242008, -4490.733682004653, -7326.387742327183, -5309.7910058249245, -5700.879478559432, -8496.34510235132, -6856.397611665441, -6543.607299757874, -4893.869745000571, -8223.564413018754, -8289.2561899729, -12328.216413046886, 0.007, 0.23500000000000001, 0.9505000000000001, 192.0, 0.0, 0.0, 0.0, 0.0, 0.0, 0.0, 0.0, 0.0, 0.0, 1.644588073888947E9, 0.0, 2022-02-12 01:01:13.888
50.0, -7415.414740492671, -6824.434617094353, -5003.639162020584, -9985.708890641796, -7303.097224604753, -4476.137992875337, -7296.011721612421, -5299.129223719743, -5687.60254235298, -8478.664872487172, -6848.507445872718, -6521.8590524028605, -4875.138983147023, -8216.322447815233, -8283.914123048082, -12291.537200395727, 0.007, 0.23500000000000001, 0.9505000000000001, 192.0, 0.0, 0.0, 0.0, 0.0, 0.0, 0.0, 0.0, 0.0, 0.0, 1.644588073896787E9, 0.0, 2022-02-12 01:01:13.896
52.0, -7393.577086159836, -6809.570707031573, -5002.096891653167, -9983.45136445181, -7295.698797190046, -4466.012652637083, -7294.9164861341105, -5293.720101561559, -5699.381911680926, -8497.887372718737, -6831.453064853319, -6509.923220863727, -4862.912578929971, -8205.414796521043, -8270.123096719159, -12318.783976886747, 0.007, 0.23500000000000001, 0.9505000000000001, 192.0, 0.0, 0.0, 0.0, 0.0, 0.0, 0.0, 0.0, 0.0, 0.0, 1.644588073910548E9, 0.0, 2022-02-12 01:01:13.910
54.0, -7373.236998705506, -6777.1383258269225, -4990.205763602944, -9966.017003776671, -7272.944721334544, -4452.109867585882, -7295.698797190046, -5286.411081124674, -5668.782373521612, -8462.52691299044, -6826.848605495526, -6505.363464994844, -4851.334375302122, -8196.407043505555, -8258.611948324675, -12270.23598792982, 0.007, 0.23500000000000001, 0.9505000000000001, 192.0, 0.0, 0.0, 0.0, 0.0, 0.0, 0.0, 0.0, 0.0, 0.0, 1.644588073918513E9, 0.0, 2022-02-12 01:01:13.918
56.0, -7364.922149768133, -6757.8264186175375, -4977.644083219062, -9970.576759645553, -7263.8028578523235, -4440.9339953582285, -7268.317910232296, -5271.748336761992, -5676.046690469586, -8451.641613440706, -6815.918602456881, -6509.610296441352, -4824.579337189119, -8185.186467788991, -8247.994869708404, -12289.659653861483, 0.006500000000000001, 0.23550000000000001, 0.9492500000000001, 192.0, 0.0, 24.0, 3.5, 48.0, 14.5, 80.0, 0.0, 0.0, 0.0, 1.64458807392641E9, 0.0, 2022-02-12 01:01:13.926
58.0, -7367.157324213663, -6759.592206429506, -4972.07849884969, -9951.220148947257, -7254.728049603468, -4436.284832511525, -7278.532657448371, -5271.189543150609, -5664.982576964209, -8457.140142576713, -6797.590172003529, -6488.756118864551, -4830.144921558491, -8178.57035143022, -8235.142616646603, -12278.170857211455, 0.006500000000000001, 0.23550000000000001, 0.9492500000000001, 192.0, 0.0, 0.0, 0.0, 0.0, 0.0, 0.0, 0.0, 0.0, 0.0, 1.644588073933135E9, 0.0, 2022-02-12 01:01:13.933
60.0, -7332.914451708133, -6742.202549243278, -4963.137801067567, -9939.172558685847, -7241.786389563846, -4426.427713206735, -7265.523942175382, -5270.831915239324, -5646.698849999768, -8425.825348594826, -6790.191744588822, -6464.996214508559, -4816.3091917406555, -8169.987281559383, -8229.599384021687, -12243.078618416623, 0.006500000000000001, 0.23550000000000001, 0.9492500000000001, 192.0, 0.0, 0.0, 0.0, 0.0, 0.0, 0.0, 0.0, 0.0, 0.0, 1.644588073941047E9, 0.0, 2022-02-12 01:01:13.941
62.0, -7350.371164127728, -6744.661241133362, -4968.993958114857, -9945.833378533529, -7251.308232701806, -4421.465625937656, -7261.075945028776, -5250.223606851531, -5658.925254216821, -8433.402589965175, -6791.085814367034, -6465.219731953112, -4818.633773164007, -8151.5023888948435, -8222.96091591846, -12274.415764142963, 0.006500000000000001, 0.23550000000000001, 0.9492500000000001, 192.0, 0.0, 0.0, 0.0, 0.0, 0.0, 0.0, 0.0, 0.0, 0.0, 1.644588073949257E9, 0.0, 2022-02-12 01:01:13.949
64.0, -7360.094172965786, -6742.850749832482, -4968.233998803377, -9926.856747490972, -7226.006057978399, -4406.646419363788, -7241.071133741276, -5237.661926467648, -5650.342184345983, -8435.123674288234, -6779.664072950372, -6469.913598288727, -4809.603668404063, -8158.364374442623, -8209.348703545178, -12220.928039661412, 0.006500000000000001, 0.23550000000000001, 0.9492500000000001, 192.0, 0.0, 0.0, 0.0, 0.0, 0.0, 0.0, 0.0, 0.0, 0.0, 1.644588073956144E9, 0.0, 2022-02-12 01:01:13.956
66.0, -7332.7803412414005, -6717.928554764814, -4956.3652224976095, -9927.460244591266, -7218.7864445193345, -4392.944800012684, -7222.697999799014, -5230.062333352845, -5658.701736772267, -8432.508520186964, -6764.777811143138, -6442.309193886423, -4794.80681357465, -8143.2322434463795, -8195.960008616448, -12235.009638668256, 0.00425, 0.23675000000000002, 0.9496250000000002, 192.0, 0.0, 8.0, 3.5, 56.0, 14.5, 88.0, 0.0, 0.0, 0.0, 1.644588073962808E9, 0.0, 2022-02-12 01:01:13.962
68.0, -7326.186576627086, -6693.2298771417, -4956.812257386716, -9912.618686272943, -7205.934191457533, -4377.790317271986, -7225.402560878106, -5212.449158722063, -5649.001079678665, -8431.457988197564, -6757.491142450708, -6444.142036931758, -4782.781575057695, -8131.296411907246, -8187.220476534424, -12219.810452438647, 0.00425, 0.23675000000000002, 0.9496250000000002, 192.0, 0.0, 0.0, 0.0, 0.0, 0.0, 0.0, 0.0, 0.0, 0.0, 1.644588073970725E9, 0.0, 2022-02-12 01:01:13.970
70.0, -7313.043750887365, -6700.874173745415, -4947.960966582414, -9901.19694485628, -7195.51827854136, -4369.363709612335, -7214.874889239656, -5213.164414544633, -5636.148826616863, -8397.081005225302, -6754.42895346033, -6436.251871139035, -4771.918627252416, -8121.46164434691, -8177.028081062804, -12184.31588224362, 0.00425, 0.23675000000000002, 0.9496250000000002, 192.0, 0.0, 0.0, 0.0, 0.0, 0.0, 0.0, 0.0, 0.0, 0.0, 1.644588073979026E9, 0.0, 2022-02-12 01:01:13.979
72.0, -7293.262457044418, -6703.779900524605, -4946.128123537079, -9906.784880970106, -7192.903124440089, -4363.373442098313, -7204.526031556849, -5207.129443541699, -5646.967070933231, -8414.582421133808, -6744.974165555735, -6425.098350655837, -4774.891409264971, -8114.84552798814, -8169.47319143691, -12220.235135583298, 0.00425, 0.23675000000000002, 0.9496250000000002, 192.0, 0.0, 0.0, 0.0, 0.0, 0.0, 0.0, 0.0, 0.0, 0.0, 1.644588073985839E9, 0.0, 2022-02-12 01:01:13.985
74.0, -7271.983596322965, -6676.84604845596, -4939.802579856227, -9886.936531893794, -7173.591217230704, -4347.838979701874, -7197.28406635333, -5189.382158444186, -5625.73291370069, -8400.098490726768, -6748.036354546113, -6415.0847691398585, -4764.788420771172, -8105.547202294732, -8152.597624373153, -12166.859169824025, 0.00425, 0.23675000000000002, 0.9496250000000002, 192.0, 0.0, 0.0, 0.0, 0.0, 0.0, 0.0, 0.0, 0.0, 0.0, 1.644588073994269E9, 0.0, 2022-02-12 01:01:13.994
76.0, -7295.3858727676725, -6670.31933907501, -4930.571309396185, -9889.305816806056, -7179.290912066807, -4345.514398278523, -7196.0100169193765, -5181.69315835156, -5620.524957242604, -8384.273455652412, -6723.069455989535, -6394.07412935187, -4748.672813018896, -8099.2663621027905, -8147.56848187071, -12182.147763031455, 0.00425, 0.23675000000000002, 0.9496250000000002, 192.0, 0.0, 0.0, 3.5, 80.0, 14.5, 80.0, 0.0, 0.0, 0.0, 1.64458807400066E9, 0.0, 2022-02-12 01:01:14.000
78.0, -7285.998140096443, -6662.585635493474, -4943.535321180263, -9879.538104479088, -7168.852647406179, -4337.557177252434, -7191.360854072673, -5180.530867639884, -5627.364591045927, -8397.617447092229, -6716.095711719479, -6406.345237057833, -4750.639766530963, -8095.533620778754, -8145.959156269927, -12181.164286275422, 0.00425, 0.23675000000000002, 0.9496250000000002, 192.0, 0.0, 0.0, 0.0, 0.0, 0.0, 0.0, 0.0, 0.0, 0.0, 1.644588074008965E9, 0.0, 2022-02-12 01:01:14.008
80.0, -7272.430631212072, -6653.488475500164, -4922.792902325738, -9865.098877560958, -7148.825484374223, -4319.452264243635, -7174.261769564363, -5172.148963469143, -5615.048779851053, -8361.60878677473, -6718.04031348709, -6404.691207968141, -4735.395876812444, -8087.2858270747465, -8137.890176521561, -12146.541434114151, 0.00425, 0.23675000000000002, 0.9496250000000002, 192.0, 0.0, 0.0, 0.0, 0.0, 0.0, 0.0, 0.0, 0.0, 0.0, 1.644588074016676E9, 0.0, 2022-02-12 01:01:14.016
82.0, -7252.582282135759, -6643.921928873293, -4917.78611156775, -9865.322395005513, -7147.104400051165, -4309.863365872307, -7160.403688002073, -5159.363765640708, -5619.183852575285, -8366.70498451054, -6701.589429567985, -6366.670890649663, -4729.897347676439, -8072.868951901073, -8125.104978693125, -12172.983547804779, 0.00425, 0.23675000000000002, 0.9496250000000002, 192.0, 0.0, 0.0, 0.0, 0.0, 0.0, 0.0, 0.0, 0.0, 0.0, 1.644588074024036E9, 0.0, 2022-02-12 01:01:14.024
84.0, -7242.81456980879, -6630.957917089215, -4914.813329555193, -9854.168874522315, -7125.780835840802, -4297.256981999514, -7159.286100779307, -5149.037259702356, -5594.1275470408855, -8367.688461266573, -6691.642903285373, -6372.281178507946, -4710.630143955964, -8053.02060282476, -8116.030170444271, -12121.865108235492, 0.00425, 0.23675000000000002, 0.9496250000000002, 192.0, 0.0, 0.0, 0.0, 0.0, 0.0, 0.0, 0.0, 0.0, 0.0, 1.644588074038569E9, 0.0, 2022-02-12 01:01:14.038
86.0, -7239.372401162673, -6618.373884960876, -4904.509175361297, -9853.744191377664, -7125.3338009516965, -4293.099557530828, -7147.46202796245, -5139.87304447568, -5606.3315995134835, -8363.888664709171, -6677.1142693894235, -6355.427963188644, -4713.580574224064, -8054.4511144699, -8112.476243075877, -12143.143968956945, 0.004125, 0.235375, 0.9458125000000002, 192.0, 0.0, 16.0, 3.5, 40.0, 14.5, 56.0, 0.0, 0.0, 0.0, 1.644588074046423E9, 0.0, 2022-02-12 01:01:14.046
88.0, -7228.196528935019, -6620.094969283935, -4904.665637572484, -9838.455598170232, -7111.900402534056, -4284.784708593454, -7144.019859316333, -5139.358954353208, -5611.964239116221, -8355.08207739378, -6667.905350673837, -6355.584425399831, -4703.4328822413545, -8051.16540803497, -8099.065196402693, -12130.78345427316, 0.004125, 0.235375, 0.9458125000000002, 192.0, 0.0, 0.0, 0.0, 0.0, 0.0, 0.0, 0.0, 0.0, 0.0, 1.644588074053723E9, 0.0, 2022-02-12 01:01:14.053
90.0, -7198.446357065005, -6599.643123107329, -4902.117538704579, -9829.201975965736, -7099.003445983344, -4269.429060152657, -7133.559242911249, -5125.903204191113, -5584.538648669559, -8338.541786496853, -6662.831504682482, -6339.915852536661, -4689.843021612528, -8041.800027108196, -8095.041882400737, -12095.91473292288, 0.004125, 0.235375, 0.9458125000000002, 192.0, 0.0, 0.0, 0.0, 0.0, 0.0, 0.0, 0.0, 0.0, 0.0, 1.644588074060955E9, 0.0, 2022-02-12 01:01:14.060
92.0, -7208.795214747813, -6583.706329310695, -4890.025244954258, -9834.968726035206, -7098.534059349783, -4267.395051407225, -7124.17151024002, -5118.772997709871, -5598.888468609866, -8349.98587965797, -6656.058926112524, -6337.0101257574715, -4684.389195965433, -8028.836015324118, -8080.356786293601, -12127.698913538326, 0.004125, 0.235375, 0.9458125000000002, 192.0, 0.0, 0.0, 0.0, 0.0, 0.0, 0.0, 0.0, 0.0, 0.0, 1.644588074069158E9, 0.0, 2022-02-12 01:01:14.069
94.0, -7213.645543294614, -6587.439070634731, -4890.159355420989, -9819.367208405401, -7082.396099853051, -4260.220141437071, -7116.057827002744, -5116.984858153446, -5586.818526604, -8325.086036334758, -6650.448638254242, -6327.041247730404, -4677.415451695377, -8025.505605400277, -8074.165353079481, -12082.727203694249, 0.004125, 0.235375, 0.9458125000000002, 192.0, 0.0, 0.0, 0.0, 0.0, 0.0, 0.0, 0.0, 0.0, 0.0, 1.644588074076966E9, 0.0, 2022-02-12 01:01:14.076
96.0, -7203.5202030563605, -6585.673282822762, -4882.045672183714, -9824.843385796952, -7089.21338191192, -4259.281368169948, -7110.983981011389, -5109.273506316365, -5600.609552932925, -8338.474731263486, -6640.211539293711, -6325.141349451703, -4673.570951649064, -8028.277221712736, -8071.349033278112, -12099.133384124445, 0.0070625, 0.2366875, 0.9429062500000001, 192.0, 0.0, 40.0, 3.5, 56.0, 14.5, 48.0, 0.0, 0.0, 0.0, 1.644588074083585E9, 0.0, 2022-02-12 01:01:14.083
98.0, -7191.7855372173235, -6560.415811588266, -4885.890172230026, -9814.94156300325, -7079.602131796138, -4246.071487196861, -7106.513632120327, -5108.960581893991, -5599.559020943525, -8331.232766059968, -6633.438960723754, -6329.052904731382, -4668.87708531345, -8020.409407664467, -8060.754306406297, -12094.461869533287, 0.0070625, 0.2366875, 0.9429062500000001, 192.0, 0.0, 0.0, 0.0, 0.0, 0.0, 0.0, 0.0, 0.0, 0.0, 1.644588074090621E9, 0.0, 2022-02-12 01:01:14.090
100.0, -7189.304493582785, -6569.960006470681, -4873.4849540573305, -9794.601475548921, -7063.039489154755, -4226.379600331736, -7088.833402256179, -5088.419328739564, -5581.767032357101, -8309.395111727132, -6633.349553745932, -6325.409570385167, -4661.009271265182, -8002.416253377945, -8056.865102871073, -12056.598014425996, 0.0070625, 0.2366875, 0.9429062500000001, 192.0, 0.0, 0.0, 0.0, 0.0, 0.0, 0.0, 0.0, 0.0, 0.0, 1.644588074098631E9, 0.0, 2022-02-12 01:01:14.098
102.0, -7185.102365625187, -6564.01444244557, -4867.986424921325, -9798.490679084145, -7058.189160607953, -4222.512748540968, -7081.479678330384, -5086.0276920828455, -5588.852535349433, -8327.634135202663, -6620.7655216175945, -6302.901363718673, -4652.046221738604, -7988.669930537932, -8046.2033207658915, -12086.079965362545, 0.0070625, 0.2366875, 0.9429062500000001, 192.0, 0.0, 0.0, 0.0, 0.0, 0.0, 0.0, 0.0, 0.0, 0.0, 1.644588074105774E9, 0.0, 2022-02-12 01:01:14.105
104.0, -7163.890560137101, -6534.174863597735, -4865.4383260534205, -9783.626769021364, -7033.021096351278, -4205.436015777113, -7067.711003745914, -5064.48061042793, -5560.398764657827, -8302.220201756978, -6615.8928413263375, -6302.700198018575, -4633.4048668628775, -7986.457107836856, -8031.473521169844, -12039.498929917685, 0.0070625, 0.2366875, 0.9429062500000001, 192.0, 0.0, 0.0, 0.0, 0.0, 0.0, 0.0, 0.0, 0.0, 0.0, 1.644588074113342E9, 0.0, 2022-02-12 01:01:14.113
106.0, -7145.025687816821, -6534.420732786743, -4846.7746194332385, -9787.292455112036, -7038.29610804273, -4199.333989540814, -7058.233864096865, -5056.702203357483, -5568.110116494909, -8292.765413852383, -6609.343780200932, -6295.637046770697, -4624.933555714316, -7983.774898502219, -8023.20337572138, -12055.703944647783, 0.006, 0.23800000000000002, 0.9420000000000001, 192.0, 0.0, 24.0, 3.5, 56.0, 14.5, 56.0, 0.0, 0.0, 0.0, 1.644588074122576E9, 0.0, 2022-02-12 01:01:14.122
108.0, -7152.111190809154, -6529.883328662316, -4849.345070045599, -9778.21764686318, -7027.34375325963, -4193.120204582239, -7061.988957165356, -5057.730383602427, -5557.090706478442, -8295.157050509102, -6592.289399181534, -6277.57683725081, -4617.132796899414, -7967.502828538755, -8014.106215728071, -12049.467807944753, 0.006, 0.23800000000000002, 0.9420000000000001, 192.0, 0.0, 0.0, 0.0, 0.0, 0.0, 0.0, 0.0, 0.0, 0.0, 1.64458807412924E9, 0.0, 2022-02-12 01:01:14.129
110.0, -7128.060713775243, -6507.308066762455, -4842.527787986731, -9766.415925790778, -7016.145529287521, -4181.787870143398, -7048.4438000254395, -5048.85674105367, -5550.251072675118, -8279.890809046126, -6595.798623061017, -6279.543790762877, -4611.366046829945, -7965.357061071046, -8012.519241871744, -12018.912973274348, 0.006, 0.23800000000000002, 0.9420000000000001, 192.0, 0.0, 0.0, 0.0, 0.0, 0.0, 0.0, 0.0, 0.0, 0.0, 1.644588074135863E9, 0.0, 2022-02-12 01:01:14.135
112.0, -7132.642821388581, -6502.256572515556, -4844.226520565334, -9763.30903331149, -7013.910354841991, -4173.405965972658, -7040.084247599155, -5045.973366018935, -5564.846761804433, -8286.909256805093, -6586.92498051226, -6271.0948313587705, -4607.476843294721, -7948.593252729565, -8001.946866744383, -12048.216110255255, 0.006, 0.23800000000000002, 0.9420000000000001, 192.0, 0.0, 0.0, 0.0, 0.0, 0.0, 0.0, 0.0, 0.0, 0.0, 1.644588074143924E9, 0.0, 2022-02-12 01:01:14.143
114.0, -7145.673888406025, -6498.926162591715, -4846.729915944328, -9737.291602765514, -6994.777261588248, -4159.503180921457, -7029.780093405258, -5033.992830990891, -5543.746715038624, -8246.407895852077, -6578.096041452413, -6257.259101540935, -4605.845165949484, -7944.502883494245, -7995.9565992303615, -11996.13654567439, 0.006, 0.23800000000000002, 0.9420000000000001, 192.0, 0.0, 0.0, 0.0, 0.0, 0.0, 0.0, 0.0, 0.0, 0.0, 1.644588074160663E9, 0.0, 2022-02-12 01:01:14.160
116.0, -7116.460158402939, -6492.868839844327, -4836.67163093944, -9746.433466247734, -6995.067834266167, -4152.283567462393, -7018.872442111068, -5021.162929673545, -5548.23941567414, -8253.001660466392, -6573.312768138978, -6235.175578019092, -4588.567267485531, -7936.2550897902365, -7985.585389803099, -12010.553420848062, 0.004, 0.24, 0.9500000000000001, 192.0, 0.0, 16.0, 3.5, 64.0, 14.5, 88.0, 0.0, 0.0, 0.0, 1.644588074166777E9, 0.0, 2022-02-12 01:01:14.166
118.0, -7116.862489803135, -6485.090432773881, -4830.52490121423, -9745.472341236156, -6991.290389453219, -4146.6285761152, -7028.349581760119, -5026.773217531827, -5534.113113178386, -8271.419497897567, -6551.6762795062405, -6242.551653689344, -4580.4535842482555, -7925.258031518225, -7979.52806705571, -12011.84982202647, 0.004, 0.24, 0.9500000000000001, 192.0, 0.0, 0.0, 0.0, 0.0, 0.0, 0.0, 0.0, 0.0, 0.0, 1.644588074173596E9, 0.0, 2022-02-12 01:01:14.173
120.0, -7104.189050696976, -6464.929159275193, -4820.2430987647895, -9735.16818704226, -6982.059118993177, -4138.91722427812, -7018.96184908889, -5026.482644853908, -5525.0383049295315, -8246.63141329663, -6555.297262108, -6248.653679925643, -4576.832601646495, -7921.368827983002, -7976.443526320878, -11980.892655955871, 0.004, 0.24, 0.9500000000000001, 192.0, 0.0, 0.0, 0.0, 0.0, 0.0, 0.0, 0.0, 0.0, 0.0, 1.644588074181496E9, 0.0, 2022-02-12 01:01:14.181
122.0, -7105.4407483864725, -6486.833868841394, -4827.328601757122, -9739.616184188866, -6987.557648129184, -4138.336078922282, -7014.96088683139, -5011.730493513405, -5543.523197594071, -8265.406878639089, -6549.44110506071, -6232.85099659574, -4579.581866214498, -7919.245412259747, -7973.1801716304035, -12015.001417994668, 0.004, 0.24, 0.9500000000000001, 192.0, 0.0, 0.0, 0.0, 0.0, 0.0, 0.0, 0.0, 0.0, 0.0, 1.644588074188928E9, 0.0, 2022-02-12 01:01:14.188
124.0, -7100.523364606305, -6459.94472026166, -4826.322773256633, -9722.740617125108, -6966.211732174365, -4122.1981194255495, -7005.260229737786, -5006.008446932847, -5525.61945028537, -8249.626547053642, -6552.816218473461, -6241.277604255391, -4572.116383566426, -7916.920830836396, -7969.715651239831, -11971.326109328998, 0.004, 0.24, 0.9500000000000001, 192.0, 0.0, 0.0, 0.0, 0.0, 0.0, 0.0, 0.0, 0.0, 0.0, 1.644588074196168E9, 0.0, 2022-02-12 01:01:14.196
126.0, -7082.999596953345, -6459.22946443909, -4812.487043438798, -9727.143910782805, -6960.869665249546, -4117.392494367658, -6994.95607554389, -5001.269877108321, -5525.418284585272, -8234.002677679382, -6534.487788020109, -6227.71009537102, -4552.782124612585, -7909.678865632876, -7962.518389525222, -11983.843086223971, 0.004, 0.24, 0.9500000000000001, 192.0, 0.0, 0.0, 3.5, 56.0, 14.5, 72.0, 0.0, 0.0, 0.0, 1.644588074204258E9, 0.0, 2022-02-12 01:01:14.204
128.0, -7085.637102799071, -6450.579339334887, -4812.442339949887, -9715.677465877232, -6953.270072134742, -4109.368218108203, -6994.95607554389, -4999.772310229816, -5523.51838630657, -8245.446770840499, -6528.676334461729, -6223.798540091341, -4556.827790358995, -7902.459252173812, -7954.3376510545795, -11985.541818802574, 0.004, 0.24, 0.9500000000000001, 192.0, 0.0, 0.0, 0.0, 0.0, 0.0, 0.0, 0.0, 0.0, 0.0, 1.644588074211188E9, 0.0, 2022-02-12 01:01:14.211
130.0, -7062.547750776738, -6430.149844902736, -4799.701845610362, -9704.546297138488, -6940.574281284128, -4095.1301568901727, -6976.158258456977, -4980.79567918726, -5503.714740719169, -8205.347741287678, -6528.4304652727205, -6208.889926539651, -4542.433266929778, -7894.770252081186, -7946.849816662052, -11951.477760252686, 0.004, 0.24, 0.9500000000000001, 192.0, 0.0, 0.0, 0.0, 0.0, 0.0, 0.0, 0.0, 0.0, 0.0, 1.644588074217771E9, 0.0, 2022-02-12 01:01:14.217
132.0, -7045.113390101599, -6418.258716852512, -4796.125566497513, -9711.810614086464, -6947.257452876264, -4091.419767310592, -6978.907523024979, -4976.213571573922, -5517.304601347995, -8226.179567120023, -6516.00289535557, -6200.351560157724, -4540.153388995336, -7882.566199608589, -7937.395028757457, -11986.838219980982, 0.004, 0.24, 0.9500000000000001, 192.0, 0.0, 0.0, 0.0, 0.0, 0.0, 0.0, 0.0, 0.0, 0.0, 1.644588074225728E9, 0.0, 2022-02-12 01:01:14.225
134.0, -7066.369899078596, -6423.869004710795, -4793.778633329705, -9694.890343533796, -6924.481025276306, -4079.2157148379943, -6971.531447354728, -4970.893856393559, -5501.345455806906, -8198.99984586237, -6516.3381715223995, -6206.252420693925, -4533.939604036761, -7887.3047694331135, -7932.410589743923, -11944.593422960452, 0.004, 0.24, 0.9500000000000001, 192.0, 0.0, 0.0, 0.0, 0.0, 0.0, 0.0, 0.0, 0.0, 0.0, 1.644588074233909E9, 0.0, 2022-02-12 01:01:14.233
136.0, -7065.431125811473, -6427.8252634793835, -4789.040063505181, -9695.270323189536, -6921.463539774841, -4071.414956023092, -6961.674328049938, -4963.853056890137, -5511.1802233672415, -8198.798680162274, -6502.703607404663, -6186.091147195238, -4524.663630087809, -7875.9724349942735, -7925.548604196144, -11955.74694344365, 0.004, 0.23800000000000002, 0.9480000000000001, 192.0, 0.0, 16.0, 3.5, 56.0, 14.5, 80.0, 0.0, 0.0, 0.0, 1.644588074240807E9, 0.0, 2022-02-12 01:01:14.240
138.0, -7058.993823408345, -6410.748530715529, -4789.643560605474, -9686.307273662958, -6916.0767693611115, -4069.202133322017, -6963.887150751013, -4968.010481358824, -5511.426092556249, -8226.939526431504, -6501.295447503978, -6184.951208228017, -4519.99211549665, -7865.869446500475, -7922.307601250125, -11956.104571354936, 0.004, 0.23800000000000002, 0.9480000000000001, 192.0, 0.0, 0.0, 0.0, 0.0, 0.0, 0.0, 0.0, 0.0, 0.0, 1.644588074248514E9, 0.0, 2022-02-12 01:01:14.248
140.0, -7026.494386970328, -6378.517315210976, -4779.048833733658, -9677.478334603113, -6904.096234333067, -4054.584092448246, -6954.611176802061, -4959.919149866003, -5489.61078996787, -8184.00182533286, -6491.304217732456, -6181.151411670615, -4519.746246307641, -7861.51085633169, -7917.166700025404, -11922.509899438608, 0.004, 0.23800000000000002, 0.9480000000000001, 192.0, 0.0, 0.0, 0.0, 0.0, 0.0, 0.0, 0.0, 0.0, 0.0, 1.644588074256352E9, 0.0, 2022-02-12 01:01:14.256
142.0, -7032.730523673359, -6385.714576925586, -4776.076051721103, -9683.15567769476, -6906.577277967606, -4047.766810389377, -6956.153447169477, -4944.429390958476, -5489.61078996787, -8179.375014230611, -6480.597732138363, -6172.277769121858, -4516.259374172613, -7850.469094570768, -7910.148252266437, -11957.356269044432, 0.004, 0.23800000000000002, 0.9480000000000001, 192.0, 0.0, 0.0, 0.0, 0.0, 0.0, 0.0, 0.0, 0.0, 0.0, 1.644588074264536E9, 0.0, 2022-02-12 01:01:14.264
144.0, -7041.067724355188, -6391.906010139705, -4772.052737719147, -9658.993441938574, -6892.3615684940305, -4035.4957026834136, -6947.860949976558, -4931.957117552414, -5480.267760785551, -8170.031985048293, -6484.844563584872, -6159.716088737976, -4506.536365334555, -7853.307766116592, -7903.643894629943, -11910.21643998819, 0.004, 0.23800000000000002, 0.9480000000000001, 192.0, 0.0, 0.0, 0.0, 0.0, 0.0, 0.0, 0.0, 0.0, 0.0, 1.64458807427097E9, 0.0, 2022-02-12 01:01:14.270
146.0, -7032.954041117912, -6390.631960705753, -4768.923493495405, -9667.82238099842, -6885.521934690707, -4028.2984409688047, -6916.590859483584, -4924.156358737512, -5495.444595270705, -8184.627674177608, -6477.692005359174, -6151.825922945252, -4501.5072228321105, -7846.088152657528, -7896.1113567485045, -11924.78977737305, 0.008, 0.23600000000000002, 0.9480000000000001, 192.0, 0.0, 32.0, 3.5, 48.0, 14.5, 80.0, 0.0, 0.0, 0.0, 1.644588074285969E9, 0.0, 2022-02-12 01:01:14.285
148.0, -7014.871479853568, -6364.435716204133, -4764.810772515628, -9657.160598893237, -6873.563751407118, -4017.8825280526316, -6918.200185084365, -4919.596602868629, -5487.532077733526, -8184.4935637108765, -6474.875685557805, -6162.308891094791, -4493.751167506119, -7842.310707844581, -7883.8402490425415, -11924.365094228398, 0.008, 0.23600000000000002, 0.9480000000000001, 192.0, 0.0, 0.0, 0.0, 0.0, 0.0, 0.0, 0.0, 0.0, 0.0, 1.644588074294234E9, 0.0, 2022-02-12 01:01:14.294
150.0, -6994.24081972132, -6344.296794449901, -4756.22770264479, -9642.922537675207, -6866.366489692508, -4005.7902343023106, -6923.542252009184, -4921.384742425053, -5455.457324440161, -8139.164225955514, -6464.280958685989, -6147.288518820825, -4485.391615079834, -7828.184405348827, -7883.594379853533, -11886.411832143287, 0.008, 0.23600000000000002, 0.9480000000000001, 192.0, 0.0, 0.0, 0.0, 0.0, 0.0, 0.0, 0.0, 0.0, 0.0, 1.644588074300629E9, 0.0, 2022-02-12 01:01:14.300
152.0, -7032.752875417814, -6377.846762877317, -4760.072202691103, -9657.33941284888, -6870.792135094659, -4001.521051111347, -6911.069978603123, -4901.581096837652, -5473.673996171236, -8180.2690840088235, -6453.485066114076, -6134.771541925853, -4489.236115126147, -7817.544974988101, -7880.778060052164, -11922.800472116527, 0.008, 0.23600000000000002, 0.9480000000000001, 192.0, 0.0, 0.0, 0.0, 0.0, 0.0, 0.0, 0.0, 0.0, 0.0, 1.644588074308768E9, 0.0, 2022-02-12 01:01:14.308
154.0, -7016.145529287521, -6364.59217841532, -4756.182999155879, -9646.297651087958, -6850.407344151419, -3989.6969782944893, -6905.571449467117, -4899.457681114398, -5466.409679223261, -8170.94840657096, -6458.13422896078, -6145.5003792644, -4483.692882501231, -7816.539146487612, -7875.771269294175, -11881.427393129754, 0.008, 0.23600000000000002, 0.9480000000000001, 192.0, 0.0, 0.0, 0.0, 0.0, 0.0, 0.0, 0.0, 0.0, 0.0, 1.644588074316985E9, 0.0, 2022-02-12 01:01:14.316
156.0, -6990.083395252633, -6334.260861189468, -4736.088780890558, -9647.526997033001, -6849.580329606572, -3980.6668735345456, -6897.636580185483, -4900.642323570529, -5455.144400017786, -8150.675374349997, -6439.336411873867, -6136.671440204554, -4467.197295093214, -7808.537221972611, -7865.645929055921, -11895.3078264365, 0.006, 0.23800000000000002, 0.9460000000000001, 192.0, 0.0, 24.0, 3.5, 56.0, 14.5, 72.0, 0.0, 0.0, 0.0, 1.644588074323382E9, 0.0, 2022-02-12 01:01:14.323
158.0, -6982.126174226543, -6343.961518283072, -4746.951728695837, -9643.727200475598, -6850.563806362607, -3976.8000217437775, -6913.819243171125, -4894.272076400766, -5458.31834773044, -8161.024232032804, -6438.174121162191, -6135.68796344852, -4464.738603203131, -7801.541125958101, -7861.354394120503, -11897.632407859852, 0.006, 0.23800000000000002, 0.9460000000000001, 192.0, 0.0, 0.0, 0.0, 0.0, 0.0, 0.0, 0.0, 0.0, 0.0, 1.644588074331618E9, 0.0, 2022-02-12 01:01:14.331
160.0, -6981.053290492689, -6323.152044195181, -4741.900234448938, -9635.546462004955, -6841.891329513947, -3969.5357047958023, -6903.671551188416, -4887.2759803862555, -5447.589510391893, -8134.783284042273, -6448.970013734104, -6145.701544964498, -4463.755126447097, -7803.217506792249, -7859.74506851972, -11864.797695255005, 0.006, 0.23800000000000002, 0.9460000000000001, 192.0, 0.0, 0.0, 0.0, 0.0, 0.0, 0.0, 0.0, 0.0, 0.0, 1.644588074338487E9, 0.0, 2022-02-12 01:01:14.338
162.0, -6973.878380522536, -6309.137500421703, -4739.933280936871, -9631.76901719201, -6839.589099835051, -3966.004129171864, -6898.597705197061, -4887.5665530641745, -5455.74789711808, -8122.780397269774, -6437.481217084077, -6119.25943127387, -4461.050565368005, -7796.355521244469, -7856.45936208479, -11899.822878816472, 0.006, 0.23800000000000002, 0.9460000000000001, 192.0, 0.0, 0.0, 0.0, 0.0, 0.0, 0.0, 0.0, 0.0, 0.0, 1.644588074346808E9, 0.0, 2022-02-12 01:01:14.346
164.0, -6972.76079329977, -6308.712817277053, -4734.457103545321, -9615.362836761813, -6808.944858186825, -3954.4259255440147, -6878.928170076391, -4872.210904623378, -5429.574004360915, -8108.564687796198, -6425.299516355934, -6107.055378801272, -4449.673527440254, -7794.0309398211175, -7843.36123983398, -11855.052334672491, 0.006, 0.23800000000000002, 0.9460000000000001, 192.0, 0.0, 0.0, 0.0, 0.0, 0.0, 0.0, 0.0, 0.0, 0.0, 1.644588074353207E9, 0.0, 2022-02-12 01:01:14.353
166.0, -6965.004737973779, -6312.53496557891, -4726.164606352402, -9620.391979264257, -6816.142119901433, -3946.8263324292107, -6879.55401892114, -4866.131230131535, -5434.178463718708, -8134.269193919801, -6412.424911549677, -6102.003884554373, -4442.543320959011, -7770.91923605433, -7837.5274345311445, -11869.424506357254, 0.012, 0.234, 0.9480000000000001, 192.0, 0.0, 48.0, 3.5, 40.0, 14.5, 80.0, 0.0, 0.0, 0.0, 1.644588074360928E9, 0.0, 2022-02-12 01:01:14.360
168.0, -6968.2010374308875, -6309.361017866257, -4723.951783651327, -9615.541650717456, -6803.602791262007, -3936.3433642796713, -6878.83876309857, -4863.069041141158, -5435.206643963653, -8137.867824777106, -6405.3394085573445, -6099.724006619931, -4441.559844202977, -7763.587863872989, -7829.614916993966, -11870.475038346654, 0.012, 0.234, 0.9480000000000001, 192.0, 0.0, 0.0, 0.0, 0.0, 0.0, 0.0, 0.0, 0.0, 0.0, 1.644588074369137E9, 0.0, 2022-02-12 01:01:14.369
170.0, -6930.448941045874, -6272.055956370349, -4715.167548080391, -9601.795327877442, -6789.744709699716, -3919.199576282451, -6868.400498437942, -4849.38977353451, -5415.850033265357, -8097.344112079634, -6410.547365015432, -6089.822183826231, -4433.334402243424, -7757.977576014707, -7822.618820979455, -11831.426540783232, 0.012, 0.234, 0.9480000000000001, 192.0, 0.0, 0.0, 0.0, 0.0, 0.0, 0.0, 0.0, 0.0, 0.0, 1.644588074376033E9, 0.0, 2022-02-12 01:01:14.376
172.0, -6932.70646723586, -6266.780944678896, -4716.039266114148, -9609.32786575888, -6790.638779477928, -3922.1276548060964, -6864.980681536279, -4846.260529310766, -5424.969545003122, -8100.272190603279, -6398.812699176396, -6089.5986663816775, -4429.020515563549, -7750.400334644358, -7816.3379807875135, -11867.144628422813, 0.012, 0.234, 0.9480000000000001, 192.0, 0.0, 0.0, 0.0, 0.0, 0.0, 0.0, 0.0, 0.0, 0.0, 1.644588074383778E9, 0.0, 2022-02-12 01:01:14.383
174.0, -6952.6442232899935, -6276.571008750321, -4714.184071324357, -9589.166592260193, -6772.2656455356655, -3910.1247680335964, -6859.862132056014, -4840.516130985753, -5414.1513006867535, -8092.31496957719, -6402.724254456074, -6087.296436702781, -4420.25863173707, -7750.668555577822, -7812.851108652486, -11828.319648303945, 0.01, 0.234, 0.9460000000000001, 192.0, 0.0, 32.0, 3.5, 40.0, 14.5, 64.0, 0.0, 0.0, 0.0, 1.644588074392546E9, 0.0, 2022-02-12 01:01:14.392
176.0, -6939.210824872354, -6266.378613278701, -4703.879917130461, -9592.98874056205, -6780.826363662049, -3905.5650121647136, -6862.946672790847, -4845.00883162127, -5418.576946088904, -8092.560838766199, -6389.447318249621, -6070.912608017041, -4417.934050313717, -7745.05826771954, -7816.092111598506, -11844.949346178693, 0.01, 0.234, 0.9460000000000001, 192.0, 0.0, 0.0, 0.0, 0.0, 0.0, 0.0, 0.0, 0.0, 0.0, 1.644588074405756E9, 0.0, 2022-02-12 01:01:14.405
178.0, -6934.963993425846, -6255.873293384707, -4710.07135034458, -9587.512563170501, -6772.802087402593, -3903.10632027463, -6856.64348085445, -4835.1517123164795, -5418.353428644351, -8086.279998574258, -6381.9147803681835, -6069.415041138535, -4416.190614246204, -7739.805607772542, -7811.2864865406145, -11848.68208750273, 0.01, 0.234, 0.9460000000000001, 192.0, 0.0, 0.0, 0.0, 0.0, 0.0, 0.0, 0.0, 0.0, 0.0, 1.644588074413339E9, 0.0, 2022-02-12 01:01:14.413
180.0, -6930.828920701614, -6251.179427049092, -4706.360960765, -9588.428984693168, -6760.1957035298, -3890.075253257186, -6840.036134724157, -4820.980706331815, -5403.198945903653, -8070.298501288713, -6385.513411225487, -6070.689090572488, -4407.428730419723, -7739.872663005908, -7803.709245170266, -11811.175860306725, 0.01, 0.234, 0.9460000000000001, 192.0, 0.0, 0.0, 0.0, 0.0, 0.0, 0.0, 0.0, 0.0, 0.0, 1.644588074421219E9, 0.0, 2022-02-12 01:01:14.421
182.0, -6940.417819072941, -6250.307709015336, -4706.562126465097, -9599.09076679835, -6770.164581556867, -3887.773023578289, -6848.64155633945, -4820.399560975977, -5423.2484606800635, -8084.402452040012, -6381.8030216459065, -6069.660910327543, -4409.01570427605, -7730.14965416785, -7798.098957311983, -11846.066933401458, 0.01, 0.234, 0.9460000000000001, 192.0, 0.0, 0.0, 0.0, 0.0, 0.0, 0.0, 0.0, 0.0, 0.0, 1.644588074429357E9, 0.0, 2022-02-12 01:01:14.429
184.0, -6932.550005024673, -6254.7780579063965, -4705.578649709064, -9589.546571915935, -6757.28997675061, -3881.648645597535, -6854.475361642285, -4823.931136599915, -5414.352466386851, -8070.767887922274, -6388.955579871605, -6084.323654690225, -4405.662942607754, -7737.704543793744, -7797.696625911788, -11810.460604484155, 0.008, 0.23500000000000001, 0.9450000000000001, 192.0, 0.0, 24.0, 3.5, 48.0, 14.5, 64.0, 0.0, 0.0, 0.0, 1.644588074435824E9, 0.0, 2022-02-12 01:01:14.435
186.0, -6923.206975842354, -6256.208569551536, -4696.123861804469, -9594.799231862931, -6754.093677293501, -3877.8935525290435, -6843.567710348095, -4826.300421512177, -5411.424387863206, -8072.064289100682, -6381.646559434719, -6066.375203892613, -4393.414186646246, -7728.786197756076, -7793.606256676467, -11825.503328502577, 0.008, 0.23500000000000001, 0.9450000000000001, 192.0, 0.0, 0.0, 0.0, 0.0, 0.0, 0.0, 0.0, 0.0, 0.0, 1.644588074443967E9, 0.0, 2022-02-12 01:01:14.443
188.0, -6916.769673439226, -6236.941365831061, -4695.587419937542, -9592.653464395222, -6743.767171355149, -3868.662282069002, -6838.315050401098, -4815.437473706898, -5412.810196019434, -8078.009853125794, -6383.479402480055, -6063.402421880058, -4399.471509393634, -7728.8756047338975, -7784.374986216425, -11833.125273361835, 0.008, 0.23500000000000001, 0.9450000000000001, 192.0, 0.0, 0.0, 0.0, 0.0, 0.0, 0.0, 0.0, 0.0, 0.0, 1.644588074452122E9, 0.0, 2022-02-12 01:01:14.452
190.0, -6923.743417709282, -6227.464226182012, -4690.960608835293, -9585.545609658433, -6737.061648018557, -3861.397965121027, -6835.0740474550785, -4807.457900936353, -5391.486631809072, -8046.248024254803, -6382.07124257937, -6063.849456769163, -4396.409320403257, -7722.550061053045, -7784.911428083352, -11795.820211865928, 0.008, 0.23500000000000001, 0.9450000000000001, 192.0, 0.0, 0.0, 0.0, 0.0, 0.0, 0.0, 0.0, 0.0, 0.0, 1.644588074458119E9, 0.0, 2022-02-12 01:01:14.458
192.0, -6913.729836193304, -6228.4700546825, -4694.849812370517, -9589.94890331613, -6743.029563788124, -3866.7400320458455, -6837.197463178332, -4814.766921373239, -5412.9219547417115, -8087.308178819201, -6377.0421000769265, -6070.778497550309, -4398.06334949295, -7727.020409944107, -7786.54310542859, -11841.641287999308, 0.008, 0.23500000000000001, 0.9450000000000001, 192.0, 0.0, 0.0, 0.0, 0.0, 0.0, 0.0, 0.0, 0.0, 0.0, 1.644588074467009E9, 0.0, 2022-02-12 01:01:14.467
194.0, -6927.677324733416, -6237.433104209078, -4694.6262949259635, -9575.12969674226, -6720.767226310638, -3853.753668517312, -6823.764064760693, -4799.880659566004, -5390.659617264226, -8058.4073732384895, -6383.144126313225, -6058.417982866524, -4390.5084598670555, -7725.366380854414, -7777.781221602109, -11803.397453236277, 0.007, 0.23550000000000001, 0.9445000000000001, 192.0, 0.0, 24.0, 3.5, 48.0, 14.5, 64.0, 0.0, 0.0, 0.0, 1.644588074473543E9, 0.0, 2022-02-12 01:01:14.473
196.0, -6934.494606792285, -6236.4719791975, -4679.024777296159, -9578.527161899467, -6721.95186876677, -3848.791581248234, -6820.813634492592, -4793.264543207234, -5403.243649392563, -8056.194550537414, -6362.312300480879, -6044.850473982153, -4382.037148718494, -7713.899935948842, -7769.645186620377, -11818.2390115546, 0.007, 0.23550000000000001, 0.9445000000000001, 192.0, 0.0, 0.0, 0.0, 0.0, 0.0, 0.0, 0.0, 0.0, 0.0, 1.644588074481586E9, 0.0, 2022-02-12 01:01:14.481
198.0, -6929.152539867466, -6226.301935470336, -4685.506783188198, -9577.208408976605, -6717.548575109074, -3837.2133776203846, -6827.966192718291, -4790.09059549458, -5406.082320938387, -8064.151771563504, -6355.539721910921, -6042.280023369793, -4384.473488864122, -7705.450976544736, -7767.25354996366, -11820.3400755334, 0.007, 0.23550000000000001, 0.9445000000000001, 192.0, 0.0, 0.0, 0.0, 0.0, 0.0, 0.0, 0.0, 0.0, 0.0, 1.644588074488294E9, 0.0, 2022-02-12 01:01:14.488
200.0, -6910.801757669659, -6205.335999171258, -4673.63800688243, -9569.742926328532, -6704.428101113809, -3828.0491623937087, -6816.9914861907355, -4792.728101340306, -5386.949227684645, -8046.985631821827, -6353.371602698756, -6044.984584448885, -4373.34232012538, -7699.192488097249, -7764.72780284021, -11785.940740816683, 0.007, 0.23550000000000001, 0.9445000000000001, 192.0, 0.0, 0.0, 0.0, 0.0, 0.0, 0.0, 0.0, 0.0, 0.0, 1.644588074496532E9, 0.0, 2022-02-12 01:01:14.496
202.0, -6917.395522283974, -6215.75191208743, -4670.39700393641, -9575.867304309286, -6709.881926760903, -3830.776075217256, -6819.181957147355, -4793.890392051982, -5399.399149346251, -8054.227597025347, -6344.319146194357, -6038.569633790212, -4372.470602091623, -7690.832935670965, -7756.524712625112, -11827.135005847813, 0.007, 0.23550000000000001, 0.9445000000000001, 192.0, 0.0, 0.0, 0.0, 0.0, 0.0, 0.0, 0.0, 0.0, 0.0, 1.644588074504413E9, 0.0, 2022-02-12 01:01:14.504
204.0, -6915.383865282997, -6206.811214305308, -4667.804201579595, -9564.356155914802, -6688.603066039452, -3819.7343134563343, -6809.146023886922, -4772.365662141521, -5382.478878793583, -8040.056591040682, -6348.856550318784, -6048.29264262827, -4362.412317086735, -7693.2469240721375, -7752.635509089889, -11788.645301895775, 0.0095, 0.23375, 0.94425, 192.0, 0.0, 48.0, 3.5, 32.0, 14.5, 64.0, 0.0, 0.0, 0.0, 1.644588074511528E9, 0.0, 2022-02-12 01:01:14.511
206.0, -6901.369321509519, -6204.7101503265085, -4659.4670008977655, -9572.514542640989, -6689.653598028851, -3814.2804878092397, -6801.837003450037, -4772.008034230236, -5382.948265427144, -8032.702867114886, -6343.536835138421, -6030.075970897195, -4361.853523475352, -7686.831973413465, -7745.684116564288, -11802.548086946976, 0.0095, 0.23375, 0.94425, 192.0, 0.0, 0.0, 0.0, 0.0, 0.0, 0.0, 0.0, 0.0, 0.0, 1.64458807451903E9, 0.0, 2022-02-12 01:01:14.519
208.0, -6903.090405832578, -6197.199964189525, -4664.071460255559, -9568.51358038349, -6689.117156161923, -3817.9238221554547, -6815.382160589953, -4774.377319142499, -5390.369044586307, -8036.234442738824, -6341.189901970613, -6024.95742141693, -4362.635834531287, -7694.677435717277, -7743.739514796676, -11818.797805165983, 0.0095, 0.23375, 0.94425, 192.0, 0.0, 0.0, 0.0, 0.0, 0.0, 0.0, 0.0, 0.0, 0.0, 1.644588074533951E9, 0.0, 2022-02-12 01:01:14.533
210.0, -6895.423757484407, -6185.88998149514, -4649.386364148422, -9555.326051154858, -6671.816905953516, -3801.18236555843, -6798.707759226294, -4761.681528291885, -5370.028957131977, -8037.061457283671, -6336.87601529074, -6035.462741310924, -4352.510494293034, -7690.564714737501, -7743.426590374303, -11781.85037158136, 0.0095, 0.23375, 0.94425, 192.0, 0.0, 0.0, 0.0, 0.0, 0.0, 0.0, 0.0, 0.0, 0.0, 1.644588074540663E9, 0.0, 2022-02-12 01:01:14.540
212.0, -6890.104042304045, -6195.143603699637, -4647.06178272507, -9560.422248890669, -6675.929626933293, -3799.975371357843, -6799.91475342688, -4759.6028160575415, -5375.393375801251, -8028.4113321794675, -6321.118035449748, -6013.33451430017, -4345.894377934263, -7669.352909249415, -7734.888223992375, -11816.607334209364, 0.0095, 0.23375, 0.94425, 192.0, 0.0, 0.0, 0.0, 0.0, 0.0, 0.0, 0.0, 0.0, 0.0, 1.644588074548596E9, 0.0, 2022-02-12 01:01:14.548
214.0, -6899.201202297355, -6184.213600660993, -4644.960718746272, -9550.27455690796, -6662.250359326645, -3790.2747142642397, -6798.1489656149115, -4755.311281122123, -5361.669404705693, -8021.862271054062, -6320.134558693714, -6019.123616114094, -4342.519264521511, -7670.582255194457, -7730.663744290322, -11782.230351237102, 0.00975, 0.232875, 0.945125, 192.0, 0.0, 40.0, 3.5, 32.0, 14.5, 72.0, 0.0, 0.0, 0.0, 1.644588074556366E9, 0.0, 2022-02-12 01:01:14.556
216.0, -6870.769783350204, -6161.817152716774, -4634.6342128079195, -9554.744905799022, -6666.117211117413, -3784.1503362834856, -6795.0420731356235, -4750.863283975516, -5369.1348873537645, -8007.087767969105, -6321.922698250139, -6017.626049235589, -4344.106238377838, -7663.51910394658, -7727.132168666383, -11792.512153686543, 0.00975, 0.232875, 0.945125, 192.0, 0.0, 0.0, 0.0, 0.0, 0.0, 0.0, 0.0, 0.0, 0.0, 1.644588074563584E9, 0.0, 2022-02-12 01:01:14.563
218.0, -6873.966082807313, -6164.6781760070535, -4640.669183810853, -9550.341612141325, -6661.400993037342, -3775.9025425794775, -6799.691235982327, -4748.270481618701, -5361.401183772228, -8011.289895926702, -6319.061674959859, -6015.23441257887, -4334.76320919552, -7656.344193976426, -7721.678343019288, -11800.491726457087, 0.00975, 0.232875, 0.945125, 192.0, 0.0, 0.0, 0.0, 0.0, 0.0, 0.0, 0.0, 0.0, 0.0, 1.644588074571004E9, 0.0, 2022-02-12 01:01:14.571
220.0, -6878.682300887383, -6149.054306632795, -4633.114294184958, -9540.059809691884, -6650.2251208096895, -3769.1299640095194, -6789.387081788431, -4746.325879851089, -5343.743305652536, -7971.727308240808, -6326.415398885656, -5994.6261041910775, -4331.298688804947, -7662.80384812401, -7723.377075597892, -11764.818342306417, 0.00975, 0.232875, 0.945125, 192.0, 0.0, 0.0, 0.0, 0.0, 0.0, 0.0, 0.0, 0.0, 0.0, 1.644588074579053E9, 0.0, 2022-02-12 01:01:14.579
222.0, -6896.675455173905, -6175.809344745797, -4634.187177918813, -9558.477647123056, -6657.601196479941, -3771.946283810888, -6787.286017809632, -4738.391010569455, -5366.318567552396, -8006.216049935348, -6311.998523711983, -5991.720377411888, -4336.663107474221, -7658.132333532851, -7720.605459285433, -11805.319703259434, 0.00975, 0.232875, 0.945125, 192.0, 0.0, 0.0, 0.0, 0.0, 0.0, 0.0, 0.0, 0.0, 0.0, 1.644588074585995E9, 0.0, 2022-02-12 01:01:14.585
224.0, -6886.84068761357, -6169.036766175838, -4636.645869808897, -9550.810998774887, -6641.55264396103, -3762.5138476507486, -6788.24714282121, -4731.774894210684, -5359.791858171447, -7999.82345102113, -6309.808052755363, -5998.358845515114, -4332.595089983355, -7656.478304443158, -7722.460654075224, -11775.122496500313, 0.008875000000000001, 0.23443750000000002, 0.9455625000000001, 192.0, 0.0, 32.0, 3.5, 48.0, 14.5, 72.0, 0.0, 0.0, 0.0, 1.644588074593409E9, 0.0, 2022-02-12 01:01:14.593
226.0, -6875.240132241265, -6156.363327069679, -4635.215358163758, -9562.836237291842, -6643.944280617748, -3758.0434987596873, -6775.931331626336, -4722.945955150838, -5370.766564699003, -7988.491116582289, -6316.826500514329, -5999.118804826594, -4324.682572446176, -7655.89715908732, -7719.733741251677, -11787.058328039448, 0.008875000000000001, 0.23443750000000002, 0.9455625000000001, 192.0, 0.0, 0.0, 0.0, 0.0, 0.0, 0.0, 0.0, 0.0, 0.0, 1.644588074600576E9, 0.0, 2022-02-12 01:01:14.600
228.0, -6887.533591691684, -6148.540216510322, -4634.589509319009, -9553.157931942695, -6637.842254381449, -3752.276748690218, -6785.2967125531095, -4721.515443505698, -5365.9609396411115, -7993.073224195627, -6312.490262089999, -6004.4832234958685, -4327.945927136651, -7652.902025330309, -7712.737645237165, -11795.797860121473, 0.008875000000000001, 0.23443750000000002, 0.9455625000000001, 192.0, 0.0, 0.0, 0.0, 0.0, 0.0, 0.0, 0.0, 0.0, 0.0, 1.64458807460881E9, 0.0, 2022-02-12 01:01:14.608
230.0, -6889.947580092858, -6162.755925983897, -4621.290221368101, -9546.295946394916, -6631.7402281451505, -3749.3263184221173, -6779.775831672649, -4721.716609205796, -5352.706355179114, -7972.621378019021, -6312.646724301187, -5989.664016921999, -4321.687438689165, -7653.438467197236, -7712.514127792612, -11759.364516659321, 0.008875000000000001, 0.23443750000000002, 0.9455625000000001, 192.0, 0.0, 0.0, 0.0, 0.0, 0.0, 0.0, 0.0, 0.0, 0.0, 1.644588074616877E9, 0.0, 2022-02-12 01:01:14.616
232.0, -6877.587065409072, -6171.026071432361, -4617.311610855057, -9552.88971100923, -6630.622640922385, -3738.2622049167403, -6779.731128183738, -4718.8108824266055, -5369.805439687424, -8002.103328955571, -6302.7896049963965, -5979.091641794639, -4316.859461886819, -7644.721286859666, -7704.355741066425, -11796.088432799392, 0.008875000000000001, 0.23443750000000002, 0.9455625000000001, 192.0, 0.0, 0.0, 0.0, 0.0, 0.0, 0.0, 0.0, 0.0, 0.0, 1.644588074623405E9, 0.0, 2022-02-12 01:01:14.623
234.0, -6883.800850367648, -6160.341937582724, -4629.359201116467, -9549.827522018853, -6611.578954646463, -3734.9317949928995, -6769.136401311923, -4710.116053833492, -5353.421611001684, -7993.073224195627, -6303.706026519064, -5989.306389010714, -4306.868232115296, -7644.676583370756, -7704.825127699987, -11764.103086483847, 0.0104375, 0.23421875000000003, 0.9487812500000001, 192.0, 0.0, 48.0, 3.5, 40.0, 14.5, 96.0, 0.0, 0.0, 0.0, 1.644588074631501E9, 0.0, 2022-02-12 01:01:14.631
236.0, -6875.038966541168, -6154.396373557613, -4625.000610947682, -9558.723516312066, -6621.838405351449, -3735.8929200044777, -6774.187895558822, -4704.88574563095, -5361.356480283318, -7974.945959442372, -6309.852756244273, -5990.334569255659, -4315.831281641875, -7651.404458451803, -7704.758072466621, -11781.13511575879, 0.0104375, 0.23421875000000003, 0.9487812500000001, 192.0, 0.0, 0.0, 0.0, 0.0, 0.0, 0.0, 0.0, 0.0, 0.0, 1.644588074639287E9, 0.0, 2022-02-12 01:01:14.639
238.0, -6878.481135187285, -6145.5003792644, -4628.10750342697, -9557.918853511674, -6612.1377482578455, -3734.0600769591424, -6772.355052513487, -4715.256955058212, -5364.306910551419, -7990.972160216828, -6305.181241653114, -5991.474508222879, -4317.798235153942, -7648.588138650434, -7702.388787554359, -11796.28959849949, 0.0104375, 0.23421875000000003, 0.9487812500000001, 192.0, 0.0, 0.0, 0.0, 0.0, 0.0, 0.0, 0.0, 0.0, 0.0, 1.644588074653082E9, 0.0, 2022-02-12 01:01:14.653
240.0, -6853.178960463877, -6111.704541647976, -4618.764474244652, -9544.641917305222, -6597.519707384075, -3716.916288961922, -6766.856523377482, -4698.3813879944555, -5344.995003342033, -7954.76233419923, -6301.649666029176, -5990.446327977936, -4303.649580913732, -7644.27425197056, -7701.315903820504, -11762.292595182967, 0.0104375, 0.23421875000000003, 0.9487812500000001, 192.0, 0.0, 0.0, 0.0, 0.0, 0.0, 0.0, 0.0, 0.0, 0.0, 1.644588074661032E9, 0.0, 2022-02-12 01:01:14.661
