%OpenBCI Raw EEG Data
%Number of channels = 16
%Sample Rate = 125 Hz
%Board = OpenBCI_GUI$BoardCytonSerialDaisy
Sample Index, EXG Channel 0, EXG Channel 1, EXG Channel 2, EXG Channel 3, EXG Channel 4, EXG Channel 5, EXG Channel 6, EXG Channel 7, EXG Channel 8, EXG Channel 9, EXG Channel 10, EXG Channel 11, EXG Channel 12, EXG Channel 13, EXG Channel 14, EXG Channel 15, Accel Channel 0, Accel Channel 1, Accel Channel 2, Other, Other, Other, Other, Other, Other, Other, Analog Channel 0, Analog Channel 1, Analog Channel 2, Timestamp, Other, Timestamp (Formatted)
0.0, -10324.829557517714, -9853.654784399841, -7284.008834839921, -12918.973019000652, -8885.04193842911, -5696.6102953684685, -8797.98189377569, -6627.068713553991, 0.0, 0.0, 0.0, 0.0, 0.0, 0.0, 0.0, 0.0, 0.0, 0.0, 0.0, 192.0, 0.0, 0.0, 0.0, 0.0, 0.0, 0.0, 0.0, 0.0, 0.0, 1.644587652172896E9, 0.0, 2022-02-12 00:54:12.172
244.0, -10311.574973055718, -9859.041554813572, -7276.766869636402, -12904.802013015988, -8875.788316224613, -5682.953379506276, -8798.384225175885, -6612.07069302448, -9952.158922214381, -12192.586027692083, -8088.872800931073, -6272.927674404106, -6199.457490379512, -8796.21610596372, -12183.22064676531, -16830.796519612853, 0.004, 0.234, 0.9440000000000001, 192.0, 0.0, 16.0, 3.5, 40.0, 14.5, 64.0, 0.0, 0.0, 0.0, 1.644587652172902E9, 0.0, 2022-02-12 00:54:12.172
2.0, -10609.076691755854, -9925.91797422385, -5908.258963615771, -12916.17905094374, -8809.403635192351, -5104.266715558376, -8442.030363324924, -6488.845525842372, -9638.966278906617, -11879.527494851052, -7573.039242391496, -6065.615244581133, -5894.266771586749, -8647.845226269392, -11837.595622252897, -16533.495966612812, 0.004, 0.234, 0.9440000000000001, 192.0, 0.0, 0.0, 0.0, 0.0, 0.0, 0.0, 0.0, 0.0, 0.0, 1.644587652274838E9, 0.0, 2022-02-12 00:54:12.274
4.0, -10618.91145931619, -9926.00738120167, -5901.97812342383, -12931.311181939982, -8822.680571398803, -5109.854651672203, -8439.683430157118, -6495.573400923419, -9641.24615684106, -11901.298093950521, -7562.06453586394, -6055.065221198228, -5895.697283231889, -8634.680048785216, -11837.260346086066, -16570.24223449734, 0.004, 0.234, 0.9440000000000001, 192.0, 0.0, 0.0, 0.0, 0.0, 0.0, 0.0, 0.0, 0.0, 0.0, 1.644587652281371E9, 0.0, 2022-02-12 00:54:12.281
6.0, -10623.337104718341, -9928.287259136112, -5916.350295108592, -12927.623144104857, -8812.845803838469, -5109.385265038642, -8445.494883715497, -6501.653075415263, -9651.013869168028, -11909.277666721067, -7542.886739121287, -6045.498674571357, -5887.78476569471, -8638.882176742814, -11840.791921710006, -16574.891397344043, 0.004, 0.234, 0.9440000000000001, 192.0, 0.0, 0.0, 0.0, 0.0, 0.0, 0.0, 0.0, 0.0, 0.0, 1.644587652289515E9, 0.0, 2022-02-12 00:54:12.289
8.0, -10602.9523137751, -9911.121119394436, -5899.40767281147, -12920.515289368068, -8801.826393822003, -5101.271581801365, -8432.262650997955, -6495.19342126768, -9641.067342885417, -11890.368090911878, -7551.246291547573, -6052.114790930127, -5886.018977882741, -8644.00072622308, -11834.041694884503, -16530.143204944517, 0.004, 0.23600000000000002, 0.9500000000000001, 192.0, 0.0, 16.0, 3.5, 48.0, 14.5, 88.0, 0.0, 0.0, 0.0, 1.644587652297903E9, 0.0, 2022-02-12 00:54:12.297
10.0, -10603.555810875394, -9920.10652066547, -5907.856632215576, -12926.974943515652, -8812.130548015899, -5111.687494717538, -8437.96234583406, -6492.868839844327, -9644.19658710916, -11897.699463093217, -7542.0373728319855, -6048.4491048394575, -5858.6827944139, -8645.073609956933, -11829.906622160272, -16591.208170796417, 0.004, 0.23600000000000002, 0.9500000000000001, 192.0, 0.0, 0.0, 0.0, 0.0, 0.0, 0.0, 0.0, 0.0, 0.0, 1.644587652304351E9, 0.0, 2022-02-12 00:54:12.304
12.0, -10614.061130769389, -9932.15411092688, -5906.2249548703385, -12912.759234042078, -8801.401710677352, -5102.120948090666, -8437.224738267034, -6489.203153753657, -9634.51828176001, -11878.544018095019, -7558.622367217823, -6046.5268548163, -5893.417405297448, -8648.560482091962, -11833.192328595202, -16526.633981065035, 0.004, 0.23600000000000002, 0.9500000000000001, 192.0, 0.0, 0.0, 0.0, 0.0, 0.0, 0.0, 0.0, 0.0, 0.0, 1.644587652312101E9, 0.0, 2022-02-12 00:54:12.312
14.0, -10595.755052060491, -9912.797500228584, -5896.412539054459, -12925.991466759619, -8809.895373570369, -5102.858555657692, -8431.256822497466, -6486.275075230012, -9636.217014338616, -11872.151419180802, -7538.192872785673, -6035.95447968894, -5881.97331213633, -8630.455569083164, -11832.857052428371, -16564.162560005494, 0.004, 0.23600000000000002, 0.9500000000000001, 192.0, 0.0, 0.0, 0.0, 0.0, 0.0, 0.0, 0.0, 0.0, 0.0, 1.644587652320061E9, 0.0, 2022-02-12 00:54:12.320
16.0, -10610.708369101092, -9908.684779248808, -5912.17051889545, -12918.794205045011, -8809.716559614726, -5106.6360004706385, -8438.990526079002, -6495.752214879062, -9642.497854530557, -11891.865657790382, -7545.479541478103, -6049.074953684206, -5884.454355770869, -8631.595508050385, -11830.465415771654, -16567.269452484783, 0.004, 0.23600000000000002, 0.9500000000000001, 192.0, 0.0, 0.0, 3.5, 32.0, 14.5, 72.0, 0.0, 0.0, 0.0, 1.644587652334194E9, 0.0, 2022-02-12 00:54:12.334
18.0, -10611.445976668118, -9917.96075319776, -5896.613704754556, -12910.389949129814, -8805.939114801778, -5099.863421900681, -8432.821444609339, -6493.517040433531, -9627.924517145697, -11886.233018187646, -7546.954756612153, -6039.843683224164, -5889.170573850939, -8634.188310407199, -11838.601450753386, -16526.566925831667, 0.004, 0.23600000000000002, 0.9500000000000001, 192.0, 0.0, 0.0, 0.0, 0.0, 0.0, 0.0, 0.0, 0.0, 0.0, 1.644587652341705E9, 0.0, 2022-02-12 00:54:12.341
20.0, -10591.754089802991, -9917.4913665642, -5901.173460623439, -12924.471548136658, -8804.039216523077, -5104.981971380946, -8430.943898075093, -6493.76290962254, -9638.809816695431, -11895.486640392142, -7518.165709753717, -6030.590061019667, -5867.824657896121, -8618.251516610566, -11832.924107661738, -16589.844714384642, 0.004, 0.23600000000000002, 0.9500000000000001, 192.0, 0.0, 0.0, 0.0, 0.0, 0.0, 0.0, 0.0, 0.0, 0.0, 1.644587652349728E9, 0.0, 2022-02-12 00:54:12.349
22.0, -10614.061130769389, -9921.537032310609, -5900.435853056414, -12915.93318175473, -8796.730196086191, -5097.136509077133, -8435.57070917734, -6489.136098520291, -9635.971145149606, -11888.512896122087, -7546.261852534039, -6051.064258940728, -5873.949035876874, -8639.575080820929, -11834.779302451529, -16532.713655556876, 0.004, 0.23600000000000002, 0.9500000000000001, 192.0, 0.0, 0.0, 0.0, 0.0, 0.0, 0.0, 0.0, 0.0, 0.0, 1.644587652356717E9, 0.0, 2022-02-12 00:54:12.356
24.0, -10601.0524154964, -9912.171651383836, -5891.718672718844, -12928.584269116434, -8805.469728168217, -5093.314360775275, -8425.355961961266, -6481.961188550137, -9638.675706228698, -11872.151419180802, -7536.203567529151, -6044.314032115225, -5878.620550468034, -8629.785016749503, -11833.549956506486, -16564.52018791678, 0.004, 0.23600000000000002, 0.9500000000000001, 192.0, 0.0, 0.0, 0.0, 0.0, 0.0, 0.0, 0.0, 0.0, 0.0, 1.64458765236443E9, 0.0, 2022-02-12 00:54:12.364
26.0, -10618.48677617154, -9924.666276534352, -5906.806100226177, -12924.538603370023, -8812.197603249264, -5100.355160278697, -8441.292755757899, -6493.025302055515, -9644.95654642064, -11895.73250958115, -7547.647660690268, -6054.975814220406, -5884.074376115129, -8637.22814765312, -11831.515947761054, -16571.605690909113, 0.005, 0.23600000000000002, 0.9480000000000001, 192.0, 0.0, 24.0, 3.5, 48.0, 14.5, 72.0, 0.0, 0.0, 0.0, 1.6445876523724E9, 0.0, 2022-02-12 00:54:12.372
28.0, -10586.85905776728, -9919.055988676071, -5895.473765787336, -12918.101300966895, -8805.69324561277, -5093.448471242007, -8432.374409720233, -6486.565647907931, -9640.508549274035, -11880.980358240648, -7558.77882942901, -6049.410229851035, -5871.3562335200595, -8632.757798762059, -11832.320610561444, -16528.019789221264, 0.005, 0.23600000000000002, 0.9480000000000001, 192.0, 0.0, 0.0, 0.0, 0.0, 0.0, 0.0, 0.0, 0.0, 0.0, 1.644587652380203E9, 0.0, 2022-02-12 00:54:12.380
30.0, -10620.453729683606, -9941.608898831475, -5905.97908568133, -12932.652286607301, -8822.12177778742, -5105.317247547776, -8442.43269472512, -6496.132194534802, -9650.008040667539, -11900.716948594683, -7551.715678181134, -6044.381087348591, -5885.795460438188, -8631.774322006026, -11836.746255963595, -16596.214961554404, 0.005, 0.23600000000000002, 0.9480000000000001, 192.0, 0.0, 0.0, 0.0, 0.0, 0.0, 0.0, 0.0, 0.0, 0.0, 1.644587652386568E9, 0.0, 2022-02-12 00:54:12.386
32.0, -10628.030971053955, -9928.019038202649, -5911.410559583969, -12918.503632367092, -8802.318132200018, -5094.767224164871, -8429.736903874506, -6487.839697341883, -9646.096485387861, -11889.138744966835, -7563.137419597795, -6057.523913088312, -5895.518469276246, -8648.158150691766, -11838.869671686849, -16535.9546585029, 0.005, 0.23600000000000002, 0.9480000000000001, 192.0, 0.0, 0.0, 0.0, 0.0, 0.0, 0.0, 0.0, 0.0, 0.0, 1.644587652394119E9, 0.0, 2022-02-12 00:54:12.394
34.0, -10613.81526158038, -9929.404846358877, -5902.2910478462045, -12931.579402873445, -8805.089748512477, -5090.676854929549, -8422.293772970888, -6477.960226292637, -9639.86034868483, -11888.132916466346, -7566.579588243912, -6049.253767639848, -5869.791611408188, -8626.767531248037, -11833.974639651136, -16563.536711160745, 0.005, 0.23600000000000002, 0.9480000000000001, 192.0, 0.0, 0.0, 0.0, 0.0, 0.0, 0.0, 0.0, 0.0, 0.0, 1.644587652402103E9, 0.0, 2022-02-12 00:54:12.402
36.0, -10620.677247128158, -9929.449549847788, -5903.78861472471, -12922.929277769243, -8809.425986936807, -5099.930477134047, -8443.751447647983, -6496.981560824104, -9643.526034775501, -11900.940466039237, -7540.673916420212, -6059.110886944639, -5887.5612482501565, -8636.155263919267, -11838.869671686849, -16574.287900243748, 0.0015, 0.23600000000000002, 0.9470000000000001, 192.0, 127.5, 120.0, 3.5, 48.0, 14.5, 72.0, 0.0, 0.0, 0.0, 1.644587652409939E9, 0.0, 2022-02-12 00:54:12.409
38.0, -10569.156476158676, -9889.90931390635, -5887.337730805604, -12916.961361999674, -8797.713672842227, -5085.893581616114, -8433.290831242899, -6489.203153753657, -9632.752493948043, -11876.688823305229, -7543.7808088995, -6041.318898358214, -5877.502963245269, -8627.70630451516, -11837.014476897059, -16530.97021948936, 0.0015, 0.23600000000000002, 0.9470000000000001, 192.0, 0.0, 0.0, 0.0, 0.0, 0.0, 0.0, 0.0, 0.0, 0.0, 1.644587652416691E9, 0.0, 2022-02-12 00:54:12.416
40.0, -10583.886275754723, -9905.846107702984, -5896.613704754556, -12924.829176047942, -8809.917725314823, -5090.073357829257, -8429.71455213005, -6484.308121717945, -9619.676723441687, -11864.261253388078, -7518.076302775897, -6037.519101800812, -5867.176457306917, -8611.74715897407, -11830.510119260565, -16591.454039985423, 0.0015, 0.23600000000000002, 0.9470000000000001, 192.0, 0.0, 0.0, 0.0, 0.0, 0.0, 0.0, 0.0, 0.0, 0.0, 1.644587652424671E9, 0.0, 2022-02-12 00:54:12.424
42.0, -10599.331331173342, -9914.429177573822, -5906.292010103704, -12905.897248494299, -8804.307437456542, -5091.883849130136, -8430.876842841726, -6496.5568776794535, -9645.448284798656, -11882.522628608063, -7557.035393361497, -6037.921433201008, -5876.743003933788, -8630.56732780544, -11833.907584417771, -16531.350199145105, 0.0015, 0.23600000000000002, 0.9470000000000001, 192.0, 0.0, 0.0, 0.0, 0.0, 0.0, 0.0, 0.0, 0.0, 0.0, 1.644587652432582E9, 0.0, 2022-02-12 00:54:12.432
44.0, -10603.220534708564, -9927.951982969284, -5896.032559398718, -12923.55512661399, -8816.22091725122, -5084.53012520434, -8423.433711938109, -6477.222618725613, -9648.309308088936, -11878.544018095019, -7541.8585588763435, -6028.466645296413, -5876.4077277669585, -8618.475034055118, -11835.71807571865, -16564.341373961135, 0.0015, 0.23600000000000002, 0.9470000000000001, 192.0, 0.0, 0.0, 0.0, 0.0, 0.0, 0.0, 0.0, 0.0, 0.0, 1.644587652439593E9, 0.0, 2022-02-12 00:54:12.439
46.0, -10604.829860309346, -9923.213413144758, -5906.180251381427, -12919.375350400847, -8811.258829982142, -5086.452375227496, -8432.419113209142, -6483.212886239635, -9654.366630836324, -11905.299056208021, -7545.6807071782005, -6046.213930393927, -5889.103518617573, -8627.32632485942, -11833.527604762032, -16571.963318820395, -2.5E-4, 0.238, 0.9475, 192.0, 127.5, 120.0, 3.5, 64.0, 14.5, 80.0, 0.0, 0.0, 0.0, 1.644587652454305E9, 0.0, 2022-02-12 00:54:12.454
48.0, -10584.936807744123, -9901.778090212118, -5894.847916942587, -12910.725225296645, -8803.525126400606, -5080.953846091491, -8427.971116062536, -6483.078775772903, -9639.90505217374, -11876.375898882854, -7555.157846827251, -6050.997203707362, -5887.181268594417, -8627.75100800407, -11832.030037883525, -16523.527088585746, -2.5E-4, 0.238, 0.9475, 192.0, 0.0, 0.0, 0.0, 0.0, 0.0, 0.0, 0.0, 0.0, 0.0, 1.644587652462285E9, 0.0, 2022-02-12 00:54:12.462
50.0, -10592.536400858928, -9916.843165974995, -5905.353236836581, -12924.203327203195, -8818.523146930116, -5093.940209620025, -8430.452159697075, -6487.124441519313, -9650.745648234564, -11880.265102418078, -7529.095712792363, -6032.065276153717, -5885.817812182643, -8629.628554538316, -11833.259383828567, -16589.665900429, -2.5E-4, 0.238, 0.9475, 192.0, 0.0, 0.0, 0.0, 0.0, 0.0, 0.0, 0.0, 0.0, 0.0, 1.644587652468759E9, 0.0, 2022-02-12 00:54:12.468
52.0, -10592.201124692097, -9907.47778504822, -5909.085978160618, -12913.921524753754, -8810.878850326402, -5088.53108746184, -8439.772837134939, -6490.611313654342, -9641.581433007888, -11870.318576135467, -7544.451361233158, -6052.248901396859, -5883.962617392853, -8635.797636007981, -11838.221471097646, -16532.311324156683, -2.5E-4, 0.238, 0.9475, 192.0, 0.0, 0.0, 0.0, 0.0, 0.0, 0.0, 0.0, 0.0, 0.0, 1.644587652476946E9, 0.0, 2022-02-12 00:54:12.476
54.0, -10566.697784268592, -9889.730499950707, -5902.671027501944, -12923.286905680527, -8813.762225361137, -5083.010206581379, -8427.702895129072, -6490.477203187609, -9636.887566672274, -11855.052334672491, -7532.850805860854, -6037.34028784517, -5874.217256810339, -8619.056179410956, -11837.461511786165, -16564.497836172322, -2.5E-4, 0.238, 0.9475, 192.0, 0.0, 0.0, 0.0, 0.0, 0.0, 0.0, 0.0, 0.0, 0.0, 1.644587652484835E9, 0.0, 2022-02-12 00:54:12.484
56.0, -10583.819220521358, -9899.185287855302, -5910.248268872294, -12921.275248679549, -8808.375454947407, -5083.658407170583, -8428.172281762634, -6491.23716249909, -9635.747627705054, -11879.21457042868, -7536.650602418256, -6040.715401257921, -5880.587503980101, -8629.494444071584, -11833.974639651136, -16575.5619496777, -2.5E-4, 0.238, 0.9475, 192.0, 0.0, 0.0, 3.5, 48.0, 14.5, 64.0, 0.0, 0.0, 0.0, 1.644587652492001E9, 0.0, 2022-02-12 00:54:12.492
58.0, -10574.99028146151, -9905.779052469617, -5894.289123331204, -12913.675655564744, -8800.284123454587, -5073.801287865793, -8421.667924126139, -6483.011720539537, -9627.343371789859, -11875.615939571375, -7542.0373728319855, -6041.095380913661, -5879.268751057238, -8618.363275332842, -11827.783206437018, -16525.60580082009, -2.5E-4, 0.238, 0.9475, 192.0, 0.0, 0.0, 0.0, 0.0, 0.0, 0.0, 0.0, 0.0, 0.0, 1.644587652499473E9, 0.0, 2022-02-12 00:54:12.499
60.0, -10600.33715967383, -9914.317418851546, -5900.100576889584, -12928.18193771624, -8816.64560039587, -5084.7983461378035, -8432.799092864883, -6499.641418414285, -9638.474540528601, -11893.966721769182, -7529.408637214737, -6019.660057981022, -5880.900428402475, -8611.478938040607, -11834.175805351235, -16593.4656969864, -2.5E-4, 0.238, 0.9475, 192.0, 0.0, 0.0, 0.0, 0.0, 0.0, 0.0, 0.0, 0.0, 0.0, 1.64458765250663E9, 0.0, 2022-02-12 00:54:12.506
62.0, -10592.648159581204, -9916.977276441727, -5906.135547892517, -12913.60860033138, -8800.84291706597, -5077.757546634382, -8433.804921365372, -6487.839697341883, -9629.131511346282, -11885.987148998636, -7538.841073374877, -6039.866034968619, -5883.850858670576, -8624.599412035872, -11838.892023431305, -16537.6533910815, -2.5E-4, 0.238, 0.9475, 192.0, 0.0, 0.0, 0.0, 0.0, 0.0, 0.0, 0.0, 0.0, 0.0, 1.644587652514483E9, 0.0, 2022-02-12 00:54:12.514
64.0, -10569.0447174364, -9899.47586053322, -5895.741986720799, -12917.274286422049, -8805.670893868315, -5071.253188997887, -8427.501729428976, -6483.838735084383, -9625.063493855418, -11871.324404635956, -7541.702096665156, -6021.805825448731, -5859.77802989221, -8611.925972929714, -11835.293392574, -16565.257795483805, -2.5E-4, 0.238, 0.9475, 192.0, 0.0, 0.0, 0.0, 0.0, 0.0, 0.0, 0.0, 0.0, 0.0, 1.644587652521706E9, 0.0, 2022-02-12 00:54:12.521
66.0, -10585.942636244612, -9895.76547095364, -5902.715730990855, -12914.32385615395, -8812.46582418273, -5085.044215326812, -8448.691183172607, -6496.199249768169, -9637.33460156138, -11884.802506542506, -7525.005343557042, -6030.321840086203, -5870.551570719668, -8613.736464230593, -11839.517872276054, -16581.172237535982, 8.75E-4, 0.237, 0.94475, 192.0, 0.0, 8.0, 3.5, 48.0, 14.5, 56.0, 0.0, 0.0, 0.0, 1.644587652529036E9, 0.0, 2022-02-12 00:54:12.529
68.0, -10584.087441454822, -9894.781994197607, -5896.457242543369, -12910.881687507832, -8805.670893868315, -5079.188058279522, -8432.642630653696, -6487.213848497135, -9634.250060826547, -11856.3487358509, -7536.382381484793, -6030.746523230854, -5879.134640590506, -8614.1834991197, -11841.641287999308, -16535.641734080524, 8.75E-4, 0.237, 0.94475, 192.0, 0.0, 0.0, 0.0, 0.0, 0.0, 0.0, 0.0, 0.0, 0.0, 1.644587652537246E9, 0.0, 2022-02-12 00:54:12.537
70.0, -10585.607360077782, -9905.309665836057, -5901.26286760126, -12931.914679040276, -8820.043065553078, -5086.564133949773, -8437.939994089604, -6498.255610258057, -9643.034296397484, -11871.25734940259, -7528.469863947615, -6030.008915663829, -5873.770221921232, -8612.305952585453, -11847.899776446793, -16602.7193191909, 8.75E-4, 0.237, 0.94475, 192.0, 0.0, 0.0, 0.0, 0.0, 0.0, 0.0, 0.0, 0.0, 0.0, 1.644587652545237E9, 0.0, 2022-02-12 00:54:12.545
72.0, -10591.932903758634, -9909.131814137914, -5908.080149660129, -12915.84377477691, -8806.36379794643, -5084.463069970974, -8444.690220915107, -6499.172031780724, -9631.634906725278, -11860.48380857513, -7552.095657836874, -6052.919453730518, -5882.062719114151, -8617.312743343442, -11849.240881114112, -16546.079998741152, 8.75E-4, 0.237, 0.94475, 192.0, 0.0, 0.0, 0.0, 0.0, 0.0, 0.0, 0.0, 0.0, 0.0, 1.644587652551729E9, 0.0, 2022-02-12 00:54:12.551
74.0, -10569.938787214613, -9898.022997143627, -5897.552478021679, -12928.897193538809, -8813.069321283021, -5081.378529236142, -8435.213081266056, -6489.203153753657, -9639.748589962554, -11853.890043960815, -7540.450398975659, -6029.4948255413565, -5872.719689931833, -8621.224298623121, -11845.239918856612, -16576.835999111652, 8.75E-4, 0.237, 0.94475, 192.0, 0.0, 0.0, 0.0, 0.0, 0.0, 0.0, 0.0, 0.0, 0.0, 1.644587652559783E9, 0.0, 2022-02-12 00:54:12.559
76.0, -10587.641368823215, -9912.395168828389, -5906.783748481721, -12931.378237173349, -8817.98670506319, -5087.726424661449, -8460.604662967286, -6497.115671290836, -9640.463845785123, -11881.695614063217, -7552.095657836874, -6040.603642535644, -5887.181268594417, -8619.905545700258, -11848.190349124712, -16588.302444017227, 0.0034375, 0.2375, 0.944375, 192.0, 0.0, 24.0, 3.5, 56.0, 14.5, 64.0, 0.0, 0.0, 0.0, 1.644587652568086E9, 0.0, 2022-02-12 00:54:12.568
78.0, -10603.689921342126, -9908.930648437816, -5897.396015810492, -12931.221774962161, -8806.117928757421, -5083.121965303656, -8431.614450408752, -6485.42570894071, -9627.298668300948, -11873.626634314853, -7560.276396307516, -6041.028325680295, -5891.517507018746, -8614.071740397423, -11851.856035215384, -16541.184966705438, 0.0034375, 0.2375, 0.944375, 192.0, 0.0, 0.0, 0.0, 0.0, 0.0, 0.0, 0.0, 0.0, 0.0, 1.644587652581431E9, 0.0, 2022-02-12 00:54:12.581
80.0, -10609.166098733676, -9931.327096382034, -5901.732254234821, -12945.079856524451, -8819.573678919516, -5095.996570109913, -8447.752409905483, -6494.254648000557, -9648.778694722498, -11878.521666350563, -7531.7108668936335, -6031.171206375505, -5879.984006879808, -8606.494499027074, -11852.459532315675, -16611.257685572826, 0.0034375, 0.2375, 0.944375, 192.0, 0.0, 0.0, 0.0, 0.0, 0.0, 0.0, 0.0, 0.0, 0.0, 1.644587652589341E9, 0.0, 2022-02-12 00:54:12.589
82.0, -10618.307962215897, -9930.589488815009, -5912.684609017922, -12933.836929063431, -8816.869117840424, -5094.566058464773, -8456.044907098401, -6496.489822446088, -9649.784523222987, -11883.841381530927, -7549.480503735603, -6041.363601847124, -5882.2191813253385, -8621.1348916453, -11859.567387052464, -16555.333620945647, 0.0034375, 0.2375, 0.944375, 192.0, 0.0, 0.0, 0.0, 0.0, 0.0, 0.0, 0.0, 0.0, 0.0, 1.644587652597509E9, 0.0, 2022-02-12 00:54:12.597
84.0, -10591.32940665834, -9916.284372363612, -5903.721559491344, -12948.94670831522, -8820.22187950872, -5092.844974141714, -8445.42782848213, -6494.187592767191, -9650.902110445752, -11888.423489144265, -7542.909090865743, -6040.134255902083, -5879.089937101596, -8620.486691056096, -11857.44397132921, -16585.195551537938, 0.0034375, 0.2375, 0.944375, 192.0, 0.0, 0.0, 0.0, 0.0, 0.0, 0.0, 0.0, 0.0, 0.0, 1.64458765260451E9, 0.0, 2022-02-12 00:54:12.604
86.0, -10609.411967922684, -9924.643924789898, -5914.31628636316, -12946.130388513851, -8816.757359118148, -5098.321151533264, -8446.43365698262, -6499.574363180919, -9647.079962143895, -11890.077518233958, -7544.697230422167, -6047.353869361147, -5873.5914079655895, -8616.821004965426, -11850.559634036976, -16597.24314179935, 0.012, 0.23800000000000002, 0.9480000000000001, 192.0, 0.0, 48.0, 3.5, 56.0, 14.5, 80.0, 0.0, 0.0, 0.0, 1.64458765261196E9, 0.0, 2022-02-12 00:54:12.611
88.0, -10599.57720036235, -9916.53024155262, -5900.659370500966, -12937.480263409647, -8812.823452094013, -5093.046139841812, -8442.231529025023, -6498.881459102805, -9638.921575417708, -11879.058108217492, -7556.230730561106, -6057.188636921482, -5884.119079604039, -8618.653848010761, -11850.738447992617, -16548.002248764307, 0.012, 0.23800000000000002, 0.9480000000000001, 192.0, 0.0, 0.0, 0.0, 0.0, 0.0, 0.0, 0.0, 0.0, 0.0, 1.64458765262005E9, 0.0, 2022-02-12 00:54:12.620
90.0, -10603.868735297769, -9919.301857865079, -5914.182175896428, -12950.153702515807, -8832.69415291478, -5106.278372559354, -8460.604662967286, -6511.286677275501, -9657.115895404328, -11892.580913612952, -7564.031489376008, -6028.980735418884, -5886.980102894318, -8616.016342165034, -11853.331250349433, -16620.086624632673, 0.012, 0.23800000000000002, 0.9480000000000001, 192.0, 0.0, 0.0, 0.0, 0.0, 0.0, 0.0, 0.0, 0.0, 0.0, 1.644587652627334E9, 0.0, 2022-02-12 00:54:12.627
92.0, -10598.928999773145, -9909.489442049198, -5911.723484006344, -12939.693086110723, -8818.925478330311, -5097.874116644159, -8453.809732652871, -6508.3362470074, -9641.96141266363, -11889.719890322673, -7556.074268349918, -6044.939880959974, -5881.459222013858, -8619.123234644323, -11859.768552752561, -16563.380248949557, 0.012, 0.23800000000000002, 0.9480000000000001, 192.0, 0.0, 0.0, 0.0, 0.0, 0.0, 0.0, 0.0, 0.0, 0.0, 1.644587652633669E9, 0.0, 2022-02-12 00:54:12.633
94.0, -10590.122412457755, -9902.828622201518, -5901.173460623439, -12945.616298391378, -8823.999324321667, -5094.141375320122, -8442.47739821403, -6501.831889370906, -9646.230595854593, -11855.58877653942, -7548.809951401944, -6043.107037914639, -5885.482536015813, -8610.450757795663, -11859.209759141178, -16586.179028293973, 0.012, 0.23800000000000002, 0.9480000000000001, 192.0, 0.0, 0.0, 0.0, 0.0, 0.0, 0.0, 0.0, 0.0, 0.0, 1.644587652641748E9, 0.0, 2022-02-12 00:54:12.641
96.0, -10612.09417725732, -9929.91893648135, -5913.064588673662, -12941.74944660061, -8822.434702209795, -5097.315323032775, -8455.15083732019, -6510.034979586003, -9651.840883712875, -11884.914265264782, -7545.323079266916, -6037.0050116783395, -5880.1628208354505, -8608.774376961515, -11857.287509118023, -16599.254798800328, 0.01, 0.242, 0.9540000000000001, 192.0, 0.0, 40.0, 3.5, 72.0, 14.5, 104.0, 0.0, 0.0, 0.0, 1.644587652649733E9, 0.0, 2022-02-12 00:54:12.649
98.0, -10593.274008425953, -9917.826642731028, -5905.062664158662, -12933.769873830066, -8821.853556853957, -5094.051968342301, -8454.569691964352, -6499.775528881018, -9648.510473789034, -11880.600378584908, -7555.224902060617, -6041.140084402572, -5883.806155181665, -8617.245688110077, -11860.908491719782, -16548.203414464406, 0.01, 0.242, 0.9540000000000001, 192.0, 0.0, 0.0, 0.0, 0.0, 0.0, 0.0, 0.0, 0.0, 0.0, 1.644587652656946E9, 0.0, 2022-02-12 00:54:12.656
100.0, -10606.260371954486, -9916.35142759698, -5912.595202040101, -12950.332516471448, -8835.354010504963, -5099.863421900681, -8459.218854811055, -6512.985409854104, -9657.786447737986, -11885.227189687157, -7540.58450944239, -6030.567709275211, -5894.289123331204, -8608.46145253914, -11855.789942239517, -16619.058444387727, 0.01, 0.242, 0.9540000000000001, 192.0, 0.0, 0.0, 0.0, 0.0, 0.0, 0.0, 0.0, 0.0, 0.0, 1.644587652664172E9, 0.0, 2022-02-12 00:54:12.664
102.0, -10604.896915542713, -9913.311590351057, -5916.126777664039, -12933.903984296798, -8822.568812676527, -5096.667122443571, -8447.48418897202, -6509.856165630361, -9645.761209221031, -11883.21553268618, -7553.883797393299, -6051.220721151915, -5904.392111825003, -8610.718978729126, -11856.594605039907, -16563.93904256094, 0.01, 0.242, 0.9540000000000001, 192.0, 0.0, 0.0, 0.0, 0.0, 0.0, 0.0, 0.0, 0.0, 0.0, 1.64458765267292E9, 0.0, 2022-02-12 00:54:12.672
104.0, -10593.542229359417, -9915.613820029954, -5907.610763026567, -12936.854414564898, -8823.082902798998, -5096.734177676938, -8435.436598710608, -6513.968886610137, -9646.543520276968, -11874.811276770983, -7546.798294400966, -6027.19259586246, -5893.104480875073, -8603.968751903623, -11851.476055559642, -16587.430725983468, 0.01, 0.242, 0.9540000000000001, 192.0, 0.0, 0.0, 0.0, 0.0, 0.0, 0.0, 0.0, 0.0, 0.0, 1.644587652680332E9, 0.0, 2022-02-12 00:54:12.680
106.0, -10605.299246942908, -9911.612857772454, -5911.432911328425, -12938.776664588055, -8834.37053374893, -5102.679741702049, -8450.501674473486, -6505.0058370835595, -9642.788427208476, -11890.97158801217, -7537.8128931299325, -6030.120674386105, -5882.599160981079, -8612.708283985648, -11848.01153516907, -16604.216886069404, 0.008, 0.23800000000000002, 0.9480000000000001, 192.0, 0.0, 32.0, 3.5, 56.0, 14.5, 80.0, 0.0, 0.0, 0.0, 1.644587652687248E9, 0.0, 2022-02-12 00:54:12.687
108.0, -10593.206953192586, -9902.515697779143, -5906.6943415038995, -12936.630897120345, -8820.691266142281, -5088.821660139759, -8435.324839988332, -6496.109842790347, -9648.488122044579, -11872.643157558818, -7557.281262550505, -6041.318898358214, -5899.027693155729, -8618.273868355021, -11849.218529369657, -16548.873966798063, 0.008, 0.23800000000000002, 0.9480000000000001, 192.0, 0.0, 0.0, 0.0, 0.0, 0.0, 0.0, 0.0, 0.0, 0.0, 1.644587652701938E9, 0.0, 2022-02-12 00:54:12.701
110.0, -10597.856116039291, -9922.766378255652, -5905.822623470142, -12949.527853671058, -8834.236423282198, -5101.785671923837, -8445.651345926684, -6508.358598751855, -9647.10231388835, -11885.45070713171, -7540.673916420212, -6026.007953406329, -5898.379492566525, -8597.330283800398, -11847.63155551333, -16617.6726362315, 0.008, 0.23800000000000002, 0.9480000000000001, 192.0, 0.0, 0.0, 0.0, 0.0, 0.0, 0.0, 0.0, 0.0, 0.0, 1.644587652710327E9, 0.0, 2022-02-12 00:54:12.710
112.0, -10598.839592795324, -9923.43693058931, -5916.059722430673, -12935.312144197482, -8826.905051100857, -5098.790538166826, -8459.509427488974, -6511.979581353615, -9642.900185930752, -11874.297186648511, -7546.842997889877, -6033.182863376483, -5889.7293674623215, -8614.719940986626, -11855.812293983972, -16566.688307128945, 0.008, 0.23800000000000002, 0.9480000000000001, 192.0, 0.0, 0.0, 0.0, 0.0, 0.0, 0.0, 0.0, 0.0, 0.0, 1.644587652716588E9, 0.0, 2022-02-12 00:54:12.716
114.0, -10593.341063659318, -9917.267849119646, -5908.683646760422, -12952.433580450248, -8834.884623871401, -5109.206451082999, -8444.399648237188, -6510.169090052735, -9648.778694722498, -11877.314672149978, -7541.433875731693, -6031.417075564513, -5889.215277339849, -8611.143661873777, -11859.232110885634, -16592.10224057463, 0.008, 0.23800000000000002, 0.9480000000000001, 192.0, 0.0, 0.0, 0.0, 0.0, 0.0, 0.0, 0.0, 0.0, 0.0, 1.644587652724672E9, 0.0, 2022-02-12 00:54:12.724
116.0, -10592.983435748034, -9905.175555369326, -5921.938231222419, -12944.878690824353, -8833.275298270619, -5107.038331870835, -8453.72032567505, -6514.058293587958, -9653.941947691674, -11882.433221630243, -7552.96737587063, -6038.86020646813, -5900.391149567503, -8612.440063052185, -11859.209759141178, -16613.135232107074, 0.008, 0.23800000000000002, 0.9500000000000001, 192.0, 0.0, 32.0, 3.5, 56.0, 14.5, 88.0, 0.0, 0.0, 0.0, 1.644587652732607E9, 0.0, 2022-02-12 00:54:12.732
118.0, -10584.04273796591, -9892.4350610298, -5910.516489805757, -12935.8038825755, -8814.253963739153, -5093.381416008641, -8438.208215023067, -6498.456775958154, -9634.853557926841, -11863.881273732339, -7558.287091050994, -6030.344191830658, -5886.376605794026, -8610.383702562298, -11857.73454400713, -16551.667934854977, 0.008, 0.23800000000000002, 0.9500000000000001, 192.0, 0.0, 0.0, 0.0, 0.0, 0.0, 0.0, 0.0, 0.0, 0.0, 1.644587652739177E9, 0.0, 2022-02-12 00:54:12.739
120.0, -10580.108830941777, -9916.373779341433, -5914.495100318802, -12946.063333280485, -8824.960449333244, -5101.338637034731, -8443.237357525511, -6498.7920521249835, -9636.641697483266, -11881.896779763316, -7549.525207224514, -6012.8204241776975, -5888.947056406386, -8601.063025124435, -11853.510064305076, -16620.4219007995, 0.008, 0.23800000000000002, 0.9500000000000001, 192.0, 0.0, 0.0, 0.0, 0.0, 0.0, 0.0, 0.0, 0.0, 0.0, 1.644587652747251E9, 0.0, 2022-02-12 00:54:12.747
122.0, -10599.24192419552, -9908.930648437816, -5918.74193176531, -12945.951574558208, -8820.087769041987, -5098.321151533264, -8454.949671620092, -6509.342075507889, -9624.705865944132, -11861.82491324245, -7536.561195440436, -6041.989450691874, -5888.678835472922, -8614.719940986626, -11856.236977128623, -16564.18491174995, 0.008, 0.23800000000000002, 0.9500000000000001, 192.0, 0.0, 0.0, 0.0, 0.0, 0.0, 0.0, 0.0, 0.0, 0.0, 1.644587652754308E9, 0.0, 2022-02-12 00:54:12.754
124.0, -10608.38378767774, -9919.01128518716, -5915.702094519388, -12953.03707755054, -8828.156748790354, -5108.848823171714, -8443.81850288135, -6515.265287788545, -9648.443418555667, -11875.235959915633, -7541.925614109709, -6030.880633697586, -5886.868344172042, -8600.683045468693, -11859.656794030285, -16587.833057383665, 0.008, 0.23800000000000002, 0.9500000000000001, 192.0, 0.0, 0.0, 0.0, 0.0, 0.0, 0.0, 0.0, 0.0, 0.0, 1.644587652762422E9, 0.0, 2022-02-12 00:54:12.762
126.0, -10610.86483131228, -9939.664297063864, -5931.571833082657, -12950.198406004716, -8834.594051193482, -5118.147148865121, -8458.123619332746, -6512.918354620738, -9658.546407049467, -11909.2106114877, -7550.531035725002, -6022.878709182586, -5906.739044992811, -8614.451720053163, -11863.501294076597, -16614.744557707854, 0.008, 0.23800000000000002, 0.9520000000000001, 192.0, 0.0, 32.0, 3.5, 56.0, 14.5, 96.0, 0.0, 0.0, 0.0, 1.644587652768805E9, 0.0, 2022-02-12 00:54:12.768
128.0, -10596.850287538802, -9912.171651383836, -5925.760379524277, -12942.978792545653, -8825.675705155814, -5109.564078994284, -8451.753372162982, -6507.486880718098, -9641.760246963531, -11879.527494851052, -7554.39788751577, -6031.081799397683, -5886.041329627196, -8618.162109632744, -11864.77534351055, -16557.412333179993, 0.008, 0.23800000000000002, 0.9520000000000001, 192.0, 0.0, 0.0, 0.0, 0.0, 0.0, 0.0, 0.0, 0.0, 0.0, 1.644587652777474E9, 0.0, 2022-02-12 00:54:12.777
130.0, -10591.932903758634, -9914.965619440749, -5927.570870825157, -12961.642499165833, -8836.672763427827, -5110.167576094577, -8447.864168627759, -6501.09428180388, -9652.891415702274, -11891.485678134643, -7547.535901967991, -6026.656153995533, -5902.447510057391, -8606.69566472717, -11863.233073143134, -16625.831022957685, 0.008, 0.23800000000000002, 0.9520000000000001, 192.0, 0.0, 0.0, 0.0, 0.0, 0.0, 0.0, 0.0, 0.0, 0.0, 1.644587652784789E9, 0.0, 2022-02-12 00:54:12.784
132.0, -10607.646180110714, -9919.972410198738, -5937.673859318956, -12949.393743204326, -8822.859385354446, -5109.675837716561, -8451.52985471843, -6510.169090052735, -9647.81756971092, -11885.853038531905, -7558.197684073172, -6042.794113492265, -5897.328960577126, -8613.311781085942, -11865.512951077575, -16569.8622548416, 0.008, 0.23800000000000002, 0.9520000000000001, 192.0, 0.0, 0.0, 0.0, 0.0, 0.0, 0.0, 0.0, 0.0, 0.0, 1.644587652792034E9, 0.0, 2022-02-12 00:54:12.792
134.0, -10592.357586903285, -9914.317418851546, -5925.089827190617, -12955.875749096365, -8829.721370902225, -5102.210355068488, -8443.326764503332, -6497.316836990934, -9642.788427208476, -11840.72486647664, -7556.342489283382, -6033.652250010044, -5889.014111639752, -8619.74908348907, -11857.466323073664, -16589.352976006627, 0.008, 0.23800000000000002, 0.9520000000000001, 192.0, 0.0, 0.0, 0.0, 0.0, 0.0, 0.0, 0.0, 0.0, 0.0, 1.644587652799504E9, 0.0, 2022-02-12 00:54:12.799
136.0, -10607.400310921706, -9923.571041056042, -5931.5271295937455, -12955.160493273796, -8836.203376794265, -5111.039294128334, -8458.928282133136, -6516.271116289034, -9662.569721051423, -11903.779137585061, -7547.759419412544, -6032.7805319762865, -5900.122928634039, -8612.909449685747, -11859.790904497017, -16611.280037317283, 0.008, 0.234, 0.9440000000000001, 192.0, 0.0, 32.0, 3.5, 40.0, 14.5, 64.0, 0.0, 0.0, 0.0, 1.64458765280759E9, 0.0, 2022-02-12 00:54:12.807
138.0, -10592.514049114472, -9910.271753105135, -5921.915879477964, -12953.618222906378, -8827.46384471224, -5102.456224257497, -8457.408363510176, -6497.830927113406, -9636.775807949998, -11875.258311660089, -7555.314309038438, -6026.365581317614, -5895.093786131595, -8610.160185117744, -11863.411887098777, -16555.624193623567, 0.008, 0.234, 0.9440000000000001, 192.0, 0.0, 0.0, 0.0, 0.0, 0.0, 0.0, 0.0, 0.0, 0.0, 1.644587652814543E9, 0.0, 2022-02-12 00:54:12.814
140.0, -10596.0009212495, -9929.695419036796, -5928.308478392181, -12964.168246289284, -8834.75051340467, -5110.882831917147, -8448.758238405971, -6499.730825392106, -9646.85644469934, -11892.267989190577, -7547.044163589974, -6027.751389473843, -5891.226934340827, -8600.012493135035, -11863.389535354321, -16620.712473477422, 0.008, 0.234, 0.9440000000000001, 192.0, 0.0, 0.0, 0.0, 0.0, 0.0, 0.0, 0.0, 0.0, 0.0, 1.644587652829257E9, 0.0, 2022-02-12 00:54:12.829
142.0, -10623.448863440617, -9928.734294025218, -5931.683591804933, -12947.806769347999, -8820.959487075745, -5105.719578947971, -8449.138218061713, -6495.6181044123305, -9638.027505639495, -11896.738338081639, -7550.799256658466, -6033.764008732321, -5893.3727018085365, -8616.03869390949, -11865.065916188469, -16569.884606586053, 0.008, 0.234, 0.9440000000000001, 192.0, 0.0, 0.0, 0.0, 0.0, 0.0, 0.0, 0.0, 0.0, 0.0, 1.644587652837174E9, 0.0, 2022-02-12 00:54:12.837
144.0, -10597.967874761567, -9930.857709748472, -5919.278373632237, -12958.602661919913, -8823.664048154837, -5102.679741702049, -8435.548357432885, -6487.191496752679, -9652.019697668517, -11881.919131507771, -7540.003364086553, -6020.554127759234, -5895.741986720799, -8603.879344925803, -11859.723849263652, -16585.016737582297, 0.008, 0.234, 0.9440000000000001, 192.0, 0.0, 0.0, 0.0, 0.0, 0.0, 0.0, 0.0, 0.0, 0.0, 1.644587652844225E9, 0.0, 2022-02-12 00:54:12.844
146.0, -10597.386729405729, -9916.329075852524, -5939.327888408648, -12960.502560198613, -8829.453149968762, -5110.100520861211, -8444.176130792634, -6493.986427067092, -9648.95750867814, -11881.650910574308, -7543.132608310296, -6033.38402907658, -5895.652579742978, -8603.968751903623, -11859.96971845266, -16607.256723315328, 0.01, 0.23, 0.9400000000000001, 192.0, 0.0, 40.0, 3.5, 24.0, 14.5, 48.0, 0.0, 0.0, 0.0, 1.64458765285169E9, 0.0, 2022-02-12 00:54:12.851
148.0, -10600.895953285213, -9917.91604970885, -5933.337620894626, -12953.79703686202, -8825.139263288887, -5108.692360960527, -8448.53472096142, -6497.361540479844, -9634.406523037735, -11870.743259280118, -7555.269605549527, -6051.5783490632, -5874.127849832517, -8611.076606640412, -11863.098962676402, -16554.126626745063, 0.01, 0.23, 0.9400000000000001, 192.0, 0.0, 0.0, 0.0, 0.0, 0.0, 0.0, 0.0, 0.0, 0.0, 1.64458765285985E9, 0.0, 2022-02-12 00:54:12.859
150.0, -10605.165136476176, -9934.992782472704, -5931.46007436038, -12961.106057298906, -8839.869062884934, -5119.86823318818, -8451.507502973975, -6507.531584207009, -9654.210168625137, -11889.54107636703, -7548.385268257292, -6018.676581224988, -5904.883850203019, -8615.926935187214, -11862.808389998483, -16625.361636324124, 0.01, 0.23, 0.9400000000000001, 192.0, 0.0, 0.0, 0.0, 0.0, 0.0, 0.0, 0.0, 0.0, 0.0, 1.644587652867849E9, 0.0, 2022-02-12 00:54:12.867
152.0, -10608.182621977643, -9938.144378440902, -5937.830321530142, -12944.14108325733, -8821.719446387226, -5110.72636970596, -8444.62316568174, -6497.629761413308, -9642.162578363726, -11884.333119908944, -7551.760381670044, -6025.516215028312, -5892.791556452698, -8615.256382853555, -11863.76951501006, -16570.979842064364, 0.01, 0.23, 0.9400000000000001, 192.0, 0.0, 0.0, 0.0, 0.0, 0.0, 0.0, 0.0, 0.0, 0.0, 1.644587652874302E9, 0.0, 2022-02-12 00:54:12.874
154.0, -10594.816278793369, -9910.808194972062, -5915.523280563746, -12957.127446785862, -8830.0342953246, -5113.453282529507, -8436.755351633472, -6492.578267166408, -9643.168406864215, -11892.983245013147, -7539.779846642, -6026.544395273256, -5880.073413857629, -8601.37594954681, -11861.601395797898, -16584.770868393287, 0.01, 0.232, 0.9400000000000001, 192.0, 0.0, 40.0, 3.5, 40.0, 14.5, 48.0, 0.0, 0.0, 0.0, 1.644587652881578E9, 0.0, 2022-02-12 00:54:12.881
156.0, -10609.411967922684, -9942.480616865232, -5933.5164348502685, -12958.08857179744, -8843.221824553231, -5117.767169209382, -8454.033250097424, -6501.675427159718, -9648.5775290224, -11903.130936995858, -7542.193835043173, -6021.090569626162, -5892.143355863494, -8607.992065905579, -11863.724811521151, -16610.96711289491, 0.01, 0.232, 0.9400000000000001, 192.0, 0.0, 0.0, 0.0, 0.0, 0.0, 0.0, 0.0, 0.0, 0.0, 1.644587652889408E9, 0.0, 2022-02-12 00:54:12.889
158.0, -10586.81435427837, -9925.96267771276, -5923.614612056567, -12947.13621701434, -8831.822434881024, -5113.542689507329, -8440.71161040206, -6503.7764911385175, -9641.737895219076, -11879.974529740159, -7551.290995036483, -6033.764008732321, -5894.3114750756595, -8611.210717107144, -11868.195160412211, -16553.523129644767, 0.01, 0.232, 0.9400000000000001, 192.0, 0.0, 0.0, 0.0, 0.0, 0.0, 0.0, 0.0, 0.0, 0.0, 1.644587652897572E9, 0.0, 2022-02-12 00:54:12.897
160.0, -10585.80852577788, -9911.903430450373, -5924.151053923494, -12963.363583488892, -8838.639716939893, -5112.58156449575, -8432.933203331615, -6494.008778811548, -9646.320002832414, -11883.260236175089, -7529.453340703648, -6014.921488156497, -5873.233780054305, -8606.494499027074, -11863.903625476793, -16621.092453133162, 0.01, 0.232, 0.9400000000000001, 192.0, 0.0, 0.0, 0.0, 0.0, 0.0, 0.0, 0.0, 0.0, 0.0, 1.644587652904042E9, 0.0, 2022-02-12 00:54:12.904
162.0, -10594.011615992978, -9898.268866332635, -5933.6952488059105, -12946.42096119177, -8830.973068591722, -5114.39205579663, -8441.024534824435, -6495.461642201143, -9618.693246685654, -11871.927901736248, -7537.522320452013, -6026.387933062069, -5883.06854761464, -8604.907525170747, -11860.30499461949, -16566.55419666221, 0.01, 0.232, 0.9400000000000001, 192.0, 0.0, 0.0, 0.0, 0.0, 0.0, 0.0, 0.0, 0.0, 0.0, 1.644587652912038E9, 0.0, 2022-02-12 00:54:12.912
164.0, -10592.782270047936, -9947.06272447857, -5921.804120755687, -12959.94376658723, -8840.673725685327, -5113.341523807231, -8430.586270163807, -6491.527735177009, -9647.19172086617, -11889.630483344852, -7556.566006727935, -6040.491883813368, -5885.817812182643, -8615.144624131277, -11860.30499461949, -16584.03326082626, 0.009000000000000001, 0.233, 0.9410000000000001, 192.0, 0.0, 32.0, 3.5, 40.0, 14.5, 56.0, 0.0, 0.0, 0.0, 1.644587652920023E9, 0.0, 2022-02-12 00:54:12.920
166.0, -10628.790930365436, -9952.091866981014, -5925.782731268732, -12953.238243250638, -8843.266528042142, -5118.303611076309, -8444.690220915107, -6504.916430105738, -9648.19754936666, -11905.656684119307, -7540.606861186846, -6019.593002747656, -5892.16570760795, -8610.27194384002, -11859.902663219293, -16611.01181638382, 0.009000000000000001, 0.233, 0.9410000000000001, 192.0, 0.0, 0.0, 0.0, 0.0, 0.0, 0.0, 0.0, 0.0, 0.0, 1.644587652926686E9, 0.0, 2022-02-12 00:54:12.926
168.0, -10610.440148167629, -9934.746913283696, -5917.6690480314555, -12946.264498980583, -8829.810777880046, -5101.986837623935, -8427.1888050066, -6477.356729192345, -9642.274337086003, -11876.644119816317, -7551.514512481036, -6034.725133743898, -5872.4738207428245, -8607.433272294196, -11857.265157373567, -16547.354048175104, 0.009000000000000001, 0.233, 0.9410000000000001, 192.0, 0.0, 0.0, 0.0, 0.0, 0.0, 0.0, 0.0, 0.0, 0.0, 1.644587652934612E9, 0.0, 2022-02-12 00:54:12.934
170.0, -10603.108775986288, -9945.811026789073, -5917.758455009277, -12965.79992363452, -8849.927347889823, -5116.716637219982, -8439.325802245832, -6489.001988053559, -9645.314174331925, -11892.156230468301, -7545.188968800184, -6017.5142905133125, -5873.25613179876, -8602.51588851403, -11858.673317274252, -16614.90101991904, 0.009000000000000001, 0.233, 0.9410000000000001, 192.0, 0.0, 0.0, 0.0, 0.0, 0.0, 0.0, 0.0, 0.0, 0.0, 1.644587652949759E9, 0.0, 2022-02-12 00:54:12.949
172.0, -10619.582011649849, -9952.047163492103, -5929.247251659304, -12954.624051406867, -8841.567795463538, -5119.331791321253, -8436.91181384466, -6490.14192702078, -9641.514377774523, -11894.860791547393, -7550.262814791538, -6029.897156941553, -5880.296931302182, -8612.663580496739, -11856.01345968407, -16563.42495243847, 0.009000000000000001, 0.233, 0.9410000000000001, 192.0, 0.0, 0.0, 0.0, 0.0, 0.0, 0.0, 0.0, 0.0, 0.0, 1.644587652956264E9, 0.0, 2022-02-12 00:54:12.956
174.0, -10591.105889213788, -9935.998610973193, -5903.162765879962, -12959.876711353865, -8847.669821699837, -5122.595146011728, -8427.099398028779, -6490.767775865528, -9647.281127843991, -11891.440974645731, -7544.697230422167, -6021.179976603982, -5881.705091202866, -8610.473109540118, -11855.767590495061, -16578.84765611263, 0.007500000000000001, 0.2325, 0.9425000000000001, 192.0, 0.0, 24.0, 3.5, 32.0, 14.5, 64.0, 0.0, 0.0, 0.0, 1.644587652964234E9, 0.0, 2022-02-12 00:54:12.964
176.0, -10603.086424241832, -9943.531148854632, -5912.125815406539, -12956.747467130122, -8851.491970001694, -5129.367724581686, -8432.843796353793, -6497.696816646674, -9638.072209128406, -11902.572143384474, -7535.2871460064825, -6021.492901026357, -5892.500983774779, -8610.048426395468, -11853.331250349433, -16610.5200780058, 0.007500000000000001, 0.2325, 0.9425000000000001, 192.0, 0.0, 0.0, 0.0, 0.0, 0.0, 0.0, 0.0, 0.0, 0.0, 1.644587652972344E9, 0.0, 2022-02-12 00:54:12.972
178.0, -10600.33715967383, -9924.822738745539, -5905.040312414207, -12946.599775147411, -8842.528920475117, -5119.197680854521, -8427.792302106895, -6490.119575276324, -9635.5241102605, -11860.05912543048, -7544.317250766427, -6042.905872214541, -5882.062719114151, -8615.569307275928, -11850.984317181626, -16549.611574365088, 0.007500000000000001, 0.2325, 0.9425000000000001, 192.0, 0.0, 0.0, 0.0, 0.0, 0.0, 0.0, 0.0, 0.0, 0.0, 1.644587652979378E9, 0.0, 2022-02-12 00:54:12.979
180.0, -10609.367264433773, -9958.283300195135, -5907.7448734933, -12963.207121277705, -8855.582339237017, -5129.658297259605, -8433.380238220721, -6499.23908701409, -9638.183967850682, -11890.189276956235, -7533.25313726105, -6031.260613353326, -5871.870323642532, -8602.359426302843, -11852.236014871123, -16616.66680773101, 0.007500000000000001, 0.2325, 0.9425000000000001, 192.0, 0.0, 0.0, 0.0, 0.0, 0.0, 0.0, 0.0, 0.0, 0.0, 1.64458765298698E9, 0.0, 2022-02-12 00:54:12.986
182.0, -10613.882316813746, -9968.140419499925, -5919.814815499165, -12944.275193724061, -8849.99440312319, -5139.314250864298, -8440.376334235232, -6503.262401016045, -9634.965316649117, -11905.321407952477, -7550.262814791538, -6022.766950460309, -5866.1929805508835, -8624.577060291418, -11855.67818351724, -16573.61734791009, 0.007500000000000001, 0.2325, 0.9425000000000001, 192.0, 0.0, 0.0, 0.0, 0.0, 0.0, 0.0, 0.0, 0.0, 0.0, 1.644587652995028E9, 0.0, 2022-02-12 00:54:12.995
184.0, -10593.139897959221, -9942.614727331964, -5908.191908382405, -12947.806769347999, -8859.60565323897, -5137.392000841141, -8435.213081266056, -6503.552973693964, -9636.060552127428, -11886.009500743092, -7557.817704417433, -6018.654229480533, -5879.11228884605, -8619.145586388777, -11862.651927787296, -16587.967167850395, 0.00575, 0.23125, 0.9432500000000001, 192.0, 0.0, 16.0, 3.5, 24.0, 14.5, 64.0, 0.0, 0.0, 0.0, 1.644587653002152E9, 0.0, 2022-02-12 00:54:13.002
186.0, -10589.988301991023, -9955.288166438124, -5915.992667197307, -12947.024458292062, -8872.502609789683, -5145.326870122775, -8451.976889607537, -6515.712322677651, -9645.96237492113, -11899.822878816472, -7527.44168370267, -6013.513328255812, -5876.675948700422, -8619.413807322242, -11866.362317366877, -16620.24308684386, 0.00575, 0.23125, 0.9432500000000001, 192.0, 0.0, 0.0, 0.0, 0.0, 0.0, 0.0, 0.0, 0.0, 0.0, 1.644587653009263E9, 0.0, 2022-02-12 00:54:13.009
188.0, -10591.038833980421, -9921.4923288217, -5915.5009288192905, -12935.55801338649, -8860.969109650745, -5134.799198484326, -8438.498787700986, -6509.029151085514, -9635.05472362694, -11882.343814652422, -7545.591300200379, -6024.510386527823, -5878.799364423677, -8613.870574697325, -11869.469209846166, -16561.480350670856, 0.00575, 0.23125, 0.9432500000000001, 192.0, 0.0, 0.0, 0.0, 0.0, 0.0, 0.0, 0.0, 0.0, 0.0, 1.644587653017154E9, 0.0, 2022-02-12 00:54:13.017
190.0, -10605.835688809835, -9961.077268252047, -5905.4649955588575, -12950.332516471448, -8874.380156323929, -5143.605785799717, -8438.38702897871, -6506.704569662163, -9638.876871928796, -11875.839457015927, -7542.193835043173, -6018.788339947265, -5888.432966283914, -8609.422577550718, -11866.898759233805, -16623.081758389682, 0.00575, 0.23125, 0.9432500000000001, 192.0, 0.0, 0.0, 0.0, 0.0, 0.0, 0.0, 0.0, 0.0, 0.0, 1.644587653024562E9, 0.0, 2022-02-12 00:54:13.024
192.0, -10620.654895383705, -9980.657396394898, -5915.523280563746, -12935.245088964117, -8865.886493430913, -5143.248157888432, -8450.144046562202, -6514.058293587958, -9639.078037628895, -11886.791811799028, -7541.009192587041, -6012.015761377306, -5885.460184271358, -8625.046446924978, -11869.603320312897, -16580.926368346976, 0.00575, 0.23125, 0.9432500000000001, 192.0, 0.0, 0.0, 0.0, 0.0, 0.0, 0.0, 0.0, 0.0, 0.0, 1.644587653031733E9, 0.0, 2022-02-12 00:54:13.031
194.0, -10588.222514179053, -9951.756590814184, -5907.722521748844, -12952.098304283418, -8877.08471740302, -5142.868178232691, -8441.292755757899, -6496.065139301436, -9641.804950452442, -11893.989073513636, -7539.086942563885, -6014.362694545114, -5875.4689544998355, -8611.680103740706, -11865.44589584421, -16587.94481610594, 0.004875, 0.23062500000000002, 0.9416250000000002, 192.0, 0.0, 16.0, 3.5, 24.0, 14.5, 48.0, 0.0, 0.0, 0.0, 1.644587653039206E9, 0.0, 2022-02-12 00:54:13.039
196.0, -10618.509127915995, -9959.758515329184, -5921.625306800045, -12958.625013664367, -8889.624046042449, -5160.950739497035, -8453.563863463864, -6510.482014475109, -9651.617366268321, -11900.40402417231, -7555.984861372097, -6036.5356250447785, -5899.40767281147, -8620.263173611544, -11873.358413381387, -16627.86503170312, 0.004875, 0.23062500000000002, 0.9416250000000002, 192.0, 0.0, 0.0, 0.0, 0.0, 0.0, 0.0, 0.0, 0.0, 0.0, 1.64458765304746E9, 0.0, 2022-02-12 00:54:13.047
198.0, -10602.170002719165, -9965.838189821028, -5913.712789262866, -12945.415132691282, -8877.107069147476, -5144.566910811295, -8436.554185933373, -6507.688046418196, -9647.214072610626, -11885.987148998636, -7563.785620186999, -6021.604659748633, -5898.088919888606, -8631.394342350286, -11869.715079035173, -16563.357897205104, 0.004875, 0.23062500000000002, 0.9416250000000002, 192.0, 0.0, 0.0, 0.0, 0.0, 0.0, 0.0, 0.0, 0.0, 0.0, 1.644587653055251E9, 0.0, 2022-02-12 00:54:13.055
200.0, -10585.942636244612, -9957.21041646128, -5914.025713685241, -12954.668754895778, -8895.413147856372, -5152.25591090392, -8437.515310944953, -6501.541316692987, -9639.659182984733, -11881.405041385298, -7553.414410759737, -6013.870956167097, -5883.1579545924615, -8609.1320048728, -11866.518779578064, -16625.898078191054, 0.004875, 0.23062500000000002, 0.9416250000000002, 192.0, 0.0, 0.0, 0.0, 0.0, 0.0, 0.0, 0.0, 0.0, 0.0, 1.64458765306243E9, 0.0, 2022-02-12 00:54:13.062
202.0, -10624.789968107936, -9982.3561289735, -5922.921707978453, -12936.630897120345, -8891.143964665409, -5157.039184217356, -8440.175168535134, -6503.418863227233, -9644.241290598071, -11889.943407767227, -7553.056782848452, -6024.510386527823, -5905.353236836581, -8634.590641807396, -11870.340927879923, -16578.154752034516, 0.004875, 0.23062500000000002, 0.9416250000000002, 192.0, 0.0, 0.0, 0.0, 0.0, 0.0, 0.0, 0.0, 0.0, 0.0, 1.644587653076884E9, 0.0, 2022-02-12 00:54:13.076
204.0, -10613.211764480087, -9982.110259784491, -5919.837167243621, -12946.130388513851, -8897.625970557448, -5157.039184217356, -8432.821444609339, -6503.217697527135, -9653.67372675821, -11901.87923930636, -7552.87796889281, -6021.425845792991, -5896.434890798913, -8624.37589459132, -11865.267081888567, -16588.593016695144, 0.0064375000000000005, 0.23131250000000003, 0.9428125, 192.0, 0.0, 32.0, 3.5, 32.0, 14.5, 64.0, 0.0, 0.0, 0.0, 1.644587653085216E9, 0.0, 2022-02-12 00:54:13.085
206.0, -10623.784139607447, -9986.155925530902, -5917.065550931162, -12945.728057113654, -8912.109900964488, -5170.226713445987, -8446.612470938262, -6518.930973879215, -9650.499779045556, -11913.435091189755, -7554.554349726957, -6029.628936008088, -5912.88577471802, -8631.081417927911, -11871.011480213581, -16624.936953179473, 0.0064375000000000005, 0.23131250000000003, 0.9428125, 192.0, 0.0, 0.0, 0.0, 0.0, 0.0, 0.0, 0.0, 0.0, 0.0, 1.644587653091466E9, 0.0, 2022-02-12 00:54:13.091
208.0, -10610.641313867727, -9979.137477771936, -5912.125815406539, -12942.46470242318, -8909.226525929753, -5165.756364554926, -8450.05463958438, -6514.460624988154, -9646.610575510333, -11896.581875870452, -7567.361899299848, -6037.206177378438, -5909.376550838537, -8638.032810453513, -11875.012442471081, -16565.727182117367, 0.0064375000000000005, 0.23131250000000003, 0.9428125, 192.0, 0.0, 0.0, 0.0, 0.0, 0.0, 0.0, 0.0, 0.0, 0.0, 1.644587653099568E9, 0.0, 2022-02-12 00:54:13.099
210.0, -10590.457688624583, -9974.980053303248, -5910.494138061302, -12947.650307136812, -8925.76681682668, -5177.446326905051, -8450.456970984575, -6518.975677368126, -9652.980822680096, -11900.06874800548, -7549.9051868802535, -6030.85828195313, -5902.603972268578, -8630.120292916334, -11877.918169250272, -16628.848508459152, 0.0064375000000000005, 0.23131250000000003, 0.9428125, 192.0, 0.0, 0.0, 0.0, 0.0, 0.0, 0.0, 0.0, 0.0, 0.0, 1.644587653107523E9, 0.0, 2022-02-12 00:54:13.107
212.0, -10606.52859288795, -9992.369710489478, -5920.440664343913, -12930.685333095233, -8925.0068575152, -5187.012873531923, -8459.218854811055, -6534.8901194203045, -9633.892432915263, -11891.060994989992, -7559.427030018214, -6027.483168540379, -5901.754605979277, -8634.210662151654, -11876.01827097157, -16584.18972303745, 0.0064375000000000005, 0.23131250000000003, 0.9428125, 192.0, 0.0, 0.0, 0.0, 0.0, 0.0, 0.0, 0.0, 0.0, 0.0, 1.644587653116022E9, 0.0, 2022-02-12 00:54:13.116
214.0, -10616.989209293033, -9998.672902425875, -5911.544670050701, -12940.855376822397, -8938.306145466107, -5187.862239821225, -8452.312165774365, -6517.880441889816, -9654.545444791967, -11894.994902014125, -7565.685518465701, -6021.1576248595275, -5921.513548077768, -8641.027944210524, -11877.560541338986, -16593.644510942046, 0.00521875, 0.23265625, 0.94540625, 192.0, 0.0, 16.0, 3.5, 40.0, 14.5, 80.0, 0.0, 0.0, 0.0, 1.644587653122132E9, 0.0, 2022-02-12 00:54:13.122
216.0, -10637.351648491818, -10006.183088562857, -5927.436760358425, -12944.744580357621, -8942.172997256876, -5197.093510281266, -8458.01186061047, -6527.737561194606, -9667.62121529832, -11923.806300617016, -7572.815724946943, -6038.547282045756, -5918.563117809667, -8636.356429619364, -11879.035756473037, -16623.774662467797, 0.00521875, 0.23265625, 0.94540625, 192.0, 0.0, 0.0, 0.0, 0.0, 0.0, 0.0, 0.0, 0.0, 0.0, 1.644587653129405E9, 0.0, 2022-02-12 00:54:13.129
218.0, -10644.0124683395, -10018.74476894674, -5919.166614909961, -12932.026437762552, -8938.95434605531, -5196.9146963256235, -8455.799037909394, -6530.0174391290475, -9655.238348870082, -11914.373864456877, -7591.591190289401, -6031.506482542334, -5925.626269057545, -8655.534226362017, -11878.856942517394, -16560.65333612601, 0.00521875, 0.23265625, 0.94540625, 192.0, 0.0, 0.0, 0.0, 0.0, 0.0, 0.0, 0.0, 0.0, 0.0, 1.644587653137089E9, 0.0, 2022-02-12 00:54:13.137
220.0, -10628.321543731874, -10037.095551144546, -5919.233670143327, -12956.680411896756, -8959.652061420926, -5208.202327275554, -8462.862189157271, -6539.449875289188, -9664.96135770814, -11920.252373248622, -7560.343451540882, -6040.491883813368, -5915.344466608103, -8656.115371717855, -11882.813201285982, -16626.99331366936, 0.00521875, 0.23265625, 0.94540625, 192.0, 0.0, 0.0, 0.0, 0.0, 0.0, 0.0, 0.0, 0.0, 0.0, 1.644587653143746E9, 0.0, 2022-02-12 00:54:13.143
222.0, -10630.601421666315, -10035.285059843667, -5925.760379524277, -12937.167338987272, -8954.175884029375, -5210.906888354646, -8466.974910137047, -6546.1553986257795, -9655.260700614537, -11902.661550362296, -7590.9876931891085, -6063.268311413326, -5925.581565568634, -8675.159057993777, -11884.690747820228, -16586.26843527179, 0.00521875, 0.23265625, 0.94540625, 192.0, 0.0, 0.0, 0.0, 0.0, 0.0, 0.0, 0.0, 0.0, 0.0, 1.644587653151658E9, 0.0, 2022-02-12 00:54:13.151
224.0, -10650.025087597978, -10048.561996050119, -5914.74096950781, -12937.949650043209, -8963.071878322588, -5206.816519119325, -8457.453066999087, -6528.810444928461, -9669.67757578821, -11926.2649925071, -7584.617446019345, -6048.560863561734, -5933.114103450072, -8669.48171490213, -11883.237884430633, -16583.630929426068, 0.002, 0.234, 0.9520000000000001, 192.0, 0.0, 8.0, 3.5, 40.0, 14.5, 96.0, 0.0, 0.0, 0.0, 1.644587653159792E9, 0.0, 2022-02-12 00:54:13.159
226.0, -10664.061983115911, -10053.41232459692, -5936.019830229263, -12944.968097802175, -8976.77349767369, -5220.004048347956, -8474.485096274031, -6547.295337593, -9682.753346294565, -11944.906347382826, -7583.790431474499, -6042.8164652367195, -5941.160731453983, -8662.060935742968, -11883.528457108552, -16620.690121732965, 0.002, 0.234, 0.9520000000000001, 192.0, 0.0, 0.0, 0.0, 0.0, 0.0, 0.0, 0.0, 0.0, 0.0, 1.644587653166901E9, 0.0, 2022-02-12 00:54:13.166
228.0, -10655.501264989527, -10048.60669953903, -5924.642792301512, -12935.51330989758, -8986.295340811652, -5223.513272227439, -8480.900046932704, -6548.547035282498, -9680.607578826855, -11916.40787320231, -7593.0440536789965, -6062.15072419056, -5947.754496068299, -8678.981206295635, -11890.032814745047, -16561.010964037298, 0.002, 0.234, 0.9520000000000001, 192.0, 0.0, 0.0, 0.0, 0.0, 0.0, 0.0, 0.0, 0.0, 0.0, 1.644587653174641E9, 0.0, 2022-02-12 00:54:13.174
230.0, -10648.616927697292, -10039.08485640107, -5924.3075161346815, -12951.718324627678, -9005.54019278767, -5237.594871234282, -8488.745509236516, -6568.909474481282, -9695.739709823098, -11940.324239769488, -7593.088757167907, -6050.885444985086, -5948.827379802154, -8680.076441773945, -11895.263122947588, -16627.90973519203, 0.002, 0.234, 0.9520000000000001, 192.0, 0.0, 0.0, 0.0, 0.0, 0.0, 0.0, 0.0, 0.0, 0.0, 1.644587653182547E9, 0.0, 2022-02-12 00:54:13.182
232.0, -10658.921081891189, -10052.406496096433, -5934.8128360286755, -12941.771798345066, -9007.864774211022, -5235.046772366378, -8495.316922106376, -6562.472172078154, -9687.626026585822, -11925.683847151262, -7614.300562655993, -6082.513163389345, -5956.2928624502265, -8688.81597385597, -11902.683902106752, -16589.57649345118, 0.002, 0.234, 0.9520000000000001, 192.0, 0.0, 0.0, 0.0, 0.0, 0.0, 0.0, 0.0, 0.0, 0.0, 1.644587653196578E9, 0.0, 2022-02-12 00:54:13.196
234.0, -10647.901671874723, -10071.092554461069, -5924.732199279332, -12947.695010625723, -9019.957067961344, -5242.646365481182, -8490.734814493038, -6564.148552912302, -9685.323796906925, -11922.040512805048, -7625.36467616137, -6070.554980105756, -5955.3540891831035, -8687.273703488554, -11904.092062007436, -16588.123630061582, 0.01, 0.23800000000000002, 0.9480000000000001, 192.0, 0.0, 40.0, 3.5, 56.0, 14.5, 80.0, 0.0, 0.0, 0.0, 1.64458765320407E9, 0.0, 2022-02-12 00:54:13.204
236.0, -10668.688794218158, -10078.312167920134, -5935.79631278471, -12945.526891413558, -9029.657725054947, -5258.158476133165, -8511.432529858654, -6584.198067688712, -9699.24893370258, -11946.113341583412, -7607.729149786133, -6049.969023462418, -5975.381252215058, -8698.717796649671, -11905.008483530102, -16627.663866003022, 0.01, 0.23800000000000002, 0.9480000000000001, 192.0, 0.0, 0.0, 0.0, 0.0, 0.0, 0.0, 0.0, 0.0, 0.0, 1.644587653212131E9, 0.0, 2022-02-12 00:54:13.212
238.0, -10661.960919137111, -10080.413231898932, -5936.109237207083, -12934.7533505861, -9023.801568007657, -5253.665775497649, -8499.519050063975, -6569.021233203559, -9690.688215576198, -11932.92581235478, -7638.08281875644, -6066.8222387817195, -5980.6562639065105, -8710.966552611178, -11910.886992321848, -16565.57071990618, 0.01, 0.23800000000000002, 0.9480000000000001, 192.0, 0.0, 0.0, 0.0, 0.0, 0.0, 0.0, 0.0, 0.0, 0.0, 1.644587653219988E9, 0.0, 2022-02-12 00:54:13.219
240.0, -10654.24956730003, -10069.974967238304, -5941.741876809821, -12955.920452585275, -9045.907443273956, -5264.416964580651, -8502.938866965636, -6578.073689707958, -9693.258666188558, -11944.928699127282, -7633.053676253996, -6071.381994650602, -5980.097470295128, -8715.0569218465, -11915.536155168553, -16628.66969450351, 0.01, 0.23800000000000002, 0.9480000000000001, 192.0, 0.0, 0.0, 0.0, 0.0, 0.0, 0.0, 0.0, 0.0, 0.0, 1.644587653226568E9, 0.0, 2022-02-12 00:54:13.226
242.0, -10686.614893271315, -10113.829089859617, -5939.46199887538, -12946.130388513851, -9050.087219487097, -5271.390708850707, -8520.97672474107, -6588.824878790961, -9696.320855178936, -11955.255205065634, -7638.976888534652, -6083.697805845476, -5981.170354028983, -8716.53213698055, -11913.703312123218, -16588.257740528315, 0.01, 0.23800000000000002, 0.9480000000000001, 192.0, 0.0, 0.0, 0.0, 0.0, 0.0, 0.0, 0.0, 0.0, 0.0, 1.644587653234727E9, 0.0, 2022-02-12 00:54:13.234
244.0, -10662.9667476376, -10091.030310515203, -5935.08105696214, -12950.71249612719, -9060.74900159228, -5277.068051942355, -8513.131262437257, -6573.893913494816, -9707.675541362232, -11952.975327131191, -7640.60856587989, -6074.243017940881, -5994.246124535337, -8707.72554966516, -11917.950143569726, -16588.861237628607, 0.008, 0.23800000000000002, 0.9500000000000001, 192.0, 0.0, 32.0, 3.5, 56.0, 14.5, 88.0, 0.0, 0.0, 0.0, 1.644587653242617E9, 0.0, 2022-02-12 00:54:13.242
246.0, -10693.342768352362, -10108.352912468066, -5952.023679259262, -12956.523949685568, -9074.517676176749, -5285.293493901908, -8524.932983509658, -6585.583875844941, -9717.107977522372, -11950.181359074279, -7649.035173539541, -6084.9048000460625, -5986.154793042516, -8718.230869559155, -11922.219326760689, -16627.172127625006, 0.008, 0.23800000000000002, 0.9500000000000001, 192.0, 0.0, 0.0, 0.0, 0.0, 0.0, 0.0, 0.0, 0.0, 0.0, 1.644587653248807E9, 0.0, 2022-02-12 00:54:13.248
248.0, -10691.912256707223, -10122.032180074713, -5946.79337105672, -12943.381123945848, -9070.494362174793, -5283.907685745679, -8519.143881695734, -6583.3710531438655, -9712.97290479814, -11938.066713579503, -7675.276121530071, -6095.611285640155, -6019.213023091916, -8726.523366752073, -11923.806300617016, -16562.262661726792, 0.008, 0.23800000000000002, 0.9500000000000001, 192.0, 0.0, 0.0, 0.0, 0.0, 0.0, 0.0, 0.0, 0.0, 0.0, 1.644587653256246E9, 0.0, 2022-02-12 00:54:13.256
250.0, -10682.59157926936, -10114.700807893374, -5945.7875425562315, -12954.914624084786, -9096.51179272077, -5294.033025983933, -8537.382905171264, -6594.099890482413, -9720.997181057595, -11967.07927788249, -7657.528836432557, -6078.86982904313, -6021.582308004178, -8724.06467486199, -11924.655666906317, -16625.853374702143, 0.008, 0.23800000000000002, 0.9500000000000001, 192.0, 0.0, 0.0, 0.0, 0.0, 0.0, 0.0, 0.0, 0.0, 0.0, 1.644587653264271E9, 0.0, 2022-02-12 00:54:13.264
252.0, -10693.745099752558, -10112.443281703387, -5957.924539795464, -12944.476359424158, -9091.862629874067, -5300.827956298346, -8532.353762668821, -6600.134861485346, -9718.270268234048, -11969.068583139013, -7679.813525654498, -6094.404291439569, -6024.219813849904, -8739.196805858232, -11931.472948965187, -16587.028394583274, 0.008, 0.23800000000000002, 0.9500000000000001, 192.0, 0.0, 0.0, 0.0, 0.0, 0.0, 0.0, 0.0, 0.0, 0.0, 1.644587653272617E9, 0.0, 2022-02-12 00:54:13.272
254.0, -10685.87728570429, -10127.731874910818, -5948.670917590966, -12951.293641483027, -9104.312551535673, -5304.136014477732, -8521.133186952256, -6593.630503848852, -9716.862108333364, -11954.986984132169, -7677.600702953423, -6094.091367017194, -6021.492901026357, -8740.20263435872, -11928.969553586192, -16588.436554483957, 0.006, 0.23800000000000002, 0.9460000000000001, 192.0, 0.0, 24.0, 3.5, 56.0, 14.5, 72.0, 0.0, 0.0, 0.0, 1.644587653279093E9, 0.0, 2022-02-12 00:54:13.279
0.0, -10695.868515475811, -10122.054531819169, -5966.887589322042, -12954.445237451226, -9120.8528424326, -5319.648125129715, -8537.762884827005, -6600.581896374452, -9726.92039333825, -11969.13563837238, -7685.80379316852, -6099.20991649746, -6026.298526084248, -8757.793457245047, -11932.188204787757, -16630.48018580439, 0.006, 0.23800000000000002, 0.9460000000000001, 192.0, 0.0, 0.0, 0.0, 0.0, 0.0, 0.0, 0.0, 0.0, 0.0, 1.644587653286931E9, 0.0, 2022-02-12 00:54:13.286
2.0, -10686.704300249135, -10150.798875188693, -5957.678670606455, -12939.983658788642, -9126.753702968801, -5322.6432588867265, -8542.032068017968, -6603.286457453544, -9720.818367101952, -11948.661440451318, -7701.293552076048, -6113.3138672487585, -6043.844645481664, -8773.350271385942, -11935.786835645062, -16564.408429194504, 0.006, 0.23800000000000002, 0.9460000000000001, 192.0, 0.0, 0.0, 0.0, 0.0, 0.0, 0.0, 0.0, 0.0, 0.0, 1.644587653294999E9, 0.0, 2022-02-12 00:54:13.294
4.0, -10677.338919322363, -10145.367401286054, -5957.5892636286335, -12949.304336226503, -9146.33383111165, -5326.1077792772985, -8546.413009931208, -6610.327256956966, -9731.457797462679, -11992.04617643907, -7685.423813512781, -6087.005864024862, -6048.471456583912, -8755.580634543972, -11944.571071215996, -16625.272229346305, 0.006, 0.23800000000000002, 0.9460000000000001, 192.0, 0.0, 0.0, 0.0, 0.0, 0.0, 0.0, 0.0, 0.0, 0.0, 1.644587653302001E9, 0.0, 2022-02-12 00:54:13.302
6.0, -10706.195021414163, -10136.203186059378, -5968.362804456092, -12940.900080311309, -9138.577775785658, -5324.140825765232, -8549.02816403248, -6610.930754057259, -9720.594849657398, -11974.477705297197, -7706.456805045224, -6116.331352750225, -6041.207139635938, -8760.945053213245, -11939.676039180284, -16580.054650313217, 0.006, 0.23800000000000002, 0.9460000000000001, 192.0, 0.0, 0.0, 0.0, 0.0, 0.0, 0.0, 0.0, 0.0, 0.0, 1.644587653309481E9, 0.0, 2022-02-12 00:54:13.309
8.0, -10700.49532657806, -10138.885395394016, -5961.8137433306865, -12948.499673426113, -9154.022831204276, -5330.19814851262, -8542.07677150688, -6600.313675440989, -9716.01274204406, -11957.803303933539, -7709.228421357682, -6108.284724746314, -6060.943729989974, -8764.476628837185, -11941.866510136904, -16583.42976372597, 0.008, 0.23600000000000002, 0.9520000000000001, 192.0, 0.0, 32.0, 3.5, 48.0, 14.5, 96.0, 0.0, 0.0, 0.0, 1.644587653324514E9, 0.0, 2022-02-12 00:54:13.324
10.0, -10713.504041851049, -10164.63460500653, -5979.561028428201, -12951.673621138767, -9173.513552369304, -5344.615023686293, -8559.175856015188, -6605.253410965612, -9738.140969054815, -11996.985911963691, -7702.411139298813, -6112.39744572609, -6076.321730175225, -8774.579617330983, -11946.783893917072, -16622.81353745622, 0.008, 0.23600000000000002, 0.9520000000000001, 192.0, 0.0, 0.0, 0.0, 0.0, 0.0, 0.0, 0.0, 0.0, 0.0, 1.644587653331968E9, 0.0, 2022-02-12 00:54:13.331
12.0, -10711.470033105616, -10157.258529336277, -5977.258798749304, -12938.530795399047, -9168.730279055868, -5340.368192239785, -8545.988326786557, -6597.787928317539, -9748.93686162673, -11979.126868143901, -7727.2886308775705, -6122.522785964345, -6086.759994835854, -8788.236533193176, -11950.762504430117, -16557.434684924447, 0.008, 0.23600000000000002, 0.9520000000000001, 192.0, 0.0, 0.0, 0.0, 0.0, 0.0, 0.0, 0.0, 0.0, 0.0, 1.644587653339122E9, 0.0, 2022-02-12 00:54:13.339
14.0, -10683.463297303117, -10160.387773560022, -5975.224790003871, -12948.790246104032, -9193.7195293569, -5351.2311400450635, -8560.69577463815, -6613.702370369718, -9747.349887770402, -11978.389260576876, -7718.0126569286185, -6108.508242190867, -6089.755128592865, -8782.246265679154, -11947.923832884293, -16616.24212458636, 0.008, 0.23600000000000002, 0.9520000000000001, 192.0, 0.0, 0.0, 0.0, 0.0, 0.0, 0.0, 0.0, 0.0, 0.0, 1.644587653348524E9, 0.0, 2022-02-12 00:54:13.348
16.0, -10732.435969404694, -10184.281788382745, -5990.960418100407, -12942.934089056742, -9201.229715493884, -5365.2009803296305, -8573.726841655594, -6624.766483875094, -9745.718210425164, -11996.963560219236, -7740.364401383925, -6130.524710479344, -6101.892125832096, -8806.006170035145, -11954.830521920983, -16586.42489748298, 0.008, 0.23600000000000002, 0.9520000000000001, 192.0, 0.0, 0.0, 0.0, 0.0, 0.0, 0.0, 0.0, 0.0, 0.0, 1.644587653355164E9, 0.0, 2022-02-12 00:54:13.355
18.0, -10732.8830042938, -10182.963035459881, -5987.272380265282, -12951.830083349954, -9210.639799909568, -5362.474067506083, -8570.105859053834, -6611.35543720191, -9759.866864665373, -11997.790574764083, -7751.987308500685, -6144.673364719554, -6094.49369841739, -8806.833184579991, -11953.869396909404, -16579.786429379754, 0.008, 0.23, 0.9520000000000001, 192.0, 0.0, 32.0, 3.5, 24.0, 14.5, 96.0, 0.0, 0.0, 0.0, 1.644587653361848E9, 0.0, 2022-02-12 00:54:13.361
20.0, -10731.474844393117, -10196.843468766627, -6002.337456028158, -12952.433580450248, -9231.739846675378, -5381.718919482103, -8584.299216782954, -6627.627507165374, -9765.924187412762, -12010.061682470046, -7763.520808639623, -6140.73945769542, -6121.427550486034, -8808.330751458496, -11957.848007422448, -16621.24891534435, 0.008, 0.23, 0.9520000000000001, 192.0, 0.0, 0.0, 0.0, 0.0, 0.0, 0.0, 0.0, 0.0, 0.0, 1.644587653369871E9, 0.0, 2022-02-12 00:54:13.369
22.0, -10722.824719288912, -10188.77448901826, -5996.95068561443, -12939.916603555275, -9230.264631541328, -5377.7626607135135, -8585.93089412819, -6625.884071097859, -9758.79398093152, -11976.89169369837, -7781.335148970503, -6163.940568440029, -6138.034896616327, -8834.661106426849, -11965.246434837156, -16559.80396983671, 0.008, 0.23, 0.9520000000000001, 192.0, 0.0, 0.0, 0.0, 0.0, 0.0, 0.0, 0.0, 0.0, 0.0, 1.644587653377148E9, 0.0, 2022-02-12 00:54:13.377
24.0, -10726.222184446118, -10193.937741987436, -5992.972075101385, -12953.394705461826, -9253.778666708311, -5389.430271319184, -8589.618931963318, -6633.17073979029, -9767.98054790265, -11993.834315995493, -7748.969822999218, -6140.940623395518, -6137.856082660685, -8824.26754525513, -11967.056926138035, -16623.215868856416, 0.008, 0.23, 0.9520000000000001, 192.0, 0.0, 0.0, 0.0, 0.0, 0.0, 0.0, 0.0, 0.0, 0.0, 1.644587653383989E9, 0.0, 2022-02-12 00:54:13.383
26.0, -10754.27362373753, -10224.470224913386, -6009.221793320393, -12941.414170433782, -9258.718402232935, -5398.1250999122985, -8605.265153082031, -6650.850969654438, -9777.301225340512, -12017.393054651388, -7775.858971578953, -6159.537274782333, -6150.306004322291, -8836.18102504981, -11969.001527905648, -16590.582321951668, 0.008, 0.23, 0.9520000000000001, 192.0, 0.0, 0.0, 0.0, 0.0, 0.0, 0.0, 0.0, 0.0, 0.0, 1.644587653392483E9, 0.0, 2022-02-12 00:54:13.392
28.0, -10763.124914541831, -10224.246707468834, -6007.90304039753, -12950.019592049073, -9274.968120451942, -5406.194079660664, -8598.60433323435, -6647.073524841491, -9786.957178945206, -12023.785653565605, -7782.720957126732, -6157.033879403339, -6157.16798987007, -8839.757304162658, -11974.477705297197, -16587.09544981664, 0.008, 0.232, 0.9460000000000001, 192.0, 0.0, 32.0, 3.5, 32.0, 14.5, 72.0, 0.0, 0.0, 0.0, 1.64458765339988E9, 0.0, 2022-02-12 00:54:13.399
30.0, -10756.240577249597, -10221.54214638974, -6015.86026142362, -12953.417057206281, -9295.50937360637, -5422.935536257689, -8623.303010857464, -6666.385432050876, -9803.31865588649, -12032.212261225255, -7790.991102575195, -6168.522676053367, -6150.21659734447, -8853.123647346933, -11979.775068733104, -16632.78241548329, 0.008, 0.232, 0.9460000000000001, 192.0, 0.0, 0.0, 0.0, 0.0, 0.0, 0.0, 0.0, 0.0, 0.0, 1.644587653407428E9, 0.0, 2022-02-12 00:54:13.407
32.0, -10753.960699315156, -10231.287506972254, -6018.654229480533, -12940.184824488739, -9292.022501471341, -5411.938477985678, -8610.584868262395, -6647.587614963963, -9791.3604726029, -12008.273542913621, -7810.727692929232, -6178.491554080433, -6186.113498939693, -8863.718374218748, -11985.161839146835, -16564.386077450046, 0.008, 0.232, 0.9460000000000001, 192.0, 0.0, 0.0, 0.0, 0.0, 0.0, 0.0, 0.0, 0.0, 0.0, 1.644587653414097E9, 0.0, 2022-02-12 00:54:13.414
34.0, -10744.729428855113, -10226.772454592283, -6020.2188515924045, -12954.691106640234, -9316.117681994163, -5424.768379303024, -8620.933725945202, -6660.708088959228, -9794.735586015653, -12029.217127468244, -7821.858861667974, -6173.730632511453, -6182.760737271397, -8860.812647439558, -11985.318301358022, -16624.378159568092, 0.008, 0.232, 0.9460000000000001, 192.0, 0.0, 0.0, 0.0, 0.0, 0.0, 0.0, 0.0, 0.0, 0.0, 1.64458765342225E9, 0.0, 2022-02-12 00:54:13.422
36.0, -10752.50783592556, -10241.234033254867, -6020.889403926063, -12935.580365130945, -9311.893202292109, -5432.8820625403005, -8629.047409182478, -6666.988929151169, -9805.531478587565, -12028.725389090228, -7817.232050565726, -6182.64897854912, -6193.243705420936, -8862.8913596739, -11988.782821748593, -16591.09641207414, 0.008, 0.232, 0.9460000000000001, 192.0, 0.0, 0.0, 0.0, 0.0, 0.0, 0.0, 0.0, 0.0, 0.0, 1.644587653430294E9, 0.0, 2022-02-12 00:54:13.430
38.0, -10752.038449291998, -10239.714114631906, -6017.4025317910355, -12933.166376729772, -9327.785292599832, -5435.497216641572, -8627.683952770705, -6666.363080306421, -9799.228286651169, -12017.929496518314, -7803.932762614819, -6169.684966765042, -6188.080452451761, -8867.51817077615, -11994.79544100707, -16584.145019548538, 0.008, 0.232, 0.9380000000000001, 192.0, 0.0, 32.0, 3.5, 32.0, 14.5, 40.0, 0.0, 0.0, 0.0, 1.644587653444748E9, 0.0, 2022-02-12 00:54:13.444
40.0, -10762.633176163814, -10245.994954823847, -6041.028325680295, -12941.414170433782, -9345.443170719525, -5448.12595225882, -8640.290336643498, -6671.615740253418, -9817.04262698205, -12044.840996842504, -7821.702399456787, -6172.121306910671, -6200.642132835643, -8878.582284281527, -11993.700205528761, -16629.34024683717, 0.008, 0.232, 0.9380000000000001, 192.0, 0.0, 0.0, 0.0, 0.0, 0.0, 0.0, 0.0, 0.0, 0.0, 1.644587653451912E9, 0.0, 2022-02-12 00:54:13.451
42.0, -10776.245388537096, -10241.457550699419, -6040.693049513466, -12930.484167395136, -9338.447074705015, -5445.108466757353, -8639.66448779875, -6668.441792540764, -9806.403196621322, -12005.256057412154, -7842.802446222598, -6199.166917701593, -6216.668333610098, -8886.606560540982, -11993.65550203985, -16558.529920402758, 0.008, 0.232, 0.9380000000000001, 192.0, 0.0, 0.0, 0.0, 0.0, 0.0, 0.0, 0.0, 0.0, 0.0, 1.644587653459726E9, 0.0, 2022-02-12 00:54:13.459
44.0, -10770.188065789707, -10254.086286316668, -6044.761067004331, -12948.790246104032, -9362.98929011694, -5455.79260060699, -8645.431237868219, -6682.255170614144, -9828.263202698614, -12017.32599941802, -7839.516739787668, -6195.9035630111175, -6227.240708737459, -8892.663883288371, -11994.974254962714, -16622.277095589292, 0.008, 0.232, 0.9380000000000001, 192.0, 0.0, 0.0, 0.0, 0.0, 0.0, 0.0, 0.0, 0.0, 0.0, 1.644587653467031E9, 0.0, 2022-02-12 00:54:13.467
46.0, -10780.156943816775, -10252.722829904895, -6055.735773531887, -12939.469568666169, -9358.831865648255, -5454.69736512868, -8645.677107057227, -6675.974330422203, -9819.009580494116, -12043.701057875283, -7856.481713829246, -6214.544917886844, -6224.983182547472, -8888.95349370879, -12000.226914909712, -16588.548313206233, 0.006, 0.233, 0.9410000000000001, 192.0, 0.0, 16.0, 3.5, 40.0, 14.5, 64.0, 0.0, 0.0, 0.0, 1.644587653474393E9, 0.0, 2022-02-12 00:54:13.474
48.0, -10766.32121399894, -10262.535245720774, -6045.3422123601695, -12933.434597663236, -9373.539313499847, -5460.218246009141, -8640.133874432311, -6675.0579088995355, -9813.421644380289, -12024.880889043914, -7874.363109393491, -6197.736406056453, -6227.933612815573, -8886.517153563162, -11999.086975942491, -16573.12560953207, 0.006, 0.233, 0.9410000000000001, 192.0, 0.0, 0.0, 0.0, 0.0, 0.0, 0.0, 0.0, 0.0, 0.0, 1.644587653482346E9, 0.0, 2022-02-12 00:54:13.482
50.0, -10786.348377030896, -10288.239751844378, -6069.77266904982, -12941.347115200415, -9389.14083112965, -5480.804202652479, -8659.468133386152, -6685.406766582342, -9826.966801520206, -12062.118895306456, -7855.833513240042, -6183.096013438227, -6245.993822335461, -8893.803822255592, -12002.752662033161, -16617.985560653873, 0.006, 0.233, 0.9410000000000001, 192.0, 0.0, 0.0, 0.0, 0.0, 0.0, 0.0, 0.0, 0.0, 0.0, 1.644587653489603E9, 0.0, 2022-02-12 00:54:13.489
52.0, -10761.470885452138, -10262.55759746523, -6066.330500403703, -12924.583306858935, -9388.492630540446, -5476.289150272507, -8663.402040410285, -6689.497135817664, -9825.960973019717, -12041.085903774012, -7893.451499158324, -6216.847147565741, -6260.544807975866, -8910.008836985688, -12006.463051612742, -16551.33265868815, 0.006, 0.233, 0.9410000000000001, 192.0, 0.0, 0.0, 0.0, 0.0, 0.0, 0.0, 0.0, 0.0, 0.0, 1.644587653496379E9, 0.0, 2022-02-12 00:54:13.496
54.0, -10775.217208292152, -10255.60620493963, -6056.853360754652, -12933.524004641058, -9400.316703357305, -5480.781850908023, -8651.37680189333, -6681.741080491672, -9825.13395847487, -12032.703999603273, -7872.954949492807, -6203.167879959093, -6271.340700547779, -8899.056482202588, -12004.09376670048, -16606.295598303746, 0.006, 0.233, 0.9410000000000001, 192.0, 0.0, 0.0, 0.0, 0.0, 0.0, 0.0, 0.0, 0.0, 0.0, 1.64458765350421E9, 0.0, 2022-02-12 00:54:13.504
56.0, -10789.924656143745, -10283.344719808665, -6074.935922018996, -12924.873879536854, -9405.301142370838, -5488.51555448956, -8662.664432843261, -6685.697339260261, -9825.4692346417, -12033.776883337126, -7882.856772286507, -6216.400112676634, -6270.871313914217, -8910.344113152518, -12005.881906256904, -16574.33260373266, 0.006, 0.233, 0.9410000000000001, 192.0, 0.0, 0.0, 3.5, 48.0, 14.5, 80.0, 0.0, 0.0, 0.0, 1.644587653512186E9, 0.0, 2022-02-12 00:54:13.512
58.0, -10774.233731536118, -10277.488562761375, -6071.069070228228, -12934.865109308375, -9421.260287911928, -5487.8226504114455, -8665.972491022647, -6684.356234592943, -9831.884185300372, -12027.920726289836, -7899.240600972248, -6222.099807512737, -6276.191029094581, -8913.227488187253, -12010.41931038133, -16564.050801283218, 0.006, 0.233, 0.9410000000000001, 192.0, 0.0, 0.0, 0.0, 0.0, 0.0, 0.0, 0.0, 0.0, 0.0, 1.644587653519409E9, 0.0, 2022-02-12 00:54:13.519
60.0, -10798.686539970224, -10300.264990361333, -6088.168154736538, -12938.240222721128, -9441.175692221606, -5508.430958799238, -8679.182371995732, -6703.6457900578735, -9849.273842486602, -12064.354069751987, -7907.063711531605, -6219.931688300573, -6295.681750259609, -8921.117653979976, -12016.007246495157, -16610.698891961445, 0.006, 0.233, 0.9410000000000001, 192.0, 0.0, 0.0, 0.0, 0.0, 0.0, 0.0, 0.0, 0.0, 0.0, 1.644587653526653E9, 0.0, 2022-02-12 00:54:13.526
62.0, -10805.012083651076, -10284.730527964894, -6086.245904713382, -12923.957458014185, -9446.808331824343, -5513.929487935244, -8688.145421522311, -6708.89845000487, -9840.489606915666, -12040.795331096093, -7933.4387699888675, -6234.28150824088, -6281.3095785748465, -8936.920337309879, -12022.399845409376, -16548.426931908958, 0.006, 0.233, 0.9410000000000001, 192.0, 0.0, 0.0, 0.0, 0.0, 0.0, 0.0, 0.0, 0.0, 0.0, 1.644587653534889E9, 0.0, 2022-02-12 00:54:13.534
64.0, -10797.99363589211, -10301.159060139546, -6082.982550022906, -12944.051676279507, -9468.914207090642, -5525.083008418443, -8697.1531745378, -6713.547612851574, -9860.583825180987, -12048.1937585108, -7907.689560376354, -6242.8645781117175, -6319.285192404413, -8933.500520408215, -12022.578659365017, -16610.028339627785, 0.006, 0.233, 0.9410000000000001, 192.0, 0.0, 0.0, 0.0, 0.0, 0.0, 0.0, 0.0, 0.0, 0.0, 1.644587653542683E9, 0.0, 2022-02-12 00:54:13.542
66.0, -10792.56216198947, -10304.824746230215, -6097.265314729848, -12928.204289460695, -9463.907416332653, -5523.2725171175625, -8703.34460775192, -6706.797386026071, -9858.147485035359, -12065.829284886036, -7936.031572345683, -6255.113334073226, -6335.423151901145, -8937.479130921261, -12023.070397743035, -16576.411315967, 0.001, 0.2335, 0.9405000000000001, 192.0, 127.5, 112.0, 3.5, 40.0, 14.5, 48.0, 0.0, 0.0, 0.0, 1.644587653549522E9, 0.0, 2022-02-12 00:54:13.549
68.0, -10797.032510880532, -10294.453536802952, -6088.794003581286, -12923.219850447162, -9469.897683846675, -5519.651534515802, -8685.23969474312, -6696.582638809996, -9850.346726220456, -12050.875967845437, -7950.493151008267, -6247.357278747235, -6324.470797118044, -8940.653078633915, -12021.505775631163, -16558.57462389167, 0.001, 0.2335, 0.9405000000000001, 192.0, 0.0, 0.0, 0.0, 0.0, 0.0, 0.0, 0.0, 0.0, 0.0, 1.644587653557312E9, 0.0, 2022-02-12 00:54:13.557
70.0, -10816.23265936764, -10323.220231916934, -6108.709407890965, -12935.937993042231, -9494.708120192066, -5539.321069636473, -8708.284343276542, -6715.246345430178, -9870.418592741322, -12062.253005773187, -7945.5757672281, -6260.924787631606, -6345.481436906032, -8948.565596171093, -12026.177290222322, -16605.937970392464, 0.001, 0.2335, 0.9405000000000001, 192.0, 0.0, 0.0, 0.0, 0.0, 0.0, 0.0, 0.0, 0.0, 0.0, 1.644587653572373E9, 0.0, 2022-02-12 00:54:13.572
72.0, -10821.597078036915, -10319.0851591927, -6114.230288771426, -12918.682446322733, -9497.859716160265, -5545.221930172674, -8715.123977079866, -6726.489272891196, -9871.603235197454, -12059.77196213865, -7966.586407016088, -6258.957834119539, -6360.054774290893, -8967.899855124933, -12031.228784469222, -16543.241327195326, 0.001, 0.2335, 0.9405000000000001, 192.0, 0.0, 0.0, 0.0, 0.0, 0.0, 0.0, 0.0, 0.0, 0.0, 1.644587653579166E9, 0.0, 2022-02-12 00:54:13.579
74.0, -10805.213249351174, -10320.783891771305, -6121.785178397319, -12926.46085339318, -9514.176489612639, -5545.132523194853, -8716.9568201252, -6715.760435552649, -9878.934607378795, -12067.080982575535, -7962.876017436507, -6245.211511279525, -6346.219044473058, -8959.495599209738, -12030.178252479822, -16600.573551723188, 0.001, 0.2335, 0.9405000000000001, 192.0, 0.0, 0.0, 0.0, 0.0, 0.0, 0.0, 0.0, 0.0, 0.0, 1.644587653586944E9, 0.0, 2022-02-12 00:54:13.586
76.0, -10822.960534448688, -10316.738226024894, -6126.926079622041, -12920.582344601435, -9513.125957623239, -5550.072258719476, -8717.96264862569, -6719.783749554605, -9865.076525816505, -12072.020718100157, -7986.166535158937, -6267.4291452681, -6369.107230795292, -8959.070916065088, -12029.731217590717, -16565.771885606275, 0.0025, 0.23475000000000001, 0.9412500000000001, 192.0, 0.0, 16.0, 3.5, 48.0, 14.5, 56.0, 0.0, 0.0, 0.0, 1.644587653595072E9, 0.0, 2022-02-12 00:54:13.595
78.0, -10819.652476269302, -10313.452519589964, -6123.394503998102, -12925.052693492496, -9527.498129308002, -5552.3297849094615, -8720.398988771318, -6725.706961835261, -9882.443831258277, -12066.701002919794, -7984.110174669048, -6279.05205238486, -6394.856440407806, -8966.223474290786, -12036.056761271568, -16559.111065758596, 0.0025, 0.23475000000000001, 0.9412500000000001, 192.0, 0.0, 0.0, 0.0, 0.0, 0.0, 0.0, 0.0, 0.0, 0.0, 1.644587653601542E9, 0.0, 2022-02-12 00:54:13.601
80.0, -10839.366714878883, -10355.339688699209, -6141.521768751356, -12927.354923171393, -9548.195844673615, -5572.312244452506, -8741.20846285921, -6738.559214897063, -9899.118232621937, -12079.508552492685, -7991.508602083755, -6260.678918442598, -6404.490042268043, -8966.804619646624, -12036.660258371861, -16610.453022772435, 0.0025, 0.23475000000000001, 0.9412500000000001, 192.0, 0.0, 0.0, 0.0, 0.0, 0.0, 0.0, 0.0, 0.0, 0.0, 1.644587653609809E9, 0.0, 2022-02-12 00:54:13.609
82.0, -10832.415322353283, -10337.90532802407, -6144.494550763911, -12919.621219589857, -9549.6040045743, -5566.679604849769, -8744.963555927701, -6734.670011361839, -9899.945247166783, -12061.023659828146, -8009.501756370278, -6288.573895522821, -6413.050760394426, -8989.379881546483, -12040.57181365154, -16542.347257417114, 0.0025, 0.23475000000000001, 0.9412500000000001, 192.0, 0.0, 0.0, 0.0, 0.0, 0.0, 0.0, 0.0, 0.0, 0.0, 1.64458765361785E9, 0.0, 2022-02-12 00:54:13.617
84.0, -10827.699104273213, -10325.768330784838, -6144.829826930742, -12927.846661549409, -9564.870246037275, -5573.698052608735, -8737.162797112798, -6735.161749739856, -9903.342712323989, -12055.301613247588, -8004.517317356744, -6295.569991537332, -6413.833071450362, -8986.362396045017, -12039.81185434006, -16595.924388876487, 0.0025, 0.23475000000000001, 0.9412500000000001, 192.0, 0.0, 0.0, 0.0, 0.0, 0.0, 0.0, 0.0, 0.0, 0.0, 1.644587653624845E9, 0.0, 2022-02-12 00:54:13.624
86.0, -10838.942031734232, -10336.541871612295, -6152.652937490098, -12907.327760139438, -9561.875112280264, -5574.323901453484, -8740.359096569908, -6727.919784536337, -9894.044386630581, -12074.099430334501, -8017.168404718448, -6296.732282249008, -6418.996324419538, -8987.63644547897, -12040.817682840549, -16563.067324527183, 0.0025, 0.23475000000000001, 0.9412500000000001, 192.0, 0.0, 0.0, 3.5, 64.0, 14.5, 72.0, 0.0, 0.0, 0.0, 1.644587653631173E9, 0.0, 2022-02-12 00:54:13.631
88.0, -10826.402703094805, -10339.559357113762, -6150.373059555657, -12904.22086766015, -9570.167609473183, -5574.837991575956, -8738.25803259111, -6730.713752593249, -9889.372872039423, -12058.162636537867, -8018.2636401967575, -6277.018043639427, -6418.437530808155, -8988.530515257182, -12040.169482251345, -16547.532862130745, 0.0025, 0.23475000000000001, 0.9412500000000001, 192.0, 0.0, 0.0, 0.0, 0.0, 0.0, 0.0, 0.0, 0.0, 0.0, 1.644587653639376E9, 0.0, 2022-02-12 00:54:13.639
90.0, -10828.213194395685, -10368.281348738832, -6164.119382395671, -12910.814632274465, -9587.110231770306, -5582.7952126020455, -8753.859550220914, -6750.986784814213, -9892.457412774254, -12092.427860787853, -8033.529881659732, -6279.163811107137, -6446.332507888378, -8987.658797223425, -12039.00719153967, -16597.936045877464, 0.0025, 0.23475000000000001, 0.9412500000000001, 192.0, 0.0, 0.0, 0.0, 0.0, 0.0, 0.0, 0.0, 0.0, 0.0, 1.644587653647558E9, 0.0, 2022-02-12 00:54:13.647
92.0, -10852.688354574246, -10355.898482310591, -6165.795763229819, -12898.431765846226, -9584.450374180124, -5578.481325922171, -8761.68266078027, -6742.76134285466, -9907.3883780704, -12082.257817060688, -8033.954564804383, -6301.537907306899, -6450.601691079341, -8995.30309382714, -12043.566947408552, -16528.623286321555, 0.0025, 0.23475000000000001, 0.9412500000000001, 192.0, 0.0, 0.0, 0.0, 0.0, 0.0, 0.0, 0.0, 0.0, 0.0, 1.64458765365465E9, 0.0, 2022-02-12 00:54:13.654
94.0, -10850.72140106218, -10355.138522999112, -6162.890036450629, -12914.770891043056, -9610.445452981647, -5590.372453972394, -8760.788591002058, -6738.425104430331, -9920.642962532398, -12079.620311214961, -8031.428817680934, -6292.552506035866, -6459.654147583741, -8991.927980414388, -12045.422142198342, -16583.318005003694, 0.0025, 0.23475000000000001, 0.9412500000000001, 192.0, 0.0, 0.0, 0.0, 0.0, 0.0, 0.0, 0.0, 0.0, 0.0, 1.644587653662842E9, 0.0, 2022-02-12 00:54:13.662
96.0, -10859.617395355392, -10347.851854306682, -6180.436155848045, -12905.897248494299, -9614.4687669836, -5599.15668954333, -8777.798268532548, -6755.792409872104, -9911.81402347255, -12077.988633869725, -8038.8048933511855, -6303.191936396592, -6470.919426789216, -9014.749111503257, -12051.188892267812, -16561.525054159767, 0.0025, 0.23475000000000001, 0.9412500000000001, 192.0, 0.0, 0.0, 3.5, 56.0, 14.5, 72.0, 0.0, 0.0, 0.0, 1.64458765366927E9, 0.0, 2022-02-12 00:54:13.669
98.0, -10847.793322538535, -10349.684697352017, -6175.161144156593, -12912.021626475052, -9624.99643862205, -5601.72714015569, -8776.188942931765, -6751.992613314702, -9905.890811191895, -12065.739877908216, -8044.370477720557, -6314.72543653553, -6473.735746590584, -9019.800605750157, -12055.86040685897, -16549.835091809644, 0.0025, 0.23475000000000001, 0.9412500000000001, 192.0, 0.0, 0.0, 0.0, 0.0, 0.0, 0.0, 0.0, 0.0, 0.0, 1.644587653677384E9, 0.0, 2022-02-12 00:54:13.677
100.0, -10855.303508675517, -10371.142372029111, -6190.27092340838, -12922.012856246574, -9640.039162640473, -5615.696980440257, -8796.953713530746, -6764.621348931951, -9927.77316901364, -12087.085793863034, -8049.243158011814, -6316.737093536508, -6479.435441426688, -9009.11647190052, -12056.1956830258, -16601.557028479223, 0.0025, 0.23475000000000001, 0.9412500000000001, 192.0, 0.0, 0.0, 0.0, 0.0, 0.0, 0.0, 0.0, 0.0, 0.0, 1.644587653692202E9, 0.0, 2022-02-12 00:54:13.692
102.0, -10839.411418367794, -10357.217235233455, -6198.921048512584, -12900.912809480764, -9633.020714881506, -5608.455015236737, -8789.041195993566, -6760.486276207719, -9918.273677620135, -12069.606729698984, -8072.913655389983, -6319.106378448771, -6490.007816554048, -9025.209727908341, -12056.977994081735, -16531.484309611835, 0.0025, 0.23475000000000001, 0.9412500000000001, 192.0, 0.0, 0.0, 0.0, 0.0, 0.0, 0.0, 0.0, 0.0, 0.0, 1.644587653698848E9, 0.0, 2022-02-12 00:54:13.698
104.0, -10832.57178456447, -10354.110342754168, -6197.691702567542, -12911.999274730597, -9658.278186116004, -5615.8757943959, -8796.014940263622, -6768.398793744897, -9917.67018051984, -12091.399680542909, -8078.523943248266, -6307.349360865279, -6508.693874918685, -9019.30886737214, -12059.1461132939, -16585.03908932675, 0.0025, 0.23475000000000001, 0.9412500000000001, 192.0, 0.0, 0.0, 0.0, 0.0, 0.0, 0.0, 0.0, 0.0, 0.0, 1.644587653706761E9, 0.0, 2022-02-12 00:54:13.706
106.0, -10880.87390433239, -10362.827523091737, -6208.532298628366, -12899.638760046812, -9656.020659926016, -5620.1896810757735, -8806.386149690885, -6776.735994426727, -9923.548689311587, -12090.81853518707, -8081.07204211617, -6331.511596621465, -6516.941668622693, -9026.9308122314, -12062.968261595757, -16562.933214060453, 0.0022500000000000003, 0.237375, 0.946625, 192.0, 0.0, 8.0, 3.5, 64.0, 14.5, 96.0, 0.0, 0.0, 0.0, 1.644587653714826E9, 0.0, 2022-02-12 00:54:13.714
108.0, -10873.117849006398, -10360.033555034823, -6203.816080548297, -12906.277228150038, -9663.240273385081, -5619.474425253204, -8805.469728168217, -6774.679633936838, -9930.880061492928, -12065.270491274654, -8082.390795039034, -6328.628221586731, -6508.515060963043, -9025.522652330716, -12063.348241251499, -16545.677667340955, 0.0022500000000000003, 0.237375, 0.946625, 192.0, 0.0, 0.0, 0.0, 0.0, 0.0, 0.0, 0.0, 0.0, 0.0, 1.644587653721884E9, 0.0, 2022-02-12 00:54:13.721
110.0, -10874.05662227352, -10388.174401304055, -6215.059008009316, -12905.003178716086, -9680.920503249228, -5629.175082346807, -8816.086806784488, -6780.289921795121, -9933.808140016574, -12095.266532333677, -8077.652225214509, -6314.926602235628, -6508.805633640962, -9023.622754052014, -12065.62811918594, -16596.013795854305, 0.0022500000000000003, 0.237375, 0.946625, 192.0, 0.0, 0.0, 0.0, 0.0, 0.0, 0.0, 0.0, 0.0, 0.0, 1.644587653729865E9, 0.0, 2022-02-12 00:54:13.729
112.0, -10866.211159969707, -10384.329901257743, -6224.603202891732, -12890.832172731421, -9683.267436417036, -5630.270317825118, -8817.114987029432, -6773.003253102691, -9930.813006259563, -12092.181991598844, -8099.959266180906, -6335.132579223226, -6530.799750184983, -9042.688792072391, -12070.590206455017, -16525.583449075635, 0.0022500000000000003, 0.237375, 0.946625, 192.0, 0.0, 0.0, 0.0, 0.0, 0.0, 0.0, 0.0, 0.0, 0.0, 1.644587653737664E9, 0.0, 2022-02-12 00:54:13.737
114.0, -10857.315165676495, -10367.141409771612, -6229.878214583185, -12904.198515915694, -9707.004989028572, -5643.92723368731, -8828.201452279265, -6789.588247488528, -9940.06662846406, -12091.064404376079, -8096.539449279243, -6323.152044195181, -6552.749163240095, -9046.399181651972, -12074.121782078957, -16583.675632914976, 0.0022500000000000003, 0.237375, 0.946625, 192.0, 0.0, 0.0, 0.0, 0.0, 0.0, 0.0, 0.0, 0.0, 0.0, 1.64458765374456E9, 0.0, 2022-02-12 00:54:13.744
116.0, -10890.373395725894, -10359.273595723344, -6252.341717760768, -12902.052748447984, -9709.106053007372, -5649.135190145396, -8840.718429174236, -6788.761232943682, -9940.960698242272, -12086.459945018285, -8125.4179031155, -6354.511541665976, -6565.690823279718, -9060.212559725353, -12080.782601926638, -16561.167426248485, 0.01, 0.23600000000000002, 0.9500000000000001, 192.0, 0.0, 40.0, 3.5, 48.0, 14.5, 88.0, 0.0, 0.0, 0.0, 1.644587653751132E9, 0.0, 2022-02-12 00:54:13.751
118.0, -10883.712575878213, -10383.234665779431, -6240.227072265991, -12895.50368732258, -9708.614314629354, -5641.602652263958, -8820.959487075745, -6775.663110692873, -9942.033581976126, -12053.133494035423, -8135.498539864843, -6332.405666399678, -6562.382765100332, -9055.608100367559, -12077.116915835968, -16538.569812604168, 0.01, 0.23600000000000002, 0.9500000000000001, 192.0, 0.0, 0.0, 0.0, 0.0, 0.0, 0.0, 0.0, 0.0, 0.0, 1.644587653759106E9, 0.0, 2022-02-12 00:54:13.759
120.0, -10885.992453812654, -10400.378453776653, -6239.958851332528, -12895.906018722775, -9730.094341050904, -5653.583187292003, -8847.826283911025, -6791.242276578221, -9952.382439658933, -12103.514326037684, -8105.636609272553, -6322.772064539441, -6572.441050105221, -9051.294213687685, -12077.318081536065, -16587.788353894754, 0.01, 0.23600000000000002, 0.9500000000000001, 192.0, 0.0, 0.0, 0.0, 0.0, 0.0, 0.0, 0.0, 0.0, 0.0, 1.644587653767221E9, 0.0, 2022-02-12 00:54:13.767
122.0, -10871.083840260964, -10379.546627944306, -6234.080342540782, -12882.718489494144, -9719.164338012259, -5649.425762823315, -8839.757304162658, -6798.551297015107, -9939.552538341588, -12082.883665905436, -8122.221603658391, -6340.631108359231, -6569.669433792763, -9058.357364935562, -12081.96724438277, -16519.794347261708, 0.01, 0.23600000000000002, 0.9500000000000001, 192.0, 0.0, 0.0, 0.0, 0.0, 0.0, 0.0, 0.0, 0.0, 0.0, 1.644587653774182E9, 0.0, 2022-02-12 00:54:13.774
124.0, -10868.602796626425, -10371.298834240299, -6240.472941455, -12898.387062357315, -9738.789169644018, -5653.650242525368, -8838.170330306331, -6787.665997465372, -9946.816855289562, -12090.1032793645, -8120.254650146324, -6334.797303056396, -6573.513933839075, -9049.707239831358, -12076.222846057755, -16567.716487373888, 0.01, 0.23600000000000002, 0.9500000000000001, 192.0, 0.0, 0.0, 0.0, 0.0, 0.0, 0.0, 0.0, 0.0, 0.0, 1.644587653781911E9, 0.0, 2022-02-12 00:54:13.781
126.0, -10880.471572932192, -10360.771162601848, -6254.085153828282, -12892.016815187551, -9742.11957956786, -5658.075887927519, -8851.782542679613, -6794.148003357412, -9943.218224432258, -12092.137288109934, -8137.018458487804, -6367.900236594705, -6595.217477705179, -9060.07844925862, -12079.732069937238, -16546.75055107481, 0.01, 0.232, 0.9440000000000001, 192.0, 0.0, 40.0, 3.5, 32.0, 14.5, 64.0, 0.0, 0.0, 0.0, 1.644587653789737E9, 0.0, 2022-02-12 00:54:13.789
128.0, -10886.551247424037, -10382.944093101512, -6246.28439501338, -12892.575608798936, -9746.232300547636, -5651.906806457854, -8843.266528042142, -6787.017796876168, -9948.560291357076, -12076.491066991219, -8140.572385856198, -6365.754469126996, -6602.995884775625, -9066.403992939471, -12079.553255981597, -16526.812795020676, 0.01, 0.232, 0.9440000000000001, 192.0, 0.0, 0.0, 0.0, 0.0, 0.0, 0.0, 0.0, 0.0, 0.0, 1.644587653797919E9, 0.0, 2022-02-12 00:54:13.797
130.0, -10896.050738817543, -10396.556305474794, -6258.33198527479, -12899.370539113348, -9756.178826830248, -5662.5685885630355, -8851.044935112588, -6783.4191660188635, -9960.250253707201, -12088.87393341946, -8140.192406200458, -6356.992585300516, -6596.647989350318, -9067.923911562433, -12080.62613971545, -16579.831132868665, 0.01, 0.232, 0.9440000000000001, 192.0, 0.0, 0.0, 0.0, 0.0, 0.0, 0.0, 0.0, 0.0, 0.0, 1.644587653804301E9, 0.0, 2022-02-12 00:54:13.804
132.0, -10900.744605153157, -10384.374604746652, -6266.423316767611, -12878.225788858628, -9752.31197503948, -5666.994233965187, -8856.096429359488, -6789.5211922551625, -9952.695364081308, -12077.765116425171, -8157.984394786882, -6356.8584748337835, -6587.282608423545, -9074.897655832488, -12076.178142568844, -16511.099518668594, 0.01, 0.232, 0.9440000000000001, 192.0, 0.0, 0.0, 0.0, 0.0, 0.0, 0.0, 0.0, 0.0, 0.0, 1.644587653819323E9, 0.0, 2022-02-12 00:54:13.819
134.0, -10886.797116613045, -10392.309474028287, -6255.828589895796, -12888.418184330249, -9771.31095782649, -5677.097222458986, -8857.616347982448, -6800.406491804897, -9960.563178129576, -12096.071195134067, -8138.918356766505, -6341.324012437345, -6615.132882014857, -9069.823809841135, -12078.48037224774, -16566.151865262018, 0.01, 0.232, 0.9440000000000001, 192.0, 0.0, 0.0, 0.0, 0.0, 0.0, 0.0, 0.0, 0.0, 0.0, 1.644587653827687E9, 0.0, 2022-02-12 00:54:13.827
136.0, -10897.034215573576, -10386.363910003176, -6273.039433126382, -12877.354070824871, -9775.289568339536, -5680.248818427184, -8878.224656370241, -6797.836041192537, -9959.244425206713, -12101.770889970172, -8156.777400586296, -6359.9653673130715, -6623.850062352427, -9078.004548311776, -12081.2519885602, -16543.643658595523, 0.012, 0.23600000000000002, 0.9480000000000001, 192.0, 0.0, 48.0, 3.5, 48.0, 14.5, 80.0, 0.0, 0.0, 0.0, 1.644587653834015E9, 0.0, 2022-02-12 00:54:13.834
138.0, -10870.905026305321, -10368.460162694475, -6268.0996976017595, -12877.26466384705, -9785.616074277887, -5680.517039360648, -8868.725164976737, -6799.0877388820345, -9958.439762406322, -12075.664052446373, -8162.56650240022, -6371.342405240823, -6629.683867655262, -9082.31843499165, -12085.29765430661, -16521.98481821833, 0.012, 0.23600000000000002, 0.9480000000000001, 192.0, 0.0, 0.0, 0.0, 0.0, 0.0, 0.0, 0.0, 0.0, 0.0, 1.644587653842146E9, 0.0, 2022-02-12 00:54:13.842
140.0, -10911.49579423616, -10402.68068345555, -6284.975264665516, -12891.323911109437, -9806.514955343599, -5693.369292422449, -8888.260589630674, -6816.723265257271, -9966.709907854785, -12084.783564184138, -8159.817237832218, -6370.895370351716, -6643.944280617748, -9082.094917547098, -12090.48325902024, -16576.724240389376, 0.012, 0.23600000000000002, 0.9480000000000001, 192.0, 0.0, 0.0, 0.0, 0.0, 0.0, 0.0, 0.0, 0.0, 0.0, 1.644587653849997E9, 0.0, 2022-02-12 00:54:13.849
142.0, -10923.16340484183, -10397.71859618647, -6287.545715277876, -12880.773887726533, -9799.161231417804, -5692.586981366513, -8892.350958865996, -6813.638724522439, -9971.515532912676, -12088.404546785898, -8175.843438606673, -6382.719443168574, -6650.940376632259, -9105.050159102699, -12094.238352088732, -16515.7486815153, 0.012, 0.23600000000000002, 0.9480000000000001, 192.0, 0.0, 0.0, 0.0, 0.0, 0.0, 0.0, 0.0, 0.0, 0.0, 1.644587653857392E9, 0.0, 2022-02-12 00:54:13.857
144.0, -10901.415157486816, -10388.219104792966, -6287.1210321332255, -12896.621274545345, -9813.935734502762, -5701.572382637547, -8891.948627465801, -6813.482262311252, -9979.428050449855, -12092.003177643202, -8176.357528729145, -6376.505658209999, -6650.091010342957, -9109.721673693857, -12095.668863733872, -16572.410353709503, 0.012, 0.23600000000000002, 0.9480000000000001, 192.0, 0.0, 0.0, 0.0, 0.0, 0.0, 0.0, 0.0, 0.0, 0.0, 1.644587653864545E9, 0.0, 2022-02-12 00:54:13.864
146.0, -10919.58712572898, -10412.96248590499, -6304.15306140817, -12887.859390718866, -9821.4682723842, -5705.439234428315, -8909.67356081886, -6828.390875862941, -9973.549541658109, -12105.973017927769, -8189.500354468865, -6389.6708356941745, -6663.077373871491, -9104.737234680324, -12100.809764958592, -16552.673763355466, 0.01, 0.23800000000000002, 0.9500000000000001, 192.0, 0.0, 40.0, 3.5, 56.0, 14.5, 88.0, 0.0, 0.0, 0.0, 1.644587653871753E9, 0.0, 2022-02-12 00:54:13.871
148.0, -10915.452053004748, -10404.021788122867, -6302.700198018575, -12884.730146495122, -9824.731627074674, -5705.215716983762, -8903.415072371374, -6823.294678127132, -9993.822573879073, -12102.575552770562, -8193.076633581715, -6380.0372338339375, -6676.89075194487, -9112.605048728592, -12109.39283482943, -16530.009094477784, 0.01, 0.23800000000000002, 0.9500000000000001, 192.0, 0.0, 0.0, 0.0, 0.0, 0.0, 0.0, 0.0, 0.0, 0.0, 1.644587653879755E9, 0.0, 2022-02-12 00:54:13.879
150.0, -10919.475367006704, -10413.744796960926, -6306.924677720628, -12887.434707574213, -9837.51682490311, -5715.586926411024, -8919.418921401373, -6832.950631731825, -9999.276399526168, -12119.138195411944, -8190.126203313614, -6376.550361698909, -6677.807173467538, -9112.828566173144, -12108.319951095576, -16581.038127069252, 0.01, 0.23800000000000002, 0.9500000000000001, 192.0, 0.0, 0.0, 0.0, 0.0, 0.0, 0.0, 0.0, 0.0, 0.0, 1.64458765388645E9, 0.0, 2022-02-12 00:54:13.886
152.0, -10911.942829125266, -10373.198732519, -6304.980075953016, -12875.342413823893, -9826.765635820107, -5708.657885629879, -8915.216793443775, -6826.423922350875, -9978.176352760358, -12095.132421866945, -8204.565430231742, -6392.151879328714, -6686.926685205303, -9116.114272608074, -12105.995369672224, -16510.920704712953, 0.01, 0.23800000000000002, 0.9500000000000001, 192.0, 0.0, 0.0, 0.0, 0.0, 0.0, 0.0, 0.0, 0.0, 0.0, 1.644587653894292E9, 0.0, 2022-02-12 00:54:13.894
154.0, -10896.721291151202, -10396.10927058569, -6304.063654430349, -12884.394870328293, -9844.46821742871, -5712.524737420647, -8913.674523076359, -6829.866090996992, -9983.518419685177, -12086.01291012918, -8189.5450579577755, -6386.116908325781, -6682.344577591965, -9103.686702690924, -12100.63095100295, -16560.38511519255, 0.01, 0.23800000000000002, 0.9500000000000001, 192.0, 0.0, 0.0, 0.0, 0.0, 0.0, 0.0, 0.0, 0.0, 0.0, 1.644587653902478E9, 0.0, 2022-02-12 00:54:13.902
156.0, -10913.507451237138, -10409.989703892436, -6324.6272593292315, -12875.364765568349, -9851.978403565694, -5722.270098003161, -8935.623936131471, -6833.241204409744, -9990.246294766224, -12105.257762105199, -8210.868622168138, -6401.830184677861, -6696.359121365443, -9126.038447146231, -12107.78350922865, -16546.079998741152, 0.012, 0.23600000000000002, 0.9520000000000001, 192.0, 0.0, 48.0, 3.5, 48.0, 14.5, 96.0, 0.0, 0.0, 0.0, 1.644587653909355E9, 0.0, 2022-02-12 00:54:13.909
158.0, -10916.7261024387, -10399.797308420815, -6314.747788279986, -12875.387117312805, -9850.324374476002, -5714.581097910535, -8919.776549312657, -6824.479320583263, -9986.044166808626, -12091.10910786499, -8209.86279366765, -6407.775748702973, -6703.869307502426, -9122.551575011203, -12109.795166229625, -16520.599010062102, 0.012, 0.23600000000000002, 0.9520000000000001, 192.0, 0.0, 0.0, 0.0, 0.0, 0.0, 0.0, 0.0, 0.0, 0.0, 1.644587653917001E9, 0.0, 2022-02-12 00:54:13.917
160.0, -10922.40344553035, -10412.873078927169, -6331.623355343742, -12877.957567925165, -9864.875360116406, -5721.845414858511, -8933.612279130493, -6837.8903672564475, -9995.431899479854, -12115.673675021371, -8213.416721036045, -6383.948789113616, -6711.133624450401, -9117.522432508758, -12110.108090652, -16576.970109578386, 0.012, 0.23600000000000002, 0.9520000000000001, 192.0, 0.0, 0.0, 0.0, 0.0, 0.0, 0.0, 0.0, 0.0, 0.0, 1.644587653924946E9, 0.0, 2022-02-12 00:54:13.924
162.0, -10920.347085040461, -10392.622398450661, -6340.340535681312, -12864.635928229802, -9863.735421149186, -5721.1525107803955, -8939.28962222214, -6833.643535809939, -9992.392062233934, -12093.67955847735, -8215.406026292567, -6405.741739957541, -6711.42419712832, -9130.687609992936, -12118.02060818918, -16511.45714657988, 0.012, 0.23600000000000002, 0.9520000000000001, 192.0, 0.0, 0.0, 0.0, 0.0, 0.0, 0.0, 0.0, 0.0, 0.0, 1.64458765393908E9, 0.0, 2022-02-12 00:54:13.939
164.0, -10909.573544213003, -10391.907142628092, -6337.501864135488, -12885.35599533987, -9890.825735429018, -5729.042676573119, -8954.891139851945, -6838.784437034659, -9996.817707636084, -12092.941950910325, -8218.62467749413, -6402.366626544789, -6720.275487932621, -9122.685685477934, -12121.753349513216, -16564.542539661234, 0.012, 0.23600000000000002, 0.9520000000000001, 192.0, 0.0, 0.0, 0.0, 0.0, 0.0, 0.0, 0.0, 0.0, 0.0, 1.644587653946583E9, 0.0, 2022-02-12 00:54:13.946
166.0, -10934.965125914232, -10401.406634021598, -6349.124771252248, -12871.855541688865, -9887.808249927552, -5743.414848257881, -8955.673450907881, -6856.531722132173, -10003.143251316937, -12117.193593644333, -8231.476930555931, -6425.657144267219, -6751.8361511035155, -9143.986897943843, -12126.938954226847, -16553.456074411402, 0.008, 0.23, 0.9460000000000001, 192.0, 0.0, 32.0, 3.5, 24.0, 14.5, 72.0, 0.0, 0.0, 0.0, 1.644587653954536E9, 0.0, 2022-02-12 00:54:13.954
168.0, -10925.510338009637, -10408.91682015858, -6341.659288604175, -12872.995480656085, -9888.881133661405, -5731.65783067439, -8947.805636859614, -6835.252861410721, -10007.390082763444, -12103.134346381945, -8233.265070112357, -6420.113911642303, -6748.773962113138, -9157.889682995044, -12125.195518159333, -16528.355065388092, 0.008, 0.23, 0.9460000000000001, 192.0, 0.0, 0.0, 0.0, 0.0, 0.0, 0.0, 0.0, 0.0, 0.0, 1.64458765396256E9, 0.0, 2022-02-12 00:54:13.962
170.0, -10940.374248072416, -10417.16461386259, -6352.164608498169, -12878.44930630318, -9895.743119209184, -5735.032944087141, -8959.763820143202, -6840.282003913165, -10023.46098702681, -12126.648381548928, -8226.559546775765, -6404.2218213345795, -6749.399810957887, -9129.659429747991, -12119.96520995679, -16578.959414834906, 0.008, 0.23, 0.9460000000000001, 192.0, 0.0, 0.0, 0.0, 0.0, 0.0, 0.0, 0.0, 0.0, 0.0, 1.644587653969115E9, 0.0, 2022-02-12 00:54:13.969
172.0, -10933.579317758004, -10397.428023508552, -6350.2200067305575, -12855.315250791939, -9887.785898183096, -5729.042676573119, -8963.921244611889, -6839.656155068416, -10006.473661240776, -12088.426898530353, -8241.222291138445, -6417.834033707862, -6740.347354453487, -9143.405752588005, -12123.87676523647, -16509.713710512366, 0.008, 0.23, 0.9460000000000001, 192.0, 0.0, 0.0, 0.0, 0.0, 0.0, 0.0, 0.0, 0.0, 0.0, 1.644587653977488E9, 0.0, 2022-02-12 00:54:13.977
174.0, -10916.703750694245, -10397.740947930926, -6352.54458815391, -12870.939120166198, -9904.303837335568, -5734.675316175856, -8959.383840487462, -6842.941861503346, -10013.134481088458, -12103.000235915213, -8227.453616553978, -6399.438548021144, -6751.925558081336, -9130.598203015114, -12123.20621290281, -16557.03235352425, 0.008, 0.23, 0.9460000000000001, 192.0, 0.0, 0.0, 0.0, 0.0, 0.0, 0.0, 0.0, 0.0, 0.0, 1.644587653985221E9, 0.0, 2022-02-12 00:54:13.985
176.0, -10935.456864292248, -10408.358026547197, -6365.598006915809, -12860.702021205667, -9900.615799500441, -5740.084438334041, -8965.687032423859, -6847.836893539059, -10016.911925901404, -12112.387968586441, -8242.518692316853, -6417.185833118658, -6761.469752963752, -9139.918880452977, -12121.73099776876, -16542.347257417114, 0.008, 0.23800000000000002, 0.9440000000000001, 192.0, 0.0, 32.0, 3.5, 56.0, 14.5, 64.0, 0.0, 0.0, 0.0, 1.644587653991452E9, 0.0, 2022-02-12 00:54:13.991
178.0, -10925.487986265181, -10387.727366414949, -6357.327861467345, -12861.529035750513, -9901.040482645092, -5731.255499274194, -8955.24876776323, -6830.715457286294, -10015.481414256265, -12085.2529508177, -8247.257262141378, -6420.94092618715, -6760.732145396727, -9147.04908693422, -12121.39572160193, -16511.166573901963, 0.008, 0.23800000000000002, 0.9440000000000001, 192.0, 0.0, 0.0, 0.0, 0.0, 0.0, 0.0, 0.0, 0.0, 0.0, 1.644587653998889E9, 0.0, 2022-02-12 00:54:13.998
180.0, -10923.83395717549, -10391.236590294433, -6368.5931406728205, -12867.83222768691, -9918.720712509241, -5736.03877258763, -8974.292454039152, -6851.301413929631, -10022.969248648793, -12094.216000344277, -8246.005564451882, -6422.885527954761, -6766.789468144116, -9137.281374607252, -12122.289791380143, -16567.3588594626, 0.008, 0.23800000000000002, 0.9440000000000001, 192.0, 0.0, 0.0, 0.0, 0.0, 0.0, 0.0, 0.0, 0.0, 0.0, 1.644587654007037E9, 0.0, 2022-02-12 00:54:14.007
182.0, -10944.039934163087, -10392.980026361945, -6373.823448875362, -12856.768114181534, -9912.886907206406, -5732.37308649696, -8967.117544068999, -6839.834969024059, -10015.861393912006, -12098.663997490883, -8262.411744882076, -6415.263583095501, -6781.943950884814, -9150.535959069248, -12125.508442581708, -16501.60002727509, 0.008, 0.23800000000000002, 0.9440000000000001, 192.0, 0.0, 0.0, 0.0, 0.0, 0.0, 0.0, 0.0, 0.0, 0.0, 1.644587654014885E9, 0.0, 2022-02-12 00:54:14.014
184.0, -10937.602631759957, -10393.896447884614, -6371.923550596661, -12866.468771275137, -9927.415541102355, -5736.977545854753, -8970.157381314919, -6846.78636154966, -10019.370617791488, -12099.356901568997, -8249.715954031462, -6418.593993019342, -6782.547447985107, -9139.04716241922, -12122.915640224892, -16548.806911564698, 0.008, 0.23800000000000002, 0.9440000000000001, 192.0, 0.0, 32.0, 3.5, 56.0, 14.5, 64.0, 0.0, 0.0, 0.0, 1.644587654021426E9, 0.0, 2022-02-12 00:54:14.021
186.0, -10948.510283054147, -10411.733139959948, -6382.942960613127, -12851.44839900117, -9923.951020711782, -5737.871615632966, -8978.069898852098, -6851.949614518835, -10022.969248648793, -12096.607637000996, -8249.179512164535, -6418.281068596968, -6791.734014956238, -9153.307575381707, -12124.904945481414, -16537.049893981206, 0.008, 0.23800000000000002, 0.9440000000000001, 192.0, 0.0, 0.0, 0.0, 0.0, 0.0, 0.0, 0.0, 0.0, 0.0, 1.644587654029473E9, 0.0, 2022-02-12 00:54:14.029
188.0, -10934.339277069483, -10402.792442177826, -6372.236475019035, -12851.49310249008, -9918.854822975973, -5726.852205616499, -8954.980546829765, -6829.463759596796, -10014.766158433695, -12077.653357702895, -8267.820867040262, -6416.112949384803, -6763.079078564535, -9149.15015091302, -12118.937029711848, -16498.291969095706, 0.008, 0.23800000000000002, 0.9440000000000001, 192.0, 0.0, 0.0, 0.0, 0.0, 0.0, 0.0, 0.0, 0.0, 0.0, 1.644587654037839E9, 0.0, 2022-02-12 00:54:14.037
190.0, -10953.539425556592, -10403.597104978217, -6384.373472258267, -12858.288032804494, -9934.657506305875, -5737.692801677323, -8970.067974337098, -6841.421942880385, -10033.429865053877, -12102.977884170758, -8240.372924849144, -6419.55511803092, -6801.054692394101, -9139.069514163675, -12112.656189519905, -16552.964336033387, 0.008, 0.23800000000000002, 0.9440000000000001, 192.0, 0.0, 0.0, 0.0, 0.0, 0.0, 0.0, 0.0, 0.0, 0.0, 1.644587654044723E9, 0.0, 2022-02-12 00:54:14.044
192.0, -10943.570547529525, -10395.930456630047, -6380.2160477895795, -12836.249212771561, -9923.571041056042, -5729.109731806485, -8977.10877384052, -6838.471512612286, -10025.3161818166, -12091.556142754096, -8263.01524198237, -6436.251871139035, -6798.506593526196, -9153.017002703788, -12113.997294187224, -16484.74681195579, 0.008, 0.23800000000000002, 0.9440000000000001, 192.0, 0.0, 0.0, 0.0, 0.0, 0.0, 0.0, 0.0, 0.0, 0.0, 1.644587654052345E9, 0.0, 2022-02-12 00:54:14.052
194.0, -10930.807701445545, -10388.397918748607, -6373.242303519524, -12851.984840868097, -9934.881023750428, -5726.539281194125, -8961.39549748844, -6836.146931188933, -10029.741827218751, -12084.828267673049, -8254.521579089354, -6414.235402850557, -6797.187840603333, -9140.164749641985, -12109.549297040618, -16525.292876397714, 0.008, 0.241, 0.9450000000000001, 192.0, 0.0, 32.0, 3.5, 80.0, 14.5, 72.0, 0.0, 0.0, 0.0, 1.644587654067398E9, 0.0, 2022-02-12 00:54:14.067
196.0, -10927.857271177445, -10391.393052505618, -6390.36373977229, -12842.261832030039, -9937.742047040707, -5731.166092296373, -8976.706442440325, -6839.92437600188, -10026.254955083723, -12089.119802608468, -8265.183361194535, -6428.741685002052, -6807.603753519506, -9141.170578142473, -12109.258724362699, -16511.725367513343, 0.008, 0.241, 0.9450000000000001, 192.0, 0.0, 0.0, 0.0, 0.0, 0.0, 0.0, 0.0, 0.0, 0.0, 1.644587654074209E9, 0.0, 2022-02-12 00:54:14.074
198.0, -10931.500605523659, -10380.686566911527, -6384.529934469454, -12836.897413360764, -9946.01219248917, -5735.725848165256, -8975.320634284095, -6845.221739437788, -10013.425053766377, -12071.528979722141, -8263.037593726825, -6428.22759487958, -6810.576535532062, -9145.037429933242, -12113.952590698313, -16480.187056086907, 0.008, 0.241, 0.9450000000000001, 192.0, 0.0, 0.0, 0.0, 0.0, 0.0, 0.0, 0.0, 0.0, 0.0, 1.644587654082005E9, 0.0, 2022-02-12 00:54:14.082
200.0, -10961.36253611595, -10409.229744580955, -6396.97985613106, -12851.716619934634, -9963.133628741936, -5750.5003512502135, -8991.212724591818, -6849.73679181776, -10035.374466821488, -12094.506573022196, -8261.87530301515, -6421.03033316497, -6816.92443095737, -9144.746857255323, -12122.937991969347, -16545.99059176333, 0.008, 0.241, 0.9450000000000001, 192.0, 0.0, 0.0, 0.0, 0.0, 0.0, 0.0, 0.0, 0.0, 0.0, 1.644587654089757E9, 0.0, 2022-02-12 00:54:14.089
202.0, -10955.953413957764, -10393.96350311798, -6395.728158441563, -12838.439683728182, -9952.963585014772, -5749.114543093985, -8989.379881546483, -6853.961271519813, -10023.483338771264, -12086.459945018285, -8284.361157937188, -6433.860234482317, -6828.927317729869, -9152.458209092405, -12123.49678558073, -16481.148181098484, 0.008, 0.241, 0.9450000000000001, 192.0, 0.0, 0.0, 0.0, 0.0, 0.0, 0.0, 0.0, 0.0, 0.0, 1.644587654097754E9, 0.0, 2022-02-12 00:54:14.097
204.0, -10936.730913726202, -10394.2540757959, -6397.873925909273, -12855.404657769759, -9966.195817732312, -5748.823970416066, -8990.028082135688, -6842.5842335920615, -10037.341420333556, -12086.906979907391, -8263.395221638111, -6412.491966783044, -6820.63482053695, -9151.161807913997, -12124.748483270227, -16527.237478165327, 0.007, 0.2375, 0.9485000000000001, 192.0, 0.0, 24.0, 3.5, 40.0, 14.5, 96.0, 0.0, 0.0, 0.0, 1.644587654104394E9, 0.0, 2022-02-12 00:54:14.104
206.0, -10940.217785861229, -10396.086918841234, -6417.208184863113, -12842.261832030039, -9965.458210165289, -5752.959043140298, -9000.64516075196, -6852.64251859695, -10035.776798221685, -12094.3054073221, -8273.520561876365, -6433.077923426381, -6829.061428196601, -9146.624403789569, -12120.725169268271, -16515.726329770845, 0.007, 0.2375, 0.9485000000000001, 192.0, 0.0, 0.0, 0.0, 0.0, 0.0, 0.0, 0.0, 0.0, 0.0, 1.644587654112657E9, 0.0, 2022-02-12 00:54:14.112
208.0, -10929.511300267137, -10365.532084170829, -6399.639713721242, -12842.39594249677, -9966.799314832606, -5742.56548196858, -8995.414852549417, -6840.147893446433, -10022.03047538167, -12055.636889414418, -8275.129887477147, -6431.669763525697, -6852.0390214966565, -9157.62146206158, -12123.563840814095, -16480.25411132027, 0.007, 0.2375, 0.9485000000000001, 192.0, 0.0, 0.0, 0.0, 0.0, 0.0, 0.0, 0.0, 0.0, 0.0, 1.644587654119437E9, 0.0, 2022-02-12 00:54:14.119
210.0, -10951.326602855517, -10396.288084541331, -6410.4132545487, -12852.811855412943, -9975.002405047704, -5751.528531495158, -9004.40025382045, -6849.893254028947, -10032.200519108836, -12077.072212347057, -8266.368003650667, -6432.027391436982, -6845.2887946711535, -9150.111275924597, -12120.546355312628, -16537.496928870314, 0.007, 0.2375, 0.9485000000000001, 192.0, 0.0, 0.0, 0.0, 0.0, 0.0, 0.0, 0.0, 0.0, 0.0, 1.644587654126462E9, 0.0, 2022-02-12 00:54:14.126
212.0, -10953.561777301047, -10388.53202921534, -6402.07605386687, -12831.644753413768, -9963.11127699748, -5749.695688449823, -9007.082463155088, -6846.2275679382765, -10024.98090564977, -12086.527000251652, -8280.963692779982, -6428.1158361573025, -6844.819408037592, -9148.591357301637, -12123.273268136176, -16470.911082137955, 0.007, 0.2375, 0.9485000000000001, 192.0, 0.0, 0.0, 0.0, 0.0, 0.0, 0.0, 0.0, 0.0, 0.0, 1.644587654134569E9, 0.0, 2022-02-12 00:54:14.134
214.0, -10934.696904980769, -10386.855648381192, -6392.93419038465, -12841.658334929745, -9973.214265491279, -5746.879368648454, -9001.718044485813, -6841.488998113751, -10040.157740134924, -12084.470639761763, -8266.92679726205, -6410.614420248798, -6827.407399106908, -9140.500025808815, -12120.63576229045, -16516.240419893315, 0.0075, 0.23575000000000002, 0.94825, 192.0, 0.0, 32.0, 3.5, 40.0, 14.5, 80.0, 0.0, 0.0, 0.0, 1.644587654142698E9, 0.0, 2022-02-12 00:54:14.142
216.0, -10937.580280015503, -10380.731270400438, -6405.719388213085, -12831.331828991393, -9974.063631780582, -5747.192293070829, -9007.976532933299, -6840.594928335539, -10029.965344663304, -12074.635872201428, -8278.952035779004, -6434.8660629828055, -6847.903948772425, -9141.483502564848, -12120.613410545995, -16508.193791889404, 0.0075, 0.23575000000000002, 0.94825, 192.0, 0.0, 0.0, 0.0, 0.0, 0.0, 0.0, 0.0, 0.0, 0.0, 1.644587654150817E9, 0.0, 2022-02-12 00:54:14.150
218.0, -10915.250887304652, -10364.61566264816, -6400.153803843714, -12823.195794009662, -9974.331852714045, -5741.202025556806, -9004.377902075996, -6839.902024257425, -10029.406551051921, -12062.029488328635, -8275.219294454968, -6421.320905842889, -6845.668774326894, -9144.746857255323, -12122.44625359133, -16472.743925183288, 0.0075, 0.23575000000000002, 0.94825, 192.0, 0.0, 0.0, 0.0, 0.0, 0.0, 0.0, 0.0, 0.0, 0.0, 1.644587654156601E9, 0.0, 2022-02-12 00:54:14.156
220.0, -10927.387884543883, -10359.228892234432, -6402.79130968944, -12833.924631348209, -9985.440669708332, -5743.66071744689, -9015.129091158997, -6843.970041748291, -10033.295754587145, -12076.066383846568, -8260.936529748027, -6411.17321386018, -6850.496751129241, -9139.71771475288, -12123.697951280827, -16532.713655556876, 0.0075, 0.23575000000000002, 0.94825, 192.0, 0.0, 0.0, 0.0, 0.0, 0.0, 0.0, 0.0, 0.0, 0.0, 1.644587654164813E9, 0.0, 2022-02-12 00:54:14.164
222.0, -10925.912669409832, -10352.590424131206, -6407.9769144030715, -12821.340599219871, -9971.157905001392, -5735.479978976247, -9008.557678289137, -6834.738771288249, -10016.21902182329, -12051.345354478999, -8281.097803246714, -6436.430685094677, -6843.612413837006, -9156.749744027824, -12122.893288480436, -16464.764352412745, 0.0075, 0.23575000000000002, 0.94825, 192.0, 0.0, 0.0, 0.0, 0.0, 0.0, 0.0, 0.0, 0.0, 0.0, 1.64458765417257E9, 0.0, 2022-02-12 00:54:14.172
224.0, -10941.603594017459, -10384.888694869125, -6403.50656551201, -12840.317230262426, -9988.122879042969, -5746.342926781527, -9014.123262658508, -6844.215910937299, -10032.155815619924, -12055.748648136694, -8267.373832151156, -6424.852481466828, -6856.777591321182, -9146.087961922642, -12120.903983223914, -16507.210315133372, 0.00575, 0.232875, 0.949125, 192.0, 0.0, 16.0, 3.5, 24.0, 14.5, 88.0, 0.0, 0.0, 0.0, 1.644587654186198E9, 0.0, 2022-02-12 00:54:14.186
226.0, -10952.555948800558, -10394.231724051444, -6419.041027908448, -12834.215204026128, -9988.636969165442, -5759.239883332239, -9022.661629040436, -6846.473437127285, -10042.705839002829, -12089.879761919949, -8282.125983491658, -6436.967126961605, -6853.693050586349, -9158.67199405098, -12120.881631479459, -16502.963483686864, 0.00575, 0.232875, 0.949125, 192.0, 0.0, 0.0, 0.0, 0.0, 0.0, 0.0, 0.0, 0.0, 0.0, 1.644587654194374E9, 0.0, 2022-02-12 00:54:14.194
228.0, -10935.993306159176, -10384.106383813189, -6402.478385267065, -12828.023770812008, -9988.301692998612, -5748.019307615675, -9012.692751013368, -6844.908815015414, -10034.167472620902, -12067.39390699791, -8281.611893369185, -6425.791254733951, -6870.5239141611955, -9162.67295630848, -12124.748483270227, -16467.848893147577, 0.00575, 0.232875, 0.949125, 192.0, 0.0, 0.0, 0.0, 0.0, 0.0, 0.0, 0.0, 0.0, 0.0, 1.644587654202252E9, 0.0, 2022-02-12 00:54:14.202
230.0, -10923.878660664399, -10384.06168032428, -6416.98466741856, -12831.82356736941, -9996.974169847272, -5752.512008251191, -9018.906535971944, -6841.600756836028, -10038.3696005785, -12083.241293816722, -8289.390300439632, -6421.209147120613, -6869.2945682161535, -9152.592319559137, -12120.099320423524, -16526.119890942562, 0.00575, 0.232875, 0.949125, 192.0, 0.0, 0.0, 0.0, 0.0, 0.0, 0.0, 0.0, 0.0, 0.0, 1.644587654209569E9, 0.0, 2022-02-12 00:54:14.209
232.0, -10933.489910780181, -10365.174456259545, -6414.481272039566, -12815.104462516842, -9986.513553442188, -5744.890063391932, -9013.49741381376, -6848.820370295092, -10023.304524815623, -12058.855540615981, -8294.59825689772, -6421.03033316497, -6876.402422952941, -9155.028659704765, -12122.87093673598, -16460.606927944056, 0.00575, 0.232875, 0.949125, 192.0, 0.0, 0.0, 0.0, 0.0, 0.0, 0.0, 0.0, 0.0, 0.0, 1.64458765421684E9, 0.0, 2022-02-12 00:54:14.216
234.0, -10947.079771409008, -10364.325089970242, -6406.881678924761, -12831.48829120258, -9997.845887881027, -5741.336136023538, -9006.702483499346, -6829.486111341252, -10032.960478420315, -12055.346316736499, -8271.643015342119, -6419.7786354754735, -6867.104097259534, -9147.138493912042, -12117.73003551126, -16504.617512776556, 0.004875, 0.23143750000000002, 0.9515625000000001, 192.0, 0.0, 16.0, 3.5, 24.0, 14.5, 104.0, 0.0, 0.0, 0.0, 1.644587654225054E9, 0.0, 2022-02-12 00:54:14.225
236.0, -10964.961166973253, -10384.598122191206, -6413.944830172638, -12820.759453864033, -10000.639855937941, -5744.7559529252, -9025.187376163885, -6838.985602734757, -10043.443446569854, -12090.371500297964, -8272.246512442412, -6434.46373158261, -6861.337347190064, -9155.319232382684, -12120.099320423524, -16498.180210373426, 0.004875, 0.23143750000000002, 0.9515625000000001, 192.0, 0.0, 0.0, 0.0, 0.0, 0.0, 0.0, 0.0, 0.0, 0.0, 1.644587654231992E9, 0.0, 2022-02-12 00:54:14.231
238.0, -10942.8329399625, -10376.216218020465, -6406.009960891004, -12809.114195002818, -10001.846850138529, -5742.252557546206, -9030.283573899696, -6835.789303277648, -10031.440559797355, -12063.884683118426, -8280.315492190777, -6423.913708199705, -6870.658024627927, -9153.173464914975, -12125.284925137154, -16462.12684656702, 0.004875, 0.23143750000000002, 0.9515625000000001, 192.0, 0.0, 0.0, 0.0, 0.0, 0.0, 0.0, 0.0, 0.0, 0.0, 1.644587654238627E9, 0.0, 2022-02-12 00:54:14.238
240.0, -10930.673590978813, -10368.840142350215, -6417.02937090747, -12821.54176491997, -10010.675789198374, -5745.694726192323, -9033.92690824591, -6842.539530103151, -10039.08485640107, -12075.82051465756, -8274.168762465568, -6413.74366447254, -6882.973835822801, -9141.975240942866, -12122.133329168955, -16521.60483856259, 0.004875, 0.23143750000000002, 0.9515625000000001, 192.0, 0.0, 0.0, 0.0, 0.0, 0.0, 0.0, 0.0, 0.0, 0.0, 1.644587654246404E9, 0.0, 2022-02-12 00:54:14.246
242.0, -10928.863099677934, -10361.709935868972, -6423.734894244063, -12805.403805423237, -9995.856582624505, -5740.263252289683, -9026.886108742488, -6838.1809399343665, -10030.658248741418, -12049.333697478021, -8298.509812177397, -6428.473464068587, -6886.393652724463, -9149.463075335392, -12118.512346567197, -16456.717724408834, 0.004875, 0.23143750000000002, 0.9515625000000001, 192.0, 0.0, 0.0, 0.0, 0.0, 0.0, 0.0, 0.0, 0.0, 0.0, 1.644587654254985E9, 0.0, 2022-02-12 00:54:14.254
244.0, -10931.455902034748, -10347.270708950844, -6420.337429086856, -12826.7273696336, -10009.580553720065, -5742.207854057295, -9022.818091251624, -6832.771817776182, -10038.570766278597, -12045.37743870943, -8286.529277149353, -6422.282030854468, -6885.812507368625, -9149.083095679653, -12114.53373605415, -16499.454259807382, 0.0044375000000000005, 0.22871875000000003, 0.94978125, 192.0, 0.0, 16.0, 3.5, 8.0, 14.5, 80.0, 0.0, 0.0, 0.0, 1.644587654261683E9, 0.0, 2022-02-12 00:54:14.261
