%OpenBCI Raw EEG Data
%Number of channels = 16
%Sample Rate = 125 Hz
%Board = OpenBCI_GUI$BoardCytonSerialDaisy
Sample Index, EXG Channel 0, EXG Channel 1, EXG Channel 2, EXG Channel 3, EXG Channel 4, EXG Channel 5, EXG Channel 6, EXG Channel 7, EXG Channel 8, EXG Channel 9, EXG Channel 10, EXG Channel 11, EXG Channel 12, EXG Channel 13, EXG Channel 14, EXG Channel 15, Accel Channel 0, Accel Channel 1, Accel Channel 2, Other, Other, Other, Other, Other, Other, Other, Analog Channel 0, Analog Channel 1, Analog Channel 2, Timestamp, Other, Timestamp (Formatted)
0.0, -10835.209290410196, -10661.893863903746, -6309.808052755363, -12840.428988984704, -8859.248025327686, -5216.5171762129285, -8821.473577198218, -6404.534745756954, 0.0, 0.0, 0.0, 0.0, 0.0, 0.0, 0.0, 0.0, 0.001, 0.11900000000000001, 0.47600000000000003, 192.0, 0.0, 8.0, 3.5, 56.0, 14.5, 96.0, 0.0, 0.0, 0.0, 1.644587822504016E9, 0.0, 2022-02-12 00:57:02.504
156.0, -10846.541624849036, -10642.425494483174, -6310.612715555753, -12831.801215624955, -8847.423952510828, -5212.717379655526, -8818.50079518566, -6402.232516078057, -10207.237029938344, -13061.48774164769, -7854.827684739553, -6668.598254751952, -6916.903783905957, -9796.926056972272, -11356.362564130135, -16071.552463954982, 0.001, 0.11900000000000001, 0.47600000000000003, 192.0, 0.0, 0.0, 0.0, 0.0, 0.0, 0.0, 0.0, 0.0, 0.0, 1.644587822504021E9, 0.0, 2022-02-12 00:57:02.504
0.0, -5326.174834510664, -5235.471455511029, -3108.166528721634, -6591.01534974758, -4316.5688892089, -2241.9693758451194, -4270.010205508495, -3027.208510304512, -5106.9265731485575, -6528.184596083713, -3919.333686749183, -3329.0464674289788, -3450.9975851771337, -4889.354692620599, -5679.310045160061, -8069.069155343671, 0.0015, 0.17550000000000002, 0.7150000000000001, 192.0, 0.0, 8.0, 3.5, 32.0, 14.5, 104.0, 0.0, 0.0, 0.0, 1.644587822627574E9, 0.0, 2022-02-12 00:57:02.627
2.0, -10650.87445388728, -10485.180972240089, -6231.286374483869, -13185.092888485538, -8641.653793055271, -4485.793946480029, -8553.006774545524, -6059.803791022753, -10220.245745211334, -13092.489611207202, -7497.155069965729, -6318.9946197264935, -6200.508022368911, -9034.686867557391, -11592.329930344813, -16496.70499523938, 0.0015, 0.17550000000000002, 0.7150000000000001, 192.0, 0.0, 0.0, 0.0, 0.0, 0.0, 0.0, 0.0, 0.0, 0.0, 1.644587822634851E9, 0.0, 2022-02-12 00:57:02.634
4.0, -10684.8714572038, -10512.137176053187, -6238.215415265014, -13171.167751689882, -8642.301993644476, -4482.105908644904, -8553.118533267801, -6052.785343263787, -10219.664599855496, -13076.038727288096, -7509.2250119715945, -6314.7701400244405, -6215.640153365154, -9033.368114634528, -11600.085985670805, -16438.143424766473, 0.0015, 0.17550000000000002, 0.7150000000000001, 192.0, 0.0, 0.0, 0.0, 0.0, 0.0, 0.0, 0.0, 0.0, 0.0, 1.644587822642381E9, 0.0, 2022-02-12 00:57:02.642
6.0, -10670.611044241316, -10495.038091544879, -6224.558499402821, -13192.692481600343, -8650.795656537492, -4484.430490068256, -8553.230291990078, -6050.192540906971, -10227.130082503567, -13082.16310526885, -7498.630285099779, -6332.249204188491, -6218.0317900218715, -9043.113475217042, -11599.884819970706, -16480.07529736463, 0.0015, 0.17550000000000002, 0.7150000000000001, 192.0, 0.0, 0.0, 0.0, 0.0, 0.0, 0.0, 0.0, 0.0, 0.0, 1.644587822649874E9, 0.0, 2022-02-12 00:57:02.649
8.0, -10643.118398561288, -10465.489085374962, -6228.671220382598, -13178.365013404491, -8647.912281502759, -4485.436318568744, -8566.820152618904, -6056.987471221384, -10210.58979160664, -13079.59265465649, -7510.856689316833, -6330.595175098798, -6229.922918072095, -9032.988134978788, -11592.329930344813, -16471.760448427256, 0.002, 0.228, 0.9580000000000001, 192.0, 0.0, 8.0, 3.5, 16.0, 14.5, 120.0, 0.0, 0.0, 0.0, 1.644587822657513E9, 0.0, 2022-02-12 00:57:02.657
10.0, -10664.956052894122, -10493.339358966276, -6232.962755318017, -13178.342661660035, -8645.23007216812, -4486.084519157948, -8557.097143780846, -6051.377183363103, -10212.869669541082, -13056.995041012175, -7491.522430362992, -6319.575765082332, -6222.457435424022, -9036.653821069458, -11595.146250146181, -16449.431055716403, 0.002, 0.228, 0.9580000000000001, 192.0, 0.0, 0.0, 0.0, 0.0, 0.0, 0.0, 0.0, 0.0, 0.0, 1.644587822664585E9, 0.0, 2022-02-12 00:57:02.664
12.0, -10682.144544380253, -10488.109050763733, -6242.529301944888, -13186.523400130678, -8662.485618887618, -4491.895972716328, -8570.776411387493, -6057.9038927440515, -10234.886137829559, -13092.82488737403, -7496.395110654249, -6331.10926522127, -6230.638173894665, -9039.492492615282, -11592.106412900259, -16495.810925461166, 0.002, 0.228, 0.9580000000000001, 192.0, 0.0, 0.0, 0.0, 0.0, 0.0, 0.0, 0.0, 0.0, 0.0, 1.644587822672738E9, 0.0, 2022-02-12 00:57:02.672
14.0, -10707.960809226133, -10521.0331703464, -6236.203758264036, -13173.13470520195, -8667.224188712144, -4487.380920336356, -8580.41001324773, -6058.015651466329, -10232.807425595216, -13081.649015146377, -7520.065608032419, -6339.513521136466, -6222.680952868575, -9040.40891413795, -11597.806107736364, -16439.082198033597, 0.002, 0.228, 0.9580000000000001, 192.0, 0.0, 0.0, 0.0, 0.0, 0.0, 0.0, 0.0, 0.0, 0.0, 1.644587822679185E9, 0.0, 2022-02-12 00:57:02.679
16.0, -10714.420463373717, -10539.965097900045, -6234.102694285238, -13183.327100673569, -8683.987997053624, -4492.208897138703, -8582.019338848513, -6059.155590433549, -10259.383649752575, -13087.751041382677, -7521.809044099933, -6320.5815935828205, -6244.071572312305, -9030.529443088704, -11604.91396247315, -16480.812904931656, 0.002, 0.228, 0.9580000000000001, 192.0, 0.0, 0.0, 0.0, 0.0, 0.0, 0.0, 0.0, 0.0, 0.0, 1.644587822687204E9, 0.0, 2022-02-12 00:57:02.687
18.0, -10725.864556534834, -10531.963173385046, -6244.540958945866, -13177.94033025984, -8676.14253474981, -4500.36728386489, -8584.36627201632, -6063.491828857878, -10251.78405663777, -13092.064928062551, -7520.892622577265, -6337.501864135488, -6257.974357363505, -9036.810283280645, -11602.544677560887, -16474.26384380625, 0.002, 0.226, 0.9580000000000001, 192.0, 0.0, 8.0, 3.5, 8.0, 14.5, 120.0, 0.0, 0.0, 0.0, 1.644587822695086E9, 0.0, 2022-02-12 00:57:02.695
20.0, -10697.008454443032, -10528.297487294376, -6235.488502441466, -13181.293091928137, -8678.064784772967, -4496.723949518675, -8584.03099584949, -6058.127410188605, -10252.521664204796, -13091.282617006615, -7525.877061590799, -6341.502826392988, -6241.7469908889525, -9042.621736839024, -11603.259933383457, -16447.799378371164, 0.002, 0.226, 0.9580000000000001, 192.0, 0.0, 0.0, 0.0, 0.0, 0.0, 0.0, 0.0, 0.0, 0.0, 1.644587822702596E9, 0.0, 2022-02-12 00:57:02.702
22.0, -10711.73825403908, -10535.159472842155, -6239.467112954511, -13189.451478654324, -8701.265895517576, -4511.766673537097, -8601.822984435914, -6069.593855094177, -10255.293280517255, -13103.576076457033, -7512.063683517419, -6315.4406923581, -6248.072534569805, -9031.892899500477, -11610.904229987173, -16500.37068133005, 0.002, 0.226, 0.9580000000000001, 192.0, 0.0, 0.0, 0.0, 0.0, 0.0, 0.0, 0.0, 0.0, 0.0, 1.644587822709829E9, 0.0, 2022-02-12 00:57:02.709
24.0, -10706.55264932545, -10521.413150002141, -6237.56721467581, -13178.432068637858, -8693.129860535844, -4498.020350697083, -8591.384719775286, -6061.793096279275, -10242.753951877827, -13099.351596754981, -7542.573814698913, -6338.842968802806, -6255.359203262235, -9045.147483962475, -11614.905192244672, -16447.59821267107, 0.002, 0.226, 0.9580000000000001, 192.0, 0.0, 0.0, 0.0, 0.0, 0.0, 0.0, 0.0, 0.0, 0.0, 1.644587822718169E9, 0.0, 2022-02-12 00:57:02.718
26.0, -10694.460355575127, -10506.303370750353, -6233.476845440489, -13184.60115010752, -8707.479680476152, -4507.810414768507, -8595.519792499517, -6065.816410281231, -10255.293280517255, -13085.649977403877, -7505.425215414192, -6326.527157607932, -6255.448610240056, -9030.12711168851, -11614.815785266852, -16476.387259529503, 0.004, 0.227, 0.9570000000000001, 192.0, 0.0, 24.0, 3.5, 16.0, 14.5, 112.0, 0.0, 0.0, 0.0, 1.644587822732168E9, 0.0, 2022-02-12 00:57:02.732
28.0, -10709.592486571371, -10520.675542435116, -6249.212473537025, -13168.932577244352, -8706.250334531109, -4514.024199727082, -8606.829775193903, -6066.956349248451, -10251.672297915495, -13101.96675085625, -7524.267735990016, -6328.449407631088, -6254.822761395307, -9040.811245538145, -11614.391102122201, -16469.815846659643, 0.004, 0.227, 0.9570000000000001, 192.0, 0.0, 0.0, 0.0, 0.0, 0.0, 0.0, 0.0, 0.0, 0.0, 1.644587822739419E9, 0.0, 2022-02-12 00:57:02.739
30.0, -10685.83258221538, -10510.416091730129, -6238.416580965112, -13166.496237098723, -8705.512726964083, -4508.950353735728, -8595.899772155259, -6059.088535200183, -10255.159170050523, -13087.996910571685, -7531.8226256159105, -6334.3949716562, -6258.488447485977, -9040.74419030478, -11619.39789288019, -16440.266840489727, 0.004, 0.227, 0.9570000000000001, 192.0, 0.0, 0.0, 0.0, 0.0, 0.0, 0.0, 0.0, 0.0, 0.0, 1.644587822747627E9, 0.0, 2022-02-12 00:57:02.747
32.0, -10697.053157931943, -10521.189632557587, -6245.926767102095, -13176.353356403513, -8716.174509069266, -4516.974629995183, -8605.063987381935, -6064.184732935993, -10260.50123697534, -13091.439079217802, -7519.171538254206, -6328.337648908812, -6259.091944586271, -9045.281594429207, -11619.934334747117, -16494.000434160287, 0.004, 0.227, 0.9570000000000001, 192.0, 0.0, 0.0, 0.0, 0.0, 0.0, 0.0, 0.0, 0.0, 0.0, 1.644587822754562E9, 0.0, 2022-02-12 00:57:02.754
34.0, -10699.556553310938, -10514.79703364337, -6253.459304983534, -13169.17844643336, -8713.849927645913, -4516.572298594988, -8620.553746289463, -6078.646311598577, -10254.130989805579, -13095.507096708669, -7531.643811660268, -6324.873128518239, -6263.741107432975, -9052.523559632726, -11619.464948113555, -16441.227965501304, 0.004, 0.227, 0.9570000000000001, 192.0, 0.0, 0.0, 0.0, 0.0, 0.0, 0.0, 0.0, 0.0, 0.0, 1.644587822762075E9, 0.0, 2022-02-12 00:57:02.762
36.0, -10683.73151823658, -10509.611428929738, -6234.8179501078075, -13189.116202487494, -8730.099645864922, -4522.204938197725, -8609.534336272996, -6059.4908666003785, -10258.310766018722, -13098.234009532216, -7526.525262180003, -6331.221023943547, -6281.398985552667, -9048.902577030967, -11622.147157448193, -16482.98102414382, 0.005, 0.2275, 0.9545000000000001, 192.0, 0.0, 24.0, 3.5, 16.0, 14.5, 96.0, 0.0, 0.0, 0.0, 1.644587822770114E9, 0.0, 2022-02-12 00:57:02.770
38.0, -10694.281541619486, -10525.570574470828, -6259.158999819637, -13178.163847704393, -8726.456311518707, -4517.712237562208, -8615.792824720482, -6059.7814392782975, -10259.920091619504, -13114.014341117661, -7537.589375685379, -6336.0713524903485, -6282.67303498662, -9050.489550887294, -11620.604887080775, -16474.710878695354, 0.005, 0.2275, 0.9545000000000001, 192.0, 0.0, 0.0, 0.0, 0.0, 0.0, 0.0, 0.0, 0.0, 0.0, 1.644587822778292E9, 0.0, 2022-02-12 00:57:02.778
40.0, -10699.69066377767, -10526.50934773795, -6253.302842772347, -13178.32030991558, -8733.54181451104, -4519.634487585365, -8624.867632969337, -6063.20125617996, -10256.3214607622, -13100.02214908864, -7546.9100531232425, -6328.203538442081, -6268.300863301857, -9046.801513052167, -11627.578631350832, -16445.474796947812, 0.005, 0.2275, 0.9545000000000001, 192.0, 0.0, 0.0, 0.0, 0.0, 0.0, 0.0, 0.0, 0.0, 0.0, 1.644587822784172E9, 0.0, 2022-02-12 00:57:02.784
42.0, -10707.267905148019, -10539.406304288663, -6260.321290531313, -13177.493295370734, -8755.513579310606, -4540.958051795727, -8634.367124362841, -6076.880523786607, -10267.74320217886, -13111.846221905496, -7519.6185731433125, -6319.6428203156975, -6297.671055516131, -9052.344745677085, -11634.30650643188, -16500.325977841138, 0.005, 0.2275, 0.9545000000000001, 192.0, 0.0, 0.0, 0.0, 0.0, 0.0, 0.0, 0.0, 0.0, 0.0, 1.644587822791956E9, 0.0, 2022-02-12 00:57:02.791
44.0, -10712.811137772935, -10519.289734278886, -6261.640043454176, -13168.351431888514, -8745.991736172646, -4538.477008161189, -8638.792769764992, -6075.226494696915, -10267.050298100747, -13104.157221812871, -7544.361954255338, -6345.928471795139, -6302.141404407193, -9085.581789682126, -11632.518366875454, -16446.748846381768, 0.005, 0.2275, 0.9545000000000001, 192.0, 0.0, 0.0, 0.0, 0.0, 0.0, 0.0, 0.0, 0.0, 0.0, 1.644587822799752E9, 0.0, 2022-02-12 00:57:02.799
46.0, -10697.58959979887, -10539.361600799752, -6248.541921203366, -13181.203684950315, -8753.188997887253, -4536.979441282683, -8633.51775807354, -6071.292587672781, -10276.639196472073, -13115.154280084882, -7536.427084973703, -6328.717628564552, -6289.6467792566755, -9069.421478440938, -11629.63499184072, -16483.87509392203, 0.006500000000000001, 0.22975, 0.9532500000000002, 192.0, 0.0, 32.0, 3.5, 32.0, 14.5, 96.0, 0.0, 0.0, 0.0, 1.644587822809333E9, 0.0, 2022-02-12 00:57:02.809
48.0, -10705.345655124862, -10541.596775245283, -6273.9111511601395, -13178.074440726572, -8761.146218913344, -4543.774371597096, -8644.648926812282, -6075.070032485728, -10272.146495836556, -13119.781091187131, -7535.845939617866, -6328.427055886634, -6290.853773457262, -9069.756754607768, -11631.06550348586, -16478.30950955266, 0.006500000000000001, 0.22975, 0.9532500000000002, 192.0, 0.0, 0.0, 0.0, 0.0, 0.0, 0.0, 0.0, 0.0, 0.0, 1.644587822815222E9, 0.0, 2022-02-12 00:57:02.815
50.0, -10686.391375826763, -10522.307219780352, -6255.7168311735195, -13170.98893773424, -8762.844951491947, -4544.891958819861, -8631.70726677266, -6069.280930671804, -10278.583798239684, -13119.602277231488, -7545.613651944835, -6327.756503552974, -6304.443634086088, -9072.148391264485, -11634.105340731781, -16449.006372571752, 0.006500000000000001, 0.22975, 0.9532500000000002, 192.0, 0.0, 0.0, 0.0, 0.0, 0.0, 0.0, 0.0, 0.0, 0.0, 1.64458782282273E9, 0.0, 2022-02-12 00:57:02.822
52.0, -10702.819908001413, -10523.760083169947, -6266.959758634539, -13181.449554139323, -8776.792440032059, -4545.741325109163, -8645.610051823862, -6072.834858040197, -10266.55855972273, -13119.848146420498, -7546.820646145421, -6332.718590822053, -6292.217229869036, -9055.831617812111, -11630.529061618932, -16496.03444290572, 0.006500000000000001, 0.22975, 0.9532500000000002, 192.0, 0.0, 0.0, 0.0, 0.0, 0.0, 0.0, 0.0, 0.0, 0.0, 1.644587822830409E9, 0.0, 2022-02-12 00:57:02.830
54.0, -10733.59826011637, -10567.658909280171, -6266.088040600782, -13180.935464016851, -8771.495076596151, -4554.3914502133675, -8654.1931216947, -6082.088480244694, -10279.23199882889, -13127.626553490943, -7548.318213023927, -6351.784628842429, -6329.276422175935, -9083.9948158258, -11634.597079109799, -16444.357209725047, 0.006500000000000001, 0.22975, 0.9532500000000002, 192.0, 0.0, 0.0, 0.0, 0.0, 0.0, 0.0, 0.0, 0.0, 0.0, 1.644587822837524E9, 0.0, 2022-02-12 00:57:02.837
56.0, -10708.161974926232, -10550.246900349486, -6259.248406797458, -13180.84605703903, -8778.871152266402, -4556.984252570182, -8644.961851234657, -6075.114735974638, -10286.65277798805, -13141.976373431251, -7540.115122808829, -6336.943070524106, -6315.865375502751, -9073.265978487252, -11634.619430854253, -16477.50484675227, 0.00825, 0.230875, 0.9496250000000002, 192.0, 0.0, 40.0, 3.5, 32.0, 14.5, 72.0, 0.0, 0.0, 0.0, 1.644587822843975E9, 0.0, 2022-02-12 00:57:02.843
58.0, -10717.393245386273, -10552.549130028383, -6272.570046492821, -13175.526341858667, -8781.463954623217, -4566.014357330127, -8654.70721181717, -6083.809564567753, -10285.199914598456, -13140.568213530567, -7545.188968800184, -6339.021782758449, -6318.949916237583, -9080.70910939087, -11632.764236064462, -16472.49805599428, 0.00825, 0.230875, 0.9496250000000002, 192.0, 0.0, 0.0, 0.0, 0.0, 0.0, 0.0, 0.0, 0.0, 0.0, 1.644587822859944E9, 0.0, 2022-02-12 00:57:02.859
60.0, -10684.290311847963, -10523.55891746985, -6262.779982421396, -13156.437952093835, -8778.290006910564, -4559.688813649275, -8652.114409460355, -6077.662834842544, -10275.096926104658, -13108.02407360364, -7546.39596300077, -6332.0256867439375, -6310.098625433282, -9085.000644326288, -11635.535852376921, -16443.01610505773, 0.00825, 0.230875, 0.9496250000000002, 192.0, 0.0, 0.0, 0.0, 0.0, 0.0, 0.0, 0.0, 0.0, 0.0, 1.644587822866885E9, 0.0, 2022-02-12 00:57:02.866
62.0, -10710.35244588285, -10532.901946652168, -6269.709023202542, -13170.22897842276, -8801.558172888539, -4577.100822579959, -8665.637214855817, -6087.519954147334, -10277.08623136118, -13121.21160283227, -7535.041276817475, -6309.740997521997, -6303.124881163226, -9078.049251800687, -11639.20153846759, -16493.374585315538, 0.00825, 0.230875, 0.9496250000000002, 192.0, 0.0, 0.0, 0.0, 0.0, 0.0, 0.0, 0.0, 0.0, 0.0, 1.644587822874723E9, 0.0, 2022-02-12 00:57:02.874
64.0, -10717.706169808647, -10556.70655449707, -6268.658491213142, -13163.434048108345, -8798.294818198065, -4582.062909849037, -8674.779078338037, -6092.973779794429, -10274.60518772664, -13124.340847056013, -7549.212282802139, -6334.685544334119, -6330.237547187513, -9093.360196752572, -11646.287041459924, -16439.640991644977, 0.00825, 0.230875, 0.9496250000000002, 192.0, 0.0, 0.0, 0.0, 0.0, 0.0, 0.0, 0.0, 0.0, 0.0, 1.644587822884282E9, 0.0, 2022-02-12 00:57:02.884
66.0, -10702.574038812405, -10574.006804705477, -6263.5846452217875, -13176.912150014896, -8815.170385261821, -4593.954037899261, -8684.233866242632, -6099.768710108842, -10291.860734446136, -13141.283469353137, -7547.513550223536, -6339.871149047751, -6329.7905122984075, -9100.110423578075, -11645.147102492703, -16477.996585130284, 0.009125000000000001, 0.23243750000000002, 0.9458125000000002, 192.0, 0.0, 40.0, 3.5, 40.0, 14.5, 56.0, 0.0, 0.0, 0.0, 1.64458782289036E9, 0.0, 2022-02-12 00:57:02.890
68.0, -10720.678951821203, -10571.838685493312, -6275.252255827458, -13169.357260389002, -8821.741798131681, -4603.475881037221, -8706.92088686477, -6106.228364256426, -10293.827687958204, -13148.972469445762, -7561.103410852363, -6344.609718872276, -6345.548492139398, -9110.32517079415, -11644.945936792605, -16474.06267810615, 0.009125000000000001, 0.23243750000000002, 0.9458125000000002, 192.0, 0.0, 0.0, 0.0, 0.0, 0.0, 0.0, 0.0, 0.0, 0.0, 1.64458782289732E9, 0.0, 2022-02-12 00:57:02.897
70.0, -10713.12406219531, -10543.720190968537, -6272.726508704008, -13159.32132712857, -8822.479405698707, -4606.560421772054, -8699.857735616892, -6114.230288771426, -10297.783946726793, -13142.401056575902, -7557.214207317139, -6338.418285658156, -6349.392992185712, -9111.621571972559, -11652.143198507214, -16444.357209725047, 0.009125000000000001, 0.23243750000000002, 0.9458125000000002, 192.0, 0.0, 0.0, 0.0, 0.0, 0.0, 0.0, 0.0, 0.0, 0.0, 1.644587822905346E9, 0.0, 2022-02-12 00:57:02.905
72.0, -10714.040483717978, -10544.636612491204, -6281.331930319301, -13179.37084190498, -8829.497853457673, -4614.830567220517, -8694.694482647716, -6113.44797771549, -10313.631333545605, -13154.359239859492, -7566.668995221734, -6327.331820408323, -6334.5514338673875, -9106.324208536651, -11645.437675170622, -16498.64959700699, 0.009125000000000001, 0.23243750000000002, 0.9458125000000002, 192.0, 0.0, 0.0, 0.0, 0.0, 0.0, 0.0, 0.0, 0.0, 0.0, 1.644587822912368E9, 0.0, 2022-02-12 00:57:02.912
74.0, -10721.617725088327, -10573.649176794193, -6282.650683242165, -13165.5574638316, -8821.495928942673, -4614.115311397947, -8703.925753107756, -6116.554870194777, -10300.197935127966, -13137.84130070702, -7565.484352765603, -6337.613622857764, -6365.195675515613, -9115.488423763327, -11650.846797328806, -16448.82755861611, 0.009125000000000001, 0.23243750000000002, 0.9458125000000002, 192.0, 0.0, 0.0, 0.0, 0.0, 0.0, 0.0, 0.0, 0.0, 0.0, 1.644587822919671E9, 0.0, 2022-02-12 00:57:02.919
76.0, -10721.327152410408, -10582.209894920576, -6269.820781924818, -13176.822743037075, -8837.186853550298, -4622.877195224428, -8710.430110744252, -6112.263335259358, -10296.755766481849, -13140.12117864146, -7558.01887011753, -6329.477587876033, -6357.372564956256, -9119.735255209835, -11653.976041552549, -16482.06460262115, 0.005562500000000001, 0.23321875000000003, 0.9439062500000002, 192.0, 0.0, 8.0, 3.5, 40.0, 14.5, 56.0, 0.0, 0.0, 0.0, 1.644587822926833E9, 0.0, 2022-02-12 00:57:02.926
78.0, -10735.922841539723, -10584.467421110561, -6279.387328551689, -13177.649757581921, -8834.258775026652, -4632.041410451104, -8715.81688115798, -6123.081579575727, -10305.85292647516, -13172.7100220573, -7568.188913844695, -6363.005204558994, -6369.576617428854, -9135.649697262013, -11650.712686862074, -16481.416402031948, 0.005562500000000001, 0.23321875000000003, 0.9439062500000002, 192.0, 0.0, 0.0, 0.0, 0.0, 0.0, 0.0, 0.0, 0.0, 0.0, 1.644587822935133E9, 0.0, 2022-02-12 00:57:02.935
80.0, -10723.07058847792, -10555.94659518559, -6271.832438925796, -13178.767344804686, -8832.090655814489, -4630.208567405769, -8712.218250300677, -6117.895974862096, -10306.948161953469, -13164.12695218646, -7570.893474923787, -6366.73794588303, -6361.64174814722, -9140.052990919708, -11648.633974627732, -16451.62152667302, 0.005562500000000001, 0.23321875000000003, 0.9439062500000002, 192.0, 0.0, 0.0, 0.0, 0.0, 0.0, 0.0, 0.0, 0.0, 0.0, 1.644587822942974E9, 0.0, 2022-02-12 00:57:02.942
82.0, -10699.534201566483, -10567.770668002448, -6277.979168651005, -13178.923807015874, -8845.948737376779, -4641.5632535890645, -8715.369846268875, -6124.825015643241, -10314.547755068274, -13174.386402891447, -7569.64177723429, -6341.927509537639, -6366.693242394119, -9134.576813528158, -11645.30356470389, -16502.20352437538, 0.005562500000000001, 0.23321875000000003, 0.9439062500000002, 192.0, 0.0, 0.0, 0.0, 0.0, 0.0, 0.0, 0.0, 0.0, 0.0, 1.644587822949753E9, 0.0, 2022-02-12 00:57:02.949
84.0, -10704.250419646552, -10571.369298859752, -6283.321235575823, -13164.12695218646, -8839.287917529096, -4639.305727399079, -8716.465081747185, -6127.082541833227, -10299.482679305396, -13158.51666432818, -7590.339492599905, -6349.7506200969965, -6354.176265499147, -9137.95192694091, -11648.477512416544, -16447.55350918216, 0.005562500000000001, 0.23321875000000003, 0.9439062500000002, 192.0, 0.0, 0.0, 0.0, 0.0, 0.0, 0.0, 0.0, 0.0, 0.0, 1.644587822957624E9, 0.0, 2022-02-12 00:57:02.957
86.0, -10722.444739633173, -10567.122467413243, -6280.616674496731, -13176.554522103612, -8856.096429359488, -4649.498122870698, -8708.999599099112, -6130.92704187954, -10313.89955447907, -13151.855844480497, -7562.131591097306, -6332.249204188491, -6369.151934284203, -9139.963583941888, -11649.818617083862, -16481.975195643332, 0.005562500000000001, 0.23321875000000003, 0.9439062500000002, 192.0, 0.0, 0.0, 3.5, 40.0, 14.5, 80.0, 0.0, 0.0, 0.0, 1.644587822965752E9, 0.0, 2022-02-12 00:57:02.965
88.0, -10735.699324095169, -10600.225400951553, -6284.952912921061, -13173.291167413136, -8865.506513775172, -4670.866390569972, -8730.949012154224, -6146.908539165085, -10315.777101013315, -13181.091926228039, -7572.234579591105, -6353.461009676577, -6391.570733972876, -9155.274528893773, -11649.058657772383, -16484.255073577773, 0.005562500000000001, 0.23321875000000003, 0.9439062500000002, 192.0, 0.0, 0.0, 0.0, 0.0, 0.0, 0.0, 0.0, 0.0, 0.0, 1.644587822979354E9, 0.0, 2022-02-12 00:57:02.979
90.0, -10738.69445785218, -10578.745374530003, -6283.812973953841, -13168.619652821977, -8868.121667876443, -4680.723509874762, -8736.983983157157, -6162.241835861425, -10326.595345329684, -13173.201760435315, -7596.955608958675, -6366.827352860851, -6390.207277561102, -9179.86144779461, -11652.59023339632, -16454.326087752117, 0.005562500000000001, 0.23321875000000003, 0.9439062500000002, 192.0, 0.0, 0.0, 0.0, 0.0, 0.0, 0.0, 0.0, 0.0, 0.0, 1.64458782298712E9, 0.0, 2022-02-12 00:57:02.987
92.0, -10744.46120792165, -10609.322560944864, -6296.195840382081, -13180.80135355012, -8891.747461765703, -4693.888687358938, -8748.070448406988, -6160.341937582724, -10336.318354167743, -13201.5661241491, -7591.099451911385, -6373.3540622418, -6388.486193238044, -9182.633064107069, -11660.68156488914, -16511.345387857604, 0.005562500000000001, 0.23321875000000003, 0.9439062500000002, 192.0, 0.0, 0.0, 0.0, 0.0, 0.0, 0.0, 0.0, 0.0, 0.0, 1.644587822995258E9, 0.0, 2022-02-12 00:57:02.995
94.0, -10741.98016428711, -10624.409988452195, -6294.6312182702095, -13160.327155629058, -8886.807726241079, -4690.960608835293, -8751.40085833083, -6166.354556841202, -10331.222156431933, -13192.357205433513, -7603.191745661706, -6357.707841123086, -6421.075036653881, -9191.014968277808, -11664.794285868918, -16453.58848018509, 0.005562500000000001, 0.23321875000000003, 0.9439062500000002, 192.0, 0.0, 0.0, 0.0, 0.0, 0.0, 0.0, 0.0, 0.0, 0.0, 1.644587823001715E9, 0.0, 2022-02-12 00:57:03.001
96.0, -10738.850920063367, -10598.839592795324, -6290.943180435083, -13175.861618025498, -8894.407319355883, -4701.778853151662, -8746.25995710611, -6169.483801064945, -10337.234775690411, -13201.454365426824, -7592.887591467809, -6361.395878958211, -6404.422987034677, -9179.816744305701, -11660.435695700133, -16486.937282912408, 0.005562500000000001, 0.23321875000000003, 0.9439062500000002, 192.0, 0.0, 0.0, 3.5, 32.0, 14.5, 80.0, 0.0, 0.0, 0.0, 1.644587823009853E9, 0.0, 2022-02-12 00:57:03.009
98.0, -10741.399018931274, -10611.244810968019, -6304.309523619357, -13175.012251736194, -8904.42090087186, -4718.676771959874, -8761.906178224825, -6184.928856483562, -10328.629354075118, -13207.310522474114, -7584.25981810806, -6381.333635012345, -6416.448225551632, -9194.34537820165, -11663.006146312493, -16492.97225391534, 0.005562500000000001, 0.23321875000000003, 0.9439062500000002, 192.0, 0.0, 0.0, 0.0, 0.0, 0.0, 0.0, 0.0, 0.0, 0.0, 1.644587823018057E9, 0.0, 2022-02-12 00:57:03.018
100.0, -10746.361106200351, -10612.407101679695, -6296.262895615447, -13171.972414490274, -8909.025360229654, -4719.056751615614, -8763.716669525704, -6193.578981587766, -10344.47674089393, -13204.628313139478, -7600.867164238354, -6373.376413986256, -6430.619231536297, -9209.276343497795, -11668.705841148596, -16464.5855384571, 0.005562500000000001, 0.23321875000000003, 0.9439062500000002, 192.0, 0.0, 0.0, 0.0, 0.0, 0.0, 0.0, 0.0, 0.0, 0.0, 1.644587823024918E9, 0.0, 2022-02-12 00:57:03.024
102.0, -10758.498103439582, -10634.781197879458, -6304.242468385991, -13181.270740183681, -8916.803767300102, -4737.139312879957, -8753.054887420521, -6200.306856668813, -10355.339688699209, -13223.247316270748, -7593.200515890184, -6385.826335647862, -6429.188719891157, -9206.080044040686, -11664.414306213177, -16515.703978026388, 0.005562500000000001, 0.23321875000000003, 0.9439062500000002, 192.0, 0.0, 0.0, 0.0, 0.0, 0.0, 0.0, 0.0, 0.0, 0.0, 1.644587823031763E9, 0.0, 2022-02-12 00:57:03.031
104.0, -10760.398001718284, -10631.361380977796, -6304.7342067640075, -13158.673126539366, -8910.008836985688, -4742.928414693883, -8770.332785884475, -6199.792766546341, -10345.035534505312, -13220.989790080761, -7603.951704973186, -6366.961463327582, -6413.3636848168, -9227.224794295405, -11668.057640559393, -16462.39506750048, 0.005562500000000001, 0.23321875000000003, 0.9439062500000002, 192.0, 0.0, 0.0, 0.0, 0.0, 0.0, 0.0, 0.0, 0.0, 0.0, 1.644587823039588E9, 0.0, 2022-02-12 00:57:03.039
106.0, -10744.841187577389, -10636.636392669248, -6296.173488637625, -13180.220208194281, -8925.163319726387, -4754.506618321731, -8768.321128883497, -6203.972542759484, -10348.880034551625, -13220.319237747102, -7599.727225271133, -6366.380317971745, -6431.736818759063, -9233.036247853786, -11672.997376084015, -16495.810925461166, 0.006, 0.23800000000000002, 0.9420000000000001, 192.0, 0.0, 24.0, 3.5, 56.0, 14.5, 56.0, 0.0, 0.0, 0.0, 1.644587823047757E9, 0.0, 2022-02-12 00:57:03.047
108.0, -10757.089943538898, -10627.516880931484, -6305.427110842123, -13179.393193649435, -8930.751255840214, -4766.867133005516, -8781.195733689754, -6220.132854000671, -10348.835331062715, -13248.169511338416, -7603.236449150616, -6386.318074025879, -6446.265452655012, -9235.405532766048, -11670.985719083039, -16501.39886157499, 0.006, 0.23800000000000002, 0.9420000000000001, 192.0, 0.0, 0.0, 0.0, 0.0, 0.0, 0.0, 0.0, 0.0, 0.0, 1.644587823054642E9, 0.0, 2022-02-12 00:57:03.054
110.0, -10731.899527537767, -10629.081503043355, -6308.377541110223, -13173.671147068877, -8935.735694853747, -4771.002205729747, -8781.508658112129, -6219.015266777906, -10347.76244732886, -13231.070426830105, -7602.744710772599, -6394.029425862959, -6441.884510741772, -9243.273346814316, -11674.718460407074, -16468.7876664147, 0.006, 0.23800000000000002, 0.9420000000000001, 192.0, 0.0, 0.0, 0.0, 0.0, 0.0, 0.0, 0.0, 0.0, 0.0, 1.644587823062019E9, 0.0, 2022-02-12 00:57:03.062
112.0, -10748.328059712418, -10658.608157468816, -6316.982962725516, -13190.032624010162, -8953.594738673537, -4790.559982128141, -8789.242361693665, -6230.906394828128, -10360.748810857393, -13259.546549266166, -7615.686370812223, -6399.840879421339, -6452.792162035962, -9247.363716049638, -11676.528951707955, -16525.98578047583, 0.006, 0.23800000000000002, 0.9420000000000001, 192.0, 0.0, 0.0, 0.0, 0.0, 0.0, 0.0, 0.0, 0.0, 0.0, 1.644587823070155E9, 0.0, 2022-02-12 00:57:03.070
114.0, -10800.318217315462, -10671.058079130422, -6321.609773827765, -13179.013213993694, -8950.532549683161, -4799.143051998979, -8794.606780362938, -6236.5837379197765, -10364.95093881499, -13253.399819540957, -7616.98277199063, -6390.497850239021, -6453.172141691702, -9264.842780213688, -11676.752469152507, -16475.292024051192, 0.006, 0.23800000000000002, 0.9420000000000001, 192.0, 0.0, 0.0, 0.0, 0.0, 0.0, 0.0, 0.0, 0.0, 0.0, 1.644587823078221E9, 0.0, 2022-02-12 00:57:03.078
116.0, -10777.98882460461, -10659.234006313563, -6318.212308670558, -13189.65264435442, -8973.241922049752, -4816.5997644185745, -8799.50181239865, -6243.780999634386, -10378.920779099559, -13267.034383658694, -7610.321952142948, -6390.4084432612, -6477.80376408145, -9265.26746335834, -11682.295701777424, -16505.69039651041, 0.01, 0.24, 0.9480000000000001, 192.0, 0.0, 40.0, 3.5, 64.0, 14.5, 80.0, 0.0, 0.0, 0.0, 1.644587823084831E9, 0.0, 2022-02-12 00:57:03.084
118.0, -10773.250254780085, -10669.895788418746, -6327.175358197136, -13182.924769273373, -8975.700613939836, -4832.916537870949, -8812.376417204907, -6257.236749796481, -10372.259959251876, -13266.252072602758, -7614.904059756287, -6388.26267579349, -6482.229409483602, -9291.351949137683, -11688.59889371382, -16508.663178522966, 0.01, 0.24, 0.9480000000000001, 192.0, 0.0, 0.0, 0.0, 0.0, 0.0, 0.0, 0.0, 0.0, 0.0, 1.644587823091748E9, 0.0, 2022-02-12 00:57:03.091
120.0, -10749.088019023899, -10669.828733185379, -6318.279363903924, -13181.270740183681, -8964.837666134557, -4832.313040770655, -8801.826393822003, -6252.073496827305, -10365.95676731548, -13255.09855211956, -7623.353019160393, -6405.607629490809, -6477.513191403532, -9297.453975373981, -11687.883637891251, -16477.236625818805, 0.01, 0.24, 0.9480000000000001, 192.0, 0.0, 0.0, 0.0, 0.0, 0.0, 0.0, 0.0, 0.0, 0.0, 1.644587823106643E9, 0.0, 2022-02-12 00:57:03.106
122.0, -10760.018022062544, -10682.435117058172, -6323.643782573197, -13195.620560123989, -8980.461535508817, -4850.015622379258, -8813.628114894404, -6268.211456324036, -10365.15210451509, -13286.77097401273, -7632.696048342711, -6411.7990627049285, -6468.930121532693, -9285.205219412474, -11685.000262856516, -16529.36089388858, 0.01, 0.24, 0.9480000000000001, 192.0, 0.0, 0.0, 0.0, 0.0, 0.0, 0.0, 0.0, 0.0, 0.0, 1.644587823115897E9, 0.0, 2022-02-12 00:57:03.115
124.0, -10770.590397189904, -10687.128983393786, -6328.047076230893, -13183.170638462381, -8969.39742200344, -4855.424744537442, -8812.756396860648, -6262.131781832192, -10370.091840039711, -13294.48232584981, -7646.710592116188, -6422.863176210306, -6479.211923982135, -9304.964161510965, -11688.64359720273, -16479.36004154206, 0.01, 0.24, 0.9480000000000001, 192.0, 0.0, 0.0, 0.0, 0.0, 0.0, 0.0, 0.0, 0.0, 0.0, 1.644587823122771E9, 0.0, 2022-02-12 00:57:03.122
126.0, -10770.053955322976, -10684.200904870142, -6321.118035449748, -13189.160905976405, -8982.562599487615, -4873.44025056842, -8816.533841673594, -6271.273645314413, -10374.182209275034, -13286.480401334811, -7642.7096298586885, -6399.595010232331, -6480.441269927177, -9307.065225489763, -11690.811716414895, -16509.132565156528, 0.006, 0.23600000000000002, 0.9440000000000001, 192.0, 0.0, 24.0, 3.5, 48.0, 14.5, 64.0, 0.0, 0.0, 0.0, 1.644587823130327E9, 0.0, 2022-02-12 00:57:03.130
128.0, -10790.528153244037, -10684.06679440341, -6334.35026816729, -13187.931560031362, -8984.127221599487, -4888.3935676090205, -8827.910879601346, -6281.62250299722, -10384.888694869125, -13308.25100043428, -7626.571670361957, -6427.601746034831, -6509.05150282997, -9323.002019286398, -11692.286931548946, -16515.681626281934, 0.006, 0.23600000000000002, 0.9440000000000001, 192.0, 0.0, 0.0, 0.0, 0.0, 0.0, 0.0, 0.0, 0.0, 0.0, 1.644587823137001E9, 0.0, 2022-02-12 00:57:03.137
130.0, -10779.642853694302, -10695.868515475811, -6330.036381487415, -13187.395118164435, -8987.569390245604, -4895.143794434523, -8826.12274004492, -6287.903343189161, -10380.664215167071, -13301.992511986795, -7644.341307203926, -6434.329621115879, -6510.571421452931, -9342.425685218059, -11695.907914150706, -16483.159838099462, 0.006, 0.23600000000000002, 0.9440000000000001, 192.0, 0.0, 0.0, 0.0, 0.0, 0.0, 0.0, 0.0, 0.0, 0.0, 1.644587823144949E9, 0.0, 2022-02-12 00:57:03.144
132.0, -10778.212342049163, -10702.819908001413, -6341.100494992793, -13188.42329840938, -9001.203954363342, -4908.823062041171, -8825.631001666905, -6292.7536717359635, -10386.498020469908, -13321.21501221836, -7639.736847846133, -6431.245080381046, -6512.091340075892, -9343.56562418528, -11697.092556606836, -16540.715580071876, 0.006, 0.23600000000000002, 0.9440000000000001, 192.0, 0.0, 0.0, 0.0, 0.0, 0.0, 0.0, 0.0, 0.0, 0.0, 1.644587823153076E9, 0.0, 2022-02-12 00:57:03.153
134.0, -10788.51649624306, -10712.609972072838, -6332.226852444035, -13172.017117979183, -8989.759861202225, -4912.980486509859, -8839.757304162658, -6300.956761951061, -10386.945055359014, -13320.030369762228, -7646.732943860644, -6421.1867953761575, -6509.453834230165, -9343.923252096565, -11696.086728106347, -16485.663233478455, 0.006, 0.23600000000000002, 0.9440000000000001, 192.0, 0.0, 0.0, 0.0, 0.0, 0.0, 0.0, 0.0, 0.0, 0.0, 1.644587823160014E9, 0.0, 2022-02-12 00:57:03.160
136.0, -10766.052993065476, -10718.890812264779, -6336.16075946817, -13187.596283864534, -9004.489660798272, -4923.731675592861, -8832.090655814489, -6313.317276634846, -10393.941151373525, -13332.614401890565, -7648.029345039052, -6416.068245895893, -6502.86006961585, -9351.925176611565, -11694.4103472722, -16515.99455070431, 0.01, 0.24, 0.9480000000000001, 192.0, 0.0, 40.0, 3.5, 64.0, 14.5, 80.0, 0.0, 0.0, 0.0, 1.644587823166958E9, 0.0, 2022-02-12 00:57:03.166
138.0, -10809.303618586495, -10720.075454720909, -6342.754524082485, -13190.770231577186, -9004.556716031637, -4939.8696350895925, -8840.494911729684, -6326.549509352388, -10395.215200807477, -13341.532747928233, -7662.155647534806, -6442.5550630754315, -6535.113636864858, -9365.738554684944, -11696.533762995454, -16522.230687407337, 0.01, 0.24, 0.9480000000000001, 192.0, 0.0, 0.0, 0.0, 0.0, 0.0, 0.0, 0.0, 0.0, 0.0, 1.644587823174618E9, 0.0, 2022-02-12 00:57:03.174
140.0, -10804.118013872865, -10717.572059341916, -6334.953765267583, -13188.445650153835, -9005.137861387475, -4948.318594493699, -8833.476463970717, -6323.062637217359, -10394.030558351345, -13344.63964040752, -7660.367507978382, -6456.502551615543, -6526.597622227386, -9380.580113003269, -11694.008015872005, -16491.094707381097, 0.01, 0.24, 0.9480000000000001, 192.0, 0.0, 0.0, 0.0, 0.0, 0.0, 0.0, 0.0, 0.0, 0.0, 1.644587823182775E9, 0.0, 2022-02-12 00:57:03.182
142.0, -10787.376557275838, -10729.26202169204, -6343.626242116242, -13202.862525327508, -9019.420626094416, -4967.541094725263, -8845.613461209949, -6344.721477594552, -10408.089805613734, -13373.249873310313, -7649.9292433177525, -6458.402449894244, -6546.647137003796, -9388.872610196187, -11696.17613508417, -16548.69515284242, 0.01, 0.24, 0.9480000000000001, 192.0, 0.0, 0.0, 0.0, 0.0, 0.0, 0.0, 0.0, 0.0, 0.0, 1.644587823190769E9, 0.0, 2022-02-12 00:57:03.190
144.0, -10798.172449847752, -10724.948135012166, -6345.749657839497, -13180.46607738329, -9014.883221969989, -4971.027966860291, -8856.185836337309, -6342.955689782583, -10408.603895736205, -13357.223672535858, -7674.80673489651, -6463.789220307973, -6545.842474203405, -9412.408997107625, -11699.730062452563, -16496.526181283734, 0.01, 0.24, 0.9480000000000001, 192.0, 0.0, 0.0, 0.0, 0.0, 0.0, 0.0, 0.0, 0.0, 0.0, 1.644587823197428E9, 0.0, 2022-02-12 00:57:03.197
146.0, -10798.619484736859, -10736.951021784667, -6337.390105413211, -13191.150211232927, -9019.01829469422, -4966.848190647148, -8843.0877140865, -6345.839064817317, -10417.656352240605, -13364.130361572548, -7669.084688315951, -6437.592975806353, -6539.896910178293, -9417.125215187694, -11701.048815375427, -16522.32009438516, 0.014, 0.23800000000000002, 0.9480000000000001, 192.0, 0.0, 56.0, 3.5, 56.0, 14.5, 80.0, 0.0, 0.0, 0.0, 1.644587823205461E9, 0.0, 2022-02-12 00:57:03.205
148.0, -10806.621409251858, -10750.965565558145, -6343.4474281606, -13187.75274607572, -9019.890012727978, -4981.712100709928, -8851.983708379712, -6352.388125942723, -10416.851689440215, -13384.336338560146, -7672.146877306328, -6457.553083604942, -6555.63253827483, -9409.525622072892, -11693.404518771711, -16523.348274630105, 0.014, 0.23800000000000002, 0.9480000000000001, 192.0, 0.0, 0.0, 0.0, 0.0, 0.0, 0.0, 0.0, 0.0, 0.0, 1.64458782321307E9, 0.0, 2022-02-12 00:57:03.213
150.0, -10783.8449816519, -10734.045295005477, -6329.410532642667, -13183.192990206837, -9013.542117302672, -4986.473022278908, -8846.37342052143, -6354.891521321717, -10401.652503210606, -13368.17602731896, -7678.293607031537, -6474.182781479691, -6545.686011992218, -9430.24568918296, -11695.282065305957, -16490.044175391697, 0.014, 0.23800000000000002, 0.9480000000000001, 192.0, 0.0, 0.0, 0.0, 0.0, 0.0, 0.0, 0.0, 0.0, 0.0, 1.644587823226894E9, 0.0, 2022-02-12 00:57:03.226
152.0, -10787.689481698213, -10729.373780414317, -6330.72928556553, -13194.882952556964, -9028.540137832182, -5001.5604497862405, -8848.966222878245, -6365.910931338183, -10407.888639913635, -13387.532638017254, -7660.27810100056, -6462.872798785305, -6558.091230164913, -9426.065912969818, -11699.21597233009, -16548.65044935351, 0.014, 0.23800000000000002, 0.9480000000000001, 192.0, 0.0, 0.0, 0.0, 0.0, 0.0, 0.0, 0.0, 0.0, 0.0, 1.64458782323517E9, 0.0, 2022-02-12 00:57:03.235
154.0, -10798.932409159233, -10753.200740003675, -6338.507692635977, -13180.17550470537, -9017.78894874918, -5005.650819021562, -8848.183911822309, -6366.961463327582, -10395.952808374503, -13371.059402353694, -7669.285854016049, -6470.114763988825, -6553.017384173559, -9436.727695075, -11696.623169973276, -16496.190905116906, 0.014, 0.23800000000000002, 0.9480000000000001, 192.0, 0.0, 0.0, 0.0, 0.0, 0.0, 0.0, 0.0, 0.0, 0.0, 1.64458782324216E9, 0.0, 2022-02-12 00:57:03.242
156.0, -10772.311481512963, -10735.274640950518, -6325.051942473882, -13188.468001898289, -9024.606230808047, -5011.663438280039, -8839.243214040187, -6372.191771530124, -10412.157823104599, -13397.277998599768, -7679.724118676677, -6463.588054607875, -6547.943538182204, -9446.987145779985, -11698.098385107325, -16525.002303719797, 0.01, 0.234, 0.9520000000000001, 192.0, 0.0, 40.0, 3.5, 40.0, 14.5, 96.0, 0.0, 0.0, 0.0, 1.644587823249559E9, 0.0, 2022-02-12 00:57:03.249
158.0, -10804.363883061873, -10757.045240049987, -6337.434808902122, -13185.51757163019, -9027.757826776246, -5024.538043086296, -8852.22957756872, -6387.726233926563, -10399.81966016527, -13400.854277712617, -7682.205162311217, -6476.37325243631, -6578.923055997259, -9455.21258773954, -11697.60664672931, -16531.394902634012, 0.01, 0.234, 0.9520000000000001, 192.0, 0.0, 0.0, 0.0, 0.0, 0.0, 0.0, 0.0, 0.0, 0.0, 1.644587823257687E9, 0.0, 2022-02-12 00:57:03.257
160.0, -10811.963476176677, -10771.059783823464, -6326.661268074664, -13178.432068637858, -9021.655800539947, -5020.8723569956255, -8841.254871041165, -6379.612550689287, -10409.028578880856, -13398.328530589168, -7677.891275631342, -6476.864990814328, -6568.507143081087, -9460.152323264161, -11692.398690271222, -16493.687509737912, 0.01, 0.234, 0.9520000000000001, 192.0, 0.0, 0.0, 0.0, 0.0, 0.0, 0.0, 0.0, 0.0, 0.0, 1.644587823265478E9, 0.0, 2022-02-12 00:57:03.265
162.0, -10807.180202863241, -10765.695365154192, -6330.326954165334, -13185.674033841377, -9037.279669914207, -5032.696429812483, -8850.307327545563, -6386.9662746150825, -10416.806985951303, -13407.380987093567, -7668.32472900447, -6470.785316322484, -6574.20683791719, -9454.095000516772, -11691.348158281822, -16542.771940561764, 0.01, 0.234, 0.9520000000000001, 192.0, 0.0, 0.0, 0.0, 0.0, 0.0, 0.0, 0.0, 0.0, 0.0, 1.644587823272319E9, 0.0, 2022-02-12 00:57:03.272
164.0, -10781.319234528451, -10751.79258010299, -6336.518387379455, -13168.552597588612, -9025.187376163885, -5043.157046217567, -8852.475446757728, -6393.850611907317, -10407.128680602156, -13395.17693462097, -7698.745453208144, -6484.8222118404165, -6567.657776791785, -9478.92778860662, -11694.924437394671, -16492.771088215242, 0.01, 0.23600000000000002, 0.9530000000000001, 192.0, 0.0, 40.0, 3.5, 56.0, 14.5, 104.0, 0.0, 0.0, 0.0, 1.644587823279194E9, 0.0, 2022-02-12 00:57:03.279
166.0, -10783.576760718437, -10757.380516216817, -6329.946974509594, -13172.553559846112, -9033.993963479277, -5052.544778888796, -8851.89430140189, -6400.98081838856, -10415.711750472994, -13400.675463756976, -7678.986511109652, -6475.769755336018, -6571.390518115821, -9477.385518239204, -11694.522105994476, -16522.32009438516, 0.01, 0.23600000000000002, 0.9530000000000001, 192.0, 0.0, 0.0, 0.0, 0.0, 0.0, 0.0, 0.0, 0.0, 0.0, 1.644587823287453E9, 0.0, 2022-02-12 00:57:03.287
168.0, -10819.697179758214, -10757.402867961273, -6335.06552398986, -13174.498161613723, -9034.195129179374, -5066.916950573558, -8855.22471132573, -6414.056588894915, -10408.223916080466, -13423.317780890202, -7664.1896562802385, -6474.965092535626, -6578.431317619243, -9486.505029976968, -11688.733004180553, -16528.33271364364, 0.01, 0.23600000000000002, 0.9530000000000001, 192.0, 0.0, 0.0, 0.0, 0.0, 0.0, 0.0, 0.0, 0.0, 0.0, 1.644587823294428E9, 0.0, 2022-02-12 00:57:03.294
170.0, -10798.373615547851, -10771.842094879401, -6335.356096667779, -13174.967548247285, -9035.737399546791, -5070.247360497398, -8857.504589260172, -6419.868042453295, -10413.63303823865, -13411.94074296245, -7682.7416041781435, -6486.610351396841, -6584.376881644354, -9499.156117338673, -11690.655254203708, -16494.201599860382, 0.01, 0.23600000000000002, 0.9530000000000001, 192.0, 0.0, 0.0, 0.0, 0.0, 0.0, 0.0, 0.0, 0.0, 0.0, 1.644587823301965E9, 0.0, 2022-02-12 00:57:03.301
172.0, -10803.290999328017, -10767.192932032696, -6336.987774013016, -13183.975301262773, -9047.807341552656, -5090.274523529354, -8869.842752199502, -6431.826225736884, -10427.759340734405, -13437.265269430312, -7678.204200053716, -6484.263418229034, -6590.411852647288, -9501.815974928853, -11697.383129284755, -16550.729161587853, 0.01, 0.23600000000000002, 0.9530000000000001, 192.0, 0.0, 0.0, 0.0, 0.0, 0.0, 0.0, 0.0, 0.0, 0.0, 1.644587823309887E9, 0.0, 2022-02-12 00:57:03.309
174.0, -10799.491202770616, -10776.93829261521, -6337.0101257574715, -13163.299937641614, -9033.882204757001, -5090.229820040443, -8861.550255006583, -6426.08182741187, -10415.287067328343, -13426.4693768584, -7687.882505402864, -6497.339188735389, -6585.82974503395, -9520.502033293491, -11689.403556514211, -16495.49800103879, 0.011, 0.233, 0.9515, 192.0, 0.0, 48.0, 3.5, 24.0, 14.5, 88.0, 0.0, 0.0, 0.0, 1.644587823317886E9, 0.0, 2022-02-12 00:57:03.317
176.0, -10776.51360947056, -10762.163789530254, -6326.616564585754, -13172.665318568388, -9041.772370549723, -5091.749738663404, -8858.957452649767, -6434.0390484379595, -10422.864308698692, -13427.542260592254, -7687.971912380685, -6478.071985014914, -6594.301056182511, -9513.416530301158, -11689.671777447675, -16519.548478072702, 0.011, 0.233, 0.9515, 192.0, 0.0, 0.0, 0.0, 0.0, 0.0, 0.0, 0.0, 0.0, 0.0, 1.644587823324596E9, 0.0, 2022-02-12 00:57:03.324
178.0, -10780.17929556123, -10746.919899811734, -6330.326954165334, -13164.730449286753, -9039.470140870826, -5108.021808626868, -8874.380156323929, -6442.331545630878, -10404.91585790108, -13427.206984425424, -7682.0934035889395, -6490.52190667652, -6594.368111415877, -9512.991847156507, -11689.001225114016, -16525.203469419896, 0.011, 0.233, 0.9515, 192.0, 0.0, 0.0, 0.0, 0.0, 0.0, 0.0, 0.0, 0.0, 0.0, 1.644587823333107E9, 0.0, 2022-02-12 00:57:03.333
180.0, -10801.413452793771, -10775.977167603633, -6317.094721447793, -13157.913167227885, -9038.061980970142, -5121.946945422524, -8861.013813139656, -6445.281975898979, -10409.140337603134, -13423.094263445648, -7674.292644774037, -6499.529659692009, -6596.2233062056675, -9541.043286447917, -11691.281103048457, -16489.68654748041, 0.011, 0.233, 0.9515, 192.0, 0.0, 0.0, 0.0, 0.0, 0.0, 0.0, 0.0, 0.0, 0.0, 1.644587823339768E9, 0.0, 2022-02-12 00:57:03.339
182.0, -10817.32789484595, -10801.726377216146, -6332.629183844231, -13169.491370855734, -9056.301004445673, -5136.475579318474, -8869.99921441069, -6454.043859725459, -10420.673837742072, -13452.866787060117, -7666.603644681412, -6486.230371741101, -6586.746166556617, -9544.910138238685, -11689.224742558568, -16545.588260363133, 0.011, 0.233, 0.9515, 192.0, 0.0, 0.0, 0.0, 0.0, 0.0, 0.0, 0.0, 0.0, 0.0, 1.64458782335415E9, 0.0, 2022-02-12 00:57:03.354
184.0, -10801.346397560406, -10785.141382830308, -6332.875053033239, -13153.286356125636, -9041.012411238244, -5140.431838087063, -8868.881627187924, -6460.481162128587, -10419.712712730494, -13460.198159241458, -7683.747432678632, -6510.86199413085, -6606.706274355206, -9550.140446441228, -11689.78353616995, -16489.105402124573, 0.010499999999999999, 0.23550000000000001, 0.94875, 192.0, 0.0, 40.0, 3.5, 56.0, 14.5, 72.0, 0.0, 0.0, 0.0, 1.644587823362047E9, 0.0, 2022-02-12 00:57:03.362
186.0, -10780.0451850945, -10774.256083280574, -6322.503843605977, -13164.283414397647, -9052.501207888272, -5143.382268355163, -8867.048784142587, -6457.508380116032, -10421.277334842365, -13444.350772422646, -7681.646368699833, -6506.235183028601, -6611.064864523991, -9549.715763296577, -11686.631940201753, -16514.720501270356, 0.010499999999999999, 0.23550000000000001, 0.94875, 192.0, 0.0, 0.0, 0.0, 0.0, 0.0, 0.0, 0.0, 0.0, 0.0, 1.644587823370026E9, 0.0, 2022-02-12 00:57:03.370
188.0, -10769.159885544765, -10760.912091840755, -6332.070390232849, -13159.589548062033, -9053.12705673302, -5145.975070711979, -8869.909807432867, -6461.598749351353, -10411.330808559753, -13461.986298797883, -7692.464613016202, -6521.188500069202, -6609.097911011924, -9559.930510512651, -11684.910855878694, -16518.766167016765, 0.010499999999999999, 0.23550000000000001, 0.94875, 192.0, 0.0, 0.0, 0.0, 0.0, 0.0, 0.0, 0.0, 0.0, 0.0, 1.644587823377167E9, 0.0, 2022-02-12 00:57:03.377
190.0, -10798.463022525671, -10781.967435117655, -6315.954782480572, -13155.879158482452, -9043.404047894961, -5147.629099801672, -8861.259682328664, -6462.202246451646, -10402.323055544264, -13442.920260777506, -7696.443223529247, -6519.601526212875, -6623.291268741044, -9571.978100774062, -11683.055661088903, -16481.8410851766, 0.010499999999999999, 0.23550000000000001, 0.94875, 192.0, 0.0, 0.0, 0.0, 0.0, 0.0, 0.0, 0.0, 0.0, 0.0, 1.64458782338471E9, 0.0, 2022-02-12 00:57:03.384
192.0, -10804.699159228703, -10801.681673727237, -6321.8109395278625, -13160.930652729352, -9058.491475402294, -5164.169390698599, -8879.521057548649, -6475.210961724635, -10415.890564428635, -13467.976566311905, -7670.47049647218, -6493.584095666897, -6620.07261753948, -9560.46695237958, -11682.206294799602, -16540.000324249308, 0.010499999999999999, 0.23550000000000001, 0.94875, 192.0, 0.0, 0.0, 0.0, 0.0, 0.0, 0.0, 0.0, 0.0, 0.0, 1.644587823392694E9, 0.0, 2022-02-12 00:57:03.392
194.0, -10800.98876964912, -10798.977112648143, -6332.986811755516, -13150.067704924073, -9046.466236885339, -5171.83603904677, -8868.769868465646, -6476.842639069872, -10417.34342781823, -13473.206874514446, -7686.47434550218, -6508.224488285124, -6623.648896652329, -9586.886714325752, -11682.45216398861, -16491.139410870008, 0.010249999999999999, 0.23775000000000002, 0.9453750000000001, 192.0, 0.0, 40.0, 3.5, 64.0, 14.5, 56.0, 0.0, 0.0, 0.0, 1.644587823400907E9, 0.0, 2022-02-12 00:57:03.400
196.0, -10787.398909020294, -10782.548580473493, -6328.292945419901, -13164.529283586657, -9052.210635210353, -5180.754385084437, -8862.600786995983, -6481.894133316771, -10417.58929700724, -13471.888121591583, -7707.90966843482, -6527.357581538866, -6609.477890667665, -9590.999435305528, -11679.88171337625, -16519.83905075062, 0.010249999999999999, 0.23775000000000002, 0.9453750000000001, 192.0, 0.0, 0.0, 0.0, 0.0, 0.0, 0.0, 0.0, 0.0, 0.0, 1.644587823407017E9, 0.0, 2022-02-12 00:57:03.407
198.0, -10778.145286815798, -10788.382385776327, -6337.255994946479, -13161.332984129547, -9057.08331550161, -5197.294675981364, -8869.641586499403, -6495.7969183679725, -10422.350218576219, -13484.740374653386, -7700.868868931398, -6533.169035097246, -6641.530292216575, -9598.956656331618, -11682.429812244156, -16530.299667155705, 0.010249999999999999, 0.23775000000000002, 0.9453750000000001, 192.0, 0.0, 0.0, 0.0, 0.0, 0.0, 0.0, 0.0, 0.0, 0.0, 1.644587823414358E9, 0.0, 2022-02-12 00:57:03.414
200.0, -10796.80899343598, -10809.504784286593, -6334.864358289762, -13160.88594924044, -9058.156199235464, -5202.189708017077, -8874.871894701946, -6499.596714925375, -10418.125738874167, -13476.537284438287, -7704.266334088605, -6533.526663008531, -6638.043420081547, -9613.28412452747, -11687.078975090859, -16493.084012637617, 0.010249999999999999, 0.23775000000000002, 0.9453750000000001, 192.0, 0.0, 0.0, 0.0, 0.0, 0.0, 0.0, 0.0, 0.0, 0.0, 1.644587823422441E9, 0.0, 2022-02-12 00:57:03.422
202.0, -10816.791452979023, -10824.391046093828, -6335.177282712136, -13177.314481415091, -9071.254321486274, -5219.311144269842, -8884.729014006736, -6504.648209172275, -10435.604803038217, -13492.943464868482, -7692.933999649764, -6529.704514706674, -6632.433132223265, -9615.295781528448, -11689.090632091837, -16551.064437754685, 0.010249999999999999, 0.23775000000000002, 0.9453750000000001, 192.0, 0.0, 0.0, 0.0, 0.0, 0.0, 0.0, 0.0, 0.0, 0.0, 1.64458782342938E9, 0.0, 2022-02-12 00:57:03.429
204.0, -10815.584458778438, -10808.074272641454, -6336.339573423812, -13157.756705016698, -9057.50799864626, -5220.071103581322, -8885.287807618119, -6508.3362470074, -10430.843881469236, -13501.839459161694, -7706.233287600671, -6544.501369536087, -6655.701298201239, -9635.010020138028, -11687.682472191153, -16498.157858628972, 0.012125, 0.236875, 0.9416875, 192.0, 0.0, 56.0, 3.5, 48.0, 14.5, 40.0, 0.0, 0.0, 0.0, 1.644587823436834E9, 0.0, 2022-02-12 00:57:03.436
206.0, -10792.696272456202, -10797.367787047362, -6330.773989054441, -13165.22218766477, -9063.990004538298, -5227.89421414068, -8874.08958364601, -6510.593773197386, -10433.727256503971, -13491.088270078691, -7708.937848679763, -6534.778360698028, -6628.521576943586, -9627.745703190054, -11686.117850079281, -16521.381321118035, 0.012125, 0.236875, 0.9416875, 192.0, 0.0, 0.0, 0.0, 0.0, 0.0, 0.0, 0.0, 0.0, 0.0, 1.644587823445012E9, 0.0, 2022-02-12 00:57:03.445
208.0, -10796.98780739162, -10813.371636077361, -6336.049000745893, -13166.94327198783, -9070.047327285687, -5241.953461403067, -8889.445232086806, -6527.849319916883, -10429.502776801917, -13521.173718115535, -7721.231308130183, -6548.547035282498, -6664.999623894647, -9639.212148095627, -11684.329710522856, -16533.741835801822, 0.012125, 0.236875, 0.9416875, 192.0, 0.0, 0.0, 0.0, 0.0, 0.0, 0.0, 0.0, 0.0, 0.0, 1.644587823452967E9, 0.0, 2022-02-12 00:57:03.452
210.0, -10784.269664796551, -10822.960534448688, -6332.338611166312, -13160.12598992896, -9061.643071370492, -5244.4568567820625, -8889.825211742545, -6528.922203650738, -10426.954677934013, -13495.37980501411, -7719.66668601831, -6560.9522534551925, -6656.573016234996, -9650.522130790012, -11686.453126246111, -16498.26961735125, 0.012125, 0.236875, 0.9416875, 192.0, 0.0, 0.0, 0.0, 0.0, 0.0, 0.0, 0.0, 0.0, 0.0, 1.644587823459574E9, 0.0, 2022-02-12 00:57:03.459
212.0, -10812.589325021425, -10834.874014243367, -6333.053866988882, -13173.671147068877, -9075.478801188327, -5257.867903455246, -8891.635703043426, -6538.891081677804, -10433.995477437435, -13517.262162835857, -7710.994209169652, -6547.876482948838, -6658.227045324689, -9652.466732557623, -11686.251960546013, -16551.17619647696, 0.012125, 0.236875, 0.9416875, 192.0, 0.0, 0.0, 0.0, 0.0, 0.0, 0.0, 0.0, 0.0, 0.0, 1.644587823474615E9, 0.0, 2022-02-12 00:57:03.474
214.0, -10809.884763942333, -10823.452272826706, -6329.902271020684, -13161.578853318555, -9059.162027735953, -5257.219702866042, -8889.154659408887, -6528.609279228363, -10438.041143183846, -13526.381674573622, -7719.487872062668, -6562.6509860337965, -6655.567187734508, -9664.067287929927, -11685.335539023345, -16503.432870320426, 0.013062500000000001, 0.23743750000000002, 0.94284375, 192.0, 0.0, 56.0, 3.5, 56.0, 14.5, 64.0, 0.0, 0.0, 0.0, 1.64458782348265E9, 0.0, 2022-02-12 00:57:03.482
216.0, -10793.322121300951, -10803.536868517027, -6316.267706902946, -13163.41169636389, -9057.12801899052, -5256.32563308783, -8877.889380203413, -6517.768683167539, -10437.996439694934, -13508.969665642939, -7709.161366124316, -6562.226302889145, -6639.540986960053, -9660.602767539354, -11680.239341287535, -16520.107271684083, 0.013062500000000001, 0.23743750000000002, 0.94284375, 192.0, 0.0, 0.0, 0.0, 0.0, 0.0, 0.0, 0.0, 0.0, 0.0, 1.64458782348924E9, 0.0, 2022-02-12 00:57:03.489
218.0, -10792.830382922933, -10820.434787325239, -6330.505768120977, -13166.786809776642, -9062.179513237419, -5270.004900694478, -8891.233371643231, -6528.944555395193, -10427.334657589754, -13522.648933249586, -7708.982552168674, -6565.8249337464495, -6656.438905768265, -9671.733936278099, -11679.792306398429, -16529.18207993294, 0.013062500000000001, 0.23743750000000002, 0.94284375, 192.0, 0.0, 0.0, 0.0, 0.0, 0.0, 0.0, 0.0, 0.0, 0.0, 1.644587823497099E9, 0.0, 2022-02-12 00:57:03.497
220.0, -10804.967380162167, -10836.013953210588, -6319.843986015795, -13155.722696271265, -9058.111495746552, -5274.475249585539, -8887.232409385731, -6533.213738586157, -10428.340486090241, -13516.189279102002, -7722.103026163939, -6571.882256493838, -6675.281426344089, -9685.122631206827, -11680.574617454366, -16492.21229460386, 0.013062500000000001, 0.23743750000000002, 0.94284375, 192.0, 0.0, 0.0, 0.0, 0.0, 0.0, 0.0, 0.0, 0.0, 0.0, 1.644587823505376E9, 0.0, 2022-02-12 00:57:03.505
222.0, -10780.46986823915, -10830.403665352305, -6325.96836399655, -13166.384478376447, -9068.75092610728, -5282.767746778459, -8891.009854198677, -6537.125293865835, -10432.095579158733, -13536.328200856233, -7720.359590096426, -6558.225340631645, -6664.060850627524, -9678.10418344786, -11673.287948761934, -16544.247155695815, 0.013062500000000001, 0.23743750000000002, 0.94284375, 192.0, 0.0, 0.0, 0.0, 0.0, 0.0, 0.0, 0.0, 0.0, 0.0, 1.644587823512183E9, 0.0, 2022-02-12 00:57:03.512
224.0, -10803.223944094652, -10808.588362763925, -6332.58448035532, -13155.02979219315, -9057.686812601902, -5286.634598569227, -8888.305293119585, -6541.416828801254, -10435.694210016038, -13533.802453732784, -7720.33723835197, -6574.028023961548, -6656.573016234996, -9694.15273596677, -11674.427887729154, -16499.811887718664, 0.01253125, 0.23971875, 0.9394218750000001, 192.0, 0.0, 48.0, 3.5, 72.0, 14.5, 32.0, 0.0, 0.0, 0.0, 1.644587823519914E9, 0.0, 2022-02-12 00:57:03.519
226.0, -10784.962568874666, -10829.710761274191, -6312.7137795345525, -13159.768362017676, -9062.559492893159, -5284.645293312704, -8877.464697058762, -6538.220529344146, -10428.698114001527, -13521.084311137714, -7721.410122085825, -6566.96487271367, -6670.118173374913, -9688.5871515974, -11667.856474859294, -16517.313303627172, 0.01253125, 0.23971875, 0.9394218750000001, 192.0, 0.0, 0.0, 0.0, 0.0, 0.0, 0.0, 0.0, 0.0, 0.0, 1.64458782352682E9, 0.0, 2022-02-12 00:57:03.526
228.0, -10787.644778209304, -10830.582479307948, -6326.2142331855575, -13156.03562069364, -9065.107591761063, -5297.81047079688, -8886.0477669296, -6546.825950959439, -10430.977991935968, -13539.099817168692, -7719.107892406928, -6575.592646073419, -6680.310568846532, -9691.336416165403, -11662.983794568037, -16527.12571944305, 0.01253125, 0.23971875, 0.9394218750000001, 192.0, 0.0, 0.0, 0.0, 0.0, 0.0, 0.0, 0.0, 0.0, 0.0, 1.644587823534976E9, 0.0, 2022-02-12 00:57:03.534
230.0, -10792.271589311551, -10841.937165491243, -6322.526195350432, -13144.211547876783, -9058.402068424472, -5302.325523176852, -8875.18481912432, -6546.490674792609, -10429.815701224292, -13532.282535109824, -7726.126340165894, -6578.699538552706, -6669.671138485806, -9704.345131438391, -11668.370564981768, -16486.82552419013, 0.01253125, 0.23971875, 0.9394218750000001, 192.0, 0.0, 0.0, 0.0, 0.0, 0.0, 0.0, 0.0, 0.0, 0.0, 1.644587823541444E9, 0.0, 2022-02-12 00:57:03.541
232.0, -10783.912036885267, -10824.52515656056, -6322.772064539441, -13156.415600349379, -9068.08037377362, -5313.926078549156, -8890.451060587295, -6555.520779552553, -10425.30064884432, -13537.53519505682, -7705.227459100182, -6571.032890204536, -6679.4612025572305, -9700.612390114355, -11664.235492257536, -16541.587298105635, 0.01253125, 0.23971875, 0.9394218750000001, 192.0, 0.0, 0.0, 0.0, 0.0, 0.0, 0.0, 0.0, 0.0, 0.0, 1.644587823549887E9, 0.0, 2022-02-12 00:57:03.549
234.0, -10791.019891622054, -10813.908077944288, -6322.637954072708, -13145.597356033011, -9056.301004445673, -5315.62481112776, -8888.104127419487, -6562.405116844788, -10412.001360893413, -13526.314619340255, -7717.342104594959, -6585.315654911477, -6663.233836082678, -9717.040922289005, -11664.503713191, -16493.55339927118, 0.012, 0.24, 0.9420000000000001, 192.0, 0.0, 48.0, 3.5, 64.0, 14.5, 56.0, 0.0, 0.0, 0.0, 1.644587823557644E9, 0.0, 2022-02-12 00:57:03.557
236.0, -10776.379499003828, -10838.182072422753, -6308.802224254874, -13149.5536148016, -9061.151332992475, -5321.503319919506, -8875.698909246792, -6564.081497678936, -10421.59025926474, -13538.67513402404, -7727.95918321123, -6581.426451376254, -6686.345539849465, -9719.857242090375, -11659.049887543904, -16517.134489671527, 0.012, 0.24, 0.9420000000000001, 192.0, 0.0, 0.0, 0.0, 0.0, 0.0, 0.0, 0.0, 0.0, 0.0, 1.644587823564625E9, 0.0, 2022-02-12 00:57:03.564
238.0, -10779.240522294107, -10830.202499652207, -6322.392084883701, -13148.659545023387, -9063.40885918246, -5327.784160111447, -8887.18770589682, -6572.642215805318, -10420.651485997616, -13546.185320161025, -7710.256601602627, -6585.673282822762, -6681.450507813753, -9719.097282778894, -11655.764181108974, -16526.924553742952, 0.012, 0.24, 0.9420000000000001, 192.0, 0.0, 0.0, 0.0, 0.0, 0.0, 0.0, 0.0, 0.0, 0.0, 1.644587823572078E9, 0.0, 2022-02-12 00:57:03.572
240.0, -10802.016949894065, -10851.77193305158, -6322.68265756162, -13140.143530385916, -9059.69846960288, -5326.308944977396, -8874.961301679767, -6561.131067410835, -10417.566945262784, -13535.925869456038, -7713.09527314845, -6579.437146119732, -6681.56226653603, -9722.20417525818, -11658.625204399254, -16481.148181098484, 0.012, 0.24, 0.9420000000000001, 192.0, 0.0, 0.0, 0.0, 0.0, 0.0, 0.0, 0.0, 0.0, 0.0, 1.644587823580132E9, 0.0, 2022-02-12 00:57:03.580
242.0, -10801.726377216146, -10835.119883432375, -6319.173433682136, -13149.620670034967, -9074.31651047665, -5345.86672137579, -8880.728051749236, -6571.368166371366, -10428.385189579152, -13556.198901677002, -7707.574392267989, -6571.032890204536, -6686.256132871644, -9721.444215946702, -11658.289928232423, -16536.69226606992, 0.012, 0.24, 0.9420000000000001, 192.0, 0.0, 0.0, 0.0, 0.0, 0.0, 0.0, 0.0, 0.0, 0.0, 1.644587823587491E9, 0.0, 2022-02-12 00:57:03.587
244.0, -10798.440670781216, -10846.72043880468, -6325.20840468507, -13139.450626307802, -9061.643071370492, -5348.548930710427, -8881.75623199418, -6577.0902129519245, -10425.479462799962, -13554.25429990939, -7725.5898982989675, -6597.184431217245, -6671.07929838649, -9739.750294655598, -11659.4522189441, -16490.222989347338, 0.006, 0.23600000000000002, 0.9480000000000001, 192.0, 0.0, 24.0, 3.5, 48.0, 14.5, 80.0, 0.0, 0.0, 0.0, 1.644587823601691E9, 0.0, 2022-02-12 00:57:03.601
246.0, -10768.019946577544, -10837.62327881137, -6307.461119587555, -13145.17267288836, -9067.096897017587, -5349.778276655469, -8877.934083692322, -6579.7947740310165, -10427.73698898995, -13550.700372540996, -7732.630697802389, -6591.104756725402, -6682.076356658502, -9736.822216131952, -11658.468742188066, -16512.105347169083, 0.006, 0.23600000000000002, 0.9480000000000001, 192.0, 0.0, 0.0, 0.0, 0.0, 0.0, 0.0, 0.0, 0.0, 0.0, 1.64458782361005E9, 0.0, 2022-02-12 00:57:03.610
248.0, -10769.56221694496, -10830.314258374485, -6312.020875456438, -13136.187271617327, -9068.03567028471, -5355.857951147313, -8888.215886141765, -6589.674245080262, -10419.01980865238, -13553.293174897812, -7715.285744105071, -6587.260256679089, -6698.460185344242, -9734.050599819493, -11657.619375898765, -16523.41532986347, 0.006, 0.23600000000000002, 0.9480000000000001, 192.0, 0.0, 0.0, 0.0, 0.0, 0.0, 0.0, 0.0, 0.0, 0.0, 1.644587823617818E9, 0.0, 2022-02-12 00:57:03.617
250.0, -10775.463077481161, -10820.211269880685, -6308.466948088044, -13125.726655212244, -9061.330146948118, -5353.309852279407, -8883.969054695255, -6588.154326457301, -10418.34925631872, -13537.222270634446, -7717.230345872682, -6595.217477705179, -6694.0792434310015, -9753.720134940164, -11655.317146219868, -16477.326032796627, 0.006, 0.23600000000000002, 0.9480000000000001, 192.0, 0.0, 0.0, 0.0, 0.0, 0.0, 0.0, 0.0, 0.0, 0.0, 1.644587823624319E9, 0.0, 2022-02-12 00:57:03.624
252.0, -10790.61756022186, -10838.047961956021, -6316.15594818067, -13141.104655397494, -9067.879208073522, -5359.322471537885, -8879.096374403998, -6590.344797413922, -10425.524166288873, -13547.01233470587, -7716.38097958338, -6587.170849701268, -6693.654560286351, -9748.355716270891, -11655.250090986501, -16532.02075147876, 0.006, 0.23600000000000002, 0.9480000000000001, 192.0, 0.0, 0.0, 0.0, 0.0, 0.0, 0.0, 0.0, 0.0, 0.0, 1.644587823632536E9, 0.0, 2022-02-12 00:57:03.632
254.0, -10800.653493482292, -10858.075124987976, -6322.705009306074, -13130.912259925874, -9054.60227186707, -5365.335090796362, -8882.203266883287, -6596.245657950122, -10426.597050022729, -13560.423381379054, -7732.429532102291, -6595.1727742162675, -6693.542801564075, -9755.865902407873, -11653.037268285427, -16487.898407923985, 0.01, 0.23800000000000002, 0.9440000000000001, 192.0, 0.0, 40.0, 3.5, 56.0, 14.5, 64.0, 0.0, 0.0, 0.0, 1.644587823640452E9, 0.0, 2022-02-12 00:57:03.640
0.0, -10771.819743134945, -10847.100418460419, -6313.049055701382, -13142.35635308699, -9060.45842891436, -5365.536256496461, -8878.51522904816, -6604.7393208431395, -10423.959544177002, -13564.379640147645, -7723.734703509177, -6595.396291660821, -6705.9927232256805, -9760.291547810024, -11655.965346809071, -16512.88765822502, 0.01, 0.23800000000000002, 0.9440000000000001, 192.0, 0.0, 0.0, 0.0, 0.0, 0.0, 0.0, 0.0, 0.0, 0.0, 1.644587823646945E9, 0.0, 2022-02-12 00:57:03.646
2.0, -10794.372653290351, -10849.872034772878, -6322.325029650335, -13140.79173097512, -9065.912254561455, -5374.879285678779, -8890.38400535393, -6605.745149343628, -10434.598974537728, -13584.853838068706, -7733.122436180406, -6602.571201630974, -6704.1822319248, -9763.890178667329, -11658.289928232423, -16526.03048396474, 0.01, 0.23800000000000002, 0.9440000000000001, 192.0, 0.0, 0.0, 0.0, 0.0, 0.0, 0.0, 0.0, 0.0, 0.0, 1.644587823654264E9, 0.0, 2022-02-12 00:57:03.654
4.0, -10786.862467153367, -10847.078066715965, -6317.25118365898, -13131.403998303891, -9051.115399732042, -5374.856933934323, -8881.018624427155, -6609.2543732231115, -10425.59122152224, -13563.217349435969, -7740.945546739763, -6616.205765748712, -6691.41938584082, -9771.288606082035, -11657.418210198666, -16481.148181098484, 0.01, 0.23800000000000002, 0.9440000000000001, 192.0, 0.0, 0.0, 0.0, 0.0, 0.0, 0.0, 0.0, 0.0, 0.0, 1.644587823662091E9, 0.0, 2022-02-12 00:57:03.662
6.0, -10795.222019579653, -10841.66894455778, -6323.532023850921, -13140.232937363737, -9062.492437659794, -5380.735442726069, -8886.606560540982, -6610.304905212511, -10430.441550069041, -13586.060832269291, -7720.7172180077105, -6614.1270535143685, -6696.873211487915, -9765.812428690486, -11655.49596017551, -16535.440568380425, 0.01, 0.23800000000000002, 0.9440000000000001, 192.0, 0.0, 0.0, 0.0, 0.0, 0.0, 0.0, 0.0, 0.0, 0.0, 1.64458782367008E9, 0.0, 2022-02-12 00:57:03.670
8.0, -10783.33089152943, -10839.813749767989, -6322.392084883701, -13124.474957522745, -9052.232986954807, -5383.708224738625, -8881.532714549627, -6618.440940194242, -10429.793349479836, -13567.978271004948, -7739.760904283632, -6614.216460492189, -6716.90037451987, -9777.547094529522, -11656.233567742536, -16486.333785812116, 0.006, 0.24, 0.9540000000000001, 192.0, 0.0, 24.0, 3.5, 64.0, 14.5, 104.0, 0.0, 0.0, 0.0, 1.644587823676808E9, 0.0, 2022-02-12 00:57:03.676
10.0, -10760.018022062544, -10840.976040479665, -6314.01018071296, -13135.024980905651, -9060.279614958718, -5386.435137562173, -8877.889380203413, -6616.965725060192, -10408.223916080466, -13564.223177936457, -7729.747322767655, -6609.947277301226, -6710.8654035169375, -9784.744356244131, -11656.434733442633, -16506.383300588524, 0.006, 0.24, 0.9540000000000001, 192.0, 0.0, 0.0, 0.0, 0.0, 0.0, 0.0, 0.0, 0.0, 0.0, 1.644587823684712E9, 0.0, 2022-02-12 00:57:03.684
12.0, -10782.593283962404, -10858.879787788366, -6318.748750537486, -13133.281544838137, -9054.758734078257, -5393.855916721334, -8882.918522705857, -6627.091065298447, -10414.460052783495, -13588.340710203733, -7727.735665766677, -6613.992943047637, -6699.80129001156, -9790.332292357956, -11654.288965974923, -16522.18598391843, 0.006, 0.24, 0.9540000000000001, 192.0, 0.0, 0.0, 0.0, 0.0, 0.0, 0.0, 0.0, 0.0, 0.0, 1.644587823692906E9, 0.0, 2022-02-12 00:57:03.692
14.0, -10779.464039738661, -10825.732150761147, -6303.996599196983, -13117.59062023051, -9041.750018805269, -5388.871477707801, -8866.981728909223, -6624.207690263712, -10415.309419072797, -13575.130829230648, -7730.2837646345815, -6613.702370369718, -6703.265810402133, -9797.171926161282, -11645.437675170622, -16473.481532750313, 0.006, 0.24, 0.9540000000000001, 192.0, 0.0, 0.0, 0.0, 0.0, 0.0, 0.0, 0.0, 0.0, 0.0, 1.64458782370071E9, 0.0, 2022-02-12 00:57:03.700
16.0, -10783.867333396356, -10838.740866034135, -6306.4329393426115, -13130.331114570035, -9054.579920122615, -5396.1357946557755, -8867.339356820507, -6622.576012918475, -10419.243326096932, -13570.280500683844, -7716.090406905461, -6604.605210376408, -6696.582638809996, -9795.27202788258, -11640.296773945902, -16528.243306665816, 0.006, 0.24, 0.9540000000000001, 192.0, 0.0, 0.0, 0.0, 0.0, 0.0, 0.0, 0.0, 0.0, 0.0, 1.644587823707311E9, 0.0, 2022-02-12 00:57:03.707
18.0, -10786.974225875643, -10855.258805186606, -6316.737093536508, -13118.194117330804, -9039.000754237266, -5394.325303354896, -8869.641586499403, -6628.476873454675, -10407.262791068888, -13569.051154738803, -7729.412046600824, -6624.140635030346, -6714.933421007803, -9805.41971986529, -11638.955669278583, -16483.092782866097, 0.01, 0.23600000000000002, 0.9500000000000001, 192.0, 0.0, 40.0, 3.5, 48.0, 14.5, 88.0, 0.0, 0.0, 0.0, 1.64458782372268E9, 0.0, 2022-02-12 00:57:03.722
20.0, -10771.216246034652, -10857.449276143227, -6305.114186419748, -13125.905469167885, -9043.493454872782, -5392.11248065382, -8859.583301494516, -6629.236832766156, -10409.475613769962, -13582.216332222979, -7741.839616517976, -6617.1221872713795, -6696.090900431979, -9801.530516330065, -11635.02176225445, -16501.80119297519, 0.01, 0.23600000000000002, 0.9500000000000001, 192.0, 0.0, 0.0, 0.0, 0.0, 0.0, 0.0, 0.0, 0.0, 0.0, 1.644587823729465E9, 0.0, 2022-02-12 00:57:03.729
22.0, -10768.064650066453, -10845.424037626271, -6315.39598886919, -13120.809271432076, -9046.26507118524, -5401.679027280692, -8871.586188267016, -6641.910271872315, -10406.927514902058, -13599.360120220199, -7713.09527314845, -6623.537137930052, -6710.507775605653, -9802.93867623075, -11633.032456997928, -16519.28025713924, 0.01, 0.23600000000000002, 0.9500000000000001, 192.0, 0.0, 0.0, 0.0, 0.0, 0.0, 0.0, 0.0, 0.0, 0.0, 1.644587823736977E9, 0.0, 2022-02-12 00:57:03.736
24.0, -10768.109353555365, -10823.586383293437, -6300.777947995419, -13110.952152127285, -9032.876376256512, -5398.281562123485, -8860.23150208372, -6631.3155450005, -10390.700148427504, -13572.336861173733, -7722.930040708786, -6624.230042008167, -6697.2308393992, -9817.13203395987, -11632.11603547526, -16472.229835060818, 0.01, 0.23600000000000002, 0.9500000000000001, 192.0, 0.0, 0.0, 0.0, 0.0, 0.0, 0.0, 0.0, 0.0, 0.0, 1.644587823744947E9, 0.0, 2022-02-12 00:57:03.744
26.0, -10780.55927521697, -10827.408531595294, -6301.001465439972, -13119.26700106466, -9034.485701857293, -5405.16589941572, -8860.119743361443, -6634.444789224242, -10411.017884137378, -13583.44567816802, -7712.402369070336, -6617.144539015835, -6694.593333553474, -9813.220478680192, -11620.671942314142, -16524.331751386137, 0.01, 0.23600000000000002, 0.9500000000000001, 192.0, 0.0, 0.0, 0.0, 0.0, 0.0, 0.0, 0.0, 0.0, 0.0, 1.644587823752022E9, 0.0, 2022-02-12 00:57:03.752
28.0, -10769.741030900603, -10827.743807762125, -6301.895535218184, -13111.935628883319, -9023.913326729933, -5404.182422659686, -8856.699926459782, -6643.050210839536, -10400.356102032198, -13572.202750707002, -7721.05249417454, -6630.0414955665465, -6701.65648480135, -9811.365283890402, -11620.4931283585, -16477.191922329894, 0.008, 0.23, 0.9520000000000001, 192.0, 0.0, 32.0, 3.5, 24.0, 14.5, 96.0, 0.0, 0.0, 0.0, 1.64458782375958E9, 0.0, 2022-02-12 00:57:03.759
30.0, -10752.84311209239, -10857.896311032333, -6291.971360680028, -13118.797614431098, -9031.289402400185, -5409.815062262423, -8859.56094975006, -6644.41366725131, -10400.467860754474, -13575.309643186289, -7727.445093088758, -6618.93267857226, -6690.458260829242, -9816.595592092943, -11619.330837646823, -16496.45912605037, 0.008, 0.23, 0.9520000000000001, 192.0, 0.0, 0.0, 0.0, 0.0, 0.0, 0.0, 0.0, 0.0, 0.0, 1.644587823767762E9, 0.0, 2022-02-12 00:57:03.767
32.0, -10778.905246127279, -10862.67958434577, -6311.752654522974, -13122.910335410874, -9031.043533211176, -5418.7334083000915, -8861.192627095297, -6656.193036579256, -10406.480480012951, -13601.282370243356, -7728.249755889149, -6618.753864616617, -6696.381473109898, -9824.508109630122, -11619.800224280385, -16516.709806526876, 0.008, 0.23, 0.9520000000000001, 192.0, 0.0, 0.0, 0.0, 0.0, 0.0, 0.0, 0.0, 0.0, 0.0, 1.644587823774635E9, 0.0, 2022-02-12 00:57:03.774
34.0, -10783.50970548507, -10828.012028695588, -6295.793508981885, -13112.896753894896, -9023.153367418452, -5417.682876310691, -8858.733935205215, -6657.869417413404, -10400.669026454572, -13587.133716003147, -7747.0699247205175, -6637.909309614815, -6689.094804417468, -9835.102836501937, -11619.889631258206, -16471.60398621607, 0.008, 0.23, 0.9520000000000001, 192.0, 0.0, 0.0, 0.0, 0.0, 0.0, 0.0, 0.0, 0.0, 0.0, 1.644587823782416E9, 0.0, 2022-02-12 00:57:03.782
36.0, -10788.695310198702, -10850.073200472976, -6300.979113695516, -13119.401111531392, -9045.46040838485, -5426.467111881628, -8867.071135887043, -6663.211484338222, -10410.973180648469, -13592.49813467242, -7714.369322582403, -6625.481739697664, -6714.933421007803, -9839.528481904088, -11622.415378381656, -16528.73504504383, 0.008, 0.23, 0.9520000000000001, 192.0, 0.0, 0.0, 0.0, 0.0, 0.0, 0.0, 0.0, 0.0, 0.0, 1.64458782378937E9, 0.0, 2022-02-12 00:57:03.789
38.0, -10771.70798441267, -10844.932299248256, -6299.325084605824, -13100.603294444478, -9021.320524373117, -5422.399094390762, -8863.092525373999, -6665.714879717217, -10403.217125322477, -13583.289215956835, -7728.137997166872, -6625.817015864493, -6715.112234963445, -9844.647031384353, -11626.371637150245, -16477.907178152465, -0.028, 0.25, 0.962, 192.0, 127.5, 16.0, 3.5, 104.0, 15.0, 8.0, 0.0, 0.0, 0.0, 1.644587823797233E9, 0.0, 2022-02-12 00:57:03.797
40.0, -10757.31346098345, -10841.043095713032, -6294.362997336745, -13113.254381806182, -9025.142672674976, -5419.9627542451335, -8848.832112411514, -6658.7411354471615, -10406.815756179782, -13577.142486231623, -7723.555889553534, -6615.870489581882, -6706.193888925778, -9834.320525446, -11618.995561479995, -16493.016957404252, -0.028, 0.25, 0.962, 192.0, 0.0, 0.0, 0.0, 0.0, 0.0, 0.0, 0.0, 0.0, 0.0, 1.644587823805408E9, 0.0, 2022-02-12 00:57:03.805
42.0, -10771.015080334555, -10833.37644736486, -6307.416416098645, -13116.674198707844, -9021.633448795492, -5429.909280527745, -8847.312193788552, -6673.895618187859, -10407.620418980172, -13599.360120220199, -7728.00388670014, -6636.970536347692, -6693.498098075163, -9837.539176647566, -11612.670017799142, -16507.009149433274, -0.028, 0.25, 0.962, 192.0, 0.0, 0.0, 0.0, 0.0, 0.0, 0.0, 0.0, 0.0, 0.0, 1.644587823811703E9, 0.0, 2022-02-12 00:57:03.811
44.0, -10757.60403366137, -10816.925563445755, -6301.493203817989, -13111.55564922758, -9016.514899315227, -5427.718809571124, -8847.647469955382, -6672.174533864801, -10387.392090248119, -13581.255207211401, -7742.91250025183, -6630.555585689019, -6698.862516744437, -9844.892900573363, -11611.977113721028, -16463.378544256513, -0.028, 0.25, 0.962, 192.0, 0.0, 0.0, 0.0, 0.0, 0.0, 0.0, 0.0, 0.0, 0.0, 1.644587823819828E9, 0.0, 2022-02-12 00:57:03.819
46.0, -10780.916903128256, -10848.754447550113, -6302.409625340656, -13126.777187201642, -9032.205823922852, -5440.3922486772835, -8855.22471132573, -6673.761507721128, -10409.0062271364, -13603.875172600172, -7719.353761595937, -6632.589594434452, -6705.724502292216, -9839.707295859731, -11618.593230079798, -16525.002303719797, -0.016, 0.245, 0.958, 192.0, 127.5, 112.0, 3.5, 64.0, 14.5, 104.0, 0.0, 0.0, 0.0, 1.64458782382777E9, 0.0, 2022-02-12 00:57:03.827
48.0, -10782.034490351021, -10869.921549549288, -6309.383369610712, -13106.101823580484, -9022.080483684598, -5441.129856244309, -8861.349089306485, -6675.75081297765, -10408.805061436304, -13603.964579577992, -7739.224462416704, -6651.208597565723, -6727.673915347328, -9862.774296137608, -11617.63210506822, -16484.769163700243, -0.016, 0.245, 0.958, 192.0, 0.0, 0.0, 0.0, 0.0, 0.0, 0.0, 0.0, 0.0, 0.0, 1.644587823834191E9, 0.0, 2022-02-12 00:57:03.834
50.0, -10778.100583326886, -10839.389066623338, -6301.873183473728, -13097.742271154199, -9022.415759851428, -5436.480693397605, -8857.012850882156, -6675.79551646656, -10409.520317258874, -13600.254189998412, -7731.200186157249, -6639.965670104703, -6703.42227261332, -9858.393354224367, -11618.43676786861, -16496.861457450566, -0.016, 0.245, 0.958, 192.0, 0.0, 0.0, 0.0, 0.0, 0.0, 0.0, 0.0, 0.0, 0.0, 1.644587823849638E9, 0.0, 2022-02-12 00:57:03.849
52.0, -10774.099621069387, -10830.224851396662, -6319.508709848966, -13096.468221720246, -9021.745207517768, -5435.02783000801, -8851.648432212882, -6674.476763543697, -10404.848802667715, -13599.561285920297, -7721.0077906856295, -6630.913213600304, -6720.834281544004, -9845.071714529004, -11613.765253277452, -16508.573771545147, -0.016, 0.245, 0.958, 192.0, 0.0, 0.0, 0.0, 0.0, 0.0, 0.0, 0.0, 0.0, 0.0, 1.644587823857482E9, 0.0, 2022-02-12 00:57:03.857
54.0, -10770.478638467626, -10841.691296302235, -6302.834308485307, -13097.585808943011, -9013.273896369206, -5432.859710795845, -8839.734952418203, -6669.492324530163, -10401.518392743874, -13588.005434036904, -7733.9270989807965, -6625.213518764201, -6709.189022682789, -9856.180531523292, -11610.591305564798, -16459.466988976837, -0.016, 0.245, 0.958, 192.0, 0.0, 0.0, 0.0, 0.0, 0.0, 0.0, 0.0, 0.0, 0.0, 1.644587823864068E9, 0.0, 2022-02-12 00:57:03.864
56.0, -10775.686594925714, -10851.8613400294, -6311.640895800698, -13122.97739064424, -9034.239832668285, -5446.516626658038, -8857.638699726904, -6685.384414837888, -10418.125738874167, -13611.83239362626, -7728.517976822613, -6628.253356010122, -6723.382380411909, -9858.66157515783, -11614.279343399923, -16521.247210651305, -0.001, 0.2405, 0.958, 192.0, 0.0, 56.0, 3.5, 48.0, 14.5, 120.0, 0.0, 0.0, 0.0, 1.644587823872171E9, 0.0, 2022-02-12 00:57:03.872
58.0, -10775.574836203437, -10854.454142386216, -6310.72447427803, -13112.807346917076, -9011.463405068327, -5439.676992854714, -8854.17417933633, -6687.7984032390605, -10393.695282184515, -13604.143393533635, -7752.188474200782, -6658.584673235974, -6707.445586615275, -9872.877284631406, -11612.379445121223, -16480.857608420563, -0.001, 0.2405, 0.958, 192.0, 0.0, 0.0, 0.0, 0.0, 0.0, 0.0, 0.0, 0.0, 0.0, 1.644587823880103E9, 0.0, 2022-02-12 00:57:03.880
60.0, -10768.243464022096, -10835.723380532669, -6290.33968333479, -13119.825794676042, -9007.909477699934, -5440.16873123273, -8834.45994072675, -6681.025824669102, -10396.355139774698, -13604.210448767, -7721.365418596914, -6647.542911475052, -6707.4008831263645, -9872.340842764479, -11604.15400316167, -16495.945035927896, -0.001, 0.2405, 0.958, 192.0, 0.0, 0.0, 0.0, 0.0, 0.0, 0.0, 0.0, 0.0, 0.0, 1.644587823887239E9, 0.0, 2022-02-12 00:57:03.887
62.0, -10780.291054283507, -10845.178168437264, -6304.220116641536, -13116.338922541014, -9011.485756812783, -5454.8314755954125, -8845.568757721037, -6691.888772474382, -10399.953770632002, -13609.396053480632, -7715.57631678299, -6652.393240021854, -6714.7993105410715, -9868.116363062425, -11604.4892793285, -16515.45810883738, -0.001, 0.2405, 0.958, 192.0, 0.0, 0.0, 0.0, 0.0, 0.0, 0.0, 0.0, 0.0, 0.0, 1.6445878238947E9, 0.0, 2022-02-12 00:57:03.894
64.0, -10782.32506302894, -10833.331743875951, -6297.447538071578, -13104.179573557327, -9002.50035554175, -5454.898530828778, -8845.501702487672, -6695.330941120499, -10401.183116577044, -13601.148259776624, -7734.240023403171, -6641.709106172217, -6716.341580908487, -9885.863648159939, -11603.796375250386, -16471.96161412735, -0.001, 0.2405, 0.958, 192.0, 0.0, 0.0, 0.0, 0.0, 0.0, 0.0, 0.0, 0.0, 0.0, 1.644587823901893E9, 0.0, 2022-02-12 00:57:03.901
66.0, -10772.713812913158, -10850.095552217432, -6294.474756059022, -13122.418597032858, -9014.54794580316, -5460.8887983428, -8851.000231623679, -6698.348426621965, -10400.758433432393, -13612.994684337937, -7713.587011526467, -6647.051173097036, -6710.798348283572, -9878.465220745233, -11606.277418884923, -16530.903164255997, 0.0015, 0.24025, 0.96, 192.0, 0.0, 16.0, 3.5, 64.0, 15.0, 8.0, 0.0, 0.0, 0.0, 1.644587823909699E9, 0.0, 2022-02-12 00:57:03.909
68.0, -10764.93540584271, -10859.460933144204, -6308.712817277053, -13107.264114292158, -9000.511050285228, -5455.636138395803, -8846.485179243706, -6693.363987608432, -10400.624322965661, -13616.436852984054, -7739.269165905615, -6658.495266258153, -6700.270676645122, -9885.148392337369, -11605.5398113179, -16484.813867189154, 0.0015, 0.24025, 0.96, 192.0, 0.0, 0.0, 0.0, 0.0, 0.0, 0.0, 0.0, 0.0, 0.0, 1.644587823916884E9, 0.0, 2022-02-12 00:57:03.916
70.0, -10768.377574488828, -10855.459970886704, -6295.301770603868, -13103.374910756937, -8999.996960162754, -5452.976280805621, -8845.568757721037, -6693.699263775261, -10398.031520608845, -13602.019977810382, -7748.142808454372, -6649.845141153949, -6712.564136095541, -9876.81119165554, -11608.19966890808, -16495.252131849782, 0.0015, 0.24025, 0.96, 192.0, 0.0, 0.0, 0.0, 0.0, 0.0, 0.0, 0.0, 0.0, 0.0, 1.644587823924243E9, 0.0, 2022-02-12 00:57:03.924
72.0, -10782.235656051118, -10860.936148278255, -6298.810994483351, -13105.654788691378, -9005.428434065394, -5468.309577501962, -8859.784467194613, -6710.038388972091, -10393.136488573133, -13628.46209150101, -7725.321677365503, -6645.419495751798, -6720.52135712163, -9881.683871946798, -11605.092776428794, -16517.134489671527, 0.0015, 0.24025, 0.96, 192.0, 0.0, 0.0, 0.0, 0.0, 0.0, 0.0, 0.0, 0.0, 0.0, 1.644587823933886E9, 0.0, 2022-02-12 00:57:03.933
74.0, -10791.04224336651, -10858.924491277277, -6297.782814238408, -13100.268018277648, -8998.365282817518, -5464.8897606003, -8845.233481554209, -6705.366874380931, -10398.545610731318, -13617.733254162462, -7726.19339539926, -6657.064754613013, -6720.476653632719, -9891.965674396239, -11604.265761883946, -16472.922739138932, 0.0015, 0.24025, 0.96, 192.0, 0.0, 0.0, 0.0, 0.0, 0.0, 0.0, 0.0, 0.0, 0.0, 1.644587823941635E9, 0.0, 2022-02-12 00:57:03.941
76.0, -10792.785679434024, -10871.240302472152, -6300.375616595223, -13115.333094040525, -9013.184489391386, -5477.898475873289, -8856.923443904334, -6708.071435460024, -10416.069378384278, -13631.591335724752, -7726.014581443618, -6657.2212168242, -6725.483444390708, -9885.751889437663, -11603.818726994841, -16527.03631246523, 0.00575, 0.236125, 0.958, 192.0, 0.0, 40.0, 3.5, 32.0, 14.5, 112.0, 0.0, 0.0, 0.0, 1.644587823947283E9, 0.0, 2022-02-12 00:57:03.947
78.0, -10781.453344995183, -10869.206293726718, -6294.385349081201, -13099.798631644087, -8998.20882060633, -5477.563199706459, -8860.365612550451, -6708.540822093585, -10401.54074448833, -13638.3192108058, -7744.186549685783, -6675.326129832999, -6711.223031428222, -9903.096843134981, -11604.668093284143, -16484.210370088862, 0.00575, 0.236125, 0.958, 192.0, 0.0, 0.0, 0.0, 0.0, 0.0, 0.0, 0.0, 0.0, 0.0, 1.644587823955023E9, 0.0, 2022-02-12 00:57:03.955
80.0, -10770.456286723173, -10874.48130541817, -6293.446575814078, -13108.962846870763, -8999.527573529193, -5474.9703973496435, -8841.634850696904, -6703.779900524605, -10401.116061343679, -13623.142376320646, -7742.174892684805, -6672.979196665192, -6726.645735102384, -9907.835412959506, -11596.107375157759, -16497.330844084125, 0.00575, 0.236125, 0.958, 192.0, 0.0, 0.0, 0.0, 0.0, 0.0, 0.0, 0.0, 0.0, 0.0, 1.644587823969182E9, 0.0, 2022-02-12 00:57:03.969
82.0, -10800.362920804373, -10859.81856105549, -6303.884840474706, -13111.35448352748, -8998.342931073063, -5479.105470073876, -8850.441438012294, -6711.625362828418, -10399.886715398636, -13638.36391429471, -7740.856139761942, -6674.901446688348, -6719.381418154409, -9901.331055323011, -11592.709910000553, -16518.07326293865, 0.00575, 0.236125, 0.958, 192.0, 0.0, 0.0, 0.0, 0.0, 0.0, 0.0, 0.0, 0.0, 0.0, 1.644587823976751E9, 0.0, 2022-02-12 00:57:03.976
84.0, -10767.327042499428, -10854.811770297501, -6295.413529326145, -13095.998835086684, -8989.066957124109, -5476.400908994783, -8846.127551332422, -6714.508737863152, -10399.014997364879, -13615.274562272378, -7745.259433419637, -6665.469010528209, -6721.95186876677, -9907.343674581489, -11596.107375157759, -16471.045192604684, 0.00575, 0.236125, 0.958, 192.0, 0.0, 0.0, 0.0, 0.0, 0.0, 0.0, 0.0, 0.0, 0.0, 1.644587823985008E9, 0.0, 2022-02-12 00:57:03.985
86.0, -10787.443612509205, -10860.9137965338, -6298.229849127513, -13111.622704460944, -8997.627675250493, -5483.8887433873115, -8845.300536787574, -6712.452377373264, -10397.338616530731, -13640.040295128858, -7718.996133684652, -6644.83835039596, -6709.680761060806, -9904.10267163547, -11592.978130934016, -16526.723388042854, 0.020875, 0.2340625, 0.956, 192.0, 0.5, 16.0, 3.5, 32.0, 14.5, 104.0, 0.0, 0.0, 0.0, 1.644587823992767E9, 0.0, 2022-02-12 00:57:03.992
88.0, -10767.170580288242, -10835.43280785475, -6288.506840289455, -13091.975521084729, -8984.350739044039, -5480.178353807731, -8846.306365288063, -6715.894546019381, -10387.950883859503, -13629.713789190506, -7724.785235498576, -6653.332013288977, -6715.134586707901, -9906.76252922565, -11593.738090245497, -16486.35613755657, 0.020875, 0.2340625, 0.956, 192.0, 0.0, 0.0, 0.0, 0.0, 0.0, 0.0, 0.0, 0.0, 0.0, 1.644587823999773E9, 0.0, 2022-02-12 00:57:03.999
90.0, -10741.644888120281, -10837.578575322459, -6281.041357641382, -13098.278713021125, -8985.244808822252, -5475.618597938847, -8839.46673148474, -6713.189984940289, -10380.306587255787, -13611.31830350379, -7717.565622039512, -6649.1745888202895, -6705.143356936379, -9898.447680288278, -11591.77113673343, -16495.252131849782, 0.020875, 0.2340625, 0.956, 192.0, 0.0, 0.0, 0.0, 0.0, 0.0, 0.0, 0.0, 0.0, 0.0, 1.644587824008749E9, 0.0, 2022-02-12 00:57:04.008
92.0, -10784.716699685658, -10853.202444696719, -6284.86350594324, -13105.051291591084, -8984.261332066219, -5476.0209293390435, -8837.008039594655, -6711.401845383864, -10379.948959344501, -13608.993722080437, -7718.325581350992, -6665.0219756391025, -6714.195813440778, -9897.53125876561, -11584.86444769674, -16515.659274537476, 0.020875, 0.2340625, 0.956, 192.0, 0.0, 0.0, 0.0, 0.0, 0.0, 0.0, 0.0, 0.0, 0.0, 1.644587824015508E9, 0.0, 2022-02-12 00:57:04.015
94.0, -10772.020908835044, -10850.363773150895, -6281.354282063757, -13095.39533798639, -8972.30314878263, -5473.070499070943, -8838.729123917714, -6711.066569217035, -10379.323110499754, -13605.685663901051, -7732.228366402193, -6663.189132593767, -6702.751720279661, -9914.25036361818, -11582.092831384281, -16467.424210002926, 0.020875, 0.2340625, 0.956, 192.0, 0.0, 0.0, 0.0, 0.0, 0.0, 0.0, 0.0, 0.0, 0.0, 1.644587824022525E9, 0.0, 2022-02-12 00:57:04.022
96.0, -10746.606975389359, -10835.47751134366, -6280.415508796634, -13108.672274192844, -8980.997977375744, -5473.8528101268785, -8836.404542494362, -6713.838185529493, -10375.72447964245, -13622.047140842336, -7729.1661774118165, -6644.748943418139, -6684.669159015318, -9901.44281404529, -11581.377575561712, -16521.291914140216, 0.0154375, 0.23403125000000002, 0.9530000000000001, 192.0, 0.0, 40.0, 3.5, 40.0, 14.5, 88.0, 0.0, 0.0, 0.0, 1.644587824028787E9, 0.0, 2022-02-12 00:57:04.028
98.0, -10784.18025781873, -10857.426924398771, -6292.53015429141, -13107.532335225624, -8977.600512218538, -5480.4242229967385, -8845.144074576387, -6722.600069355974, -10377.333805243232, -13629.914954890604, -7723.935869209275, -6668.799420452049, -6720.230784443711, -9913.892735706895, -11583.545694773877, -16480.83525667611, 0.0154375, 0.23403125000000002, 0.9530000000000001, 192.0, 0.0, 0.0, 0.0, 0.0, 0.0, 0.0, 0.0, 0.0, 0.0, 1.644587824038046E9, 0.0, 2022-02-12 00:57:04.038
100.0, -10774.971339103144, -10865.317090191495, -6278.090927373282, -13109.454585248779, -8976.39351801795, -5480.200705552185, -8832.001248836666, -6723.471787389731, -10395.326959529753, -13645.136492864669, -7729.367343111914, -6671.973368164703, -6718.75556930966, -9922.766378255652, -11584.640930252186, -16495.945035927896, 0.0154375, 0.23403125000000002, 0.9530000000000001, 192.0, 0.0, 0.0, 0.0, 0.0, 0.0, 0.0, 0.0, 0.0, 0.0, 1.644587824044936E9, 0.0, 2022-02-12 00:57:04.044
102.0, -10771.015080334555, -10853.828293541466, -6286.71870073303, -13103.129041567927, -8961.194331788342, -5477.384385750817, -8833.185891292798, -6720.186080954801, -10388.420270493063, -13647.550481265842, -7720.024313929595, -6667.3689088069095, -6703.08699644649, -9918.58660204251, -11578.091869126782, -16514.206411147883, 0.0154375, 0.23403125000000002, 0.9530000000000001, 192.0, 0.0, 0.0, 0.0, 0.0, 0.0, 0.0, 0.0, 0.0, 0.0, 1.644587824052103E9, 0.0, 2022-02-12 00:57:04.052
104.0, -10745.802312588969, -10821.842947225923, -6270.089002858282, -13092.869590862942, -8944.765799613691, -5471.349414747884, -8811.147071259866, -6706.551516837063, -10363.76629635886, -13615.45337622802, -7731.557814068534, -6664.910216916825, -6689.474784073208, -9918.743064253697, -11572.705098713053, -16462.618584945034, 0.0154375, 0.23403125000000002, 0.9530000000000001, 192.0, 0.0, 0.0, 0.0, 0.0, 0.0, 0.0, 0.0, 0.0, 0.0, 1.644587824059492E9, 0.0, 2022-02-12 00:57:04.059
106.0, -10735.900489795267, -10843.702953303213, -6262.511761487933, -13111.287428294114, -8958.378011986973, -5481.251237541585, -8822.41235046534, -6717.459168131253, -10356.703145110983, -13624.528184476876, -7702.612304998912, -6662.60798723793, -6696.761452765639, -9917.938401453304, -11566.088982354282, -16518.74381527231, 0.012718750000000001, 0.235015625, 0.9535, 192.0, 0.0, 40.0, 3.5, 48.0, 14.5, 104.0, 0.0, 0.0, 0.0, 1.644587824067654E9, 0.0, 2022-02-12 00:57:04.067
108.0, -10760.666222651747, -10867.82048557049, -6280.929598919106, -13101.45266073378, -8952.745372384235, -5479.351339262884, -8829.341391246486, -6718.442644887286, -10354.28915670981, -13632.328943291777, -7731.401351857347, -6672.0627751425245, -6696.001493454158, -9932.668201049353, -11569.911130656139, -16478.39891653048, 0.012718750000000001, 0.235015625, 0.9535, 192.0, 0.0, 0.0, 0.0, 0.0, 0.0, 0.0, 0.0, 0.0, 0.0, 1.6445878240746E9, 0.0, 2022-02-12 00:57:04.074
110.0, -10774.211379791663, -10865.562959380504, -6269.150229591159, -13105.45362299128, -8964.323576012084, -5488.783775423023, -8824.222841766219, -6715.179290196811, -10373.690470897016, -13641.448455029542, -7720.761921496621, -6665.93839716177, -6699.130737677901, -9940.468959864254, -11570.04524112287, -16489.753602713776, 0.012718750000000001, 0.235015625, 0.9535, 192.0, 0.0, 0.0, 0.0, 0.0, 0.0, 0.0, 0.0, 0.0, 0.0, 1.644587824081423E9, 0.0, 2022-02-12 00:57:04.081
112.0, -10774.390193747306, -10842.76418003609, -6270.826610425307, -13101.631474689422, -8967.139895813454, -5488.604961467381, -8833.878795370912, -6724.030581001113, -10378.71961339946, -13654.948908680548, -7711.217726614204, -6685.138545648879, -6705.724502292216, -9937.674991807342, -11573.24154057998, -16516.061605937673, 0.012718750000000001, 0.235015625, 0.9535, 192.0, 0.0, 0.0, 0.0, 0.0, 0.0, 0.0, 0.0, 0.0, 0.0, 1.644587824097229E9, 0.0, 2022-02-12 00:57:04.097
114.0, -10758.073420294932, -10832.705895031202, -6266.222151067514, -13080.531427923612, -8949.124389782475, -5480.2454090410965, -8822.389998720884, -6721.460130388753, -10362.33578471372, -13620.236649541457, -7717.744435995154, -6661.0880686149685, -6697.968446966225, -9929.851881247983, -11573.24154057998, -16460.964555855342, 0.012718750000000001, 0.235015625, 0.9535, 192.0, 0.0, 0.0, 0.0, 0.0, 0.0, 0.0, 0.0, 0.0, 0.0, 1.644587824104484E9, 0.0, 2022-02-12 00:57:04.104
116.0, -10750.674992880226, -10867.10522974792, -6269.060822613338, -13093.942474596797, -8956.478113708272, -5485.162792821264, -8815.50566142865, -6713.189984940289, -10370.896502840103, -13637.55925149432, -7701.472366031691, -6640.569167204996, -6704.808080769549, -9916.709055508263, -11565.641947465176, -16514.899315225997, 0.02, 0.234, 0.9540000000000001, 192.0, 0.0, 80.0, 3.5, 40.0, 14.5, 104.0, 0.0, 0.0, 0.0, 1.644587824112151E9, 0.0, 2022-02-12 00:57:04.112
118.0, -10743.79065558799, -10847.368639393884, -6274.805220938351, -13085.940550081796, -8949.884349093956, -5482.838211397911, -8830.74955114717, -6714.866365774437, -10364.503903925885, -13634.452359015031, -7736.765770526621, -6663.077373871491, -6709.725464549717, -9935.082189450526, -11569.799371933863, -16472.11807633854, 0.02, 0.234, 0.9540000000000001, 192.0, 0.0, 0.0, 0.0, 0.0, 0.0, 0.0, 0.0, 0.0, 0.0, 1.644587824120035E9, 0.0, 2022-02-12 00:57:04.120
120.0, -10753.156036514763, -10827.497938573115, -6266.423316767611, -13095.909428108864, -8949.504369438217, -5474.277493271529, -8814.589239905983, -6710.284258161099, -10356.256110221877, -13623.991742609947, -7706.501508534135, -6663.055022127035, -6672.152182120345, -9928.846052747494, -11566.33485154329, -16480.902311909475, 0.02, 0.234, 0.9540000000000001, 192.0, 0.0, 0.0, 0.0, 0.0, 0.0, 0.0, 0.0, 0.0, 0.0, 1.644587824127789E9, 0.0, 2022-02-12 00:57:04.127
122.0, -10758.766324373046, -10826.737979261636, -6264.299901044357, -13105.78889915811, -8945.123427524975, -5471.37176649234, -8829.251984268663, -6719.9625635102475, -10360.43588643502, -13637.291030560855, -7699.550116008534, -6660.641033725862, -6703.712845291239, -9916.10555840797, -11563.250310808458, -16505.243361621306, 0.02, 0.234, 0.9540000000000001, 192.0, 0.0, 0.0, 0.0, 0.0, 0.0, 0.0, 0.0, 0.0, 0.0, 1.644587824134556E9, 0.0, 2022-02-12 00:57:04.134
124.0, -10715.001608729555, -10817.99844717961, -6254.487485228477, -13089.11449779445, -8928.449026161317, -5468.1531152907755, -8811.169423004321, -6716.699208819772, -10352.746886342393, -13597.013187052393, -7714.548136538046, -6669.112344874424, -6700.762415023139, -9915.032674674116, -11561.663336952131, -16456.762427897746, 0.02, 0.234, 0.9540000000000001, 192.0, 0.0, 0.0, 0.0, 0.0, 0.0, 0.0, 0.0, 0.0, 0.0, 1.64458782414239E9, 0.0, 2022-02-12 00:57:04.142
126.0, -10742.181329987208, -10846.00518298211, -6254.129857317193, -13097.138774053905, -8941.52479666767, -5483.8440398984, -8809.69420787027, -6722.220089700233, -10348.09772349569, -13618.962600107503, -7694.431566528269, -6639.205710793222, -6693.2522288861555, -9920.06181717656, -11553.259081036937, -16511.568905302156, 0.01, 0.23600000000000002, 0.9540000000000001, 192.0, 0.0, 40.0, 3.5, 48.0, 14.5, 104.0, 0.0, 0.0, 0.0, 1.644587824149896E9, 0.0, 2022-02-12 00:57:04.149
128.0, -10760.80033311848, -10841.221909668673, -6259.248406797458, -13089.427422216824, -8930.795959329123, -5480.781850908023, -8813.471652683218, -6724.164691467845, -10341.638069348106, -13622.337713520255, -7687.346063535937, -6643.474893984187, -6687.619589283418, -9938.211433674269, -11557.550615972355, -16476.32020429614, 0.01, 0.23600000000000002, 0.9540000000000001, 192.0, 0.0, 0.0, 0.0, 0.0, 0.0, 0.0, 0.0, 0.0, 0.0, 1.64458782415746E9, 0.0, 2022-02-12 00:57:04.157
130.0, -10742.427199176216, -10828.392008351328, -6249.972432848505, -13095.104765308472, -8933.76874134168, -5482.0111968530655, -8800.664103110326, -6722.644772844884, -10352.47866540893, -13625.109329832714, -7694.789194439554, -6647.587614963963, -6677.494249045164, -9931.72942778223, -11559.003479361949, -16482.891617166, 0.01, 0.23600000000000002, 0.9540000000000001, 192.0, 0.0, 0.0, 0.0, 0.0, 0.0, 0.0, 0.0, 0.0, 0.0, 1.644587824164095E9, 0.0, 2022-02-12 00:57:04.164
132.0, -10748.216300990141, -10822.446444326217, -6266.62448246771, -13098.613989187956, -8938.283793721652, -5485.699234688192, -8809.26952472562, -6728.344467680988, -10355.496150910396, -13624.997571110436, -7701.04768288704, -6662.406821537831, -6697.029673699102, -9941.2959744091, -11556.991822360973, -16506.964445944363, 0.01, 0.23600000000000002, 0.9540000000000001, 192.0, 0.0, 0.0, 0.0, 0.0, 0.0, 0.0, 0.0, 0.0, 0.0, 1.644587824172067E9, 0.0, 2022-02-12 00:57:04.172
134.0, -10718.890812264779, -10832.974115964666, -6255.560368962332, -13085.471163448236, -8921.743502824726, -5476.914999117255, -8800.462937410228, -6714.866365774437, -10347.918909540047, -13613.88875411615, -7722.259488375126, -6668.441792540764, -6686.524353805108, -9942.3465063985, -11555.404848504646, -16450.548642939168, 0.01, 0.23600000000000002, 0.9540000000000001, 192.0, 0.0, 0.0, 0.0, 0.0, 0.0, 0.0, 0.0, 0.0, 0.0, 1.644587824180144E9, 0.0, 2022-02-12 00:57:04.180
136.0, -10743.477731165616, -10859.505636633116, -6252.252310782947, -13101.922047367341, -8931.488863407238, -5479.977188107632, -8804.396844434363, -6721.795406555582, -10353.998584031891, -13633.334771792266, -7702.8134706990095, -6646.380620763376, -6699.644827800373, -9931.662372548864, -11547.76055190093, -16501.98000693083, 0.01, 0.24, 0.9520000000000001, 192.0, 0.0, 40.0, 3.5, 64.0, 14.5, 96.0, 0.0, 0.0, 0.0, 1.644587824186724E9, 0.0, 2022-02-12 00:57:04.186
138.0, -10760.84503660739, -10832.95176422021, -6263.964624877528, -13092.82488737403, -8920.737674324237, -5475.864467127856, -8809.873021825913, -6728.411522914354, -10348.90238629608, -13634.966449137504, -7714.101101648939, -6654.561359234019, -6673.649748998851, -9931.43885510431, -11549.168711801614, -16464.339669268094, 0.01, 0.24, 0.9520000000000001, 192.0, 0.0, 0.0, 0.0, 0.0, 0.0, 0.0, 0.0, 0.0, 0.0, 1.644587824194675E9, 0.0, 2022-02-12 00:57:04.194
140.0, -10752.08315278091, -10834.918717732276, -6249.6148049372205, -13096.870553120441, -8928.270212205674, -5479.03841484051, -8797.98189377569, -6730.780807826616, -10351.226967719433, -13628.260925800912, -7705.339217822459, -6660.059888370024, -6700.8294702565045, -9941.430084875832, -11552.879101381195, -16474.39795427298, 0.01, 0.24, 0.9520000000000001, 192.0, 0.0, 0.0, 0.0, 0.0, 0.0, 0.0, 0.0, 0.0, 0.0, 1.644587824202743E9, 0.0, 2022-02-12 00:57:04.202
142.0, -10754.56419641545, -10830.537775819037, -6261.461229498534, -13101.743233411698, -8923.62104935897, -5481.251237541585, -8802.116966499922, -6723.963525767747, -10357.887787567113, -13640.062646873313, -7698.074900874484, -6669.849952441448, -6700.673008045317, -9949.186140201824, -11549.325174012802, -16500.41538481896, 0.01, 0.24, 0.9520000000000001, 192.0, 0.0, 0.0, 0.0, 0.0, 0.0, 0.0, 0.0, 0.0, 0.0, 1.644587824216431E9, 0.0, 2022-02-12 00:57:04.216
144.0, -10738.761513085547, -10830.604831052404, -6252.587586949777, -13096.73644265371, -8896.374272867952, -5469.248350769085, -8783.855591279935, -6709.4572436162525, -10348.254185706877, -13611.430062226065, -7707.552040523535, -6677.091917644968, -6687.083147416491, -9955.668146093863, -11544.38543848818, -16448.35817198255, 0.01, 0.24, 0.9520000000000001, 192.0, 0.0, 0.0, 0.0, 0.0, 0.0, 0.0, 0.0, 0.0, 0.0, 1.644587824224445E9, 0.0, 2022-02-12 00:57:04.224
146.0, -10732.190100215686, -10832.14710141982, -6242.752819389441, -13112.181498072327, -8907.706607306793, -5473.115202559853, -8788.907085526835, -6715.603973341463, -10345.147293227588, -13628.640905456652, -7688.821278669987, -6665.290196572566, -6657.645899968851, -9936.467997606755, -11538.641040163166, -16500.393033074502, 0.012, 0.23600000000000002, 0.9460000000000001, 192.0, 0.0, 48.0, 3.5, 48.0, 14.5, 72.0, 0.0, 0.0, 0.0, 1.64458782423225E9, 0.0, 2022-02-12 00:57:04.232
148.0, -10733.531204883004, -10847.905081260811, -6258.309633530335, -13097.831678132019, -8896.933066479334, -5472.332891503917, -8792.908047784334, -6720.56606061054, -10336.497168123386, -13629.758492679417, -7707.484985290169, -6659.434039525276, -6683.3951095813645, -9945.609861088975, -11544.363086743724, -16466.351326269072, 0.012, 0.23600000000000002, 0.9460000000000001, 192.0, 0.0, 0.0, 0.0, 0.0, 0.0, 0.0, 0.0, 0.0, 0.0, 1.644587824240941E9, 0.0, 2022-02-12 00:57:04.240
150.0, -10725.283411178996, -10817.976095435155, -6238.841264109763, -13103.464317734757, -8901.42576711485, -5468.711908902158, -8786.560152359027, -6721.61659259994, -10340.587537358706, -13628.484443245465, -7694.632732228367, -6664.217312838711, -6694.883906231393, -9941.340677898012, -11543.960755343529, -16477.12486709653, 0.012, 0.23600000000000002, 0.9460000000000001, 192.0, 0.0, 0.0, 0.0, 0.0, 0.0, 0.0, 0.0, 0.0, 0.0, 1.644587824247129E9, 0.0, 2022-02-12 00:57:04.247
152.0, -10740.236728219597, -10825.262764127585, -6248.608976436732, -13100.580942700022, -8900.017607214166, -5469.293054257996, -8791.298722183552, -6723.941174023292, -10336.765389056849, -13635.212318326512, -7689.290665303549, -6651.767391177105, -6683.909199703837, -9935.462169106266, -11546.397095489156, -16503.298759853693, 0.012, 0.23600000000000002, 0.9460000000000001, 192.0, 0.0, 0.0, 0.0, 0.0, 0.0, 0.0, 0.0, 0.0, 0.0, 1.644587824254945E9, 0.0, 2022-02-12 00:57:04.254
154.0, -10730.804292059456, -10829.196671151718, -6241.389362977668, -13082.364270968947, -8890.607522798482, -5468.242522268596, -8793.489193140173, -6725.863424046448, -10328.584650586206, -13607.339692990745, -7694.252752572626, -6662.719745960206, -6679.640016512873, -9949.63317509093, -11543.357258243235, -16451.934451095396, 0.012, 0.23600000000000002, 0.9460000000000001, 192.0, 0.0, 0.0, 0.0, 0.0, 0.0, 0.0, 0.0, 0.0, 0.0, 1.644587824262919E9, 0.0, 2022-02-12 00:57:04.262
156.0, -10729.17261471422, -10831.387142108339, -6243.848054867752, -13094.411861230357, -8894.228505400242, -5463.615711166348, -8787.923608770801, -6727.651563602873, -10337.90532802407, -13626.070454844292, -7678.025386098074, -6642.580824205974, -6675.482592044186, -9938.703172052285, -11543.536072198876, -16508.260847122772, 0.006, 0.234, 0.9480000000000001, 192.0, 0.0, 24.0, 3.5, 40.0, 14.5, 80.0, 0.0, 0.0, 0.0, 1.644587824269143E9, 0.0, 2022-02-12 00:57:04.269
158.0, -10703.892791735267, -10815.651514011803, -6230.61582215021, -13079.570302912034, -8877.464697058762, -5462.095792543387, -8784.034405235578, -6722.9576972672585, -10315.642990546583, -13613.21820178249, -7670.917531361286, -6637.350516003432, -6678.835353712482, -9936.646811562397, -11540.987973330972, -16467.7371344253, 0.006, 0.234, 0.9480000000000001, 192.0, 0.0, 0.0, 0.0, 0.0, 0.0, 0.0, 0.0, 0.0, 0.0, 1.64458782427669E9, 0.0, 2022-02-12 00:57:04.276
160.0, -10708.966637726622, -10802.396929549806, -6232.023982050894, -13086.097012292983, -8886.383043096428, -5465.828533867423, -8778.535876099573, -6723.404732156365, -10307.37284509812, -13598.890733586639, -7672.012766839596, -6638.423399737287, -6663.457353527231, -9933.53991908311, -11542.32907799829, -16474.86734090654, 0.006, 0.234, 0.9480000000000001, 192.0, 0.0, 0.0, 0.0, 0.0, 0.0, 0.0, 0.0, 0.0, 0.0, 1.644587824284643E9, 0.0, 2022-02-12 00:57:04.284
162.0, -10745.735257355602, -10823.966362949177, -6246.127932802193, -13091.416727473346, -8892.797993755103, -5473.2046095376745, -8789.97996926069, -6737.061648018557, -10348.500054895885, -13623.276486787378, -7691.749357193632, -6644.994812607148, -6695.733272520694, -9937.652640062886, -11539.445702963556, -16502.114117397563, 0.006, 0.234, 0.9480000000000001, 192.0, 0.0, 0.0, 0.0, 0.0, 0.0, 0.0, 0.0, 0.0, 0.0, 1.644587824292729E9, 0.0, 2022-02-12 00:57:04.292
164.0, -10738.470940407627, -10823.18405189324, -6242.953985089539, -13082.833657602509, -8870.356842321973, -5459.324176230929, -8780.88280926738, -6722.3094966780545, -10340.274612936331, -13614.246382027433, -7698.611342741412, -6658.472914513697, -6667.972405907203, -9942.592375587508, -11536.495272695456, -16449.25224176076, 0.006, 0.234, 0.9480000000000001, 192.0, 0.0, 0.0, 0.0, 0.0, 0.0, 0.0, 0.0, 0.0, 0.0, 1.644587824299329E9, 0.0, 2022-02-12 00:57:04.299
166.0, -10717.415597130728, -10823.765197249078, -6244.496255456956, -13104.604256701978, -8877.017662169656, -5458.854789597367, -8780.815754034014, -6724.812892057049, -10353.260976464866, -13613.240553526944, -7700.310075320015, -6663.390298293865, -6687.0384439275795, -9932.556442327075, -11529.387417958667, -16499.83423946312, 0.006, 0.234, 0.9480000000000001, 192.0, 0.0, 0.0, 3.5, 56.0, 14.5, 72.0, 0.0, 0.0, 0.0, 1.644587824307267E9, 0.0, 2022-02-12 00:57:04.307
168.0, -10746.204643989164, -10828.19084265123, -6250.464171226522, -13094.121288552438, -8861.99728989569, -5451.74693486058, -8777.59710283245, -6722.868290289437, -10348.298889195787, -13608.569038935786, -7703.014636399107, -6682.433984569787, -6690.793536996071, -9927.281430635623, -11530.236784247969, -16463.512654723247, 0.006, 0.234, 0.9480000000000001, 192.0, 0.0, 0.0, 0.0, 0.0, 0.0, 0.0, 0.0, 0.0, 0.0, 1.644587824315281E9, 0.0, 2022-02-12 00:57:04.315
170.0, -10736.83926306239, -10817.394950079317, -6230.369952961201, -13092.40020422938, -8861.28203407312, -5451.501065671571, -8758.575768300983, -6720.208432699255, -10333.81495878875, -13594.241570739934, -7681.646368699833, -6650.247472554144, -6661.780972693083, -9940.781884286629, -11529.342714469758, -16470.464047248846, 0.006, 0.234, 0.9480000000000001, 192.0, 0.0, 0.0, 0.0, 0.0, 0.0, 0.0, 0.0, 0.0, 0.0, 1.644587824322073E9, 0.0, 2022-02-12 00:57:04.322
172.0, -10751.122027769332, -10827.721456017669, -6246.485560713478, -13095.462393219757, -8869.730993477226, -5455.345565717884, -8780.234608678176, -6711.580659339507, -10348.075371751234, -13614.536954705352, -7691.995226382641, -6630.555585689019, -6681.405804324842, -9934.925727239339, -11527.867499335707, -16497.487306295312, 0.006, 0.234, 0.9480000000000001, 192.0, 0.0, 0.0, 0.0, 0.0, 0.0, 0.0, 0.0, 0.0, 0.0, 1.644587824329304E9, 0.0, 2022-02-12 00:57:04.329
174.0, -10721.304800665952, -10801.011121393576, -6238.7518571319415, -13083.928893080818, -8855.805856681569, -5445.354335946362, -8771.696242296248, -6709.032560471602, -10340.028743747323, -13603.472841199977, -7691.995226382641, -6648.392277764354, -6687.194906138767, -9935.104541194982, -11534.215394761015, -16445.005410314254, 0.006, 0.234, 0.9480000000000001, 192.0, 0.0, 0.0, 0.0, 0.0, 0.0, 0.0, 0.0, 0.0, 0.0, 1.644587824344864E9, 0.0, 2022-02-12 00:57:04.344
176.0, -10708.966637726622, -10799.446499281705, -6239.623575165699, -13096.78114614262, -8852.900129902378, -5446.337812702395, -8750.327974596974, -6700.583601067496, -10343.940299027003, -13605.283332500856, -7690.631769970867, -6654.941338889759, -6673.783859465583, -9927.974334713737, -11521.988990543961, -16494.492172538303, 0.006, 0.244, 0.9460000000000001, 192.0, 0.0, 24.0, 3.5, 80.0, 14.5, 72.0, 0.0, 0.0, 0.0, 1.644587824351786E9, 0.0, 2022-02-12 00:57:04.351
178.0, -10720.522489610015, -10798.552429503492, -6240.964679833017, -13077.849218588975, -8845.859330398956, -5438.447646909672, -8763.381393358874, -6707.713807548739, -10325.209537173456, -13590.35236720471, -7696.7114444627105, -6647.587614963963, -6670.140525119367, -9929.136625425414, -11522.301914966336, -16454.10257030756, 0.006, 0.244, 0.9460000000000001, 192.0, 0.0, 0.0, 0.0, 0.0, 0.0, 0.0, 0.0, 0.0, 0.0, 1.644587824359512E9, 0.0, 2022-02-12 00:57:04.359
180.0, -10723.02588498901, -10804.229772595141, -6226.23488023697, -13076.105782521461, -8848.921519389334, -5437.642984109281, -8757.815808989502, -6701.634133056896, -10335.558394856262, -13589.681814871052, -7686.004958868619, -6635.920004358292, -6667.503019273641, -9913.736273495708, -11519.418539931601, -16460.226948288317, 0.006, 0.244, 0.9460000000000001, 192.0, 0.0, 0.0, 0.0, 0.0, 0.0, 0.0, 0.0, 0.0, 0.0, 1.644587824367741E9, 0.0, 2022-02-12 00:57:04.367
182.0, -10728.300896680463, -10803.80508945049, -6223.955002302529, -13076.865741832942, -8843.691211186793, -5443.2085684786525, -8757.100553166933, -6707.959676737747, -10345.214348460955, -13606.780899379362, -7675.745508163633, -6625.235870508656, -6660.953958148237, -9924.800387001085, -11516.177536985582, -16492.21229460386, 0.006, 0.244, 0.9460000000000001, 192.0, 0.0, 0.0, 0.0, 0.0, 0.0, 0.0, 0.0, 0.0, 0.0, 1.644587824374631E9, 0.0, 2022-02-12 00:57:04.374
184.0, -10718.153204697754, -10789.90230439929, -6219.283487711369, -13062.940605037285, -8820.825376609013, -5430.333963672396, -8751.11028565291, -6699.108385933446, -10325.723627295927, -13579.958806032993, -7677.444240742236, -6615.915193070793, -6661.244530826156, -9921.067645677049, -11514.27763870688, -16439.68569513389, 0.007, 0.242, 0.9490000000000001, 192.0, 0.0, 32.0, 3.5, 64.0, 14.5, 96.0, 0.0, 0.0, 0.0, 1.64458782438247E9, 0.0, 2022-02-12 00:57:04.382
186.0, -10699.958884711134, -10771.126839056831, -6221.362199945713, -13080.73259362371, -8834.258775026652, -5432.50208288456, -8755.714745010704, -6701.432967356797, -10319.107510937156, -13583.043346767825, -7662.222702768172, -6620.251431495122, -6650.1133620874125, -9914.809157229562, -11512.936534039562, -16491.027652147728, 0.007, 0.242, 0.9490000000000001, 192.0, 0.0, 0.0, 0.0, 0.0, 0.0, 0.0, 0.0, 0.0, 0.0, 1.644587824390104E9, 0.0, 2022-02-12 00:57:04.390
188.0, -10702.194059156664, -10792.942141645211, -6231.040505294861, -13073.133000508906, -8830.235461024698, -5439.74404808808, -8754.798323488036, -6706.260944159144, -10314.435996345997, -13584.16093399059, -7669.017633082585, -6627.918079843293, -6666.810115195527, -9925.716808523752, -11518.479766664477, -16458.572919198625, 0.007, 0.242, 0.9490000000000001, 192.0, 0.0, 0.0, 0.0, 0.0, 0.0, 0.0, 0.0, 0.0, 0.0, 1.644587824397557E9, 0.0, 2022-02-12 00:57:04.397
190.0, -10703.892791735267, -10772.490295468604, -6216.981258032472, -13088.600407671978, -8831.151882547365, -5434.2902224409845, -8749.813884474503, -6701.880002245904, -10320.336856882199, -13583.3562711902, -7675.8125633969985, -6628.968611832692, -6649.263995798111, -9923.191061400303, -11517.764510841907, -16463.44559948988, 0.007, 0.242, 0.9490000000000001, 192.0, 0.0, 0.0, 0.0, 0.0, 0.0, 0.0, 0.0, 0.0, 0.0, 1.644587824404341E9, 0.0, 2022-02-12 00:57:04.404
192.0, -10712.83348951739, -10783.12972582933, -6226.033714536872, -13090.947340839784, -8829.60961217995, -5448.818856336935, -8754.664213021304, -6711.8041767840605, -10317.006446958358, -13597.728442874963, -7654.08666778644, -6630.421475222287, -6654.069620856002, -9925.24742189019, -11520.312609709814, -16495.520352783245, 0.007, 0.242, 0.9490000000000001, 192.0, 0.0, 0.0, 0.0, 0.0, 0.0, 0.0, 0.0, 0.0, 0.0, 1.644587824412074E9, 0.0, 2022-02-12 00:57:04.412
194.0, -10715.69451280767, -10796.227848080141, -6216.08718825426, -13082.319567480037, -8821.250059753664, -5440.8839870553, -8750.640899019349, -6704.539859836085, -10320.627429560118, -13591.849934083217, -7672.3480430064255, -6625.101760041924, -6657.578844735485, -9938.792579030107, -11518.368007942201, -16449.34164873858, 0.0055, 0.239, 0.9505000000000001, 192.0, 0.0, 16.0, 3.5, 48.0, 14.5, 96.0, 0.0, 0.0, 0.0, 1.644587824421225E9, 0.0, 2022-02-12 00:57:04.421
196.0, -10694.370948597307, -10767.930539599722, -6211.907412041118, -13094.993006586195, -8829.766074391136, -5433.753780574058, -8738.638012246849, -6702.438795857286, -10325.097778451178, -13591.447602683022, -7661.909778345797, -6621.816053606994, -6638.378696248376, -9919.704189265274, -11517.630400375176, -16497.911989439963, 0.0055, 0.239, 0.9505000000000001, 192.0, 0.0, 0.0, 0.0, 0.0, 0.0, 0.0, 0.0, 0.0, 0.0, 1.64458782442763E9, 0.0, 2022-02-12 00:57:04.427
198.0, -10700.651788789248, -10773.518475713548, -6215.148414987138, -13081.984291313207, -8817.740835874181, -5432.546786373471, -8733.519462766584, -6697.454356843753, -10313.787795756793, -13568.313547171778, -7662.557978935001, -6639.02689683758, -6651.767391177105, -9924.219241645247, -11512.847127061741, -16456.293041264184, 0.0055, 0.239, 0.9505000000000001, 192.0, 0.0, 0.0, 0.0, 0.0, 0.0, 0.0, 0.0, 0.0, 0.0, 1.644587824434488E9, 0.0, 2022-02-12 00:57:04.434
200.0, -10695.890867220267, -10785.141382830308, -6213.13675798616, -13087.25930300466, -8825.69805690027, -5436.346582930873, -8734.569994755984, -6696.694397532273, -10313.608981801151, -13577.947149032016, -7673.42092674028, -6615.624620392874, -6653.264958055611, -9932.958773727272, -11513.048292761838, -16460.29400352168, 0.0055, 0.239, 0.9505000000000001, 192.0, 0.0, 0.0, 0.0, 0.0, 0.0, 0.0, 0.0, 0.0, 0.0, 1.644587824445413E9, 0.0, 2022-02-12 00:57:04.445
202.0, -10722.221222188618, -10796.250199824597, -6220.4681301675, -13088.35453848297, -8828.424969723817, -5436.860673053346, -8738.280384335565, -6706.506813348153, -10331.646839576584, -13604.791594122838, -7657.595891665923, -6614.283515725555, -6662.228007582189, -9930.768302770652, -11515.529336396377, -16491.765259714753, 0.0055, 0.239, 0.9505000000000001, 192.0, 0.0, 0.0, 0.0, 0.0, 0.0, 0.0, 0.0, 0.0, 0.0, 1.644587824451359E9, 0.0, 2022-02-12 00:57:04.451
204.0, -10715.35923664084, -10766.835304121412, -6207.861746294707, -13079.480895934212, -8808.598972391961, -5425.081303725398, -8727.819767930481, -6694.749795764661, -10322.594383072184, -13578.483590898943, -7670.671662172278, -6633.55071944603, -6642.849045139438, -9927.572003313542, -11511.37191192769, -16437.718741621822, 0.00675, 0.2395, 0.95025, 192.0, 0.0, 32.0, 3.5, 64.0, 14.5, 88.0, 0.0, 0.0, 0.0, 1.644587824463973E9, 0.0, 2022-02-12 00:57:04.463
206.0, -10701.948189967656, -10766.790600632501, -6200.485670624455, -13090.142678039394, -8819.417216708329, -5429.462245638639, -8720.935430638247, -6694.70509227575, -10319.33102838171, -13572.538026873832, -7665.284891758549, -6633.282498512566, -6635.36121074691, -9917.021979930638, -11509.94140028255, -16488.144277112995, 0.00675, 0.2395, 0.95025, 192.0, 0.0, 0.0, 0.0, 0.0, 0.0, 0.0, 0.0, 0.0, 0.0, 1.644587824472285E9, 0.0, 2022-02-12 00:57:04.472
208.0, -10700.40591960024, -10766.187103532207, -6203.36904565919, -13071.054288274561, -8802.720463600215, -5422.1979286906635, -8726.992753385633, -6699.845993500471, -10315.642990546583, -13574.437925152532, -7671.096345316929, -6638.3116410150105, -6653.644937711351, -9929.740122525707, -11502.408862401113, -16453.052038318165, 0.00675, 0.2395, 0.95025, 192.0, 0.0, 0.0, 0.0, 0.0, 0.0, 0.0, 0.0, 0.0, 0.0, 1.644587824480092E9, 0.0, 2022-02-12 00:57:04.480
210.0, -10697.991931199067, -10784.068499096455, -6189.5109640969, -13074.63056738741, -8798.518335642617, -5415.40299837625, -8710.608924699894, -6690.860592229437, -10310.859717233148, -13576.740154831428, -7650.2198159956715, -6599.240791707134, -6639.563338704507, -9923.615744544953, -11501.783013556364, -16451.979154584307, 0.00675, 0.2395, 0.95025, 192.0, 0.0, 0.0, 0.0, 0.0, 0.0, 0.0, 0.0, 0.0, 0.0, 1.64458782448667E9, 0.0, 2022-02-12 00:57:04.486
212.0, -10711.514736594527, -10770.36687974535, -6194.182478688059, -13080.82200060153, -8792.282198939587, -5416.967620488122, -8708.999599099112, -6696.627342298907, -10313.988961456891, -13588.608931137196, -7639.379219934848, -6596.625637605863, -6632.79076013455, -9922.967543955749, -11498.117327465694, -16482.757506699265, 0.00675, 0.2395, 0.95025, 192.0, 0.0, 0.0, 0.0, 0.0, 0.0, 0.0, 0.0, 0.0, 0.0, 1.644587824494699E9, 0.0, 2022-02-12 00:57:04.494
214.0, -10703.26694289052, -10759.88391159581, -6198.339903156746, -13078.273901733626, -8776.524219098595, -5407.557536072438, -8701.400005984307, -6686.814926483027, -10294.051205402757, -13565.050192481303, -7647.068220027473, -6616.921021571282, -6597.676169595262, -9923.280468378123, -11491.434155873556, -16429.02391302871, 0.009375, 0.23775000000000002, 0.947125, 192.0, 0.0, 48.0, 3.5, 48.0, 14.5, 64.0, 0.0, 0.0, 0.0, 1.644587824502691E9, 0.0, 2022-02-12 00:57:04.502
216.0, -10693.141602652264, -10758.542806928494, -6184.4594698500005, -13099.865686877452, -8794.539725129573, -5415.537108842982, -8710.117186321877, -6695.934438220792, -10316.626467302618, -13574.996718763914, -7645.682411871245, -6629.2144810217005, -6629.259184510611, -9929.069570192049, -11490.22716167297, -16483.584521244113, 0.009375, 0.23775000000000002, 0.947125, 192.0, 0.0, 0.0, 0.0, 0.0, 0.0, 0.0, 0.0, 0.0, 0.0, 1.64458782450991E9, 0.0, 2022-02-12 00:57:04.509
218.0, -10700.16005041123, -10783.375595018339, -6200.508022368911, -13093.093108307494, -8787.677739581794, -5414.1513006867535, -8716.219212558177, -6695.710920776239, -10311.865545733637, -13576.315471686778, -7666.313072003493, -6656.84123716846, -6639.585690448963, -9926.141491668403, -11495.211600686504, -16453.767294140733, 0.009375, 0.23775000000000002, 0.947125, 192.0, 0.0, 0.0, 0.0, 0.0, 0.0, 0.0, 0.0, 0.0, 0.0, 1.64458782451638E9, 0.0, 2022-02-12 00:57:04.516
220.0, -10695.98027419809, -10773.026737335533, -6194.741272299442, -13087.840448360497, -8784.682605824783, -5406.708169783136, -8700.640046672826, -6692.380510852398, -10312.290228878288, -13571.331032673244, -7655.517179431579, -6618.798568105527, -6633.17073979029, -9923.056950933571, -11495.502173364423, -16456.11422730854, 0.009375, 0.23775000000000002, 0.947125, 192.0, 0.0, 0.0, 0.0, 0.0, 0.0, 0.0, 0.0, 0.0, 0.0, 1.644587824524602E9, 0.0, 2022-02-12 00:57:04.524
222.0, -10734.715847339136, -10769.785734389512, -6205.134833471159, -13090.120326294938, -8783.944998257757, -5404.629457548793, -8705.423319986263, -6697.968446966225, -10315.955914968958, -13586.64197762513, -7652.6561561413, -6606.035722021547, -6614.9540680592145, -9911.434043816811, -11490.830658773262, -16483.36100379956, 0.009375, 0.23775000000000002, 0.947125, 192.0, 0.0, 0.0, 0.0, 0.0, 0.0, 0.0, 0.0, 0.0, 0.0, 1.644587824532477E9, 0.0, 2022-02-12 00:57:04.532
224.0, -10723.159995455742, -10786.303673541985, -6199.122214212682, -13073.870608075931, -8770.176323673288, -5396.649884778248, -8693.487488447128, -6683.931551448292, -10318.816938259237, -13564.513750614376, -7659.093458544428, -6627.515748443097, -6628.07454205448, -9912.551631039576, -11488.908408750107, -16431.77317759671, 0.0076875, 0.235875, 0.9475625000000001, 192.0, 0.0, 24.0, 3.5, 40.0, 14.5, 80.0, 0.0, 0.0, 0.0, 1.644587824539641E9, 0.0, 2022-02-12 00:57:04.539
226.0, -10698.55072481045, -10768.802257633479, -6195.121251955182, -13082.610140157956, -8777.015957476611, -5393.185364387675, -8694.023930314057, -6685.630284026895, -10316.1347289246, -13579.757640332895, -7645.525949660057, -6603.3311609424545, -6615.222288992678, -9900.749909967173, -11487.053213960316, -16481.528160754224, 0.0076875, 0.235875, 0.9475625000000001, 192.0, 0.0, 0.0, 0.0, 0.0, 0.0, 0.0, 0.0, 0.0, 0.0, 1.644587824546911E9, 0.0, 2022-02-12 00:57:04.546
228.0, -10711.425329616706, -10773.60788269137, -6198.630475834665, -13077.625701144421, -8771.763297529615, -5395.934628955678, -8703.903401363303, -6695.152127164856, -10317.56524056974, -13563.284404669334, -7652.387935207837, -6615.490509926142, -6633.282498512566, -9914.697398507285, -11487.612007571699, -16453.07439006262, 0.0076875, 0.235875, 0.9475625000000001, 192.0, 0.0, 0.0, 0.0, 0.0, 0.0, 0.0, 0.0, 0.0, 0.0, 1.644587824555047E9, 0.0, 2022-02-12 00:57:04.555
230.0, -10694.035672430477, -10762.052030807976, -6185.062966950294, -13090.299140250581, -8768.902274239335, -5393.073605665399, -8697.019064071068, -6688.066624172524, -10315.553583568762, -13567.955919260494, -7644.4083624372915, -6618.463291938698, -6626.3981612203315, -9909.57884902702, -11486.22619941547, -16456.941241853387, 0.0076875, 0.235875, 0.9475625000000001, 192.0, 0.0, 0.0, 0.0, 0.0, 0.0, 0.0, 0.0, 0.0, 0.0, 1.644587824562145E9, 0.0, 2022-02-12 00:57:04.562
232.0, -10710.508908094038, -10756.866426094346, -6198.518717112389, -13098.25636127667, -8763.649614292337, -5391.956018442634, -8706.652665931304, -6689.877115473404, -10321.409740616053, -13574.952015275005, -7640.541510646523, -6622.799530363028, -6616.630448893363, -9904.415596057845, -11480.12417317917, -16488.792477702198, 0.0076875, 0.235875, 0.9475625000000001, 192.0, 0.0, 0.0, 0.0, 0.0, 0.0, 0.0, 0.0, 0.0, 0.0, 1.644587824569696E9, 0.0, 2022-02-12 00:57:04.569
234.0, -10703.758681268535, -10772.199722790685, -6193.713092054498, -13090.142678039394, -8754.172474643288, -5382.769451471502, -8695.029758814546, -6681.204638624745, -10313.877202734615, -13561.49626511291, -7658.534664933046, -6630.220309522189, -6614.663495381295, -9914.563288040554, -11480.302987134814, -16434.857718331543, 0.00784375, 0.23693750000000002, 0.9487812500000001, 192.0, 0.0, 32.0, 3.5, 56.0, 14.5, 88.0, 0.0, 0.0, 0.0, 1.644587824576623E9, 0.0, 2022-02-12 00:57:04.576
236.0, -10712.811137772935, -10795.646702724303, -6194.473051365978, -13100.536239211111, -8761.503846824628, -5390.167878886209, -8687.810145355481, -6681.361100835932, -10324.069598206235, -13585.323224702266, -7654.08666778644, -6616.809262849005, -6620.9443355732365, -9912.52927929512, -11478.023109200372, -16491.11705912555, 0.00784375, 0.23693750000000002, 0.9487812500000001, 192.0, 0.0, 0.0, 0.0, 0.0, 0.0, 0.0, 0.0, 0.0, 0.0, 1.644587824591629E9, 0.0, 2022-02-12 00:57:04.591
238.0, -10733.26298394954, -10793.143307345308, -6203.749025314931, -13087.505172193667, -8756.184131644266, -5391.2631143645185, -8695.09681404791, -6685.496173560164, -10323.04141796129, -13587.40193693661, -7655.204255009206, -6632.544890945541, -6608.337951700444, -9919.860651476461, -11478.827772000763, -16457.231814531304, 0.00784375, 0.23693750000000002, 0.9487812500000001, 192.0, 0.0, 0.0, 0.0, 0.0, 0.0, 0.0, 0.0, 0.0, 0.0, 1.644587824599306E9, 0.0, 2022-02-12 00:57:04.599
240.0, -10706.195021414163, -10778.637025193813, -6187.365196629191, -13091.483782706713, -8760.743887513148, -5388.558553285427, -8688.547752922506, -6684.624455526407, -10323.153176683567, -13577.276596698357, -7648.789304350532, -6619.536175672552, -6613.478852925165, -9912.037540917105, -11481.040594701839, -16459.332878510104, 0.00784375, 0.23693750000000002, 0.9487812500000001, 192.0, 0.0, 0.0, 0.0, 0.0, 0.0, 0.0, 0.0, 0.0, 0.0, 1.644587824607486E9, 0.0, 2022-02-12 00:57:04.607
