%OpenBCI Raw EEG Data
%Number of channels = 16
%Sample Rate = 125 Hz
%Board = OpenBCI_GUI$BoardCytonSerialDaisy
Sample Index, EXG Channel 0, EXG Channel 1, EXG Channel 2, EXG Channel 3, EXG Channel 4, EXG Channel 5, EXG Channel 6, EXG Channel 7, EXG Channel 8, EXG Channel 9, EXG Channel 10, EXG Channel 11, EXG Channel 12, EXG Channel 13, EXG Channel 14, EXG Channel 15, Accel Channel 0, Accel Channel 1, Accel Channel 2, Other, Other, Other, Other, Other, Other, Other, Analog Channel 0, Analog Channel 1, Analog Channel 2, Timestamp, Other, Timestamp (Formatted)
0.0, -10113.806738115161, -9530.31444910937, -5595.8262796194895, -13075.59169239899, -8640.603261065873, -4826.836863379105, -8069.650300699509, -6138.951318138996, 0.0, 0.0, 0.0, 0.0, 0.0, 0.0, 0.0, 0.0, 0.0, 0.0, 0.0, 192.0, 0.0, 0.0, 0.0, 0.0, 0.0, 0.0, 0.0, 0.0, 0.0, 1.644587689580982E9, 0.0, 2022-02-12 00:54:49.580
146.0, -10117.159499783456, -9532.303754365892, -5611.964239116221, -13071.367212696936, -8644.872444256836, -4829.653183180473, -8064.487047730333, -6141.320603051258, -9425.641229825167, -12205.773556920714, -7119.187071226486, -5663.485010085704, -5571.775802585578, -7872.150286692416, -11851.900738704293, -16799.347615164235, 0.0, 0.0, 0.0, 192.0, 0.0, 0.0, 0.0, 0.0, 0.0, 0.0, 0.0, 0.0, 0.0, 1.644587689580987E9, 0.0, 2022-02-12 00:54:49.580
148.0, -10099.635732130497, -9513.461233790069, -5601.816547133511, -13062.784142826098, -8632.109598172856, -4818.030276063714, -8061.804838395696, -6135.9114808930735, -9416.633476809679, -12169.809600092125, -7139.393048214084, -5676.583132336514, -5566.05375600502, -7873.960777993296, -11850.134950892325, -16729.4984137414, 0.0, 0.0, 0.0, 192.0, 0.0, 0.0, 0.0, 0.0, 0.0, 0.0, 0.0, 0.0, 0.0, 1.64458768958099E9, 0.0, 2022-02-12 00:54:49.580
0.0, -5131.133512393655, -4694.670998414874, -3241.6064431198174, -5815.856852037532, -5222.216871049031, -2829.4179236195, -4629.314497627556, -3196.3665123422757, -4712.59709746803, -6100.640428142599, -3567.2043046002755, -2828.9708887303937, -2779.7970509287184, -3930.2189862989176, -5924.776902768243, -8402.71364482804, 0.0, 0.0, 0.0, 192.0, 0.0, 0.0, 3.5, 40.0, 14.5, 104.0, 0.0, 0.0, 0.0, 1.644587689698158E9, 0.0, 2022-02-12 00:54:49.698
2.0, -10269.97837662439, -9395.91340969961, -6486.476240930109, -11641.481416402034, -10451.407486368118, -5664.69200428629, -9265.848608714177, -6402.165460844692, -9665.117819919327, -12195.447050982362, -8314.759530396406, -5899.988818167308, -7734.128264680894, -8760.16274215731, -11275.337490479647, -15346.66303952492, 0.0, 0.0, 0.0, 192.0, 0.0, 0.0, 0.0, 0.0, 0.0, 0.0, 0.0, 0.0, 0.0, 1.644587689705345E9, 0.0, 2022-02-12 00:54:49.705
4.0, -10285.624597743106, -9380.267188580894, -6493.04765379997, -11627.39981739519, -10442.422085097085, -5662.747402518678, -9272.867056473144, -6406.546402757932, -9664.469619330122, -12181.141934530966, -8314.804233885317, -5920.395960855003, -7750.445038133269, -8767.963500972211, -11274.42106895698, -15300.193762802335, 0.0, 0.0, 0.0, 192.0, 0.0, 0.0, 0.0, 0.0, 0.0, 0.0, 0.0, 0.0, 0.0, 1.644587689711865E9, 0.0, 2022-02-12 00:54:49.711
6.0, -10263.719888176905, -9373.762830944399, -6483.503458917554, -11632.183090708624, -10443.651431042128, -5653.314966358539, -9257.64551849908, -6395.571696230376, -9670.348128121868, -12184.204123521344, -8313.552536195819, -5907.878983960031, -7740.610270572934, -8761.637957291361, -11272.185894511449, -15314.253010064724, 0.0, 0.0, 0.0, 192.0, 0.0, 0.0, 0.0, 0.0, 0.0, 0.0, 0.0, 0.0, 0.0, 1.644587689720008E9, 0.0, 2022-02-12 00:54:49.720
8.0, -10279.902551162548, -9388.671444496089, -6494.9699038231265, -11629.858509285274, -10440.544538562839, -5654.656071025857, -9265.289815102795, -6399.952638143616, -9670.526942077511, -12192.340158503075, -8301.728463378962, -5903.140414135506, -7738.1515786828495, -8760.430963090774, -11270.151885766016, -15336.358885331021, 0.002, 0.234, 0.9460000000000001, 192.0, 0.0, 8.0, 3.5, 40.0, 14.5, 72.0, 0.0, 0.0, 0.0, 1.644587689735054E9, 0.0, 2022-02-12 00:54:49.735
10.0, -10271.386536525075, -9375.126287356174, -6488.040863041981, -11623.667076071153, -10425.837090711248, -5639.456884796248, -9249.442428283981, -6382.875905379761, -9658.859331471842, -12174.83874259457, -8299.40388195561, -5904.6379810140115, -7733.167139669316, -8768.812867261513, -11264.563949652189, -15276.009175301693, 0.002, 0.234, 0.9460000000000001, 192.0, 0.0, 0.0, 0.0, 0.0, 0.0, 0.0, 0.0, 0.0, 0.0, 1.644587689741505E9, 0.0, 2022-02-12 00:54:49.741
12.0, -10280.103716862646, -9385.273979338883, -6478.8319443263945, -11648.365753694266, -10434.777788493371, -5634.405390549349, -9248.883634672598, -6377.556190199398, -9671.733936278099, -12185.388765977475, -8293.771242352872, -5909.354199094081, -7736.877529248897, -8755.938262455256, -11259.646565872023, -15339.376370832488, 0.002, 0.234, 0.9460000000000001, 192.0, 0.0, 0.0, 0.0, 0.0, 0.0, 0.0, 0.0, 0.0, 0.0, 1.64458768974966E9, 0.0, 2022-02-12 00:54:49.749
14.0, -10266.536207978274, -9378.032014135362, -6488.510249675543, -11623.532965604421, -10413.789500449837, -5623.788311933078, -9244.413285781537, -6372.21412327458, -9660.155732650248, -12178.146800773955, -8311.071492561281, -5896.703111732378, -7732.474235591202, -8747.444599562241, -11253.253966957804, -15283.541713183131, 0.002, 0.234, 0.9460000000000001, 192.0, 0.0, 0.0, 0.0, 0.0, 0.0, 0.0, 0.0, 0.0, 0.0, 1.64458768975752E9, 0.0, 2022-02-12 00:54:49.757
16.0, -10270.581873724685, -9374.299272811328, -6476.507362903043, -11635.02176225445, -10415.331770817253, -5617.73098918569, -9236.053733355253, -6368.369623228267, -9657.920558204718, -12171.865960582014, -8310.244478016433, -5886.063681371651, -7710.748339980643, -8746.818750717492, -11251.197606467917, -15295.298730766623, 0.002, 0.234, 0.9460000000000001, 192.0, 0.0, 0.0, 0.0, 0.0, 0.0, 0.0, 0.0, 0.0, 0.0, 1.644587689764736E9, 0.0, 2022-02-12 00:54:49.764
18.0, -10276.41567902752, -9369.493647753436, -6487.504421175054, -11638.530986133932, -10410.928477159558, -5621.106102598442, -9245.620279982124, -6370.493038951521, -9668.180008909703, -12190.529667202196, -8279.577884623754, -5900.346446078593, -7726.796892499554, -8741.96842217069, -11251.264661701282, -15324.93714391436, 0.004, 0.23800000000000002, 0.9480000000000001, 192.0, 0.0, 16.0, 3.5, 56.0, 14.5, 80.0, 0.0, 0.0, 0.0, 1.644587689772158E9, 0.0, 2022-02-12 00:54:49.772
20.0, -10255.874425873093, -9333.999077558408, -6477.624950125808, -11624.494090615999, -10389.873133882658, -5605.214012290718, -9232.455102497948, -6359.406573701689, -9649.918633689718, -12158.231396464276, -8290.26201847339, -5899.07239664464, -7713.899935948842, -8750.39502983034, -11244.760304064788, -15264.520378651665, 0.004, 0.23800000000000002, 0.9480000000000001, 192.0, 0.0, 0.0, 0.0, 0.0, 0.0, 0.0, 0.0, 0.0, 0.0, 1.644587689780492E9, 0.0, 2022-02-12 00:54:49.780
22.0, -10267.631443456585, -9351.679307422555, -6471.94760703416, -11636.496977388499, -10402.278352055353, -5607.315076269517, -9236.143140333073, -6360.770030113463, -9657.361764593335, -12168.244977980254, -8279.06379450128, -5884.476707515324, -7700.488889275657, -8732.513634266095, -11238.613574339579, -15326.926449170882, 0.004, 0.23800000000000002, 0.9480000000000001, 192.0, 0.0, 0.0, 0.0, 0.0, 0.0, 0.0, 0.0, 0.0, 0.0, 1.644587689787411E9, 0.0, 2022-02-12 00:54:49.787
24.0, -10273.755821437338, -9360.575301715768, -6479.1225170043135, -11615.106357944771, -10394.455241495996, -5603.939962856765, -9246.469646271426, -6367.54260868342, -9655.305404103447, -12173.497637927252, -8285.277579459856, -5886.644826727489, -7722.751226753143, -8742.616622759893, -11241.787522052231, -15281.999442815715, 0.004, 0.23800000000000002, 0.9480000000000001, 192.0, 0.0, 0.0, 0.0, 0.0, 0.0, 0.0, 0.0, 0.0, 0.0, 1.644587689793869E9, 0.0, 2022-02-12 00:54:49.793
26.0, -10243.916242589503, -9348.61711843218, -6454.490894614565, -11624.181166193624, -10391.571866461261, -5591.065358050509, -9238.713590945434, -6359.07129753486, -9651.14797963476, -12160.488922654262, -8283.73530909244, -5877.1676870784395, -7711.575354525489, -8731.306640065508, -11242.346315663615, -15292.88474236545, 0.005, 0.23700000000000002, 0.9490000000000001, 192.0, 0.0, 24.0, 3.5, 48.0, 14.5, 88.0, 0.0, 0.0, 0.0, 1.644587689802524E9, 0.0, 2022-02-12 00:54:49.802
28.0, -10275.588664482673, -9351.858121378198, -6472.506400645542, -11627.91390751766, -10384.53106695784, -5599.9390005992655, -9236.523119988815, -6370.78361162944, -9644.822435953909, -12164.869864567503, -8277.901503789604, -5875.424251010925, -7707.28381959007, -8729.384390042353, -11233.852652770598, -15323.12665261348, 0.005, 0.23700000000000002, 0.9490000000000001, 192.0, 0.0, 0.0, 0.0, 0.0, 0.0, 0.0, 0.0, 0.0, 0.0, 1.644587689809173E9, 0.0, 2022-02-12 00:54:49.809
30.0, -10271.587702225173, -9348.818284132276, -6468.6171971103195, -11622.594192337297, -10374.986872075424, -5593.702863896235, -9237.908928145043, -6349.30358520789, -9651.058572656939, -12156.286794696665, -8278.102669489703, -5899.698245489389, -7709.161366124316, -8750.68560250826, -11237.27246967226, -15268.476637420254, 0.005, 0.23700000000000002, 0.9490000000000001, 192.0, 0.0, 0.0, 0.0, 0.0, 0.0, 0.0, 0.0, 0.0, 0.0, 1.644587689817156E9, 0.0, 2022-02-12 00:54:49.817
32.0, -10285.199914598456, -9341.621022417668, -6461.397583651255, -11635.558204121377, -10378.853723866192, -5589.567791172003, -9224.654343683045, -6349.97413754155, -9658.591110538377, -12167.105039013033, -8259.908349503083, -5871.40093700897, -7707.663799245811, -8732.178358099265, -11234.009114981785, -15332.22381260679, 0.005, 0.23700000000000002, 0.9490000000000001, 192.0, 0.0, 0.0, 0.0, 0.0, 0.0, 0.0, 0.0, 0.0, 0.0, 1.644587689825507E9, 0.0, 2022-02-12 00:54:49.825
34.0, -10287.837420444182, -9341.688077651033, -6467.23138895409, -11620.962514992061, -10365.643842893105, -5584.24807599164, -9229.527023974302, -6355.383259699734, -9658.971090194118, -12160.801847076636, -8261.897654759605, -5875.491306244291, -7706.725025978688, -8733.675924977772, -11230.343428891114, -15285.195742272825, 0.005, 0.23700000000000002, 0.9490000000000001, 192.0, 0.0, 0.0, 0.0, 0.0, 0.0, 0.0, 0.0, 0.0, 0.0, 1.644587689831831E9, 0.0, 2022-02-12 00:54:49.831
36.0, -10260.165960808512, -9343.520920696368, -6452.5909963358645, -11633.099512231292, -10364.369793459153, -5574.122735753386, -9222.419169237515, -6345.235567717024, -9654.85836921434, -12156.555015630129, -8262.098820459703, -5862.907274115953, -7677.913627375798, -8726.992753385633, -11227.661219556478, -15293.59999818802, 0.006500000000000001, 0.23650000000000002, 0.9515, 192.0, 0.0, 32.0, 3.5, 48.0, 14.5, 104.0, 0.0, 0.0, 0.0, 1.644587689839999E9, 0.0, 2022-02-12 00:54:49.839
38.0, -10282.964740152926, -9343.722086396467, -6464.951511019649, -11636.832253555329, -10370.695337140005, -5578.280160222073, -9237.975983378408, -6349.661213119175, -9660.312194861435, -12179.242036252266, -8262.702317559995, -5877.860591156554, -7713.721121993199, -8724.042323117534, -11225.582507322135, -15324.22188809179, 0.006500000000000001, 0.23650000000000002, 0.9515, 192.0, 0.0, 0.0, 0.0, 0.0, 0.0, 0.0, 0.0, 0.0, 0.0, 1.644587689846874E9, 0.0, 2022-02-12 00:54:49.846
40.0, -10255.293280517255, -9334.177891514051, -6463.006909252037, -11620.068445213848, -10351.47283690844, -5560.734040824657, -9221.68156167049, -6337.0101257574715, -9651.86323545733, -12149.558919615618, -8274.72755607695, -5872.697338187378, -7714.302267349037, -8732.133654610356, -11225.314286388671, -15265.190930985324, 0.006500000000000001, 0.23650000000000002, 0.9515, 192.0, 0.0, 0.0, 0.0, 0.0, 0.0, 0.0, 0.0, 0.0, 0.0, 1.644587689861404E9, 0.0, 2022-02-12 00:54:49.861
42.0, -10251.64994617104, -9329.70754262299, -6454.110914958825, -11636.765198321962, -10352.992755531403, -5558.543569868037, -9218.597020935658, -6337.971250769049, -9654.81366572543, -12159.796018576148, -8263.3505181492, -5852.737230388789, -7705.786252711565, -8718.029703859056, -11221.02275145325, -15323.953667158326, 0.006500000000000001, 0.23650000000000002, 0.9515, 192.0, 0.0, 0.0, 0.0, 0.0, 0.0, 0.0, 0.0, 0.0, 0.0, 1.644587689869567E9, 0.0, 2022-02-12 00:54:49.869
44.0, -10282.94238840847, -9336.457769448492, -6464.0350894969815, -11621.856584770274, -10341.213386203455, -5560.331709424461, -9227.604773951147, -6340.273480447946, -9649.00221216705, -12157.985527275268, -8249.134808675624, -5866.237684039794, -7699.147784608339, -8724.891689406835, -11218.45230084089, -15283.36289922749, 0.006500000000000001, 0.23650000000000002, 0.9515, 192.0, 0.0, 0.0, 0.0, 0.0, 0.0, 0.0, 0.0, 0.0, 0.0, 1.644587689877911E9, 0.0, 2022-02-12 00:54:49.877
46.0, -10261.752934664839, -9314.776577326844, -6446.354859632834, -11635.267631443458, -10344.90142403858, -5546.361869139894, -9227.984753606886, -6331.980983255027, -9649.181026122693, -12145.155625957923, -8242.406933594577, -5868.562265463146, -7698.656046230322, -8720.398988771318, -11217.848803740599, -15291.320120253578, 0.009250000000000001, 0.23725000000000002, 0.9517500000000001, 192.0, 0.0, 48.0, 3.5, 56.0, 14.5, 96.0, 0.0, 0.0, 0.0, 1.644587689884793E9, 0.0, 2022-02-12 00:54:49.884
48.0, -10280.170772096011, -9320.856251818688, -6457.664842327219, -11630.909041274672, -10338.486473379908, -5551.592177342436, -9218.418206980015, -6328.672925075642, -9652.354973835347, -12166.926225057392, -8237.824825981239, -5867.534085218202, -7696.353816551426, -8719.571974226472, -11218.564059563168, -15325.115957870003, 0.009250000000000001, 0.23725000000000002, 0.9517500000000001, 192.0, 0.0, 0.0, 0.0, 0.0, 0.0, 0.0, 0.0, 0.0, 0.0, 1.644587689892129E9, 0.0, 2022-02-12 00:54:49.892
50.0, -10266.960891122924, -9312.474347647947, -6454.759115548029, -11620.4931283585, -10320.605077815662, -5540.751581281613, -9205.767119618311, -6316.804148769874, -9638.653354484244, -12146.854358536526, -8244.418590595555, -5860.001547336763, -7683.14393557834, -8730.747846454125, -11211.612667037567, -15262.151093739403, 0.009250000000000001, 0.23725000000000002, 0.9517500000000001, 192.0, 0.0, 0.0, 0.0, 0.0, 0.0, 0.0, 0.0, 0.0, 0.0, 1.64458768990026E9, 0.0, 2022-02-12 00:54:49.900
52.0, -10268.704327190439, -9332.903842080099, -6452.456885869132, -11640.520291390454, -10326.014199973846, -5538.270537647073, -9201.363825960616, -6312.53496557891, -9654.612500025332, -12159.304280198132, -8231.275764855834, -5847.216349508328, -7688.463650758702, -8715.72747418016, -11208.304608858181, -15325.004199147726, 0.009250000000000001, 0.23725000000000002, 0.9517500000000001, 192.0, 0.0, 0.0, 0.0, 0.0, 0.0, 0.0, 0.0, 0.0, 0.0, 1.644587689908202E9, 0.0, 2022-02-12 00:54:49.908
54.0, -10264.859827144126, -9317.123510494652, -6464.526827874998, -11628.673866829142, -10312.223173644921, -5536.124770179364, -9212.517346443814, -6317.094721447793, -9639.301555073447, -12152.084666739067, -8247.860759241672, -5857.54285544668, -7679.053566343018, -8713.067616589979, -11203.655446011478, -15278.803143358606, 0.009250000000000001, 0.23725000000000002, 0.9517500000000001, 192.0, 0.0, 0.0, 0.0, 0.0, 0.0, 0.0, 0.0, 0.0, 0.0, 1.644587689914327E9, 0.0, 2022-02-12 00:54:49.914
56.0, -10259.160132308023, -9313.390769170615, -6443.627946809286, -11637.502805888987, -10317.341723125188, -5540.908043492799, -9221.458044225938, -6319.285192404413, -9650.343316834369, -12141.959326500813, -8227.788892720806, -5862.057907826652, -7679.657063443311, -8714.319314279475, -11205.98002743483, -15292.638873176442, 0.009625000000000002, 0.23562500000000003, 0.9508750000000001, 192.0, 0.0, 40.0, 3.5, 40.0, 14.5, 88.0, 0.0, 0.0, 0.0, 1.644587689921637E9, 0.0, 2022-02-12 00:54:49.921
58.0, -10248.006611824825, -9301.566696353757, -6445.3713828767995, -11635.4464453991, -10309.94329571048, -5536.974136468665, -9214.640762167068, -6321.743884294497, -9642.363744063825, -12167.127390757489, -8221.798625206784, -5837.336878459082, -7671.610435439401, -8718.029703859056, -11207.634056524523, -15334.213117863312, 0.009625000000000002, 0.23562500000000003, 0.9508750000000001, 192.0, 0.0, 0.0, 0.0, 0.0, 0.0, 0.0, 0.0, 0.0, 0.0, 1.644587689929939E9, 0.0, 2022-02-12 00:54:49.929
60.0, -10293.380653069098, -9325.304248965294, -6444.231443909579, -11630.752579063485, -10294.028853658301, -5522.065522916976, -9194.792413090756, -6312.132634178714, -9627.388075278768, -12132.683352551861, -8216.925944915527, -5843.282442484194, -7660.769839378577, -8708.418453743274, -11197.128736630528, -15262.68753560633, 0.009625000000000002, 0.23562500000000003, 0.9508750000000001, 192.0, 0.0, 0.0, 0.0, 0.0, 0.0, 0.0, 0.0, 0.0, 0.0, 1.644587689936785E9, 0.0, 2022-02-12 00:54:49.936
62.0, -10295.392310070076, -9332.769731613365, -6438.040010695459, -11647.091704260314, -10298.454499060452, -5521.3949705833165, -9193.764232845811, -6301.068520673338, -9663.776715252008, -12174.190542005366, -8218.53527051631, -5846.255224496749, -7684.440336756747, -8708.396101998818, -11197.061681397163, -15328.759292216218, 0.009625000000000002, 0.23562500000000003, 0.9508750000000001, 192.0, 0.0, 0.0, 0.0, 0.0, 0.0, 0.0, 0.0, 0.0, 0.0, 1.644587689944441E9, 0.0, 2022-02-12 00:54:49.944
64.0, -10297.381615326598, -9332.948545569008, -6449.059420711926, -11633.881823287229, -10283.724699464405, -5516.142310636319, -9198.592209648157, -6299.8615264727505, -9645.515340032023, -12156.152684229934, -8226.917174687049, -5856.961710090842, -7678.718290176188, -8707.122052564866, -11196.279370341226, -15281.753573626707, 0.009625000000000002, 0.23562500000000003, 0.9508750000000001, 192.0, 0.0, 0.0, 0.0, 0.0, 0.0, 0.0, 0.0, 0.0, 0.0, 1.644587689952392E9, 0.0, 2022-02-12 00:54:49.952
66.0, -10291.860734446136, -9319.962182040475, -6433.614365293309, -11645.772951337452, -10284.37290005361, -5509.973229166655, -9184.15298273003, -6299.369788094734, -9649.091619144872, -12139.254765421721, -8232.505110800876, -5861.655576426456, -7674.024423840574, -8701.53411645104, -11197.173440119439, -15287.497971951721, 0.010812500000000001, 0.23581250000000004, 0.9514375000000002, 192.0, 0.0, 48.0, 3.5, 48.0, 14.5, 96.0, 0.0, 0.0, 0.0, 1.644587689960499E9, 0.0, 2022-02-12 00:54:49.960
68.0, -10321.320333638232, -9353.065115578785, -6444.589071820864, -11649.908024061684, -10287.904475677547, -5519.428017071249, -9201.095605027152, -6306.7235120205305, -9661.206264639648, -12173.36352746052, -8238.16010214807, -5858.9733670918195, -7676.840743641943, -8714.38636951284, -11194.602989507079, -15328.960457916315, 0.010812500000000001, 0.23581250000000004, 0.9514375000000002, 192.0, 0.0, 0.0, 0.0, 0.0, 0.0, 0.0, 0.0, 0.0, 0.0, 1.64458768996691E9, 0.0, 2022-02-12 00:54:49.966
70.0, -10301.159060139546, -9342.001002073408, -6431.51330131451, -11634.150044220693, -10271.520646991808, -5501.7924906960125, -9194.188915990462, -6295.458232815055, -9655.305404103447, -12153.984565017769, -8225.799587464284, -5850.926739087909, -7662.692089401733, -8717.157985825299, -11195.295893585193, -15266.576739141554, 0.010812500000000001, 0.23581250000000004, 0.9514375000000002, 192.0, 0.0, 0.0, 0.0, 0.0, 0.0, 0.0, 0.0, 0.0, 0.0, 1.644587689981961E9, 0.0, 2022-02-12 00:54:49.981
72.0, -10299.616789772128, -9339.721124138967, -6428.495815813043, -11647.851663571795, -10284.909341920536, -5504.56410700847, -9199.151003259542, -6295.324122348324, -9651.393848823769, -12156.197387718843, -8211.092139612692, -5828.5079393992355, -7667.117734803884, -8699.634218172338, -11190.445565038392, -15327.08291138207, 0.010812500000000001, 0.23581250000000004, 0.9514375000000002, 192.0, 0.0, 0.0, 0.0, 0.0, 0.0, 0.0, 0.0, 0.0, 0.0, 1.644587689990083E9, 0.0, 2022-02-12 00:54:49.990
74.0, -10305.987036941891, -9316.385902927626, -6432.966164704105, -11633.97123026505, -10268.234940556877, -5502.75361570759, -9199.732148615378, -6296.53111654891, -9649.292784844969, -12152.665812094905, -8220.412817050556, -5835.146407502461, -7664.793153380532, -8705.266857775076, -11193.753623217777, -15288.012062074193, 0.010812500000000001, 0.23581250000000004, 0.9514375000000002, 192.0, 0.0, 0.0, 0.0, 0.0, 0.0, 0.0, 0.0, 0.0, 0.0, 1.644587689996511E9, 0.0, 2022-02-12 00:54:49.996
76.0, -10294.744109480871, -9313.927211037542, -6410.100330126325, -11641.079085001837, -10260.210664297421, -5491.242467313107, -9168.640872078047, -6278.0238721399155, -9644.151883620249, -12136.773721787182, -8207.046473866281, -5823.814073063621, -7658.892292844331, -8702.875221118358, -11189.618550493546, -15285.68748065084, 0.01140625, 0.23590625000000004, 0.94671875, 192.0, 0.0, 48.0, 3.5, 48.0, 14.5, 56.0, 0.0, 0.0, 0.0, 1.644587690004635E9, 0.0, 2022-02-12 00:54:50.004
78.0, -10305.338836352686, -9314.642466860112, -6424.3160395999, -11645.68354435963, -10262.110562576123, -5492.650627213791, -9179.727337327879, -6279.633197740698, -9649.605709267344, -12156.35384993003, -8198.061072595248, -5834.855834824542, -7657.7076503882, -8692.168735524267, -11183.337710301605, -15323.707797969319, 0.01140625, 0.23590625000000004, 0.94671875, 192.0, 0.0, 0.0, 0.0, 0.0, 0.0, 0.0, 0.0, 0.0, 0.0, 1.644587690012569E9, 0.0, 2022-02-12 00:54:50.012
80.0, -10267.184408567478, -9273.35879485116, -6416.202356362624, -11624.11411096026, -10235.891966330048, -5469.740089147102, -9173.960587258409, -6260.902435887151, -9633.66891547071, -12124.614372803495, -8199.782156918307, -5837.783913348188, -7641.212062980183, -8694.426261714252, -11179.090878855095, -15253.568023868565, 0.01140625, 0.23590625000000004, 0.94671875, 192.0, 0.0, 0.0, 0.0, 0.0, 0.0, 0.0, 0.0, 0.0, 0.0, 1.64458769001971E9, 0.0, 2022-02-12 00:54:50.019
82.0, -10257.528454962785, -9284.780536267823, -6403.50656551201, -11639.559166378876, -10245.905547846025, -5471.505876959071, -9169.512590111803, -6263.5846452217875, -9623.901203143741, -12110.555125541106, -8194.551848715764, -5801.194107674851, -7627.957478518186, -8668.989976524112, -11176.274559053727, -15312.397815274933, 0.01140625, 0.23590625000000004, 0.94671875, 192.0, 0.0, 0.0, 0.0, 0.0, 0.0, 0.0, 0.0, 0.0, 0.0, 1.644587690027374E9, 0.0, 2022-02-12 00:54:50.027
84.0, -10300.46615606143, -9296.559905595768, -6413.3636848168, -11629.545584862899, -10232.136873261557, -5474.880990371823, -9165.466924365393, -6270.1560580916475, -9631.791368936465, -12127.006009460212, -8187.533400956799, -5796.991979717252, -7644.765990348576, -8680.635235385327, -11178.509733499257, -15283.653471905409, 0.01140625, 0.23590625000000004, 0.94671875, 192.0, 0.0, 0.0, 0.0, 0.0, 0.0, 0.0, 0.0, 0.0, 0.0, 1.644587690034175E9, 0.0, 2022-02-12 00:54:50.034
86.0, -10284.79758319826, -9296.6940160625, -6399.773824187973, -11637.882785544729, -10235.400227952032, -5469.784792636013, -9164.192874931441, -6265.037508611383, -9633.355991048336, -12130.671695550884, -8184.247694521868, -5799.987113474263, -7640.362696690881, -8678.422412684253, -11178.174457332429, -15283.809934116594, 0.009703125, 0.23595312500000004, 0.947359375, 192.0, 0.0, 32.0, 3.5, 48.0, 14.5, 80.0, 0.0, 0.0, 0.0, 1.644587690042349E9, 0.0, 2022-02-12 00:54:50.042
88.0, -10289.022062900312, -9307.13228072313, -6417.163481374202, -11656.390029953722, -10249.21360602541, -5486.749766677591, -9191.841982822656, -6285.846982699273, -9641.559081263433, -12153.269309195199, -8184.582970688698, -5806.402064132937, -7649.169284006272, -8682.423374941753, -11183.471820768336, -15332.156757373425, 0.009703125, 0.23595312500000004, 0.947359375, 192.0, 0.0, 0.0, 0.0, 0.0, 0.0, 0.0, 0.0, 0.0, 0.0, 1.644587690048783E9, 0.0, 2022-02-12 00:54:50.048
90.0, -10291.190182112477, -9282.299492633283, -6412.626077249775, -11640.900271046195, -10231.063989527702, -5472.757574648568, -9175.391098903548, -6279.05205238486, -9636.820511438907, -12139.92531775538, -8196.831726650205, -5823.367038174515, -7634.886519299331, -8696.124994292855, -11187.293969070193, -15273.751649111708, 0.009703125, 0.23595312500000004, 0.947359375, 192.0, 0.0, 0.0, 0.0, 0.0, 0.0, 0.0, 0.0, 0.0, 0.0, 1.644587690056877E9, 0.0, 2022-02-12 00:54:50.056
92.0, -10272.772344681305, -9294.03415847232, -6408.870984181283, -11650.869149073262, -10232.516852917297, -5466.633196667814, -9167.970319744387, -6267.697366201564, -9639.547424262455, -12140.528814855674, -8174.4576304504435, -5797.327255884083, -7643.380182192348, -8681.126973763345, -11183.382413790514, -15333.564917274109, 0.009703125, 0.23595312500000004, 0.947359375, 192.0, 0.0, 0.0, 0.0, 0.0, 0.0, 0.0, 0.0, 0.0, 0.0, 1.644587690064822E9, 0.0, 2022-02-12 00:54:50.064
94.0, -10281.645987230062, -9288.401518869581, -6411.821414449384, -11645.25886121498, -10218.725826588372, -5462.162847776753, -9169.646700578536, -6263.562293477332, -9620.816662408908, -12133.108035696512, -8181.520781698321, -5800.478851852281, -7638.41809492327, -8681.90928481928, -11184.231780079816, -15297.93623661235, 0.009703125, 0.23595312500000004, 0.947359375, 192.0, 0.0, 0.0, 0.0, 0.0, 0.0, 0.0, 0.0, 0.0, 0.0, 1.64458769007197E9, 0.0, 2022-02-12 00:54:50.071
96.0, -10276.08040286069, -9268.307300604261, -6401.204335833113, -11651.047963028905, -10215.730692831361, -5450.338774959895, -9155.118066682586, -6249.123066559204, -9621.062531597916, -12113.058520920102, -8182.459554965443, -5797.796642517644, -7630.438522152725, -8675.963720794169, -11180.230817822316, -15294.806992388607, 0.014, 0.23800000000000002, 0.9520000000000001, 192.0, 0.0, 56.0, 3.5, 56.0, 14.5, 96.0, 0.0, 0.0, 0.0, 1.64458769007962E9, 0.0, 2022-02-12 00:54:50.079
98.0, -10290.56433326773, -9295.643484073102, -6407.418120791688, -11655.317146219868, -10226.303067958721, -5461.067612298442, -9176.843962293144, -6268.256159812947, -9636.060552127428, -12143.948631757336, -8162.275929722301, -5797.059034950618, -7626.817539550965, -8674.33204344893, -11178.912064899454, -15340.382199332977, 0.014, 0.23800000000000002, 0.9520000000000001, 192.0, 0.0, 0.0, 0.0, 0.0, 0.0, 0.0, 0.0, 0.0, 0.0, 1.644587690087779E9, 0.0, 2022-02-12 00:54:50.087
100.0, -10294.185315869488, -9284.177039167529, -6408.312190569901, -11646.801131582395, -10209.136928217045, -5451.03167903801, -9166.852732521622, -6262.958796377039, -9631.76901719201, -12142.585175345563, -8174.90466533955, -5809.57601184559, -7631.489054142125, -8683.563313908973, -11186.198733591884, -15280.747745126218, 0.014, 0.23800000000000002, 0.9520000000000001, 192.0, 0.0, 0.0, 0.0, 0.0, 0.0, 0.0, 0.0, 0.0, 0.0, 1.644587690094607E9, 0.0, 2022-02-12 00:54:50.094
102.0, -10285.423432043008, -9296.40344338458, -6410.346199315334, -11663.542588179422, -10219.552841133218, -5452.573949405426, -9166.584511588158, -6265.261026055936, -9650.097447645361, -12159.594852876051, -8166.612168146631, -5803.0940059535515, -7629.276231441049, -8679.785869096026, -11182.711861456855, -15343.623202278997, 0.014, 0.23800000000000002, 0.9520000000000001, 192.0, 0.0, 0.0, 0.0, 0.0, 0.0, 0.0, 0.0, 0.0, 0.0, 1.644587690110531E9, 0.0, 2022-02-12 00:54:50.110
104.0, -10294.2300193584, -9290.83785901521, -6416.582336018364, -11646.711724604575, -10203.392529892031, -5446.538978402493, -9172.887703524555, -6260.500104486955, -9636.976973650095, -12154.945690029346, -8169.562598414732, -5800.702369296833, -7624.023571494052, -8685.820840098959, -11184.567056246646, -15312.59898097503, 0.014, 0.23800000000000002, 0.9520000000000001, 192.0, 0.0, 0.0, 0.0, 0.0, 0.0, 0.0, 0.0, 0.0, 0.0, 1.644587690117094E9, 0.0, 2022-02-12 00:54:50.117
106.0, -10270.157190580034, -9267.994376181887, -6395.415234019189, -11653.081971774338, -10199.570381590174, -5438.246481209574, -9157.129723683563, -6247.670203169609, -9636.306421316436, -12138.83008227707, -8165.583987901687, -5796.589648317057, -7625.610545350379, -8676.47781091664, -11180.476687011325, -15302.27247503668, 0.012, 0.242, 0.9500000000000001, 192.0, 0.0, 48.0, 3.5, 72.0, 14.5, 88.0, 0.0, 0.0, 0.0, 1.644587690125094E9, 0.0, 2022-02-12 00:54:50.125
108.0, -10262.825818398693, -9284.489963589904, -6403.841841678839, -11657.775838109952, -10202.431404880454, -5443.253271967563, -9174.966415758898, -6259.360165519734, -9637.245194583558, -12151.1682452164, -8160.398383188056, -5782.351587099027, -7627.018705251063, -8675.717851605159, -11177.213332320849, -15349.836987237572, 0.012, 0.242, 0.9500000000000001, 192.0, 0.0, 0.0, 0.0, 0.0, 0.0, 0.0, 0.0, 0.0, 0.0, 1.644587690131808E9, 0.0, 2022-02-12 00:54:50.131
110.0, -10278.740260450872, -9271.995338439387, -6396.868097408784, -11650.265651972968, -10192.328416386654, -5433.954946274155, -9170.473715123382, -6257.728488174497, -9623.47651999909, -12138.338343899053, -8166.679223379997, -5795.561468072113, -7621.251955181594, -8679.964683051669, -11182.890675412498, -15287.319157996079, 0.012, 0.242, 0.9500000000000001, 192.0, 0.0, 0.0, 0.0, 0.0, 0.0, 0.0, 0.0, 0.0, 0.0, 1.644587690139801E9, 0.0, 2022-02-12 00:54:50.139
112.0, -10282.51770526382, -9263.300509846273, -6384.217010047079, -11667.007108569993, -10200.01741647928, -5438.604109120859, -9157.532055083759, -6257.61672945222, -9634.71944746011, -12150.765913816203, -8141.08647597867, -5784.273837122183, -7621.117844714862, -8678.176543495243, -11180.387280033503, -15353.41326635042, 0.012, 0.242, 0.9500000000000001, 192.0, 0.0, 0.0, 0.0, 0.0, 0.0, 0.0, 0.0, 0.0, 0.0, 1.64458769014781E9, 0.0, 2022-02-12 00:54:50.147
114.0, -10300.533211294796, -9269.916626205042, -6395.057606107904, -11654.557186908387, -10188.68508204044, -5433.507911385049, -9168.283244166762, -6257.5943777077655, -9638.362781806325, -12148.26251843721, -8138.270156177302, -5794.108604682518, -7617.787434791021, -8683.160982508776, -11178.30856779916, -15324.13248111397, 0.012, 0.242, 0.9500000000000001, 192.0, 0.0, 0.0, 0.0, 0.0, 0.0, 0.0, 0.0, 0.0, 0.0, 1.644587690154977E9, 0.0, 2022-02-12 00:54:50.154
116.0, -10277.153286594545, -9279.147896665085, -6381.3559867568, -11656.322974720357, -10178.291520868723, -5419.225146678108, -9145.775037500267, -6239.668278654609, -9632.014886381017, -12146.250861436232, -8132.458702618922, -5777.702424252323, -7603.348207872893, -8674.264988215566, -11174.195846819382, -15310.855544907517, 0.006, 0.242, 0.9460000000000001, 192.0, 0.0, 24.0, 3.5, 72.0, 14.5, 72.0, 0.0, 0.0, 0.0, 1.644587690161697E9, 0.0, 2022-02-12 00:54:50.161
118.0, -10290.676091990006, -9286.635731057613, -6390.810774661395, -11669.443448715621, -10186.338148872632, -5423.919013013722, -9165.064592965198, -6255.403906751145, -9643.81660745342, -12172.804733849138, -8134.023324730793, -5779.468212064292, -7603.303504383983, -8670.28637770252, -11172.363003774048, -15362.644536810463, 0.006, 0.242, 0.9460000000000001, 192.0, 0.0, 0.0, 0.0, 0.0, 0.0, 0.0, 0.0, 0.0, 0.0, 1.644587690169447E9, 0.0, 2022-02-12 00:54:50.169
120.0, -10276.639196472073, -9278.03030944232, -6384.261713535991, -11655.808884597885, -10171.92127369896, -5416.587640832382, -9159.72252604038, -6251.514703215922, -9637.580470750388, -12152.665812094905, -8149.580138871687, -5784.564409800102, -7604.778719518033, -8682.646892386305, -11174.374660775025, -15300.909018624905, 0.006, 0.242, 0.9460000000000001, 192.0, 0.0, 0.0, 0.0, 0.0, 0.0, 0.0, 0.0, 0.0, 0.0, 1.644587690177627E9, 0.0, 2022-02-12 00:54:50.177
122.0, -10280.640158729573, -9269.648405271579, -6376.975044843561, -11673.198541784113, -10180.303177869699, -5414.397169875761, -9156.325060883173, -6240.294127499357, -9636.842863183363, -12145.177977702377, -8128.167167683503, -5776.920113196387, -7596.799146747488, -8672.38744168132, -11171.893617140488, -15358.80003676415, 0.006, 0.242, 0.9460000000000001, 192.0, 0.0, 0.0, 0.0, 0.0, 0.0, 0.0, 0.0, 0.0, 0.0, 1.644587690184637E9, 0.0, 2022-02-12 00:54:50.184
124.0, -10285.825763443205, -9271.436544828004, -6393.135356084747, -11662.804980612396, -10163.092334639114, -5412.385512874784, -9156.280357394262, -6246.507912457933, -9631.031409624984, -12146.49673062524, -8155.726868596897, -5784.5420580556465, -7613.250030666594, -8687.430165699741, -11172.184189818405, -15328.200498604834, 0.006, 0.242, 0.9460000000000001, 192.0, 0.0, 0.0, 0.0, 0.0, 0.0, 0.0, 0.0, 0.0, 0.0, 1.644587690192168E9, 0.0, 2022-02-12 00:54:50.192
126.0, -10268.816085912715, -9250.470608528925, -6363.2510737480015, -11663.810809112885, -10154.643375235008, -5397.521602812005, -9140.47767406436, -6236.4049239641345, -9628.460959012624, -12139.1653584439, -8128.748313039341, -5788.833592991065, -7590.451251322181, -8673.348566692897, -11166.35038451557, -15315.437652520855, -0.002, 0.244, 0.9440000000000001, 192.0, 127.5, 120.0, 3.5, 80.0, 14.5, 64.0, 0.0, 0.0, 0.0, 1.644587690200278E9, 0.0, 2022-02-12 00:54:50.200
128.0, -10273.80052492625, -9260.841817956189, -6369.666024406675, -11677.31126276389, -10158.845503192604, -5408.362198872829, -9149.597185802126, -6237.164883275615, -9632.90895615923, -12152.97873651728, -8113.683237276464, -5773.053261405619, -7593.0440536789965, -8668.81116256847, -11162.572939702624, -15366.46668511232, -0.002, 0.244, 0.9440000000000001, 192.0, 0.0, 0.0, 0.0, 0.0, 0.0, 0.0, 0.0, 0.0, 0.0, 1.64458769020863E9, 0.0, 2022-02-12 00:54:50.208
130.0, -10277.913245906026, -9266.697975003479, -6368.1237540392585, -11666.582425425342, -10144.026296618737, -5404.696512782159, -9148.725467768369, -6234.862653596718, -9617.910935629718, -12139.321820655086, -8129.620031073097, -5782.977435943775, -7588.193725132195, -8675.203761482688, -11164.40578274796, -15303.926504126372, -0.002, 0.244, 0.9440000000000001, 192.0, 0.0, 0.0, 0.0, 0.0, 0.0, 0.0, 0.0, 0.0, 0.0, 1.644587690215136E9, 0.0, 2022-02-12 00:54:50.215
132.0, -10289.804373956249, -9274.722251262934, -6360.21123650208, -11678.473553475565, -10162.019450905258, -5408.496309339561, -9152.726430025868, -6240.316479243813, -9632.976011392595, -12153.02344000619, -8113.280905876269, -5760.893912421931, -7583.49985879658, -8672.253331214588, -11165.746887415276, -15362.711592043828, -0.002, 0.244, 0.9440000000000001, 192.0, 0.0, 0.0, 0.0, 0.0, 0.0, 0.0, 0.0, 0.0, 0.0, 1.644587690229873E9, 0.0, 2022-02-12 00:54:50.229
134.0, -10304.690635763483, -9265.133352891608, -6366.380317971745, -11671.522160949966, -10146.44028501991, -5402.953076714644, -9148.390191601538, -6242.395191478156, -9636.19466259416, -12163.528759900184, -8122.936859480961, -5774.349662584026, -7584.572742530435, -8676.880142316835, -11164.942224614886, -15337.99056267626, -0.002, 0.244, 0.9440000000000001, 192.0, 0.0, 0.0, 0.0, 0.0, 0.0, 0.0, 0.0, 0.0, 0.0, 1.644587690236864E9, 0.0, 2022-02-12 00:54:50.236
136.0, -10268.45845800143, -9240.188806079484, -6347.515445651466, -11670.650442916209, -10138.795988416194, -5389.094995152354, -9135.76145598429, -6233.409790207123, -9621.129586831283, -12133.488015352252, -8124.2109089149135, -5764.313729323594, -7579.9012279392755, -8670.420488169251, -11162.528236213713, -15322.970190402293, 0.004, 0.23800000000000002, 0.9460000000000001, 192.0, 0.0, 16.0, 3.5, 56.0, 14.5, 72.0, 0.0, 0.0, 0.0, 1.644587690244475E9, 0.0, 2022-02-12 00:54:50.244
138.0, -10276.236865071878, -9275.526914063325, -6357.9090068231835, -11673.220893528569, -10136.650220948484, -5393.498288810049, -9139.002458930308, -6239.735333887975, -9626.695171200654, -12151.280003938677, -8093.097280633126, -5753.227264073761, -7587.098489653885, -8664.318461932953, -11161.20948329085, -15372.14402820397, 0.004, 0.23800000000000002, 0.9460000000000001, 192.0, 0.0, 0.0, 0.0, 0.0, 0.0, 0.0, 0.0, 0.0, 0.0, 1.644587690252268E9, 0.0, 2022-02-12 00:54:50.252
140.0, -10276.482734260886, -9261.914701690042, -6350.823503830851, -11668.437620215132, -10126.279011521223, -5385.205791617131, -9139.38243858605, -6233.119217529204, -9616.770996662497, -12135.54437584214, -8107.000065684327, -5761.609168244501, -7574.045070891985, -8672.163924236766, -11165.769239159732, -15308.642722206441, 0.004, 0.23800000000000002, 0.9460000000000001, 192.0, 0.0, 0.0, 0.0, 0.0, 0.0, 0.0, 0.0, 0.0, 0.0, 1.644587690259443E9, 0.0, 2022-02-12 00:54:50.259
142.0, -10278.60614998414, -9255.54445452028, -6344.341497938812, -11689.202390814113, -10135.733799425818, -5387.999759674044, -9136.364953084583, -6227.5983366487435, -9629.824415424397, -12150.587099860562, -8095.667731245486, -5757.384688542448, -7576.324948826426, -8660.563368864461, -11166.037460093195, -15368.634804324485, 0.004, 0.23800000000000002, 0.9460000000000001, 192.0, 0.0, 0.0, 0.0, 0.0, 0.0, 0.0, 0.0, 0.0, 0.0, 1.644587690267332E9, 0.0, 2022-02-12 00:54:50.267
144.0, -10291.413699557032, -9250.984698651399, -6351.248186975502, -11678.540608708932, -10120.95929634086, -5385.429309061684, -9140.388267086539, -6231.956926817528, -9631.47844451409, -12171.776553604193, -8105.971885439383, -5769.231113103761, -7574.134477869807, -8670.308729446975, -11166.082163582107, -15348.361772103523, 0.004, 0.23800000000000002, 0.9460000000000001, 192.0, 0.0, 0.0, 0.0, 0.0, 0.0, 0.0, 0.0, 0.0, 0.0, 1.644587690275069E9, 0.0, 2022-02-12 00:54:50.275
146.0, -10279.120240106611, -9255.432695798005, -6334.886710034217, -11687.146030324226, -10118.634714917507, -5378.388509558262, -9126.910165179988, -6223.262098224413, -9626.784578178474, -12154.74452432925, -8106.173051139481, -5755.976528641764, -7564.478524265114, -8663.558502621472, -11167.825599649621, -15334.74955973024, 0.004, 0.234, 0.9480000000000001, 192.0, 0.0, 16.0, 3.5, 40.0, 14.5, 80.0, 0.0, 0.0, 0.0, 1.644587690282291E9, 0.0, 2022-02-12 00:54:50.282
148.0, -10278.673205217507, -9262.026460412319, -6338.7759135694405, -11695.416175772689, -10119.126453295525, -5386.993931173555, -9135.225014117363, -6230.168787261104, -9635.010020138028, -12157.0691057526, -8094.036053900249, -5757.0717641200745, -7579.163620372251, -8659.736354319615, -11169.479628739313, -15390.919493546427, 0.004, 0.234, 0.9480000000000001, 192.0, 0.0, 0.0, 0.0, 0.0, 0.0, 0.0, 0.0, 0.0, 0.0, 1.644587690289091E9, 0.0, 2022-02-12 00:54:50.289
150.0, -10303.394234585076, -9264.731021491412, -6336.96542226856, -11680.753431410007, -10105.469537433331, -5381.428346804184, -9129.122987881063, -6231.465188439512, -9619.989647864062, -12155.705649340827, -8110.956324452916, -5758.23405483175, -7567.227788833116, -8670.353432935886, -11167.982061860808, -15326.032379392671, 0.004, 0.234, 0.9480000000000001, 192.0, 0.0, 0.0, 0.0, 0.0, 0.0, 0.0, 0.0, 0.0, 0.0, 1.644587690296667E9, 0.0, 2022-02-12 00:54:50.296
152.0, -10298.141574638079, -9257.198483609973, -6337.390105413211, -11699.12656535227, -10118.053569561669, -5380.266056092508, -9130.285278592739, -6241.367011233212, -9641.201453352149, -12158.276099953187, -8085.74355670733, -5761.1844850998505, -7567.317195810938, -8671.515723647562, -11171.334823529103, -15385.644481854973, 0.004, 0.234, 0.9480000000000001, 192.0, 0.0, 0.0, 0.0, 0.0, 0.0, 0.0, 0.0, 0.0, 0.0, 1.644587690304626E9, 0.0, 2022-02-12 00:54:50.304
154.0, -10278.449687772953, -9251.275271329318, -6338.194768213602, -11683.815620400384, -10112.2868194922, -5377.382681057773, -9136.18613912894, -6230.392304705657, -9627.835110167875, -12169.384916947474, -8104.943705194439, -5749.606281472002, -7577.6660534937455, -8670.465191658162, -11172.385355518503, -15362.510426343732, 0.004, 0.234, 0.9480000000000001, 192.0, 0.0, 0.0, 0.0, 0.0, 0.0, 0.0, 0.0, 0.0, 0.0, 1.644587690312674E9, 0.0, 2022-02-12 00:54:50.312
156.0, -10288.664434989028, -9258.427829555016, -6324.269631417947, -11695.483231006054, -10108.352912468066, -5369.716032709603, -9127.37955181355, -6224.111464513715, -9629.846767168852, -12154.83393130707, -8093.678425988964, -5745.694726192323, -7574.7379749700995, -8670.420488169251, -11171.468933995835, -15344.450216823843, 0.008, 0.23600000000000002, 0.9520000000000001, 192.0, 0.0, 32.0, 3.5, 48.0, 14.5, 96.0, 0.0, 0.0, 0.0, 1.6445876903192E9, 0.0, 2022-02-12 00:54:50.319
158.0, -10292.08425189069, -9259.187788866495, -6329.455236131577, -11714.03517890396, -10111.884488092004, -5379.394338058751, -9139.270679863774, -6235.063819296815, -9640.463845785123, -12175.732812372782, -8085.318873562679, -5756.468267019781, -7571.765192957544, -8670.062860257967, -11170.217236306338, -15404.442298941887, 0.008, 0.23600000000000002, 0.9520000000000001, 192.0, 0.0, 0.0, 0.0, 0.0, 0.0, 0.0, 0.0, 0.0, 0.0, 1.644587690327477E9, 0.0, 2022-02-12 00:54:50.327
160.0, -10308.065749176234, -9284.802888012277, -6324.649611073686, -11706.793213700439, -10103.591990899085, -5376.957997913122, -9135.627345517558, -6232.359258217723, -9641.983764408084, -12172.245940237754, -8101.74740573733, -5768.784078214655, -7568.0995068668735, -8678.601226639894, -11170.172532817429, -15342.192690633858, 0.008, 0.23600000000000002, 0.9520000000000001, 192.0, 0.0, 0.0, 0.0, 0.0, 0.0, 0.0, 0.0, 0.0, 0.0, 1.64458769033517E9, 0.0, 2022-02-12 00:54:50.335
162.0, -10311.910249222547, -9282.165382166551, -6319.7545790379745, -11725.523975553988, -10109.917534579938, -5377.516791524505, -9134.152130383507, -6236.270813497403, -9646.923499932707, -12191.177867791399, -8098.640513258042, -5744.018345358175, -7567.1607335997505, -8669.57112187995, -11171.893617140488, -15400.933075062405, 0.008, 0.23600000000000002, 0.9520000000000001, 192.0, 0.0, 0.0, 0.0, 0.0, 0.0, 0.0, 0.0, 0.0, 0.0, 1.644587690342412E9, 0.0, 2022-02-12 00:54:50.342
164.0, -10313.13959516759, -9259.791285966789, -6326.527157607932, -11714.057530648415, -10093.220781471824, -5366.363271041307, -9137.214319373885, -6231.755761117431, -9637.893395172763, -12181.901893842447, -8082.256684572302, -5761.4750577777695, -7573.240408091594, -8677.662453372772, -11170.865436895543, -15380.2800631857, 0.007, 0.233, 0.9510000000000001, 192.0, 0.0, 24.0, 3.5, 24.0, 14.5, 88.0, 0.0, 0.0, 0.0, 1.644587690356953E9, 0.0, 2022-02-12 00:54:50.356
166.0, -10282.182429096989, -9266.206236625461, -6313.205517912569, -11714.12458588178, -10086.247037201767, -5362.317605294897, -9128.161862869485, -6223.440912180056, -9629.913822402219, -12162.567634888606, -8088.98455965335, -5757.496447264725, -7557.504779995058, -8676.187238238721, -11166.551550215669, -15359.157664675435, 0.007, 0.233, 0.9510000000000001, 192.0, 0.0, 0.0, 0.0, 0.0, 0.0, 0.0, 0.0, 0.0, 0.0, 1.644587690365022E9, 0.0, 2022-02-12 00:54:50.365
168.0, -10312.714912022939, -9265.111001147152, -6307.706988776564, -11726.418045332199, -10089.845668059072, -5367.413803030706, -9127.737179724834, -6224.022057535894, -9634.652392226744, -12185.724042144304, -8082.211981083391, -5752.780229184656, -7557.661242206245, -8672.409793425775, -11165.568073459635, -15416.556944436663, 0.007, 0.233, 0.9510000000000001, 192.0, 0.0, 0.0, 0.0, 0.0, 0.0, 0.0, 0.0, 0.0, 0.0, 1.64458769037295E9, 0.0, 2022-02-12 00:54:50.372
170.0, -10302.723682251417, -9248.034268383297, -6318.636991815209, -11718.818452217396, -10075.160571951936, -5357.914311637201, -9125.27848783475, -6216.981258032472, -9629.466787513113, -12174.011728049723, -8087.576399752665, -5770.795735215633, -7559.337623040394, -8685.083232531933, -11167.535026971702, -15350.574594804597, 0.007, 0.233, 0.9510000000000001, 192.0, 0.0, 0.0, 0.0, 0.0, 0.0, 0.0, 0.0, 0.0, 0.0, 1.644587690380794E9, 0.0, 2022-02-12 00:54:50.380
172.0, -10305.56235379724, -9273.40349834007, -6301.0908724177925, -11732.698885524142, -10082.022557499715, -5358.62956745977, -9125.23378434584, -6221.18338599007, -9637.021677139006, -12163.439352922363, -8073.338338534634, -5744.3312697805495, -7559.270567807027, -8669.749935835593, -11165.21044554835, -15406.543362920685, 0.007, 0.233, 0.9510000000000001, 192.0, 0.0, 0.0, 0.0, 0.0, 0.0, 0.0, 0.0, 0.0, 0.0, 1.644587690388931E9, 0.0, 2022-02-12 00:54:50.388
174.0, -10312.580801556207, -9280.153725165574, -6312.8925934901945, -11720.539536540455, -10074.80294404065, -5353.309852279407, -9139.38243858605, -6226.8383773372625, -9633.423046281701, -12182.17011477591, -8091.420899798978, -5750.6121099724905, -7544.429009488704, -8671.448668414196, -11165.322204270626, -15391.746508091273, 0.0085, 0.2295, 0.9535, 192.0, 0.0, 40.0, 3.5, 8.0, 14.5, 112.0, 0.0, 0.0, 0.0, 1.644587690395965E9, 0.0, 2022-02-12 00:54:50.395
176.0, -10310.546792810774, -9275.482210574415, -6297.089910160293, -11726.485100565566, -10073.193618439867, -5346.291404520441, -9125.99374365732, -6220.065798767305, -9635.85938642733, -12169.250806480743, -8067.281015787246, -5751.4391245173365, -7551.894492136776, -8666.508932889574, -11169.501980483768, -15372.054621226147, 0.0085, 0.2295, 0.9535, 192.0, 0.0, 0.0, 0.0, 0.0, 0.0, 0.0, 0.0, 0.0, 0.0, 1.644587690402196E9, 0.0, 2022-02-12 00:54:50.402
178.0, -10320.47096734893, -9278.946730964986, -6306.567049809343, -11741.728990284086, -10076.389917896977, -5354.874474391279, -9119.37762729855, -6222.032752279371, -9645.381229565292, -12185.0758415551, -8057.6474139270085, -5742.118447079474, -7551.44745724767, -8662.306804931975, -11167.02093684923, -15432.449034744388, 0.0085, 0.2295, 0.9535, 192.0, 0.0, 0.0, 0.0, 0.0, 0.0, 0.0, 0.0, 0.0, 0.0, 1.64458769041094E9, 0.0, 2022-02-12 00:54:50.410
180.0, -10313.743092267883, -9257.712573732446, -6313.6525528016755, -11721.634772018764, -10061.056621200636, -5347.230177787564, -9121.679856977446, -6221.116330756704, -9636.015848638517, -12184.561751432628, -8081.6531874720085, -5749.740391938733, -7543.378477499304, -8674.108526004378, -11165.836294393099, -15364.56678683362, 0.0085, 0.2295, 0.9535, 192.0, 0.0, 0.0, 0.0, 0.0, 0.0, 0.0, 0.0, 0.0, 0.0, 1.644587690417164E9, 0.0, 2022-02-12 00:54:50.417
182.0, -10312.781967256304, -9258.718402232935, -6292.217229869036, -11744.522958340998, -10075.786420796683, -5352.438134245651, -9123.244479089319, -6229.699400627542, -9649.449247056156, -12179.331443230087, -8072.958358878895, -5736.3516970100045, -7552.2521200480605, -8668.05120325699, -11173.614701463546, -15423.374226495533, 0.0085, 0.2295, 0.9535, 192.0, 0.0, 0.0, 0.0, 0.0, 0.0, 0.0, 0.0, 0.0, 0.0, 1.644587690424182E9, 0.0, 2022-02-12 00:54:50.424
184.0, -10310.546792810774, -9273.023518684331, -6307.796395754385, -11740.03025770548, -10068.209179426334, -5352.616948201293, -9134.24153736133, -6233.253327995936, -9649.516302289523, -12189.210914279332, -8073.852428657106, -5754.523665252169, -7550.463980491636, -8679.897627818302, -11177.727422443322, -15413.226534512823, 0.00725, 0.23175, 0.9537500000000001, 192.0, 0.0, 24.0, 3.5, 40.0, 14.5, 104.0, 0.0, 0.0, 0.0, 1.644587690431775E9, 0.0, 2022-02-12 00:54:50.431
186.0, -10289.84907744516, -9251.811713196244, -6295.212363626047, -11744.858234507828, -10063.60472006854, -5340.39054398424, -9126.66429599098, -6220.401074934134, -9639.815645195918, -12177.476248440296, -8076.087603102637, -5759.373993798971, -7539.735143153089, -8676.120183005356, -11180.007300377763, -15391.768859835729, 0.00725, 0.23175, 0.9537500000000001, 192.0, 0.0, 0.0, 0.0, 0.0, 0.0, 0.0, 0.0, 0.0, 0.0, 1.644587690439806E9, 0.0, 2022-02-12 00:54:50.439
188.0, -10331.780950043316, -9287.038062457808, -6297.29107586039, -11750.647336321752, -10068.432696870888, -5346.023183586977, -9128.363028569584, -6224.446740680545, -9650.812703467931, -12188.518010201218, -8064.3976407525115, -5740.732638923245, -7540.58450944239, -8669.079383501934, -11178.59914047708, -15448.743456452306, 0.00725, 0.23175, 0.9537500000000001, 192.0, 0.0, 0.0, 0.0, 0.0, 0.0, 0.0, 0.0, 0.0, 0.0, 1.644587690447785E9, 0.0, 2022-02-12 00:54:50.447
190.0, -10344.990831016401, -9266.541512792292, -6292.977189180517, -11738.555042571432, -10048.047905927648, -5334.892014848235, -9116.315438308173, -6218.322362699791, -9635.725275960598, -12173.944672816358, -8074.880608902051, -5738.273947033161, -7532.224957016106, -8670.95693003618, -11170.999547362275, -15383.677528342907, 0.00725, 0.23175, 0.9537500000000001, 192.0, 0.0, 0.0, 0.0, 0.0, 0.0, 0.0, 0.0, 0.0, 0.0, 1.644587690454887E9, 0.0, 2022-02-12 00:54:50.454
192.0, -10332.205633187967, -9267.815562226244, -6284.438822798589, -11763.030202749993, -10060.296661889155, -5342.648070174226, -9119.13175810954, -6222.099807512737, -9661.094505917372, -12178.906760085436, -8053.668803413964, -5732.887176619432, -7526.905241835742, -8663.2455781991, -11170.641919450989, -15438.662819702962, 0.00725, 0.23175, 0.9537500000000001, 192.0, 0.0, 0.0, 0.0, 0.0, 0.0, 0.0, 0.0, 0.0, 0.0, 1.644587690462575E9, 0.0, 2022-02-12 00:54:50.462
194.0, -10332.496205865886, -9279.796097254288, -6297.402834582667, -11757.442266636166, -10060.14019967797, -5350.24766328903, -9132.073418149164, -6230.101732027738, -9653.4278575692, -12203.94071387538, -8062.9894808518275, -5757.921130409376, -7528.469863947615, -8682.803354597492, -11176.855704409565, -15431.174985310434, 0.006625000000000001, 0.232875, 0.9548750000000001, 192.0, 0.0, 24.0, 3.5, 40.0, 14.5, 112.0, 0.0, 0.0, 0.0, 1.644587690477603E9, 0.0, 2022-02-12 00:54:50.477
196.0, -10306.210554386444, -9270.430716327515, -6281.220171597025, -11757.777542802995, -10054.507560075232, -5335.495511948528, -9119.914069165477, -6217.450644666033, -9645.492988287568, -12195.000016093258, -8066.543408220221, -5748.2651768046835, -7533.454302961148, -8682.132802263834, -11181.147239344984, -15409.203220510868, 0.006625000000000001, 0.232875, 0.9548750000000001, 192.0, 0.0, 0.0, 0.0, 0.0, 0.0, 0.0, 0.0, 0.0, 0.0, 1.644587690484518E9, 0.0, 2022-02-12 00:54:50.484
198.0, -10328.182319186011, -9265.401573825071, -6289.289151345391, -11768.573435374909, -10054.596967053052, -5342.402200985218, -9118.036522631231, -6228.112426771215, -9655.81949422592, -12196.475231227307, -8064.531751219243, -5739.883272633943, -7536.605898929346, -8675.516685905062, -11178.845009666087, -15466.736610738828, 0.006625000000000001, 0.232875, 0.9548750000000001, 192.0, 0.0, 0.0, 0.0, 0.0, 0.0, 0.0, 0.0, 0.0, 0.0, 1.644587690492379E9, 0.0, 2022-02-12 00:54:50.492
200.0, -10336.273650678831, -9266.854437214666, -6286.67399724412, -11761.264414938023, -10039.062504656615, -5332.410971213695, -9116.673066219457, -6218.411769677612, -9656.490046559578, -12199.55977196214, -8072.533675734244, -5758.994014143231, -7524.759474368033, -8676.81308708347, -11178.845009666087, -15402.028310540714, 0.006625000000000001, 0.232875, 0.9548750000000001, 192.0, 0.0, 0.0, 0.0, 0.0, 0.0, 0.0, 0.0, 0.0, 0.0, 1.644587690500153E9, 0.0, 2022-02-12 00:54:50.500
202.0, -10331.177452943022, -9276.488039074902, -6280.86254368574, -11779.302272713456, -10050.081914673081, -5337.529520693961, -9113.677932462446, -6222.502138912933, -9656.378287837302, -12205.930019131902, -8067.571588465165, -5750.455647761303, -7518.6797998761895, -8666.687746845217, -11180.49903875578, -15454.376096055043, 0.006625000000000001, 0.232875, 0.9548750000000001, 192.0, 0.0, 0.0, 0.0, 0.0, 0.0, 0.0, 0.0, 0.0, 0.0, 1.644587690507852E9, 0.0, 2022-02-12 00:54:50.507
204.0, -10367.029651049335, -9290.167306681551, -6294.318293847835, -11772.395583676765, -10044.024591925692, -5344.0115265859995, -9134.867386206077, -6231.7110576285195, -9673.544427578978, -12221.308019317154, -8058.07209707166, -5754.523665252169, -7526.0111720575305, -8678.265950473065, -11190.780841205222, -15447.402351784987, 0.0073125, 0.23243750000000002, 0.9524375, 192.0, 0.0, 32.0, 3.5, 32.0, 14.5, 88.0, 0.0, 0.0, 0.0, 1.644587690514562E9, 0.0, 2022-02-12 00:54:50.514
206.0, -10334.932546011514, -9271.749469250379, -6281.421337297123, -11771.255644709545, -10038.481359300777, -5325.996020555022, -9111.778034183746, -6216.176595232081, -9663.329680362902, -12204.298341786665, -8062.0507075847045, -5750.7909239281325, -7515.662314374723, -8676.455459172184, -11188.50096327078, -15420.24498227179, 0.0073125, 0.23243750000000002, 0.9524375, 192.0, 0.0, 0.0, 0.0, 0.0, 0.0, 0.0, 0.0, 0.0, 0.0, 1.64458769052264E9, 0.0, 2022-02-12 00:54:50.522
208.0, -10319.80041501527, -9268.128486648618, -6281.555447763854, -11786.208961750146, -10048.763161750217, -5341.664593418192, -9120.80813894369, -6226.99483954845, -9673.209151412148, -12214.535440747195, -8059.748477905808, -5750.276833805661, -7517.361046953327, -8667.984148023623, -11186.444602780892, -15478.784201000239, 0.0073125, 0.23243750000000002, 0.9524375, 192.0, 0.0, 0.0, 0.0, 0.0, 0.0, 0.0, 0.0, 0.0, 0.0, 1.644587690529727E9, 0.0, 2022-02-12 00:54:50.529
210.0, -10355.496150910396, -9288.580332825224, -6272.592398237276, -11777.692947112673, -10034.346286576545, -5336.814264871391, -9119.288220320728, -6225.117293014204, -9661.698003017666, -12205.013597609235, -8066.856332642596, -5748.242825060228, -7511.8625178173215, -8688.659511644782, -11189.350329560082, -15423.240116028801, 0.0073125, 0.23243750000000002, 0.9524375, 192.0, 0.0, 0.0, 0.0, 0.0, 0.0, 0.0, 0.0, 0.0, 0.0, 1.644587690536163E9, 0.0, 2022-02-12 00:54:50.536
212.0, -10353.14921774259, -9294.257675916871, -6263.472886499511, -11791.483973441598, -10041.94587969135, -5331.7404188800365, -9115.197851085408, -6224.7820168473745, -9670.124610677316, -12220.101025116566, -8048.930233589439, -5745.180636069851, -7508.7556253380335, -8670.554598635985, -11183.672986468433, -15471.363421841077, 0.0073125, 0.23243750000000002, 0.9524375, 192.0, 0.0, 0.0, 0.0, 0.0, 0.0, 0.0, 0.0, 0.0, 0.0, 1.644587690544436E9, 0.0, 2022-02-12 00:54:50.544
214.0, -10364.056869036778, -9295.88935326211, -6277.420375039623, -11787.885342584294, -10029.339495818556, -5332.343915980329, -9108.268810304262, -6228.000668048939, -9674.594959568378, -12229.555813021161, -8059.793181394718, -5761.698575222323, -7518.769206854011, -8677.595398139405, -11186.489306269803, -15467.116590394568, 0.00965625, 0.23321875000000003, 0.95121875, 192.0, 0.0, 48.0, 3.5, 40.0, 14.5, 88.0, 0.0, 0.0, 0.0, 1.644587690552324E9, 0.0, 2022-02-12 00:54:50.552
216.0, -10344.789665316304, -9289.295588647794, -6265.708060945041, -11787.61712165083, -10028.89246092945, -5326.823035099868, -9102.055025345686, -6219.954040045028, -9664.87195073032, -12211.1826790789, -8072.64543445652, -5753.383726284948, -7507.548631137447, -8668.833514312926, -11186.355195803071, -15433.186642311412, 0.00965625, 0.23321875000000003, 0.95121875, 192.0, 0.0, 0.0, 0.0, 0.0, 0.0, 0.0, 0.0, 0.0, 0.0, 1.644587690559577E9, 0.0, 2022-02-12 00:54:50.559
218.0, -10345.773142072338, -9288.781498525323, -6267.719717946019, -11804.403281736766, -10036.89438544445, -5334.892014848235, -9116.56130749718, -6231.621650650698, -9677.634796814298, -12236.596612524583, -8037.195567750403, -5745.426505258859, -7509.672046860701, -8678.62357838435, -11189.68560572691, -15502.342939656131, 0.00965625, 0.23321875000000003, 0.95121875, 192.0, 0.0, 0.0, 0.0, 0.0, 0.0, 0.0, 0.0, 0.0, 0.0, 1.644587690566849E9, 0.0, 2022-02-12 00:54:50.566
220.0, -10358.0442497783, -9274.565789051747, -6272.994729637472, -11797.742461889084, -10019.772949191683, -5325.236061243541, -9112.381531284038, -6226.99483954845, -9658.859331471842, -12207.807565666148, -8057.446248226911, -5764.2913775791385, -7501.401901412238, -8677.684805117227, -11197.754585475277, -15441.032104615226, 0.00965625, 0.23321875000000003, 0.95121875, 192.0, 0.0, 0.0, 0.0, 0.0, 0.0, 0.0, 0.0, 0.0, 0.0, 1.644587690574938E9, 0.0, 2022-02-12 00:54:50.574
222.0, -10367.074354538245, -9300.449109130992, -6264.210494066536, -11805.990255593093, -10030.457083041321, -5326.554814166405, -9109.22993531584, -6228.201833749036, -9676.427802613713, -12210.713292445338, -8048.147922533503, -5742.744295924223, -7502.854764801832, -8677.215418483665, -11197.084033141618, -15489.669500549973, 0.00965625, 0.23321875000000003, 0.95121875, 192.0, 0.0, 0.0, 0.0, 0.0, 0.0, 0.0, 0.0, 0.0, 0.0, 1.644587690582899E9, 0.0, 2022-02-12 00:54:50.582
224.0, -10384.128735557644, -9318.151690739596, -6273.888799415684, -11797.72011014463, -10019.325914302579, -5329.929927579156, -9120.517566265771, -6233.298031484846, -9678.953549737162, -12249.247699886288, -8044.884567843029, -5742.252557546206, -7500.574886867391, -8677.058956272478, -11199.02863490923, -15483.992157458326, 0.008828125, 0.235609375, 0.952609375, 192.0, 0.0, 32.0, 3.5, 56.0, 14.5, 104.0, 0.0, 0.0, 0.0, 1.644587690589296E9, 0.0, 2022-02-12 00:54:50.589
226.0, -10358.37952594513, -9295.867001517654, -6254.576892206299, -11804.850316625872, -10019.281210813668, -5327.761808366991, -9109.162880082475, -6230.8840430836735, -9677.567741580933, -12232.975629922823, -8045.197492265403, -5744.912415136388, -7495.277523431483, -8679.875276073846, -11199.83329770962, -15454.554910010685, 0.008828125, 0.235609375, 0.952609375, 192.0, 0.0, 0.0, 0.0, 0.0, 0.0, 0.0, 0.0, 0.0, 0.0, 1.644587690604583E9, 0.0, 2022-02-12 00:54:50.604
228.0, -10366.29204348231, -9302.483117876425, -6258.242578296969, -11821.077683100424, -10026.880803928472, -5337.685982905148, -9115.600182485603, -6242.842226367263, -9690.01766324254, -12255.99792671179, -8045.689230643419, -5750.925034394865, -7502.586543868369, -8675.024947527045, -11201.6437890105, -15523.264172466299, 0.008828125, 0.235609375, 0.952609375, 192.0, 0.0, 0.0, 0.0, 0.0, 0.0, 0.0, 0.0, 0.0, 0.0, 1.64458769061258E9, 0.0, 2022-02-12 00:54:50.612
230.0, -10369.331880728232, -9292.536591593813, -6260.455400998045, -11804.224467781123, -10010.049940353625, -5324.543157165427, -9110.928667894445, -6235.153226274637, -9674.036165956995, -12242.251603871777, -8063.078887829649, -5770.035775904153, -7498.920857777698, -8683.585665653429, -11202.627265766534, -15459.561700768674, 0.008828125, 0.235609375, 0.952609375, 192.0, 0.0, 0.0, 0.0, 0.0, 0.0, 0.0, 0.0, 0.0, 0.0, 1.64458769061918E9, 0.0, 2022-02-12 00:54:50.619
232.0, -10366.560264415773, -9297.901010263087, -6251.268834026913, -11824.676313957729, -10019.638838724952, -5327.493587433528, -9114.594353985114, -6238.885967598673, -9683.781526539507, -12238.27299335873, -8040.280108485235, -5750.6121099724905, -7494.852840286832, -8673.750898093092, -11202.895486699997, -15505.896867024527, 0.008828125, 0.235609375, 0.952609375, 192.0, 0.0, 0.0, 0.0, 0.0, 0.0, 0.0, 0.0, 0.0, 0.0, 1.644587690627069E9, 0.0, 2022-02-12 00:54:50.627
234.0, -10398.76912817587, -9316.162385483072, -6258.577854463799, -11816.38381676481, -10012.978018877271, -5329.661706645693, -9116.56130749718, -6239.131836787682, -9686.508439363055, -12252.511054576762, -8045.219844009858, -5759.172828098873, -7498.205601955128, -8675.181409738232, -11206.404710579482, -15505.628646091063, 0.0084140625, 0.2338046875, 0.9563046875, 192.0, 0.0, 32.0, 3.5, 32.0, 15.0, 0.0, 0.0, 0.0, 0.0, 1.644587690635434E9, 0.0, 2022-02-12 00:54:50.635
236.0, -10376.57384593175, -9305.478251633436, -6246.127932802193, -11812.785185907505, -10006.98775136325, -5320.721008863569, -9112.158013839486, -6239.355354232234, -9681.434593371701, -12237.490682302796, -8037.35202996159, -5739.860920889488, -7481.531200591469, -8678.824744084448, -11206.65057976849, -15472.033974174736, 0.0084140625, 0.2338046875, 0.9563046875, 192.0, 0.0, 0.0, 0.0, 0.0, 0.0, 0.0, 0.0, 0.0, 0.0, 1.644587690641674E9, 0.0, 2022-02-12 00:54:50.641
238.0, -10371.164723773567, -9307.93694352352, -6252.945214861062, -11837.14858736379, -10016.420187523388, -5326.890090333234, -9118.371798798062, -6239.087133298771, -9694.175087711226, -12258.993060468802, -8042.492931186311, -5738.653926688901, -7493.109404219318, -8673.549732392996, -11214.250172883294, -15537.368123217599, 0.0084140625, 0.2338046875, 0.9563046875, 192.0, 0.0, 0.0, 0.0, 0.0, 0.0, 0.0, 0.0, 0.0, 0.0, 1.644587690650082E9, 0.0, 2022-02-12 00:54:50.650
240.0, -10375.612720920173, -9294.995283483897, -6249.301880514847, -11821.189441822702, -9995.45425122431, -5327.560642666894, -9110.213412071875, -6244.384496734679, -9680.428764871212, -12236.261336357753, -8056.216902281869, -5781.166944642895, -7487.074433216386, -8682.66924413076, -11213.892544972008, -15478.091296922124, 0.0084140625, 0.2338046875, 0.9563046875, 192.0, 0.0, 0.0, 0.0, 0.0, 0.0, 0.0, 0.0, 0.0, 0.0, 1.644587690656946E9, 0.0, 2022-02-12 00:54:50.656
242.0, -10386.542723958817, -9316.095330249707, -6244.116275801215, -11836.232165841124, -10005.758405418206, -5325.459578688095, -9103.865516646567, -6223.485615668967, -9683.066270716938, -12237.669496258439, -8043.051724797693, -5745.806484914599, -7472.0093574535085, -8681.641063885816, -11212.372626349048, -15520.783128831761, 0.0084140625, 0.2338046875, 0.9563046875, 192.0, 0.0, 0.0, 0.0, 0.0, 0.0, 0.0, 0.0, 0.0, 0.0, 1.64458769066488E9, 0.0, 2022-02-12 00:54:50.664
244.0, -10399.81966016527, -9330.914536823575, -6249.883025870684, -11831.650058227786, -9997.488259969743, -5329.52759617896, -9113.387359784527, -6230.951098317039, -9698.645436602288, -12273.946377509401, -8035.608593894076, -5752.847284418021, -7487.365005894305, -8684.658549387283, -11217.602934551589, -15519.106747997612, 0.002, 0.24, 0.962, 192.0, 0.0, 8.0, 3.5, 64.0, 15.0, 8.0, 0.0, 0.0, 0.0, 1.64458769067212E9, 0.0, 2022-02-12 00:54:50.672
246.0, -10385.38043324714, -9299.286818419316, -6238.103656542738, -11834.19815709569, -9988.636969165442, -5319.1787384961535, -9103.172612568453, -6221.853938323729, -9688.229523686114, -12253.829807499626, -8036.793236350208, -5746.968775626276, -7477.038499955953, -8678.310653961975, -11217.357065362581, -15483.790991758227, 0.002, 0.24, 0.962, 192.0, 0.0, 0.0, 0.0, 0.0, 0.0, 0.0, 0.0, 0.0, 0.0, 1.644587690679448E9, 0.0, 2022-02-12 00:54:50.679
248.0, -10383.949921602001, -9307.17698421204, -6244.406848479134, -11851.699573004196, -10000.684559426853, -5331.718067135581, -9110.839260916622, -6234.192101263059, -9700.075948247428, -12271.554740852684, -8037.039105539216, -5752.601415229013, -7487.700282061134, -8674.644967871305, -11220.55336481969, -15552.142626302557, 0.002, 0.24, 0.962, 192.0, 0.0, 0.0, 0.0, 0.0, 0.0, 0.0, 0.0, 0.0, 0.0, 1.644587690687392E9, 0.0, 2022-02-12 00:54:50.687
250.0, -10392.778860661849, -9325.483062920935, -6241.299955999846, -11841.48482578812, -9987.407623220399, -5330.57812816836, -9113.633228973536, -6237.991897820461, -9693.281017933014, -12256.802589512181, -8052.1265330465485, -5764.336081068049, -7480.994758724542, -8695.253276259098, -11222.810891009676, -15494.408070374498, 0.002, 0.24, 0.962, 192.0, 0.0, 0.0, 0.0, 0.0, 0.0, 0.0, 0.0, 0.0, 0.0, 1.64458769069628E9, 0.0, 2022-02-12 00:54:50.696
252.0, -10391.638921694628, -9330.959240312486, -6226.927784315084, -11856.795770740006, -9996.728300658262, -5332.187453769142, -9110.951019638898, -6233.700362885042, -9703.004026771072, -12263.195188426398, -8030.06536126916, -5754.322499552071, -7474.646863299235, -8679.607055140383, -11223.637905554522, -15539.893870341048, 0.002, 0.24, 0.962, 192.0, 0.0, 0.0, 0.0, 0.0, 0.0, 0.0, 0.0, 0.0, 0.0, 1.644587690702299E9, 0.0, 2022-02-12 00:54:50.702
254.0, -10394.835221151736, -9323.717275108967, -6240.294127499357, -11849.531453792031, -9990.089832555037, -5329.304078734408, -9116.538955752725, -6235.443798952556, -9706.736768095108, -12286.038671259723, -8031.898204314495, -5759.642214732435, -7476.837334255855, -8679.919979562757, -11224.017885210264, -15540.899698841537, 0.008, 0.23600000000000002, 0.9560000000000001, 192.0, 0.0, 32.0, 3.5, 48.0, 14.5, 112.0, 0.0, 0.0, 0.0, 1.644587690709965E9, 0.0, 2022-02-12 00:54:50.709
0.0, -10382.519409956862, -9302.661931832068, -6229.721752371997, -11852.101904404391, -9979.651567894409, -5322.218575742076, -9105.676007947446, -6228.782979104874, -9689.682387075709, -12251.66168828746, -8052.350050491101, -5769.052299148118, -7470.757659764012, -8682.713947619672, -11229.18113817944, -15508.176744958968, 0.008, 0.23600000000000002, 0.9560000000000001, 192.0, 0.0, 0.0, 0.0, 0.0, 0.0, 0.0, 0.0, 0.0, 0.0, 1.644587690724128E9, 0.0, 2022-02-12 00:54:50.724
2.0, -10392.354177517198, -9318.777539584344, -6231.219319250503, -11859.992070197115, -9982.579646418053, -5329.259375245497, -9104.379606769038, -6231.196967506047, -9712.235297231115, -12276.181551954933, -8020.275297197735, -5740.129141822951, -7466.801400995422, -8674.019119026556, -11227.147129434006, -15574.829646924692, 0.008, 0.23600000000000002, 0.9560000000000001, 192.0, 0.0, 0.0, 0.0, 0.0, 0.0, 0.0, 0.0, 0.0, 0.0, 1.644587690731962E9, 0.0, 2022-02-12 00:54:50.731
4.0, -10402.546572988818, -9315.089501749218, -6227.553633159832, -11853.577119538442, -9967.291053210623, -5325.43722694364, -9106.637132959024, -6233.968583818506, -9693.079852232917, -12262.815208770659, -8023.762169332764, -5755.440086774836, -7456.966633435087, -8677.729508606137, -11225.113120688573, -15513.049425250225, 0.008, 0.23600000000000002, 0.9560000000000001, 192.0, 0.0, 0.0, 0.0, 0.0, 0.0, 0.0, 0.0, 0.0, 0.0, 1.644587690739629E9, 0.0, 2022-02-12 00:54:50.739
6.0, -10388.48732572643, -9322.711446608479, -6216.713037099009, -11868.664547045773, -9979.11512602748, -5330.891052590734, -9107.620609715059, -6236.986069319973, -9703.629875615821, -12264.491589604806, -8013.569773861143, -5742.096095335019, -7448.04828739742, -8675.695499860705, -11227.348295134103, -15559.049315339247, 0.008, 0.23600000000000002, 0.9560000000000001, 192.0, 0.0, 0.0, 0.0, 0.0, 0.0, 0.0, 0.0, 0.0, 0.0, 1.644587690746954E9, 0.0, 2022-02-12 00:54:50.746
8.0, -10397.428023508552, -9340.32462123926, -6224.826720336285, -11868.530436579042, -9977.528152171153, -5333.48385494755, -9112.985028384332, -6243.557482189833, -9707.273209962035, -12286.753927082293, -8025.885585056018, -5740.687935434335, -7464.610930038802, -8685.1502877653, -11233.942059748419, -15564.50314098634, 0.016, 0.234, 0.9540000000000001, 192.0, 0.0, 64.0, 3.5, 40.0, 14.5, 104.0, 0.0, 0.0, 0.0, 1.644587690754332E9, 0.0, 2022-02-12 00:54:50.754
10.0, -10373.95869183048, -9301.924324265043, -6210.186327718059, -11874.677166304251, -9967.693384610819, -5324.789026354436, -9101.697397434402, -6234.348563474246, -9694.935047022707, -12261.272938403243, -8028.545442646199, -5754.143685596429, -7450.8199037098775, -8675.114354504867, -11231.975106236352, -15524.560573644707, 0.016, 0.234, 0.9540000000000001, 192.0, 0.0, 0.0, 0.0, 0.0, 0.0, 0.0, 0.0, 0.0, 0.0, 1.644587690762471E9, 0.0, 2022-02-12 00:54:50.762
12.0, -10406.078148612756, -9321.660914619079, -6210.923935285085, -11887.551771110508, -9976.96935855977, -5333.081523547355, -9113.253249317795, -6243.646889167654, -9704.032207016016, -12279.37785141204, -8024.410369921968, -5760.268063577183, -7453.8597409558, -8672.678014359239, -11231.773940536254, -15593.426298311508, 0.016, 0.234, 0.9540000000000001, 192.0, 0.0, 0.0, 0.0, 0.0, 0.0, 0.0, 0.0, 0.0, 0.0, 1.644587690770638E9, 0.0, 2022-02-12 00:54:50.770
14.0, -10407.933343402547, -9329.193452500516, -6216.042484765349, -11871.726736036151, -9963.290090953124, -5327.962974067089, -9100.892734634012, -6234.728543129986, -9699.003064513572, -12249.694734775394, -8007.2218784358365, -5751.528531495158, -7452.04924965492, -8683.160982508776, -11237.093655716617, -15532.517794670797, 0.016, 0.234, 0.9540000000000001, 192.0, 0.0, 0.0, 0.0, 0.0, 0.0, 0.0, 0.0, 0.0, 0.0, 1.64458769077689E9, 0.0, 2022-02-12 00:54:50.776
16.0, -10384.732232657938, -9315.961219782976, -6209.716941084497, -11886.031852487547, -9977.394041704421, -5333.86383460329, -9107.71001669288, -6241.523473444399, -9696.030282501017, -12261.71997329235, -8010.77580580423, -5750.120371594474, -7448.674136242168, -8683.540962164518, -11236.445455127414, -15572.952100390447, 0.016, 0.234, 0.9540000000000001, 192.0, 0.0, 0.0, 0.0, 0.0, 0.0, 0.0, 0.0, 0.0, 0.0, 1.644587690784034E9, 0.0, 2022-02-12 00:54:50.784
18.0, -10406.68164571305, -9347.99126958743, -6223.195042991048, -11890.636311845341, -9978.31046322709, -5340.122323050777, -9128.988877414331, -6256.879121885196, -9711.654151875277, -12298.980331299344, -8016.229631451325, -5745.85118840351, -7456.184322379151, -8684.502087176095, -11248.627155855556, -15584.84322844067, 0.018000000000000002, 0.232, 0.9480000000000001, 192.0, 0.0, 72.0, 3.5, 32.0, 14.5, 80.0, 0.0, 0.0, 0.0, 1.644587690792137E9, 0.0, 2022-02-12 00:54:50.792
20.0, -10404.133546845145, -9343.878548607654, -6213.159109730615, -11889.049337989014, -9968.363936944477, -5332.299212491419, -9116.606010986092, -6249.100714814748, -9705.35095993888, -12289.950226539402, -8027.003172278783, -5765.297206079627, -7441.812150694389, -8688.1007180334, -11253.432780913447, -15548.834568123171, 0.018000000000000002, 0.232, 0.9480000000000001, 192.0, 0.0, 0.0, 0.0, 0.0, 0.0, 0.0, 0.0, 0.0, 0.0, 1.644587690800074E9, 0.0, 2022-02-12 00:54:50.800
22.0, -10431.760302991905, -9351.61225218919, -6224.84907208074, -11906.30488470851, -9980.567989417075, -5334.065000303388, -9111.554516739192, -6249.368935748213, -9721.310105479968, -12312.369026228074, -8011.602820349076, -5743.817179658077, -7439.241700082029, -8685.507915676584, -11257.165522237483, -15617.879106745615, 0.018000000000000002, 0.232, 0.9480000000000001, 192.0, 0.0, 0.0, 0.0, 0.0, 0.0, 0.0, 0.0, 0.0, 0.0, 1.644587690806972E9, 0.0, 2022-02-12 00:54:50.806
24.0, -10426.038256411346, -9337.821225860265, -6220.937516801062, -11891.373919412366, -9970.643814878918, -5329.706410134603, -9120.361104054584, -6259.986014364483, -9713.39758794279, -12291.71601435137, -8027.673724612442, -5765.028985146164, -7449.18822636464, -8700.885915861836, -11266.150923508516, -15561.060972340223, 0.018000000000000002, 0.232, 0.9480000000000001, 192.0, 0.0, 0.0, 0.0, 0.0, 0.0, 0.0, 0.0, 0.0, 0.0, 1.644587690814538E9, 0.0, 2022-02-12 00:54:50.814
26.0, -10411.06258762629, -9333.239118246927, -6215.103711498226, -11905.455518419209, -9976.857599837494, -5322.978535053556, -9097.338807265616, -6237.298993742346, -9729.826120117441, -12300.723767366859, -8007.53480285821, -5752.869636162476, -7460.207636381107, -8687.318406977463, -11264.6086531411, -15598.120164647124, 0.018000000000000002, 0.232, 0.9480000000000001, 192.0, 0.0, 0.0, 0.0, 0.0, 0.0, 0.0, 0.0, 0.0, 0.0, 1.644587690822831E9, 0.0, 2022-02-12 00:54:50.822
28.0, -10434.218994881987, -9364.531560484358, -6222.9044703131285, -11906.707216108707, -9973.907169569395, -5328.968802567578, -9111.196888827908, -6247.75961014743, -9729.870823606352, -12316.72761639686, -8023.337486188113, -5760.849208933021, -7458.531255546958, -8681.216380741165, -11264.854522330108, -15604.71392926144, 0.012, 0.23600000000000002, 0.9480000000000001, 192.0, 0.0, 48.0, 3.5, 48.0, 14.5, 80.0, 0.0, 0.0, 0.0, 1.644587690829997E9, 0.0, 2022-02-12 00:54:50.829
30.0, -10433.391980337141, -9368.063136108296, -6209.448720151034, -11908.517707409586, -9963.692422353319, -5322.755017609003, -9095.640074687013, -6233.5215489294, -9731.770721885052, -12304.344749968619, -8031.451169425389, -5778.060052163608, -7448.517674030981, -8690.738223879127, -11266.083868275151, -15564.637251453074, 0.012, 0.23600000000000002, 0.9480000000000001, 192.0, 0.0, 0.0, 0.0, 0.0, 0.0, 0.0, 0.0, 0.0, 0.0, 1.644587690836468E9, 0.0, 2022-02-12 00:54:50.836
32.0, -10444.746666520437, -9397.120403900195, -6213.606144619721, -11931.294135009544, -9976.87995158195, -5328.72293337857, -9105.810118414178, -6242.819874622807, -9751.373201772358, -12328.506985724805, -8023.4268931659335, -5763.754935712211, -7447.891825186232, -8685.172639509754, -11266.821475842176, -15635.201708698478, 0.012, 0.23600000000000002, 0.9480000000000001, 192.0, 0.0, 0.0, 0.0, 0.0, 0.0, 0.0, 0.0, 0.0, 0.0, 1.644587690852366E9, 0.0, 2022-02-12 00:54:50.852
34.0, -10500.804841614348, -9417.035808209874, -6223.597374391244, -11923.113396538902, -9959.713811840275, -5319.8269390853575, -9102.502060234792, -6240.875272855195, -9744.6006232024, -12325.690665923437, -8037.262622983769, -5796.120261683495, -7442.460351283593, -8693.800412869503, -11271.381231711059, -15580.708155716438, 0.012, 0.23600000000000002, 0.9480000000000001, 192.0, 0.0, 0.0, 0.0, 0.0, 0.0, 0.0, 0.0, 0.0, 0.0, 1.644587690859292E9, 0.0, 2022-02-12 00:54:50.859
36.0, -10542.446141534585, -9474.233922271005, -6212.779130074875, -11936.479739723176, -9969.369765444966, -5323.514976920483, -9101.85385964559, -6243.423371723101, -9774.41785030578, -12347.282451067264, -8048.63966091152, -5787.827764490577, -7441.56628150538, -8692.1016802909, -11274.778696868265, -15614.36988286613, 0.012, 0.23600000000000002, 0.9480000000000001, 192.0, 0.0, 0.0, 0.0, 0.0, 0.0, 0.0, 0.0, 0.0, 0.0, 1.644587690867445E9, 0.0, 2022-02-12 00:54:50.867
38.0, -10573.537418071917, -9488.807259655865, -6228.157130260126, -11941.061847336514, -9961.323137441057, -5320.698657119115, -9106.480670747838, -6244.7421246459635, -9791.002844691617, -12374.97626244739, -8063.637681441031, -5814.6722095814, -7432.513825000981, -8695.677959403749, -11274.197551512427, -15626.90921150556, 0.006, 0.234, 0.9460000000000001, 192.0, 0.0, 24.0, 3.5, 40.0, 14.5, 72.0, 0.0, 0.0, 0.0, 1.644587690874998E9, 0.0, 2022-02-12 00:54:50.874
40.0, -10623.29240122943, -9531.07440842085, -6227.531281415378, -11944.861643893915, -9957.16571297237, -5316.943564050623, -9090.700339162391, -6239.534168187877, -9795.473193582679, -12358.435971550462, -8082.100222361115, -5835.682849369389, -7446.61777575228, -8702.67405541826, -11272.789391611743, -15586.787830208283, 0.006, 0.234, 0.9460000000000001, 192.0, 0.0, 0.0, 0.0, 0.0, 0.0, 0.0, 0.0, 0.0, 0.0, 1.644587690882235E9, 0.0, 2022-02-12 00:54:50.882
42.0, -10647.365230007796, -9583.176324746171, -6224.402037191634, -11962.340708057965, -9961.747820585708, -5324.789026354436, -9092.823754885645, -6244.496255456956, -9820.75301656163, -12393.63996906757, -8087.732861963852, -5821.4671398958135, -7453.837389211344, -8696.884953604336, -11277.952644580919, -15658.425171187542, 0.006, 0.234, 0.9460000000000001, 192.0, 0.0, 0.0, 0.0, 0.0, 0.0, 0.0, 0.0, 0.0, 0.0, 1.644587690889772E9, 0.0, 2022-02-12 00:54:50.889
44.0, -10646.53821546295, -9563.998528003518, -6224.603202891732, -11949.846082907448, -9947.3980006454, -5323.067942031377, -9097.718786921358, -6245.926767102095, -9811.521746101589, -12404.949951761957, -8078.903922904006, -5834.118227257518, -7455.960804934598, -8709.714854921682, -11282.288883005249, -15604.46806007243, 0.006, 0.234, 0.9460000000000001, 192.0, 0.0, 0.0, 0.0, 0.0, 0.0, 0.0, 0.0, 0.0, 0.0, 1.644587690897733E9, 0.0, 2022-02-12 00:54:50.897
46.0, -10620.632543639249, -9544.306641138392, -6214.813138820307, -11975.774106475605, -9954.192930959813, -5320.229270485553, -9093.628417686035, -6248.988956092472, -9810.292400156546, -12401.150155204554, -8074.031242612749, -5829.513767899724, -7444.337897817839, -8699.410700727785, -11285.32872025117, -15640.38731341211, 0.006, 0.234, 0.9460000000000001, 192.0, 0.0, 0.0, 0.0, 0.0, 0.0, 0.0, 0.0, 0.0, 0.0, 1.644587690904791E9, 0.0, 2022-02-12 00:54:50.904
48.0, -10632.076636800366, -9552.867359264776, -6222.569194146299, -11965.626414492895, -9950.482541380232, -5326.398351955218, -9103.75375792429, -6249.883025870684, -9811.454690868222, -12396.679806313492, -8074.970015879872, -5830.005506277741, -7443.6002902508135, -8700.729453650649, -11287.474487718879, -15652.591365884706, 0.006, 0.23600000000000002, 0.9560000000000001, 192.0, 0.0, 24.0, 3.5, 48.0, 14.5, 112.0, 0.0, 0.0, 0.0, 1.644587690911801E9, 0.0, 2022-02-12 00:54:50.911
50.0, -10620.923116317168, -9546.74298128402, -6209.605182362221, -11960.284347568077, -9944.335811655023, -5320.922174563668, -9103.507888735281, -6247.71490665852, -9811.32058040149, -12379.290149127264, -8077.2498938143135, -5827.412703920925, -7433.966688390576, -8708.239639787631, -11290.290807520249, -15609.273685130322, 0.006, 0.23600000000000002, 0.9560000000000001, 192.0, 0.0, 0.0, 0.0, 0.0, 0.0, 0.0, 0.0, 0.0, 0.0, 1.644587690919479E9, 0.0, 2022-02-12 00:54:50.919
52.0, -10593.251656681497, -9525.17354788465, -6207.884098039162, -11974.723574486206, -9956.405753660889, -5324.789026354436, -9101.764452667769, -6254.375726506201, -9810.851193767929, -12403.11710871662, -8047.589128922121, -5803.786910031666, -7440.515749515981, -8694.29215124752, -11289.910827864507, -15675.345441740208, 0.006, 0.23600000000000002, 0.9560000000000001, 192.0, 0.0, 0.0, 0.0, 0.0, 0.0, 0.0, 0.0, 0.0, 0.0, 1.644587690927336E9, 0.0, 2022-02-12 00:54:50.927
54.0, -10576.197275662098, -9503.648817974188, -6211.505080640922, -11965.782876704083, -9941.027753475637, -5319.692828618626, -9099.685740433424, -6251.559406704832, -9792.4110045923, -12398.557352847738, -8060.821361639662, -5821.802416062644, -7424.109569085786, -8705.57978219745, -11288.815592386198, -15617.47677534542, 0.006, 0.23600000000000002, 0.9560000000000001, 192.0, 0.0, 0.0, 0.0, 0.0, 0.0, 0.0, 0.0, 0.0, 0.0, 1.644587690935224E9, 0.0, 2022-02-12 00:54:50.935
56.0, -10569.581159303327, -9496.272742303938, -6191.120289697682, -11985.519467058119, -9940.446608119799, -5313.590802382327, -9085.380623982028, -6247.826665380796, -9795.875524982874, -12385.615692808116, -8047.87970160004, -5809.307790912127, -7435.263089568984, -8704.015160085579, -11287.675653418977, -15649.350362938687, 0.004, 0.23700000000000002, 0.9530000000000001, 192.0, 0.0, 8.0, 3.5, 56.0, 14.5, 88.0, 0.0, 0.0, 0.0, 1.644587690941949E9, 0.0, 2022-02-12 00:54:50.941
58.0, -10552.772647472937, -9456.151361006661, -6195.70239731102, -11981.429097822798, -9926.588526557509, -5313.568450637871, -9086.855839116079, -6252.498179971955, -9789.885257468852, -12380.072460183199, -8031.272355469747, -5806.066787966107, -7418.879260883244, -8699.835383872436, -11284.032319072761, -15663.968403812458, 0.004, 0.23700000000000002, 0.9530000000000001, 192.0, 0.0, 0.0, 0.0, 0.0, 0.0, 0.0, 0.0, 0.0, 0.0, 1.644587690950028E9, 0.0, 2022-02-12 00:54:50.950
60.0, -10519.870879634724, -9455.436105184092, -6181.397280859624, -11972.644862251862, -9919.994761943193, -5303.510165632983, -9084.061871059164, -6254.420429995112, -9769.120486869871, -12353.183311603465, -8026.4443786674, -5789.884124980465, -7396.192240261107, -8694.426261714252, -11283.719394650388, -15615.822746255726, 0.004, 0.23700000000000002, 0.9530000000000001, 192.0, 0.0, 0.0, 0.0, 0.0, 0.0, 0.0, 0.0, 0.0, 0.0, 1.644587690957706E9, 0.0, 2022-02-12 00:54:50.957
62.0, -10521.167280813132, -9449.088209758784, -6185.800574517319, -11991.219161894222, -9939.507834852677, -5311.8473663148125, -9088.487516461315, -6246.932595602584, -9774.104925883405, -12372.83049497968, -8012.362779660557, -5770.818086960088, -7410.720874157057, -8687.519572677562, -11289.977883097874, -15686.834238390236, 0.004, 0.23700000000000002, 0.9530000000000001, 192.0, 0.0, 0.0, 0.0, 0.0, 0.0, 0.0, 0.0, 0.0, 0.0, 1.644587690971558E9, 0.0, 2022-02-12 00:54:50.971
64.0, -10521.927240124613, -9450.25050047046, -6187.119327440182, -11981.004414678147, -9920.48650032121, -5306.371188923263, -9083.03369081422, -6249.681860170586, -9761.252672821603, -12360.022945406788, -8015.670837839943, -5795.5167645832025, -7411.994923591009, -8690.358244223386, -11288.189743541448, -15628.920868506537, 0.004, 0.23700000000000002, 0.9530000000000001, 192.0, 0.0, 0.0, 0.0, 0.0, 0.0, 0.0, 0.0, 0.0, 0.0, 1.644587690979424E9, 0.0, 2022-02-12 00:54:50.979
66.0, -10495.105146778244, -9442.226224211005, -6180.369100614679, -11994.549571818063, -9924.420407345344, -5305.141842978221, -9077.088126789109, -6259.695441686564, -9773.836704949941, -12356.759590716314, -8022.3093059431685, -5781.85984872101, -7402.853060108789, -8689.441822700719, -11284.747574895331, -15661.040325288812, 0.001, 0.23650000000000002, 0.9525000000000001, 192.0, 127.5, 120.0, 3.5, 48.0, 14.5, 96.0, 0.0, 0.0, 0.0, 1.644587690987401E9, 0.0, 2022-02-12 00:54:50.987
68.0, -10499.396681713662, -9442.069761999817, -6177.396318602124, -11991.263865383133, -9928.577831814031, -5312.048532014911, -9094.835411886623, -6255.7168311735195, -9774.775478217063, -12369.164808889009, -8005.2325731793135, -5780.183467886862, -7409.357417745283, -8689.464174445173, -11290.335511009158, -15682.073316821256, 0.001, 0.23650000000000002, 0.9525000000000001, 192.0, 0.0, 0.0, 0.0, 0.0, 0.0, 0.0, 0.0, 0.0, 0.0, 1.644587690994032E9, 0.0, 2022-02-12 00:54:50.994
70.0, -10492.802917099347, -9424.85891876923, -6166.421612074568, -11987.106440914446, -9914.764453740652, -5297.005807996489, -9078.831562856623, -6249.972432848505, -9761.498542010611, -12340.375762030573, -8006.528974357721, -5779.937598697853, -7395.99107456101, -8699.589514683428, -11298.873877391086, -15640.364961667654, 0.001, 0.23650000000000002, 0.9525000000000001, 192.0, 0.0, 0.0, 0.0, 0.0, 0.0, 0.0, 0.0, 0.0, 0.0, 1.644587691002514E9, 0.0, 2022-02-12 00:54:51.002
72.0, -10500.98365556999, -9415.29237214236, -6165.6169492741765, -12002.61855156643, -9919.994761943193, -5298.212802197076, -9074.540027921204, -6248.988956092472, -9763.890178667329, -12361.29699484074, -7994.235514907303, -5775.981339929264, -7385.373995944738, -8670.420488169251, -11290.469621475891, -15702.659273464595, 0.001, 0.23650000000000002, 0.9525000000000001, 192.0, 0.0, 0.0, 0.0, 0.0, 0.0, 0.0, 0.0, 0.0, 0.0, 1.644587691009997E9, 0.0, 2022-02-12 00:54:51.009
74.0, -10488.89136181967, -9430.066875227318, -6170.623740032165, -11986.838219980982, -9914.786805485106, -5297.296380674408, -9082.430193713928, -6248.988956092472, -9763.577254244954, -12352.579814503171, -8012.720407571842, -5777.47890680777, -7398.717987384557, -8680.031738285033, -11294.694101177944, -15649.864453061158, 0.001, 0.23650000000000002, 0.9525000000000001, 192.0, 0.0, 0.0, 0.0, 0.0, 0.0, 0.0, 0.0, 0.0, 0.0, 1.644587691017028E9, 0.0, 2022-02-12 00:54:51.017
76.0, -10470.562931366318, -9418.041636710363, -6159.31375733778, -12002.864420755437, -9920.084168921014, -5297.743415563514, -9073.623606398536, -6248.877197370195, -9762.034983877538, -12352.401000547528, -7996.560096330655, -5769.6334445039565, -7397.5780484173365, -8678.109488261878, -11300.103223336127, -15679.34640399771, 0.0035, 0.23425, 0.9492500000000001, 192.0, 0.0, 24.0, 3.5, 32.0, 14.5, 72.0, 0.0, 0.0, 0.0, 1.644587691023627E9, 0.0, 2022-02-12 00:54:51.023
78.0, -10486.522076907406, -9413.012494207918, -6170.4896295654335, -12008.787633036094, -9920.53120381012, -5311.221517470064, -9085.000644326288, -6263.159962077137, -9760.336251298935, -12366.214378620909, -7996.314227141646, -5765.386613057449, -7387.251542478984, -8678.444764428707, -11298.918580879998, -15704.313302554287, 0.0035, 0.23425, 0.9492500000000001, 192.0, 0.0, 0.0, 0.0, 0.0, 0.0, 0.0, 0.0, 0.0, 0.0, 1.644587691031678E9, 0.0, 2022-02-12 00:54:51.031
80.0, -10482.096431505255, -9400.696683013044, -6155.089277635727, -12002.886772499893, -9915.882040963417, -5306.460595901084, -9086.855839116079, -6262.66822369912, -9751.060277349983, -12348.400038290029, -7998.214125420347, -5779.535267297658, -7385.932789556121, -8687.988959311124, -11306.272304805792, -15662.649650889594, 0.0035, 0.23425, 0.9492500000000001, 192.0, 0.0, 0.0, 0.0, 0.0, 0.0, 0.0, 0.0, 0.0, 0.0, 1.644587691039983E9, 0.0, 2022-02-12 00:54:51.039
82.0, -10484.532771650884, -9398.841488223254, -6159.000832915406, -12021.863403542447, -9925.783863757119, -5312.428511670651, -9090.186249039918, -6267.585607479287, -9764.35956530089, -12358.54773027274, -7981.405613589956, -5768.828781703566, -7388.302074468384, -8679.562351651473, -11309.62506647409, -15732.387093590152, 0.0035, 0.23425, 0.9492500000000001, 192.0, 0.0, 0.0, 0.0, 0.0, 0.0, 0.0, 0.0, 0.0, 0.0, 1.644587691046901E9, 0.0, 2022-02-12 00:54:51.046
84.0, -10480.375347182196, -9410.374988362193, -6167.338033597235, -12003.04323471108, -9911.366988583444, -5309.120453491265, -9092.332016507627, -6261.640043454176, -9757.184655330737, -12352.892738925546, -7994.8390120075965, -5778.216514374794, -7386.960969801065, -8691.38642446833, -11311.927296152986, -15679.39110748662, 0.0035, 0.23425, 0.9492500000000001, 192.0, 0.0, 0.0, 0.0, 0.0, 0.0, 0.0, 0.0, 0.0, 0.0, 1.644587691054609E9, 0.0, 2022-02-12 00:54:51.054
86.0, -10473.870989545703, -9410.732616273477, -6159.559626526789, -12022.846880298483, -9914.339770596001, -5305.320656933864, -9076.618740155547, -6253.034621838882, -9757.922262897762, -12353.473884281384, -7985.630093292009, -5762.145610111429, -7376.03096676242, -8682.557485408484, -11309.535659496267, -15702.614569975683, 0.00375, 0.23412500000000003, 0.948625, 192.0, 0.0, 16.0, 3.5, 40.0, 14.5, 80.0, 0.0, 0.0, 0.0, 1.644587691062469E9, 0.0, 2022-02-12 00:54:51.062
88.0, -10472.060498244822, -9429.128101960196, -6167.65095801961, -12022.109272731457, -9911.545802539087, -5314.283706460441, -9090.298007762196, -6263.361127777234, -9768.762858958586, -12367.06374491021, -7986.077128181116, -5774.729642239767, -7374.578103372825, -8683.853886586892, -11311.346150797148, -15725.569811531284, 0.00375, 0.23412500000000003, 0.948625, 192.0, 0.0, 0.0, 0.0, 0.0, 0.0, 0.0, 0.0, 0.0, 0.0, 1.644587691070773E9, 0.0, 2022-02-12 00:54:51.070
90.0, -10467.858370287226, -9397.969770189497, -6154.865760191174, -12016.946019762281, -9900.213468100246, -5305.454767400595, -9079.9938535683, -6255.180389306592, -9757.207007075192, -12349.830549935168, -7986.971197959328, -5775.467249806792, -7375.69569059559, -8691.699348890705, -11310.273267063292, -15676.887712107626, 0.00375, 0.23412500000000003, 0.948625, 192.0, 0.0, 0.0, 0.0, 0.0, 0.0, 0.0, 0.0, 0.0, 0.0, 1.644587691077289E9, 0.0, 2022-02-12 00:54:51.077
92.0, -10471.948739522546, -9398.886191712165, -6147.690850221021, -12030.580583880019, -9909.556497282565, -5308.651066857704, -9078.65274890098, -6258.354337019246, -9757.4528762642, -12356.49136978285, -7970.8332384625965, -5773.768517228189, -7370.55478937087, -8680.992863296613, -11312.24022057536, -15744.837015251758, 0.00375, 0.23412500000000003, 0.948625, 192.0, 0.0, 0.0, 0.0, 0.0, 0.0, 0.0, 0.0, 0.0, 0.0, 1.644587691084286E9, 0.0, 2022-02-12 00:54:51.084
94.0, -10467.254873186932, -9408.251572638937, -6157.011527658883, -12017.437758140297, -9895.251380831169, -5305.47711914505, -9089.426289728439, -6265.9315783895945, -9742.723076668153, -12354.345602315141, -7993.028520706716, -5771.198066615828, -7365.860923035255, -8687.877200588848, -11313.156642098027, -15696.110212339188, 0.00375, 0.23412500000000003, 0.948625, 192.0, 0.0, 0.0, 0.0, 0.0, 0.0, 0.0, 0.0, 0.0, 0.0, 1.644587691099185E9, 0.0, 2022-02-12 00:54:51.099
96.0, -10460.83992252826, -9415.560593075823, -6139.711277450476, -12031.631115869417, -9901.174593111826, -5301.43145339864, -9072.327205220128, -6257.214398052025, -9753.78719017353, -12352.848035436635, -7971.034404162694, -5757.988185642742, -7363.98337650101, -8680.232903985132, -11315.48122352138, -15717.880811438657, 0.002875, 0.2320625, 0.9503125000000001, 192.0, 0.0, 8.0, 3.5, 24.0, 14.5, 96.0, 0.0, 0.0, 0.0, 1.644587691106588E9, 0.0, 2022-02-12 00:54:51.106
98.0, -10472.731050578483, -9422.087302456774, -6154.306966579791, -12037.66608687235, -9898.782956455107, -5309.768654080469, -9079.546818679193, -6271.452459270055, -9765.052469379005, -12367.555483288228, -7970.699127995865, -5765.09604037953, -7364.229245690018, -8681.842229585915, -11314.162470598516, -15744.412332107107, 0.002875, 0.2320625, 0.9503125000000001, 192.0, 0.0, 0.0, 0.0, 0.0, 0.0, 0.0, 0.0, 0.0, 0.0, 1.64458769111461E9, 0.0, 2022-02-12 00:54:51.114
100.0, -10469.110067976722, -9409.86089823972, -6146.5956147427105, -12036.749665349684, -9892.300950563067, -5302.57139236586, -9075.568208166147, -6266.132744089693, -9751.619070961366, -12342.901509154024, -7970.1850378733925, -5779.244694619739, -7353.969794985032, -8699.120128049866, -11322.43261604698, -15697.831296662247, 0.002875, 0.2320625, 0.9503125000000001, 192.0, 0.0, 0.0, 0.0, 0.0, 0.0, 0.0, 0.0, 0.0, 0.0, 1.644587691122562E9, 0.0, 2022-02-12 00:54:51.122
102.0, -10457.844788771246, -9408.117462172206, -6145.388620542124, -12052.932328335326, -9907.142508881392, -5311.914421548178, -9084.754775137279, -6265.328081289302, -9759.241015820626, -12361.20758786292, -7955.38818304398, -5772.785040472155, -7355.288547907895, -8679.115316762367, -11322.611430002622, -15766.808780051326, 0.002875, 0.2320625, 0.9503125000000001, 192.0, 0.0, 0.0, 0.0, 0.0, 0.0, 0.0, 0.0, 0.0, 0.0, 1.644587691129276E9, 0.0, 2022-02-12 00:54:51.129
104.0, -10470.182951710576, -9402.887153969665, -6149.769562455364, -12040.884738073915, -9896.748947709673, -5315.580107638849, -9087.057004816175, -6275.431069783101, -9751.68612619473, -12371.578797290184, -7976.1753053874145, -5779.937598697853, -7359.200103187573, -8698.24841001611, -11330.680409750988, -15723.267581852388, 0.002875, 0.2320625, 0.9503125000000001, 192.0, 0.0, 0.0, 0.0, 0.0, 0.0, 0.0, 0.0, 0.0, 0.0, 1.644587691137325E9, 0.0, 2022-02-12 00:54:51.137
106.0, -10470.227655199487, -9397.14275564465, -6136.134998337627, -12055.05574405858, -9896.883058176405, -5309.567488380371, -9074.472972687838, -6267.4291452681, -9757.229358819648, -12350.478750524373, -7970.140334384482, -5780.474040564781, -7352.248710661974, -8690.715872134671, -11330.568651028712, -15743.518262328895, 0.0044375000000000005, 0.23503125000000002, 0.9491562500000001, 192.0, 0.0, 24.0, 3.5, 56.0, 14.5, 80.0, 0.0, 0.0, 0.0, 1.644587691145205E9, 0.0, 2022-02-12 00:54:51.145
108.0, -10476.530847135884, -9426.53529960338, -6148.249643832403, -12049.780732367128, -9898.201811099269, -5313.009657026489, -9084.106574548076, -6272.257122070447, -9754.323632040458, -12346.008401633311, -7967.011090160739, -5776.495430051736, -7353.366297884739, -8697.510802449084, -11331.350962084647, -15764.64066083916, 0.0044375000000000005, 0.23503125000000002, 0.9491562500000001, 192.0, 0.0, 0.0, 0.0, 0.0, 0.0, 0.0, 0.0, 0.0, 0.0, 1.644587691152365E9, 0.0, 2022-02-12 00:54:51.152
110.0, -10462.628062084683, -9421.662619312123, -6134.324507036747, -12036.123816504934, -9884.790764426085, -5303.24194469952, -9074.562379665658, -6262.444706254567, -9752.356678528391, -12356.603128505127, -7955.343479555068, -5759.28458682115, -7337.6530215326575, -8691.900514590801, -11335.24016561987, -15707.531953755852, 0.0044375000000000005, 0.23503125000000002, 0.9491562500000001, 192.0, 0.0, 0.0, 0.0, 0.0, 0.0, 0.0, 0.0, 0.0, 0.0, 1.644587691158906E9, 0.0, 2022-02-12 00:54:51.158
112.0, -10458.247120171443, -9412.096072685252, -6126.903727877585, -12061.135418550422, -9899.833488444507, -5309.85806105829, -9071.813115097657, -6267.831476668296, -9764.136047856337, -12386.59916956415, -7952.035421375683, -5755.976528641764, -7348.180693171107, -8692.280494246543, -11333.809653974731, -15779.973957535502, 0.0044375000000000005, 0.23503125000000002, 0.9491562500000001, 192.0, 0.0, 0.0, 0.0, 0.0, 0.0, 0.0, 0.0, 0.0, 0.0, 1.644587691166929E9, 0.0, 2022-02-12 00:54:51.166
114.0, -10471.322890677797, -9410.598505806745, -6138.683097205531, -12053.20054926879, -9886.891828404883, -5311.556793636893, -9076.596388411092, -6274.246427326969, -9754.904777396296, -12374.216303135909, -7961.601968002555, -5781.926903954376, -7358.976585743021, -8692.056976801989, -11334.368447586114, -15733.035294179357, 0.0044375000000000005, 0.23503125000000002, 0.9491562500000001, 192.0, 0.0, 0.0, 0.0, 0.0, 0.0, 0.0, 0.0, 0.0, 0.0, 1.644587691174921E9, 0.0, 2022-02-12 00:54:51.174
116.0, -10455.274338158886, -9402.90950571412, -6130.077675590239, -12057.581491182029, -9890.557514495555, -5311.713255848081, -9068.46035342936, -6270.424279025112, -9764.203103089703, -12371.534093801272, -7963.300700581158, -5778.305921352616, -7349.11946643823, -8691.520534935062, -11337.38593308758, -15750.961393232512, 0.00621875, 0.235515625, 0.948578125, 192.0, 0.0, 32.0, 3.5, 48.0, 14.5, 80.0, 0.0, 0.0, 0.0, 1.644587691182051E9, 0.0, 2022-02-12 00:54:51.182
118.0, -10487.594960641261, -9402.14954640264, -6137.252585560392, -12068.042107587113, -9892.256247074158, -5313.613154126782, -9074.450620943382, -6271.206590081048, -9766.527684513056, -12379.334852616174, -7955.2764243217025, -5783.871505721987, -7352.5616350843475, -8692.839287857925, -11340.716343011421, -15779.616329624216, 0.00621875, 0.235515625, 0.948578125, 192.0, 0.0, 0.0, 0.0, 0.0, 0.0, 0.0, 0.0, 0.0, 0.0, 1.644587691189558E9, 0.0, 2022-02-12 00:54:51.189
120.0, -10483.88457106168, -9426.647058325656, -6130.703524434987, -12061.470694717253, -9889.52933425061, -5307.466424401573, -9071.12021101954, -6270.67014821412, -9760.604472232399, -12361.945195429946, -7957.3327848115905, -5780.3175783535935, -7344.246786146973, -8698.606037927395, -11343.599718046156, -15726.195660376032, 0.00621875, 0.235515625, 0.948578125, 192.0, 0.0, 0.0, 0.0, 0.0, 0.0, 0.0, 0.0, 0.0, 0.0, 1.64458769119745E9, 0.0, 2022-02-12 00:54:51.197
122.0, -10464.326794663286, -9422.154357690139, -6129.943565123506, -12079.10622109249, -9896.81600294304, -5312.875546559757, -9069.197960996386, -6273.106488359748, -9780.36341433089, -12390.801297521746, -7952.258938820236, -5780.04935742013, -7344.917338480633, -8689.1512500228, -11343.175034901506, -15795.061385042834, 0.00621875, 0.235515625, 0.948578125, 192.0, 0.0, 0.0, 0.0, 0.0, 0.0, 0.0, 0.0, 0.0, 0.0, 1.6445876912056E9, 0.0, 2022-02-12 00:54:51.205
124.0, -10480.777678582392, -9423.763683290921, -6137.9678413829615, -12067.304500020087, -9884.723709192718, -5310.863889558779, -9075.992891310798, -6278.247389584469, -9763.152571100303, -12383.73814627387, -7964.261825592736, -5777.970645185786, -7334.367315097727, -8700.841212372925, -11344.58319480219, -15749.150901931633, 0.00621875, 0.235515625, 0.948578125, 192.0, 0.0, 0.0, 0.0, 0.0, 0.0, 0.0, 0.0, 0.0, 0.0, 1.644587691219161E9, 0.0, 2022-02-12 00:54:51.219
126.0, -10479.414222170619, -9420.522680344902, -6116.823091128242, -12084.604750228495, -9885.841296415485, -5305.879450545246, -9060.972519036832, -6276.012215138939, -9777.547094529522, -12377.92669271549, -7952.504808009245, -5784.832630733566, -7339.8211407448225, -8699.477755961152, -11349.165302415528, -15766.182931206577, 0.008, 0.234, 0.9520000000000001, 192.0, 0.0, 32.0, 3.5, 40.0, 14.5, 96.0, 0.0, 0.0, 0.0, 1.644587691227108E9, 0.0, 2022-02-12 00:54:51.227
128.0, -10478.922483792601, -9419.941534989064, -6121.606364441677, -12083.956549639292, -9882.689700447287, -5310.126281991754, -9075.590559910603, -6283.8353256982955, -9778.575274774466, -12393.25998941183, -7955.38818304398, -5784.43029933337, -7329.382876084194, -8691.162907023778, -11351.825160005708, -15797.631835655195, 0.008, 0.234, 0.9520000000000001, 192.0, 0.0, 0.0, 0.0, 0.0, 0.0, 0.0, 0.0, 0.0, 0.0, 1.644587691234398E9, 0.0, 2022-02-12 00:54:51.234
130.0, -10448.524111333385, -9396.829831222276, -6113.358570737669, -12075.239369301722, -9865.680022916797, -5294.591819595315, -9062.179513237419, -6272.368880792723, -9747.528701726043, -12352.87038718109, -7944.279366049692, -5775.087270151052, -7324.018457414921, -8685.664377887771, -11353.792113517775, -15737.818567492792, 0.008, 0.234, 0.9520000000000001, 192.0, 0.0, 0.0, 0.0, 0.0, 0.0, 0.0, 0.0, 0.0, 0.0, 1.644587691241769E9, 0.0, 2022-02-12 00:54:51.241
132.0, -10485.829172829292, -9432.68202932859, -6117.583050439722, -12101.525020781162, -9881.99679636917, -5316.451825672606, -9059.385545180505, -6283.991787909483, -9775.356623572901, -12390.197800421454, -7939.607851458532, -5782.306883610116, -7326.588908027281, -8685.843191843414, -11352.138084428083, -15809.008873582945, 0.008, 0.234, 0.9520000000000001, 192.0, 0.0, 0.0, 0.0, 0.0, 0.0, 0.0, 0.0, 0.0, 0.0, 1.644587691249902E9, 0.0, 2022-02-12 00:54:51.249
134.0, -10495.954513067545, -9437.398247408659, -6124.601498198688, -12088.605712485994, -9871.871456130917, -5316.630639628249, -9063.431210926916, -6285.914037932639, -9778.642330007831, -12407.386291907584, -7962.741906969775, -5805.709160054822, -7330.8804429627, -8710.452462488707, -11360.162360687538, -15769.915672530613, 0.008, 0.234, 0.9520000000000001, 192.0, 0.0, 0.0, 0.0, 0.0, 0.0, 0.0, 0.0, 0.0, 0.0, 1.644587691257821E9, 0.0, 2022-02-12 00:54:51.257
136.0, -10469.557102865829, -9428.43519788208, -6106.027198556328, -12090.639721231428, -9875.380680010401, -5308.472252902062, -9051.540082876692, -6277.710947717542, -9778.88819919684, -12398.467945869917, -7958.785648201186, -5789.481793580269, -7326.16422488263, -8704.52925020805, -11361.928148499508, -15782.320890703308, 0.004, 0.234, 0.9500000000000001, 192.0, 0.0, 16.0, 3.5, 40.0, 14.5, 88.0, 0.0, 0.0, 0.0, 1.644587691264581E9, 0.0, 2022-02-12 00:54:51.264
138.0, -10488.421975186107, -9423.853090268742, -6118.253602773381, -12095.87002943397, -9880.05219460156, -5313.434340171139, -9062.917120804444, -6288.283322844902, -9772.875579938362, -12406.112242473631, -7943.877034649496, -5792.543982570646, -7325.5607277823365, -8699.164831538777, -11361.592872332678, -15814.194478296577, 0.004, 0.234, 0.9500000000000001, 192.0, 0.0, 0.0, 0.0, 0.0, 0.0, 0.0, 0.0, 0.0, 0.0, 1.644587691271459E9, 0.0, 2022-02-12 00:54:51.271
140.0, -10477.156695980633, -9422.19906117905, -6121.673419675043, -12095.735918967239, -9868.317528762524, -5301.565563865372, -9055.339879434096, -6278.6720727291195, -9770.17101885927, -12383.78284976278, -7953.130656853993, -5801.015293719208, -7330.299297606862, -8701.556468195495, -11368.074878224717, -15757.532806102374, 0.004, 0.234, 0.9500000000000001, 192.0, 0.0, 0.0, 0.0, 0.0, 0.0, 0.0, 0.0, 0.0, 0.0, 1.644587691279726E9, 0.0, 2022-02-12 00:54:51.279
142.0, -10466.830190042281, -9427.96581124852, -6112.598611426189, -12121.127500668466, -9878.822848656519, -5313.300229704408, -9064.660556871959, -6285.914037932639, -9774.708422983698, -12388.946102731956, -7944.793456172163, -5816.929735771387, -7325.873652204711, -8693.822764613958, -11369.170113703027, -15826.219716813532, 0.004, 0.234, 0.9500000000000001, 192.0, 0.0, 0.0, 0.0, 0.0, 0.0, 0.0, 0.0, 0.0, 0.0, 1.644587691286526E9, 0.0, 2022-02-12 00:54:51.286
144.0, -10485.024510028901, -9435.29718342986, -6121.673419675043, -12107.224715617265, -9861.94728159276, -5318.441130929128, -9060.637242870003, -6291.211401368547, -9774.395498561324, -12410.336722175685, -7961.646671491465, -5811.319447913104, -7320.6880474910795, -8711.592401455928, -11372.277006182314, -15790.188704751577, 0.004, 0.234, 0.9500000000000001, 192.0, 0.0, 0.0, 0.0, 0.0, 0.0, 0.0, 0.0, 0.0, 0.0, 1.644587691294315E9, 0.0, 2022-02-12 00:54:51.294
146.0, -10476.016757013413, -9425.14949144715, -6108.776463124331, -12114.310218609598, -9865.85883687244, -5306.885279045735, -9052.07652474362, -6284.371767565223, -9776.205989862203, -12390.35426263264, -7945.933395139385, -5791.00171220323, -7305.935896150577, -8714.051093346012, -11369.952424758963, -15799.17410602261, 0.008, 0.226, 0.9440000000000001, 192.0, 0.0, 32.0, 3.5, 8.0, 14.5, 64.0, 0.0, 0.0, 0.0, 1.644587691302E9, 0.0, 2022-02-12 00:54:51.302
148.0, -10500.536620680883, -9438.314668931327, -6118.968858595951, -12110.130442396456, -9868.76456365163, -5311.646200614715, -9060.547835892181, -6292.373692080223, -9777.278873596058, -12408.928562275001, -7939.183168313882, -5784.653816777924, -7317.759968967434, -8710.363055510887, -11369.907721270052, -15829.885402904201, 0.008, 0.226, 0.9440000000000001, 192.0, 0.0, 0.0, 0.0, 0.0, 0.0, 0.0, 0.0, 0.0, 0.0, 1.644587691310147E9, 0.0, 2022-02-12 00:54:51.310
150.0, -10493.495821177463, -9430.737427560976, -6110.363436980658, -12105.593038272029, -9859.108610046937, -5309.299267446908, -9054.043478255688, -6289.423261812122, -9762.750239700108, -12397.775041791803, -7955.075258621605, -5800.411796618914, -7309.623933985703, -8710.027779344056, -11373.461648638446, -15773.69311734356, 0.008, 0.226, 0.9440000000000001, 192.0, 0.0, 0.0, 0.0, 0.0, 0.0, 0.0, 0.0, 0.0, 0.0, 1.644587691316659E9, 0.0, 2022-02-12 00:54:51.316
152.0, -10478.140172736666, -9455.369049950725, -6111.413968970057, -12128.570631572084, -9879.024014356615, -5320.229270485553, -9060.07844925862, -6292.194878124581, -9786.21957137818, -12409.152079719554, -7925.146272795949, -5799.897706496443, -7327.482977805493, -8707.792604898525, -11381.038890008795, -15849.957269425067, 0.008, 0.226, 0.9440000000000001, 192.0, 0.0, 0.0, 0.0, 0.0, 0.0, 0.0, 0.0, 0.0, 0.0, 1.644587691324935E9, 0.0, 2022-02-12 00:54:51.324
154.0, -10477.06728900281, -9440.326325932303, -6112.6656666595545, -12114.891363965437, -9860.76263913663, -5312.763787837481, -9060.950167292378, -6298.229849127513, -9769.656928736798, -12402.871239527612, -7944.793456172163, -5811.945296757853, -7320.106902135241, -8713.402892756807, -11388.325558701225, -15810.84171662828, 0.008, 0.226, 0.9440000000000001, 192.0, 0.0, 0.0, 0.0, 0.0, 0.0, 0.0, 0.0, 0.0, 0.0, 1.644587691331657E9, 0.0, 2022-02-12 00:54:51.331
156.0, -10458.69415506055, -9434.045485740362, -6095.365416451146, -12120.859279735003, -9862.483723459689, -5308.807529068891, -9049.55077762017, -6301.7390730069965, -9769.992204903629, -12405.26287618433, -7930.980078098783, -5787.917171468398, -7304.460681016527, -8699.43305247224, -11382.91643654304, -15821.168222566632, 0.006, 0.228, 0.9500000000000001, 192.0, 0.0, 24.0, 3.5, 16.0, 14.5, 88.0, 0.0, 0.0, 0.0, 1.644587691346294E9, 0.0, 2022-02-12 00:54:51.346
158.0, -10503.017664315423, -9442.494445144468, -6108.821166613241, -12118.44529133383, -9869.748040407663, -5316.496529161516, -9066.381641195017, -6305.695331775586, -9776.608321262398, -12420.59617288067, -7931.784740899175, -5782.888028965954, -7310.786224697379, -8706.362093253385, -11388.325558701225, -15859.143836396199, 0.006, 0.228, 0.9500000000000001, 192.0, 0.0, 0.0, 0.0, 0.0, 0.0, 0.0, 0.0, 0.0, 0.0, 1.644587691354797E9, 0.0, 2022-02-12 00:54:51.354
160.0, -10490.83596358728, -9435.34188691877, -6095.320712962236, -12115.316047110087, -9859.466237958222, -5307.019389512467, -9057.642109112992, -6301.761424751452, -9775.468382295177, -12405.151117462054, -7943.318241038113, -5795.2261919052835, -7304.125404849698, -8715.593363713428, -11393.958198303962, -15801.722204890515, 0.006, 0.228, 0.9500000000000001, 192.0, 0.0, 0.0, 0.0, 0.0, 0.0, 0.0, 0.0, 0.0, 0.0, 1.644587691362261E9, 0.0, 2022-02-12 00:54:51.362
162.0, -10487.192629241066, -9439.6781253431, -6091.185640238004, -12141.534643356163, -9865.724726405708, -5313.0767122598545, -9048.656707841958, -6300.509727061954, -9791.762804003096, -12425.111225260644, -7933.528176966689, -5793.974494215786, -7301.130271092686, -8706.406796742296, -11390.046643024283, -15869.38093535673, 0.006, 0.228, 0.9500000000000001, 192.0, 0.0, 0.0, 0.0, 0.0, 0.0, 0.0, 0.0, 0.0, 0.0, 1.644587691369585E9, 0.0, 2022-02-12 00:54:51.369
164.0, -10494.278132233398, -9440.77336082141, -6104.306114233269, -12137.936012498858, -9858.259243757635, -5313.948430293612, -9056.8374463126, -6303.236639885502, -9777.211818362692, -12406.40281515155, -7952.9294911538955, -5819.276668939194, -7292.882477388678, -8717.91794513678, -11393.712329114955, -15828.790167425892, 0.006, 0.228, 0.9500000000000001, 192.0, 0.0, 0.0, 0.0, 0.0, 0.0, 0.0, 0.0, 0.0, 0.0, 1.64458769137692E9, 0.0, 2022-02-12 00:54:51.376
166.0, -10485.180972240089, -9444.550805634357, -6091.275047215825, -12150.900024282935, -9864.964767094227, -5316.027142527955, -9053.060001499654, -6303.77308175243, -9785.213742877691, -12418.02572226831, -7935.606889201033, -5834.341744702071, -7310.11567236372, -8712.15119506731, -11400.216686751448, -15838.937859408601, 0.008, 0.23, 0.936, 192.0, 0.0, 32.0, 3.5, 24.0, 14.5, 32.0, 0.0, 0.0, 0.0, 1.644587691385065E9, 0.0, 2022-02-12 00:54:51.385
168.0, -10498.212039257533, -9471.73052689201, -6098.606419397166, -12142.182843945366, -9868.13871480688, -5325.325468221363, -9064.705260360868, -6313.272573145935, -9792.925094714772, -12452.46976047394, -7936.053924090139, -5804.7703867877, -7311.25561133094, -8720.48839574914, -11400.708425129465, -15879.930958739635, 0.008, 0.23, 0.936, 192.0, 0.0, 0.0, 0.0, 0.0, 0.0, 0.0, 0.0, 0.0, 0.0, 1.644587691392993E9, 0.0, 2022-02-12 00:54:51.392
170.0, -10501.140117781177, -9465.226169255517, -6089.375148937124, -12133.2644979077, -9858.303947246546, -5312.6073256262935, -9052.03182125471, -6303.035474185404, -9792.36630110339, -12434.633068398603, -7953.488284765278, -5802.646971064445, -7303.566611238314, -8726.948049896724, -11401.691901885499, -15816.496707975473, 0.008, 0.23, 0.936, 192.0, 0.0, 0.0, 0.0, 0.0, 0.0, 0.0, 0.0, 0.0, 0.0, 1.644587691399224E9, 0.0, 2022-02-12 00:54:51.399
172.0, -10514.729978410003, -9441.332154432792, -6083.742509334387, -12153.962213273313, -9869.770392152119, -5315.848328572313, -9056.859798057056, -6305.293000375391, -9801.50816458561, -12451.50863546236, -7937.28327003518, -5804.7703867877, -7298.5598204803255, -8707.479680476152, -11405.357587976168, -15882.836685518825, 0.008, 0.23, 0.936, 192.0, 0.0, 0.0, 0.0, 0.0, 0.0, 0.0, 0.0, 0.0, 0.0, 1.644587691406603E9, 0.0, 2022-02-12 00:54:51.406
174.0, -10503.777623626904, -9454.430276683603, -6088.168154736538, -12140.26059392221, -9848.290365730569, -5315.535404149939, -9051.785952065702, -6304.8459654862845, -9792.120431914382, -12428.441635184483, -7942.759447426731, -5818.360247416526, -7301.242029814963, -8715.079273590956, -11408.218611266448, -15841.351847809774, 0.008, 0.23, 0.936, 192.0, 0.0, 0.0, 0.0, 0.0, 0.0, 0.0, 0.0, 0.0, 0.0, 1.644587691415102E9, 0.0, 2022-02-12 00:54:51.415
176.0, -10491.662978132126, -9435.29718342986, -6074.555942363256, -12151.995259761246, -9841.920118560805, -5309.9027645472015, -9038.464312370339, -6294.944142692583, -9786.912475456294, -12407.967437263422, -7951.521331253211, -5810.268915923705, -7286.5792854522815, -8711.413587500285, -11407.123375788138, -15842.938821666101, 0.016, 0.23600000000000002, 0.9420000000000001, 192.0, 0.0, 64.0, 3.5, 48.0, 14.5, 56.0, 0.0, 0.0, 0.0, 1.644587691421609E9, 0.0, 2022-02-12 00:54:51.421
178.0, -10503.732920137993, -9464.689727388588, -6076.969930764429, -12153.135198728467, -9846.14459826286, -5322.106817019799, -9052.680021843913, -6307.706988776564, -9781.033966664549, -12437.695257388981, -7925.794473385153, -5799.920058240898, -7294.223582055996, -8717.470910247674, -11407.324541488237, -15886.211798931576, 0.016, 0.23600000000000002, 0.9420000000000001, 192.0, 0.0, 0.0, 0.0, 0.0, 0.0, 0.0, 0.0, 0.0, 0.0, 1.644587691429418E9, 0.0, 2022-02-12 00:54:51.429
180.0, -10507.9797515845, -9468.690689646088, -6077.327558675714, -12148.530739370673, -9836.846272569452, -5312.249697715009, -9048.544949119681, -6304.823613741829, -9787.135992900849, -12439.818673112235, -7925.861528618519, -5807.027912977685, -7279.002044081932, -8722.164776583288, -11410.073806056238, -15827.18084182511, 0.016, 0.23600000000000002, 0.9420000000000001, 192.0, 0.0, 0.0, 0.0, 0.0, 0.0, 0.0, 0.0, 0.0, 0.0, 1.644587691437235E9, 0.0, 2022-02-12 00:54:51.437
182.0, -10493.294655477364, -9479.196009540083, -6082.289645944792, -12169.541379158662, -9854.526502433599, -5321.033933285944, -9049.439018897894, -6309.964514966549, -9801.865792496896, -12453.386181996606, -7924.609830929021, -5803.451633864836, -7297.4422332575605, -8707.122052564866, -11415.549983447789, -15892.269121678964, 0.016, 0.23600000000000002, 0.9420000000000001, 192.0, 0.0, 0.0, 0.0, 0.0, 0.0, 0.0, 0.0, 0.0, 0.0, 1.644587691445222E9, 0.0, 2022-02-12 00:54:51.445
184.0, -10492.758213610437, -9462.141628520683, -6092.906724561063, -12161.02536452119, -9837.60623188093, -5315.580107638849, -9051.115399732042, -6312.557317323365, -9795.875524982874, -12458.840007643701, -7950.917834152918, -5830.653706866945, -7296.905791390633, -8715.43690150224, -11416.779329392832, -15858.428580573629, 0.016, 0.23600000000000002, 0.9420000000000001, 192.0, 0.0, 0.0, 0.0, 0.0, 0.0, 0.0, 0.0, 0.0, 0.0, 1.644587691451841E9, 0.0, 2022-02-12 00:54:51.451
186.0, -10509.723187652015, -9471.283492002904, -6069.415041138535, -12172.134181515477, -9839.059095270526, -5314.976610538556, -9038.196091436874, -6305.918849220139, -9787.314806856491, -12433.94016432049, -7936.232738045781, -5810.850061279543, -7276.006910324921, -8713.29113403453, -11408.576239177733, -15858.249766617986, -0.004, 0.23800000000000002, 0.9440000000000001, 192.0, 127.5, 112.0, 3.5, 56.0, 14.5, 64.0, 0.0, 0.0, 0.0, 1.644587691466798E9, 0.0, 2022-02-12 00:54:51.466
188.0, -10526.911679138146, -9476.849076372275, -6087.5870093807, -12185.634635166483, -9843.931775561783, -5327.113607777787, -9046.019201996232, -6309.651590544176, -9802.670455297286, -12461.142237322598, -7928.476682719789, -5819.500186383747, -7286.892209874655, -8715.794529413526, -11412.800718879786, -15903.95908402909, -0.004, 0.23800000000000002, 0.9440000000000001, 192.0, 0.0, 0.0, 0.0, 0.0, 0.0, 0.0, 0.0, 0.0, 0.0, 1.644587691475226E9, 0.0, 2022-02-12 00:54:51.475
190.0, -10524.967077370535, -9478.816029884343, -6076.545247619778, -12168.848475080547, -9837.18154873628, -5318.2399652290305, -9052.07652474362, -6311.707951034064, -9799.65296979582, -12444.534891192305, -7938.244395046759, -5810.715950812812, -7286.556933707826, -8739.330916324963, -11419.126262560638, -15849.286717091409, -0.004, 0.23800000000000002, 0.9440000000000001, 192.0, 0.0, 0.0, 0.0, 0.0, 0.0, 0.0, 0.0, 0.0, 0.0, 1.644587691481546E9, 0.0, 2022-02-12 00:54:51.481
192.0, -10520.183804057098, -9493.411719013659, -6078.467497642934, -12190.41790847992, -9846.345763962956, -5315.535404149939, -9043.493454872782, -6305.471814331033, -9815.790929292552, -12470.75348743838, -7946.559243984133, -5817.466177638314, -7289.842640142756, -8728.087988863945, -11423.037817840317, -15916.476060924062, -0.004, 0.23800000000000002, 0.9440000000000001, 192.0, 0.0, 0.0, 0.0, 0.0, 0.0, 0.0, 0.0, 0.0, 0.0, 1.644587691489608E9, 0.0, 2022-02-12 00:54:51.489
194.0, -10505.36459748323, -9473.965701337542, -6081.529686633312, -12176.64923389545, -9830.654839355331, -5310.930944792145, -9045.371001407028, -6311.05975044486, -9812.907554257818, -12470.708783949469, -7941.910081137429, -5826.809206820632, -7289.932047120577, -8723.639991717338, -11422.479024228935, -15879.126295939244, -0.004, 0.239, 0.9440000000000001, 192.0, 127.5, 112.0, 3.5, 64.0, 14.5, 64.0, 0.0, 0.0, 0.0, 1.644587691497414E9, 0.0, 2022-02-12 00:54:51.497
196.0, -10505.878687605702, -9479.419526984635, -6067.783363793298, -12186.79692587816, -9834.85696731293, -5307.33231393484, -9040.74419030478, -6306.052959686871, -9802.536344830554, -12442.36677198014, -7936.098627579049, -5810.045398479152, -7271.871837600689, -8721.53892773854, -11426.100006830693, -15878.411040116674, -0.004, 0.239, 0.9440000000000001, 192.0, 0.0, 0.0, 0.0, 0.0, 0.0, 0.0, 0.0, 0.0, 0.0, 1.644587691504567E9, 0.0, 2022-02-12 00:54:51.504
198.0, -10523.380103514208, -9470.992919324985, -6071.136125461594, -12196.095251571567, -9835.5722231355, -5319.29049721843, -9046.868568285534, -6311.10445393377, -9810.113586200903, -12470.798190927291, -7934.288136278169, -5826.138654486973, -7276.789221380856, -8728.892651664335, -11427.508166731379, -15925.752034873014, -0.004, 0.239, 0.9440000000000001, 192.0, 0.0, 0.0, 0.0, 0.0, 0.0, 0.0, 0.0, 0.0, 0.0, 1.644587691512093E9, 0.0, 2022-02-12 00:54:51.512
200.0, -10508.471489962518, -9471.082326302807, -6066.442259125979, -12180.918417086414, -9818.89782177184, -5311.0203517699665, -9038.374905392517, -6301.269686373435, -9795.808469749507, -12453.229719785419, -7931.851796132541, -5821.780064318188, -7272.855314356722, -8733.787683700048, -11425.295344030303, -15861.826045730835, -0.004, 0.239, 0.9440000000000001, 192.0, 0.0, 0.0, 0.0, 0.0, 0.0, 0.0, 0.0, 0.0, 0.0, 1.644587691519096E9, 0.0, 2022-02-12 00:54:51.519
202.0, -10514.573516198816, -9476.87142811673, -6056.965119476929, -12198.50923997274, -9838.23208072568, -5315.580107638849, -9048.41083865295, -6309.964514966549, -9809.84536526744, -12466.484304247417, -7919.915964593407, -5804.658628065423, -7276.900980103133, -8722.611811472394, -11427.351704520192, -15926.48964244004, -0.004, 0.239, 0.9440000000000001, 192.0, 0.0, 0.0, 0.0, 0.0, 0.0, 0.0, 0.0, 0.0, 0.0, 1.644587691527196E9, 0.0, 2022-02-12 00:54:51.527
204.0, -10516.741635410981, -9486.97441661053, -6070.912608017041, -12191.982530591791, -9827.32442943149, -5310.52861339195, -9045.818036296134, -6305.002427697472, -9802.26812389709, -12463.936205379512, -7934.71281942282, -5810.514785112713, -7278.622064426192, -8726.478663263162, -11428.491643487412, -15895.800697302902, 0.001, 0.2375, 0.9450000000000001, 192.0, 0.0, 24.0, 3.5, 48.0, 14.5, 72.0, 0.0, 0.0, 0.0, 1.644587691534453E9, 0.0, 2022-02-12 00:54:51.534
206.0, -10526.039961104389, -9498.530268493923, -6056.138104932083, -12198.799812650659, -9820.797720050541, -5300.358569664785, -9025.276783141708, -6294.586514781298, -9817.690827571252, -12464.98673736891, -7950.8731306640075, -5813.934602014376, -7276.856276614222, -8722.432997516751, -11427.128187075637, -15889.698671066604, 0.001, 0.2375, 0.9450000000000001, 192.0, 0.0, 0.0, 0.0, 0.0, 0.0, 0.0, 0.0, 0.0, 0.0, 1.644587691541735E9, 0.0, 2022-02-12 00:54:51.541
208.0, -10530.13033033971, -9492.741166679998, -6064.877637014108, -12210.84740291207, -9827.816167809508, -5311.825014570358, -9035.737399546791, -6308.422244599134, -9825.759807319619, -12477.771935197346, -7916.742016880753, -5828.195014976861, -7271.715375389502, -8721.091892849434, -11427.441111498012, -15936.480872211561, 0.001, 0.2375, 0.9450000000000001, 192.0, 0.0, 0.0, 0.0, 0.0, 0.0, 0.0, 0.0, 0.0, 0.0, 1.644587691550014E9, 0.0, 2022-02-12 00:54:51.550
210.0, -10536.902908909668, -9496.540963237401, -6064.67647131401, -12198.799812650659, -9819.680132827776, -5307.779348823947, -9033.949259990366, -6300.867354973239, -9818.450786882733, -12453.296775018785, -7934.645764189454, -5841.293137227672, -7269.211980010507, -8734.793512200536, -11430.07861734374, -15874.007746458978, 0.001, 0.2375, 0.9450000000000001, 192.0, 0.0, 0.0, 0.0, 0.0, 0.0, 0.0, 0.0, 0.0, 0.0, 1.644587691556849E9, 0.0, 2022-02-12 00:54:51.556
212.0, -10546.268289836442, -9516.79164371391, -6058.797962522264, -12214.378978536008, -9829.693714343754, -5313.702561104603, -9039.872472271023, -6303.6166195412425, -9828.732589332174, -12489.126621380643, -7928.722551908798, -5811.990000246764, -7264.33929971925, -8725.450483018218, -11433.4984342454, -15939.028971079466, 0.001, 0.2375, 0.9450000000000001, 192.0, 0.0, 0.0, 0.0, 0.0, 0.0, 0.0, 0.0, 0.0, 0.0, 1.644587691564639E9, 0.0, 2022-02-12 00:54:51.564
214.0, -10556.639499263705, -9504.364073796758, -6058.90972124454, -12205.013597609235, -9818.540193860556, -5318.083503017843, -9047.047382241177, -6316.20065166958, -9824.485757885666, -12489.32778708074, -7934.645764189454, -5832.575956890101, -7270.888360844656, -8734.68175347826, -11436.538271491323, -15908.787060831435, 0.0055, 0.23475000000000001, 0.9475, 192.0, 0.0, 40.0, 3.5, 32.0, 14.5, 88.0, 0.0, 0.0, 0.0, 1.644587691572337E9, 0.0, 2022-02-12 00:54:51.572
216.0, -10539.696876966582, -9508.789719198909, -6052.204197907949, -12213.261391313243, -9814.94156300325, -5308.293438946419, -9038.17373969242, -6308.7798725104185, -9826.273897442092, -12480.364737554162, -7934.243432789259, -5837.269823225716, -7264.160485763608, -8734.301773822519, -11436.873547658151, -15904.651988107204, 0.0055, 0.23475000000000001, 0.9475, 192.0, 0.0, 0.0, 0.0, 0.0, 0.0, 0.0, 0.0, 0.0, 0.0, 1.644587691579723E9, 0.0, 2022-02-12 00:54:51.579
218.0, -10540.635650233704, -9525.575879284845, -6056.741602032376, -12222.51501351774, -9822.809377051519, -5321.771540852969, -9059.452600413872, -6320.983924983016, -9838.23208072568, -12493.127583638143, -7927.672019919399, -5812.861718280521, -7275.6045789247255, -8724.712875451192, -11441.366248293669, -15951.009506107512, 0.0055, 0.23475000000000001, 0.9475, 192.0, 0.0, 0.0, 0.0, 0.0, 0.0, 0.0, 0.0, 0.0, 0.0, 1.644587691594212E9, 0.0, 2022-02-12 00:54:51.594
220.0, -10551.409191061162, -9501.503050506479, -6056.585139821189, -12217.374112293019, -9808.280743155568, -5316.742398350525, -9044.02989673971, -6317.8770325037285, -9822.541156118055, -12478.688356720015, -7942.267709048714, -5832.352439445548, -7266.887398587156, -8736.1122651234, -11445.814245440275, -15892.246769934509, 0.0055, 0.23475000000000001, 0.9475, 192.0, 0.0, 0.0, 0.0, 0.0, 0.0, 0.0, 0.0, 0.0, 0.0, 1.644587691601926E9, 0.0, 2022-02-12 00:54:51.601
222.0, -10546.290641580897, -9507.538021509412, -6048.963194961929, -12242.206900382866, -9825.603345108431, -5322.017410041977, -9042.822902539123, -6313.361980123756, -9825.536289875066, -12488.277255091341, -7922.620525672499, -5819.276668939194, -7265.3898317086505, -8726.948049896724, -11446.12716986265, -15953.267032297497, 0.0055, 0.23475000000000001, 0.9475, 192.0, 0.0, 0.0, 0.0, 0.0, 0.0, 0.0, 0.0, 0.0, 0.0, 1.644587691610489E9, 0.0, 2022-02-12 00:54:51.610
224.0, -10567.94948195809, -9538.6516497912, -6057.658023555044, -12231.299249088675, -9815.433301381267, -5328.342953722829, -9048.053210741666, -6324.336686651312, -9835.862795813418, -12495.787441228324, -7920.810034371619, -5843.081276784096, -7269.189628266053, -8742.147236126333, -11448.78702745283, -15930.49060469754, 0.0017499999999999998, 0.234375, 0.94875, 192.0, 127.5, 120.0, 3.5, 40.0, 14.5, 88.0, 0.0, 0.0, 0.0, 1.644587691616677E9, 0.0, 2022-02-12 00:54:51.616
226.0, -10543.89900492418, -9531.096760165306, -6041.967098947418, -12235.657839257461, -9820.305981672524, -5324.744322865525, -9050.310736931651, -6325.0966459627925, -9842.724781361198, -12494.46868830546, -7934.176377555893, -5837.470988925814, -7262.841732840745, -8742.393105315341, -11452.765637965875, -15926.333180228852, 0.0017499999999999998, 0.234375, 0.94875, 192.0, 0.0, 0.0, 0.0, 0.0, 0.0, 0.0, 0.0, 0.0, 0.0, 1.644587691625917E9, 0.0, 2022-02-12 00:54:51.625
228.0, -10558.673508009137, -9512.678922734132, -6052.3830118635915, -12242.430417827418, -9820.060112483516, -5336.1437125377315, -9057.239777712795, -6334.238509445013, -9845.563452907021, -12504.839897732723, -7929.191938542359, -5833.067695268118, -7269.882532344167, -8735.598175000927, -11454.754943222397, -15977.49632328705, 0.0017499999999999998, 0.234375, 0.94875, 192.0, 0.0, 0.0, 0.0, 0.0, 0.0, 0.0, 0.0, 0.0, 0.0, 1.644587691632633E9, 0.0, 2022-02-12 00:54:51.632
230.0, -10552.660888750659, -9519.183280370627, -6048.493808328368, -12236.2389846133, -9801.530516330065, -5328.76763686748, -9046.846216541078, -6329.388180898211, -9829.045513754549, -12478.688356720015, -7936.277441534691, -5847.909253586442, -7250.436514668049, -8747.48930305115, -11458.97942292445, -15917.928924313657, 0.0017499999999999998, 0.234375, 0.94875, 192.0, 0.0, 0.0, 0.0, 0.0, 0.0, 0.0, 0.0, 0.0, 0.0, 1.644587691639293E9, 0.0, 2022-02-12 00:54:51.639
232.0, -10540.747408955982, -9524.279478106437, -6048.583215306189, -12254.165083666454, -9815.790929292552, -5329.3934857122285, -9049.349611920074, -6339.290003691913, -9834.275821957091, -12502.627075031647, -7918.2395837592585, -5826.429227164892, -7254.10220075872, -8749.813884474503, -11459.091181646727, -15980.759677977525, 0.0017499999999999998, 0.234375, 0.94875, 192.0, 0.0, 0.0, 0.0, 0.0, 0.0, 0.0, 0.0, 0.0, 0.0, 1.644587691646365E9, 0.0, 2022-02-12 00:54:51.646
234.0, -10567.457743580073, -9532.728437510543, -6051.667756041022, -12247.23604288531, -9811.454690868222, -5331.472197946572, -9059.363193436051, -6336.20546295708, -9829.716066088207, -12519.972028728966, -7940.211348558825, -5836.3757534475035, -7262.8640845852005, -8747.243433862142, -11466.064925916782, -15956.239814310053, 0.002875, 0.2351875, 0.9473750000000001, 192.0, 0.0, 16.0, 3.5, 48.0, 14.5, 72.0, 0.0, 0.0, 0.0, 1.644587691655795E9, 0.0, 2022-02-12 00:54:51.655
236.0, -10556.058353907867, -9537.779931757443, -6038.569633790212, -12252.399295854486, -9810.381807134367, -5325.6383926437375, -9048.008507252754, -6328.91879426465, -9846.301060474047, -12496.033310417333, -7928.297868764147, -5835.34757320256, -7259.846599083734, -8744.516521038595, -11466.22138812797, -15943.00758159251, 0.002875, 0.2351875, 0.9473750000000001, 192.0, 0.0, 0.0, 0.0, 0.0, 0.0, 0.0, 0.0, 0.0, 0.0, 1.644587691662414E9, 0.0, 2022-02-12 00:54:51.662
238.0, -10563.143856900198, -9544.59721381631, -6050.349003118158, -12266.078563461133, -9819.881298527873, -5336.411933471195, -9054.088181744597, -6340.988736270516, -9859.198017024759, -12520.530822340348, -7933.2599560332255, -5831.525424900702, -7267.714413132002, -8745.142369883344, -11466.087277661238, -15997.389375852274, 0.002875, 0.2351875, 0.9473750000000001, 192.0, 0.0, 0.0, 0.0, 0.0, 0.0, 0.0, 0.0, 0.0, 0.0, 1.644587691668933E9, 0.0, 2022-02-12 00:54:51.668
240.0, -10573.336252371819, -9534.337763111325, -6053.031212452795, -12256.266147645254, -9810.56062109001, -5327.225366500064, -9050.198978209375, -6332.651535588687, -9850.27967098709, -12503.699958765503, -7938.065581091116, -5862.594349693579, -7262.886436329656, -8754.016012432101, -11472.479876575457, -15933.77631113247, 0.002875, 0.2351875, 0.9473750000000001, 192.0, 0.0, 0.0, 0.0, 0.0, 0.0, 0.0, 0.0, 0.0, 0.0, 1.644587691676888E9, 0.0, 2022-02-12 00:54:51.676
