%OpenBCI Raw EEG Data
%Number of channels = 16
%Sample Rate = 125 Hz
%Board = OpenBCI_GUI$BoardCytonSerialDaisy
Sample Index, EXG Channel 0, EXG Channel 1, EXG Channel 2, EXG Channel 3, EXG Channel 4, EXG Channel 5, EXG Channel 6, EXG Channel 7, EXG Channel 8, EXG Channel 9, EXG Channel 10, EXG Channel 11, EXG Channel 12, EXG Channel 13, EXG Channel 14, EXG Channel 15, Accel Channel 0, Accel Channel 1, Accel Channel 2, Other, Other, Other, Other, Other, Other, Other, Analog Channel 0, Analog Channel 1, Analog Channel 2, Timestamp, Other, Timestamp (Formatted)
214.0, -11167.222102549327, -10266.69267018946, -6457.284862671479, -13275.4833430628, -9331.94271706852, -6635.718838658195, -9815.053321725527, -7244.893282043134, -9273.649367529079, -11734.241155891557, -10021.404626536922, -9452.351564449258, -7679.299435532026, -11167.289157782694, -11206.762338490766, -16138.160662431797, 0.0, 0.0, 0.0, 192.0, 0.0, 0.0, 0.0, 0.0, 0.0, 0.0, 0.0, 0.0, 0.0, 1.644588098130831E9, 0.0, 2022-02-12 01:01:38.130
216.0, -11183.605931235068, -10266.715021933916, -6466.538484875976, -13274.276348862213, -9329.70754262299, -6638.110475314913, -9823.748150318641, -7241.026430252366, -9284.26644614535, -11753.128379956292, -10019.281210813668, -9458.319480218826, -7684.1497640788275, -11168.965538616842, -11203.186059377917, -16142.072217711475, 0.0, 0.0, 0.0, 192.0, 0.0, 0.0, 0.0, 0.0, 0.0, 0.0, 0.0, 0.0, 0.0, 1.644588098130836E9, 0.0, 2022-02-12 01:01:38.130
216.0, -5663.350899618972, -5162.78358254237, -3229.9164807696916, -6698.437833599786, -4651.889759527417, -3223.4791783665632, -4918.076684245669, -3513.023676040611, -9284.26644614535, -11753.128379956292, -10019.281210813668, -9458.319480218826, -7684.1497640788275, -11168.965538616842, -11203.186059377917, -16142.072217711475, 0.001, 0.121, 0.47600000000000003, 192.0, 0.0, 8.0, 3.5, 72.0, 14.5, 96.0, 0.0, 0.0, 0.0, 1.644588098246147E9, 0.0, 2022-02-12 01:01:38.246
2.0, -11345.81254074723, -10323.823729017226, -6469.421859910711, -13391.801821208219, -9300.113832964164, -6447.18187417768, -9845.630508140386, -7023.990991591334, -9708.770776840542, -12101.055634147602, -10063.761182279728, -9458.744163363477, -7770.382794187402, -11127.39129392997, -11266.597958397622, -16219.118680848918, 0.001, 0.121, 0.47600000000000003, 192.0, 0.0, 0.0, 0.0, 0.0, 0.0, 0.0, 0.0, 0.0, 0.0, 1.644588098253487E9, 0.0, 2022-02-12 01:01:38.253
4.0, -11364.364488645137, -10347.270708950844, -6466.7396505760735, -13391.69006248594, -9297.275161418338, -6449.75232479004, -9839.774351093096, -7015.944363587423, -9712.816442586953, -12083.643625216917, -10079.966197009826, -9471.216436769539, -7774.696680867277, -11135.34851495606, -11269.101353776618, -16193.72709914769, 0.001, 0.121, 0.47600000000000003, 192.0, 0.0, 0.0, 0.0, 0.0, 0.0, 0.0, 0.0, 0.0, 0.0, 1.644588098260077E9, 0.0, 2022-02-12 01:01:38.260
6.0, -11357.167226930527, -10364.503903925885, -6462.582226107386, -13401.122498646082, -9297.275161418338, -6448.724144545096, -9838.969688292706, -7017.15135778801, -9731.323686995947, -12113.259686620198, -10074.758240551739, -9471.931692592108, -7775.0096052896515, -11132.44278817687, -11266.75442060881, -16234.49668103417, 0.001, 0.121, 0.47600000000000003, 192.0, 0.0, 0.0, 0.0, 0.0, 0.0, 0.0, 0.0, 0.0, 0.0, 1.644588098268042E9, 0.0, 2022-02-12 01:01:38.268
8.0, -11381.754145831364, -10366.984947560424, -6474.294540201967, -13386.862085683595, -9289.474402603437, -6439.17994966268, -9838.410894681323, -7014.625610664561, -9709.240163474104, -12091.891418920924, -10073.685356817885, -9472.266968758937, -7765.755983085154, -11130.274668964705, -11265.815647341688, -16193.570636936503, 0.006, 0.24, 0.9500000000000001, 192.0, 0.0, 24.0, 3.5, 64.0, 14.5, 88.0, 0.0, 0.0, 0.0, 1.644588098276031E9, 0.0, 2022-02-12 01:01:38.276
10.0, -11417.516936959855, -10416.315247573286, -6468.170162221213, -13401.07779515717, -9301.097309720197, -6447.092467199858, -9840.243737726658, -7014.469148453373, -9746.724038925653, -12114.35492209851, -10091.253827959756, -9487.220285799538, -7776.618930890433, -11136.130826011995, -11268.006118298306, -16214.402462768849, 0.006, 0.24, 0.9500000000000001, 192.0, 0.0, 0.0, 0.0, 0.0, 0.0, 0.0, 0.0, 0.0, 0.0, 1.644588098283302E9, 0.0, 2022-02-12 01:01:38.283
12.0, -11433.78900692332, -10422.461977298497, -6477.982578037093, -13410.08554817266, -9300.40440564208, -6448.545330589453, -9845.027011040094, -7020.034732822744, -9749.070972093461, -12142.942803256847, -10108.844650846082, -9501.994788884496, -7783.078585038017, -11142.679887137401, -11271.13536252205, -16221.510317505637, 0.006, 0.24, 0.9500000000000001, 192.0, 0.0, 0.0, 0.0, 0.0, 0.0, 0.0, 0.0, 0.0, 0.0, 1.644588098290655E9, 0.0, 2022-02-12 01:01:38.290
14.0, -11482.739327280442, -10441.550367063328, -6469.332452932889, -13407.60450453812, -9287.59685606919, -6441.213958408112, -9825.4692346417, -7012.032808307745, -9755.016536118572, -12109.72811099626, -10131.19639530139, -9533.93543171113, -7779.167029758339, -11140.221195247317, -11263.647528129522, -16194.352947992438, 0.006, 0.24, 0.9500000000000001, 192.0, 0.0, 0.0, 0.0, 0.0, 0.0, 0.0, 0.0, 0.0, 0.0, 1.644588098298984E9, 0.0, 2022-02-12 01:01:38.298
16.0, -11512.288333450359, -10499.46373694703, -6470.405336666744, -13411.404301095523, -9296.6940160625, -6446.108990443825, -9826.60917360892, -7010.535241429239, -9773.16615261628, -12139.433579377364, -10111.99624681428, -9518.825652459342, -7783.413861204846, -11134.968535300319, -11258.32781294916, -16230.227497843207, 0.006, 0.24, 0.9500000000000001, 192.0, 0.0, 0.0, 0.0, 0.0, 0.0, 0.0, 0.0, 0.0, 0.0, 1.644588098312834E9, 0.0, 2022-02-12 01:01:38.312
18.0, -11532.85193834924, -10523.000123858468, -6475.345072191367, -13398.037957911249, -9278.969082709442, -6438.218824651101, -9819.635429338865, -7002.689779125426, -9767.131181613348, -12162.411172677419, -10120.802834129672, -9504.431129030125, -7776.574227401523, -11137.851910335054, -11257.23257747085, -16192.16247703582, 0.006, 0.23800000000000002, 0.9480000000000001, 192.0, 0.0, 24.0, 3.5, 56.0, 14.5, 80.0, 0.0, 0.0, 0.0, 1.644588098320322E9, 0.0, 2022-02-12 01:01:38.320
20.0, -11545.748894899953, -10534.51127225295, -6473.825153568406, -13408.409167338512, -9292.424832871537, -6441.549234574943, -9822.831728795974, -7001.728654113848, -9789.549981302021, -12164.020498278202, -10126.949563854881, -9518.110396636772, -7774.763736100643, -11139.640049891479, -11255.80206582571, -16208.479250488193, 0.006, 0.23800000000000002, 0.9480000000000001, 192.0, 0.0, 0.0, 0.0, 0.0, 0.0, 0.0, 0.0, 0.0, 0.0, 1.644588098330145E9, 0.0, 2022-02-12 01:01:38.330
22.0, -11541.814987875818, -10513.500632464962, -6481.692967616674, -13405.235219625858, -9288.379167125126, -6437.838844995362, -9832.979420778684, -7005.997837304812, -9798.22245815068, -12160.935957543368, -10133.632735447018, -9518.445672803602, -7783.257398993659, -11139.7294568693, -11256.89730130402, -16214.961256380233, 0.006, 0.23800000000000002, 0.9480000000000001, 192.0, 0.0, 0.0, 0.0, 0.0, 0.0, 0.0, 0.0, 0.0, 0.0, 1.64458809833545E9, 0.0, 2022-02-12 01:01:38.335
24.0, -11541.323249497802, -10504.917562594124, -6472.3275866899, -13403.290617858245, -9280.779574010323, -6436.765961261507, -9818.540193860556, -7005.439043693429, -9777.770611974074, -12139.657096821917, -10140.114741339057, -9535.701219523098, -7773.892018066886, -11144.356267971549, -11256.6067286261, -16185.456953699228, 0.006, 0.23800000000000002, 0.9480000000000001, 192.0, 0.0, 0.0, 0.0, 0.0, 0.0, 0.0, 0.0, 0.0, 0.0, 1.644588098342895E9, 0.0, 2022-02-12 01:01:38.342
26.0, -11527.979258057983, -10523.51421398094, -6469.935950033182, -13404.74348124784, -9289.40734737007, -6435.715429272107, -9818.56254560501, -6997.638284878527, -9791.136955158348, -12159.416038920408, -10126.770749899239, -9521.083178649329, -7774.361404700448, -11129.402950930948, -11253.142208235528, -16223.007884384142, 0.007, 0.23700000000000002, 0.9510000000000001, 192.0, 0.0, 32.0, 3.5, 48.0, 14.5, 104.0, 0.0, 0.0, 0.0, 1.64458809835109E9, 0.0, 2022-02-12 01:01:38.351
28.0, -11522.883060322174, -10507.823289373313, -6476.909694303238, -13389.343129318135, -9282.634768800113, -6432.385019348267, -9822.161176462314, -6997.727691856348, -9778.5082195411, -12149.044829493145, -10130.257622034267, -9504.475832519036, -7773.06500352204, -11127.234831718783, -11256.494969903824, -16184.384069965372, 0.007, 0.23700000000000002, 0.9510000000000001, 192.0, 0.0, 0.0, 0.0, 0.0, 0.0, 0.0, 0.0, 0.0, 0.0, 1.644588098358925E9, 0.0, 2022-02-12 01:01:38.358
30.0, -11507.840336303752, -10486.253855973942, -6464.504476130543, -13402.262437613303, -9292.067204960253, -6437.32475487289, -9820.909478772817, -7003.114462270077, -9779.64815850832, -12133.577422330072, -10118.344142239588, -9501.815974928853, -7775.724861112221, -11128.10654975254, -11256.383211181548, -16203.472459730205, 0.007, 0.23700000000000002, 0.9510000000000001, 192.0, 0.0, 0.0, 0.0, 0.0, 0.0, 0.0, 0.0, 0.0, 0.0, 1.644588098365228E9, 0.0, 2022-02-12 01:01:38.365
32.0, -11487.70141454952, -10465.623195841694, -6474.026319268503, -13400.74251899034, -9299.108004463675, -6441.437475852666, -9844.132941261882, -7016.1008257986105, -9781.682167253754, -12159.416038920408, -10113.583220670607, -9511.695445978099, -7778.451773935769, -11136.510805667736, -11252.918690790975, -16214.223648813208, 0.007, 0.23700000000000002, 0.9510000000000001, 192.0, 0.0, 0.0, 0.0, 0.0, 0.0, 0.0, 0.0, 0.0, 0.0, 1.644588098372584E9, 0.0, 2022-02-12 01:01:38.372
34.0, -11472.390469597634, -10436.767093749893, -6471.813496567428, -13395.199286365425, -9291.754280537878, -6435.447208338644, -9833.359400434423, -7008.47888093935, -9753.78719017353, -12123.899116980925, -10116.511299194253, -9516.188146613616, -7773.243817477682, -11135.303811467149, -11258.014888526784, -16189.837895612467, 0.007, 0.23700000000000002, 0.9510000000000001, 192.0, 0.0, 0.0, 0.0, 0.0, 0.0, 0.0, 0.0, 0.0, 0.0, 1.644588098380786E9, 0.0, 2022-02-12 01:01:38.380
36.0, -11466.623719528166, -10460.83992252826, -6473.400470423755, -13398.864972456095, -9304.964161510965, -6443.7844090204735, -9838.455598170232, -7014.357389731096, -9773.993167161128, -12119.1605471564, -10100.753319353262, -9502.374768540236, -7778.25060823567, -11138.075427779608, -11260.27241471677, -16227.567640253024, 0.0045000000000000005, 0.23550000000000001, 0.9505000000000001, 192.0, 0.0, 8.0, 3.5, 40.0, 14.5, 88.0, 0.0, 0.0, 0.0, 1.644588098388617E9, 0.0, 2022-02-12 01:01:38.388
38.0, -11459.784085724841, -10441.148035663133, -6481.022415283015, -13389.790164207241, -9296.179925940029, -6437.995307206548, -9836.958031291728, -7007.964790816879, -9757.519931497567, -12121.999218702224, -10103.547287410174, -9482.97345435303, -7779.8822855809085, -11137.49428242377, -11264.27337697427, -16187.44625895575, 0.0045000000000000005, 0.23550000000000001, 0.9505000000000001, 192.0, 0.0, 0.0, 0.0, 0.0, 0.0, 0.0, 0.0, 0.0, 0.0, 1.644588098395213E9, 0.0, 2022-02-12 01:01:38.395
40.0, -11444.830768684242, -10437.325887361276, -6474.495705902065, -13407.962132449406, -9302.304303920782, -6444.052629953937, -9834.164063234814, -7013.217450763876, -9766.818257190975, -12124.2120414033, -10109.38109271301, -9495.199858570082, -7782.452736193269, -11135.259107978238, -11263.938100807442, -16209.663892944325, 0.0045000000000000005, 0.23550000000000001, 0.9505000000000001, 192.0, 0.0, 0.0, 0.0, 0.0, 0.0, 0.0, 0.0, 0.0, 0.0, 1.644588098403216E9, 0.0, 2022-02-12 01:01:38.403
42.0, -11440.226309326448, -10416.695227229027, -6481.268284472023, -13404.899943459028, -9301.611399842668, -6443.337374131367, -9833.89584230135, -7008.903564084001, -9766.214760090681, -12134.091512452545, -10112.130357281012, -9499.558448738868, -7780.843410592486, -11132.509843410236, -11260.853560072608, -16222.136166350385, 0.0045000000000000005, 0.23550000000000001, 0.9505000000000001, 192.0, 0.0, 0.0, 0.0, 0.0, 0.0, 0.0, 0.0, 0.0, 0.0, 1.644588098411283E9, 0.0, 2022-02-12 01:01:38.411
44.0, -11442.461483771978, -10430.195680880033, -6471.098240744858, -13394.4616787984, -9299.108004463675, -6439.872853740794, -9837.047438269548, -7013.172747274965, -9751.037925605528, -12115.830137232559, -10106.073034533625, -9497.300922548882, -7776.238951234693, -11140.087084780585, -11260.250062972316, -16189.122639789897, 0.0045000000000000005, 0.23550000000000001, 0.9505000000000001, 192.0, 0.0, 0.0, 0.0, 0.0, 0.0, 0.0, 0.0, 0.0, 0.0, 1.644588098418329E9, 0.0, 2022-02-12 01:01:38.418
46.0, -11428.581050465233, -10404.938209645536, -6472.99813902356, -13396.987425921849, -9303.60070509919, -6439.761095018518, -9826.743284075652, -7005.461395437885, -9760.604472232399, -12129.375294372476, -10084.90593253445, -9472.468134459035, -7773.06500352204, -11131.839291076576, -11260.56298739469, -16227.58999199748, 0.00425, 0.23575000000000002, 0.9512500000000002, 192.0, 0.0, 16.0, 3.5, 48.0, 14.5, 96.0, 0.0, 0.0, 0.0, 1.644588098433123E9, 0.0, 2022-02-12 01:01:38.433
48.0, -11425.563564963766, -10403.597104978217, -6470.9641302781265, -13378.79310593523, -9292.715405549456, -6431.692115270152, -9823.077597984982, -7002.265095980775, -9747.26048079258, -12109.951628440813, -10092.66198786044, -9482.280550274916, -7774.875494822919, -11134.476796922303, -11258.66308911599, -16188.273273500596, 0.00425, 0.23575000000000002, 0.9512500000000002, 192.0, 0.0, 0.0, 0.0, 0.0, 0.0, 0.0, 0.0, 0.0, 0.0, 1.64458809844094E9, 0.0, 2022-02-12 01:01:38.440
50.0, -11408.017445566351, -10400.49021249893, -6466.0914499868695, -13390.013681651793, -9297.766899796356, -6432.519129814998, -9821.580031106476, -6999.068796523667, -9753.630727962343, -12111.717416252783, -10098.115813507535, -9486.460326488057, -7776.820096590531, -11130.319372453616, -11255.80206582571, -16204.053605086043, 0.00425, 0.23575000000000002, 0.9512500000000002, 192.0, 0.0, 0.0, 0.0, 0.0, 0.0, 0.0, 0.0, 0.0, 0.0, 1.644588098447586E9, 0.0, 2022-02-12 01:01:38.447
52.0, -11387.789116834298, -10388.934360615536, -6467.23138895409, -13390.416013051989, -9296.26933291785, -6435.089580427359, -9825.89391778635, -7003.405034947996, -9749.272137793558, -12123.273268136176, -10096.059453017648, -9478.480753717513, -7775.367233200936, -11124.463215406326, -11257.992536782329, -16214.737738935679, 0.00425, 0.23575000000000002, 0.9512500000000002, 192.0, 0.0, 0.0, 0.0, 0.0, 0.0, 0.0, 0.0, 0.0, 0.0, 1.644588098455585E9, 0.0, 2022-02-12 01:01:38.455
54.0, -11388.146744745582, -10358.446581178498, -6453.9991562365485, -13378.4578297684, -9284.936998479008, -6420.98562967606, -9821.937659017762, -6993.994950532312, -9726.942745082706, -12076.28990129112, -10101.468575175832, -9479.911265362653, -7764.347823184469, -11121.445729904859, -11259.288937960737, -16183.512351931615, 0.00425, 0.23575000000000002, 0.9512500000000002, 192.0, 0.0, 0.0, 0.0, 0.0, 0.0, 0.0, 0.0, 0.0, 0.0, 1.644588098463616E9, 0.0, 2022-02-12 01:01:38.463
56.0, -11399.389672206602, -10379.05488956629, -6452.635699824775, -13385.141001360536, -9294.257675916871, -6425.791254733951, -9828.75494107663, -7000.901639569001, -9739.660887677775, -12098.127555623956, -10067.113943948025, -9454.989070294985, -7758.938701026285, -11109.800471043643, -11263.200493240416, -16222.136166350385, 0.004125, 0.237875, 0.9516250000000002, 192.0, 0.0, 16.0, 3.5, 64.0, 14.5, 96.0, 0.0, 0.0, 0.0, 1.644588098470757E9, 0.0, 2022-02-12 01:01:38.470
58.0, -11378.267273696336, -10365.710898126472, -6459.497685372554, -13370.21003606439, -9288.088594447207, -6427.087655912359, -9831.973592278195, -6997.012436033779, -9720.326628723935, -12089.58918924203, -10057.212121154324, -9448.81998882532, -7754.021317246118, -11119.210555459327, -11265.010984541295, -16188.742660134158, 0.004125, 0.237875, 0.9516250000000002, 192.0, 0.0, 0.0, 0.0, 0.0, 0.0, 0.0, 0.0, 0.0, 0.0, 1.644588098478094E9, 0.0, 2022-02-12 01:01:38.478
60.0, -11373.238131193893, -10359.340650956708, -6456.27903417099, -13386.54916126122, -9300.046777730797, -6441.1469031747465, -9827.503243387133, -7004.969657059867, -9730.697838151198, -12090.840886931526, -10069.66204281593, -9452.999765038463, -7760.77154407162, -11124.753788084245, -11267.872007831575, -16209.976817366698, 0.004125, 0.237875, 0.9516250000000002, 192.0, 0.0, 0.0, 0.0, 0.0, 0.0, 0.0, 0.0, 0.0, 0.0, 1.644588098485477E9, 0.0, 2022-02-12 01:01:38.485
62.0, -11373.72986957191, -10358.357174200675, -6469.131287232792, -13390.639530496543, -9303.041911487808, -6447.315984644411, -9837.494473158655, -7011.116386785077, -9740.890233622818, -12106.710625494794, -10075.56290335213, -9470.411773969146, -7771.053346521062, -11132.263974221227, -11266.508551419802, -16224.594858240469, 0.004125, 0.237875, 0.9516250000000002, 192.0, 0.0, 0.0, 0.0, 0.0, 0.0, 0.0, 0.0, 0.0, 0.0, 1.644588098493316E9, 0.0, 2022-02-12 01:01:38.493
64.0, -11371.941730015486, -10358.133656756123, -6459.542388861464, -13390.84069619664, -9299.778556797333, -6447.651260811242, -9841.42838018279, -7017.3301717436525, -9718.06910253395, -12079.597959470506, -10073.841819029072, -9472.35637573676, -7768.058212764051, -11139.975326058307, -11268.788429354243, -16196.610474182426, 0.004125, 0.237875, 0.9516250000000002, 192.0, 0.0, 0.0, 0.0, 0.0, 0.0, 0.0, 0.0, 0.0, 0.0, 1.644588098500355E9, 0.0, 2022-02-12 01:01:38.500
66.0, -11378.423735907523, -10383.748755901905, -6464.772697064006, -13406.12928940407, -9313.323713937249, -6453.552121347442, -9850.614947153921, -7021.018209578778, -9743.036001090528, -12116.2101168883, -10081.463763888332, -9474.368032737737, -7783.1679920158385, -11148.11136104004, -11272.498818933824, -16237.894146191376, 0.0060625, 0.23593750000000002, 0.9498125000000002, 192.0, 0.0, 32.0, 3.5, 40.0, 14.5, 80.0, 0.0, 0.0, 0.0, 1.644588098507927E9, 0.0, 2022-02-12 01:01:38.507
68.0, -11405.40229146508, -10374.182209275034, -6469.198342466158, -13395.422803809977, -9297.766899796356, -6449.7746765344955, -9852.470141943711, -7026.382628248051, -9741.046695834006, -12120.747521012727, -10080.56969411012, -9477.49727696148, -7778.451773935769, -11139.952974313854, -11277.192685269438, -16205.126488819897, 0.0060625, 0.23593750000000002, 0.9498125000000002, 192.0, 0.0, 0.0, 0.0, 0.0, 0.0, 0.0, 0.0, 0.0, 0.0, 1.64458809851576E9, 0.0, 2022-02-12 01:01:38.515
70.0, -11354.619128062623, -10356.345517199697, -6459.765906306017, -13399.334359089657, -9300.627923086635, -6443.56089157592, -9840.556662149032, -7010.512889684784, -9741.73959991212, -12099.468660291275, -10071.763106794728, -9466.544922178378, -7773.333224455503, -11141.338782470082, -11274.555179423713, -16219.632770971391, 0.0060625, 0.23593750000000002, 0.9498125000000002, 192.0, 0.0, 0.0, 0.0, 0.0, 0.0, 0.0, 0.0, 0.0, 0.0, 1.644588098523878E9, 0.0, 2022-02-12 01:01:38.523
72.0, -11373.305186427258, -10364.61566264816, -6463.632758096785, -13396.719204988385, -9293.587123583213, -6438.978783962582, -9841.763656349618, -7004.5896774041275, -9734.676448664242, -12116.098358166022, -10070.846685272061, -9466.477866945013, -7774.808439589553, -11131.10168350955, -11268.676670631967, -16224.460747773737, 0.0060625, 0.23593750000000002, 0.9498125000000002, 192.0, 0.0, 0.0, 0.0, 0.0, 0.0, 0.0, 0.0, 0.0, 0.0, 1.644588098530514E9, 0.0, 2022-02-12 01:01:38.530
74.0, -11384.793983077287, -10368.080183038734, -6459.0506504834475, -13389.499591529322, -9293.31890264975, -6449.75232479004, -9843.32827846149, -7012.099863541111, -9725.556936926478, -12092.830192188048, -10072.2771969172, -9464.376802966215, -7767.29825345257, -11135.549680656157, -11270.509513677302, -16193.235360769673, 0.0060625, 0.23593750000000002, 0.9498125000000002, 192.0, 0.0, 0.0, 0.0, 0.0, 0.0, 0.0, 0.0, 0.0, 0.0, 1.644588098538985E9, 0.0, 2022-02-12 01:01:38.538
76.0, -11371.651157337566, -10372.662290652072, -6462.425763896199, -13404.542315547744, -9304.360664410671, -6457.508380116032, -9845.831673840485, -7016.2796397542525, -9746.16524531427, -12117.752387255716, -10069.259711415734, -9469.763573379943, -7776.842448334986, -11141.696410381366, -11273.683461389955, -16238.11766363593, 0.00603125, 0.23596875, 0.9469062500000001, 192.0, 0.0, 24.0, 3.5, 48.0, 14.5, 64.0, 0.0, 0.0, 0.0, 1.644588098546437E9, 0.0, 2022-02-12 01:01:38.546
78.0, -11376.054450995262, -10357.798380589293, -6466.672595342708, -13389.074908384671, -9290.614341570657, -6452.836865524872, -9845.272880229102, -7016.525508943261, -9729.69200965071, -12103.670788248872, -10075.540551607675, -9475.798544382877, -7773.86966632243, -11139.595346402568, -11272.431763700457, -16205.618227197914, 0.00603125, 0.23596875, 0.9469062500000001, 192.0, 0.0, 0.0, 0.0, 0.0, 0.0, 0.0, 0.0, 0.0, 0.0, 1.644588098560136E9, 0.0, 2022-02-12 01:01:38.560
80.0, -11361.034078721295, -10354.020935776345, -6454.535598103475, -13392.450021797422, -9294.615303828157, -6449.148827689747, -9842.411856938823, -7016.77137813227, -9733.804730630485, -12075.529941979641, -10074.758240551739, -9471.507009447458, -7771.790954088087, -11140.757637114244, -11271.560045666702, -16219.409253526837, 0.00603125, 0.23596875, 0.9469062500000001, 192.0, 0.0, 0.0, 0.0, 0.0, 0.0, 0.0, 0.0, 0.0, 0.0, 1.644588098568107E9, 0.0, 2022-02-12 01:01:38.568
82.0, -11376.68029984001, -10379.680738411038, -6460.056478983936, -13385.431574038455, -9292.625998571635, -6441.213958408112, -9843.596499394955, -7012.569250174672, -9742.812483645974, -12131.409303117909, -10072.99245273977, -9458.028907540907, -7773.042651777584, -11126.541927640668, -11267.022641542273, -16225.131300107398, 0.00603125, 0.23596875, 0.9469062500000001, 192.0, 0.0, 0.0, 0.0, 0.0, 0.0, 0.0, 0.0, 0.0, 0.0, 1.644588098576076E9, 0.0, 2022-02-12 01:01:38.576
84.0, -11361.414058377035, -10337.57005185724, -6451.629871324286, -13378.636643724043, -9285.495792090393, -6437.816493250906, -9836.421589424801, -7009.417654206473, -9724.998143315095, -12098.306369579599, -10067.404516625944, -9459.72764011951, -7766.605349374456, -11131.504014909748, -11268.073173531673, -16190.642558412857, 0.00603125, 0.23596875, 0.9469062500000001, 192.0, 0.0, 0.0, 0.0, 0.0, 0.0, 0.0, 0.0, 0.0, 0.0, 1.644588098582581E9, 0.0, 2022-02-12 01:01:38.582
86.0, -11362.15166594406, -10346.153121728077, -6447.56185383342, -13390.103088629616, -9292.60364682718, -6444.65612705423, -9840.08727551547, -7013.15039553051, -9733.82708237494, -12104.87778244946, -10055.647499042452, -9467.863675101242, -7763.900788295364, -11133.24745097726, -11267.827304342665, -16232.328561822005, 0.007015625, 0.23598437500000002, 0.943453125, 192.0, 0.0, 32.0, 3.5, 48.0, 14.5, 48.0, 0.0, 0.0, 0.0, 1.644588098590789E9, 0.0, 2022-02-12 01:01:38.590
88.0, -11357.055468208251, -10351.137560741612, -6457.553083604942, -13375.909730900496, -9281.450126343982, -6442.979746220082, -9841.964822049717, -7006.064892538177, -9724.796977614997, -12101.949703925813, -10064.811714269128, -9457.425410440614, -7765.9124452963415, -11129.000619530752, -11268.117877020584, -16197.68335791628, 0.007015625, 0.23598437500000002, 0.943453125, 192.0, 0.0, 0.0, 0.0, 0.0, 0.0, 0.0, 0.0, 0.0, 0.0, 1.644588098598776E9, 0.0, 2022-02-12 01:01:38.598
90.0, -11362.241072921881, -10357.15018000009, -6443.739705531562, -13389.968978162882, -9294.07886196123, -6446.891301499761, -9844.557624406532, -7010.4011309625075, -9719.074931034438, -12089.365671797475, -10054.641670541963, -9451.859826071242, -7757.977576014707, -11126.698389851856, -11267.290862475737, -16212.770785423612, 0.007015625, 0.23598437500000002, 0.943453125, 192.0, 0.0, 0.0, 0.0, 0.0, 0.0, 0.0, 0.0, 0.0, 0.0, 1.644588098605718E9, 0.0, 2022-02-12 01:01:38.605
92.0, -11368.6336718361, -10359.519464912351, -6455.295557414956, -13390.416013051989, -9294.03415847232, -6454.043859725459, -9849.653822142342, -7014.647962409015, -9739.079742321937, -12116.455986077308, -10070.444353871866, -9458.58770115229, -7771.500381410168, -11125.58080262909, -11271.89532183353, -16228.193489097774, 0.007015625, 0.23598437500000002, 0.943453125, 192.0, 0.0, 0.0, 0.0, 0.0, 0.0, 0.0, 0.0, 0.0, 0.0, 1.644588098612481E9, 0.0, 2022-02-12 01:01:38.612
94.0, -11345.946651213962, -10335.67015357854, -6452.747458547051, -13377.653166968008, -9289.40734737007, -6447.360688133323, -9843.3729819504, -7013.597430419616, -9724.394646214801, -12078.413317014376, -10071.89721726146, -9456.44193368458, -7757.016451003129, -11133.135692254984, -11274.018737556784, -16200.030291084087, 0.007015625, 0.23598437500000002, 0.943453125, 192.0, 0.0, 0.0, 0.0, 0.0, 0.0, 0.0, 0.0, 0.0, 0.0, 1.644588098620276E9, 0.0, 2022-02-12 01:01:38.620
96.0, -11356.966061230429, -10355.697316610494, -6455.362612648322, -13392.248856097325, -9296.761071295867, -6456.033164981981, -9844.08823777297, -7023.566308446683, -9739.996163844606, -12109.996331929724, -10062.867112501515, -9456.620747640223, -7772.573265144023, -11129.447654419859, -11273.884627090052, -16240.621059014924, 0.004, 0.232, 0.9400000000000001, 192.0, 0.0, 16.0, 3.5, 32.0, 14.5, 48.0, 0.0, 0.0, 0.0, 1.644588098628347E9, 0.0, 2022-02-12 01:01:38.628
98.0, -11369.34892765867, -10347.650688606584, -6459.0506504834475, -13379.418954779978, -9283.26061764486, -6449.3052899009335, -9842.14363600536, -7012.211622263387, -9740.465550478168, -12113.840831976036, -10074.780592296194, -9465.114410533239, -7772.3720994439245, -11133.448616677359, -11271.872970089074, -16205.327654519995, 0.004, 0.232, 0.9400000000000001, 192.0, 0.0, 0.0, 0.0, 0.0, 0.0, 0.0, 0.0, 0.0, 0.0, 1.644588098635481E9, 0.0, 2022-02-12 01:01:38.635
100.0, -11358.217758919925, -10345.95195602798, -6455.206150437135, -13383.129344359559, -9295.352911395183, -6445.170217176702, -9842.434208683278, -7005.640209393527, -9742.030172590039, -12086.147020595912, -10071.2266649278, -9457.179541251606, -7763.073773750517, -11132.86747132152, -11276.186856768949, -16215.564753480525, 0.004, 0.232, 0.9400000000000001, 192.0, 0.0, 0.0, 0.0, 0.0, 0.0, 0.0, 0.0, 0.0, 0.0, 1.644588098643057E9, 0.0, 2022-02-12 01:01:38.643
102.0, -11348.852377993153, -10341.705124581471, -6462.269301685012, -13380.93887340294, -9295.08469046172, -6441.951565975138, -9851.777237865595, -7012.412787963484, -9743.348925512902, -12112.946762197824, -10068.879731759993, -9451.613956882235, -7766.359480185447, -11128.933564297386, -11273.683461389955, -16223.030236128598, 0.004, 0.232, 0.9400000000000001, 192.0, 0.0, 0.0, 0.0, 0.0, 0.0, 0.0, 0.0, 0.0, 0.0, 1.644588098651084E9, 0.0, 2022-02-12 01:01:38.651
104.0, -11359.87178800962, -10355.563206143763, -6453.216845180613, -13373.808666921695, -9289.183829925518, -6441.348068874845, -9845.831673840485, -7011.071683296166, -9731.748370140598, -12085.230599073244, -10073.126563206502, -9458.990032552485, -7774.96490180074, -11125.938430540375, -11274.7116416349, -16192.721270647202, 0.004, 0.232, 0.9400000000000001, 192.0, 0.0, 0.0, 0.0, 0.0, 0.0, 0.0, 0.0, 0.0, 0.0, 1.64458809865929E9, 0.0, 2022-02-12 01:01:38.659
106.0, -11379.988358019395, -10353.998584031891, -6455.206150437135, -13386.906789172506, -9300.739681808911, -6445.259624154523, -9843.03770578357, -7010.535241429239, -9747.707515681686, -12112.410320330897, -10063.068278201614, -9447.523587646912, -7775.389584945391, -11123.859718306032, -11270.420106699481, -16233.982590911699, 0.01, 0.234, 0.9440000000000001, 192.0, 0.0, 40.0, 3.5, 40.0, 14.5, 64.0, 0.0, 0.0, 0.0, 1.644588098665637E9, 0.0, 2022-02-12 01:01:38.665
108.0, -11374.266311438836, -10330.752769798371, -6460.548217361953, -13376.490876256334, -9290.03319621482, -6439.761095018518, -9846.368115707412, -7011.205793762898, -9741.627841189844, -12102.419090559375, -10069.170304437912, -9458.431238941102, -7770.382794187402, -11127.480700907792, -11270.643624144033, -16201.34904400695, 0.01, 0.234, 0.9440000000000001, 192.0, 0.0, 0.0, 0.0, 0.0, 0.0, 0.0, 0.0, 0.0, 0.0, 1.64458809868056E9, 0.0, 2022-02-12 01:01:38.680
110.0, -11352.048677450262, -10351.115208997157, -6455.474371370598, -13384.984539149349, -9301.566696353757, -6440.65516479673, -9847.508054674632, -7012.010456563289, -9743.505387724088, -12110.376311585464, -10068.56680733762, -9453.87148307222, -7764.906616795853, -11124.887898550976, -11273.862275345598, -16215.274180802606, 0.01, 0.234, 0.9440000000000001, 192.0, 0.0, 0.0, 0.0, 0.0, 0.0, 0.0, 0.0, 0.0, 0.0, 1.644588098687617E9, 0.0, 2022-02-12 01:01:38.687
112.0, -11357.01076471934, -10352.612775875661, -6462.828095296395, -13387.197361850425, -9298.683321319024, -6441.683345041674, -9849.989098309172, -7012.926878085957, -9747.036963348028, -12119.629933789962, -10071.718403305818, -9459.817047097331, -7765.174837729316, -11129.358247442038, -11273.214074756394, -16227.83586118649, 0.01, 0.234, 0.9440000000000001, 192.0, 0.0, 0.0, 0.0, 0.0, 0.0, 0.0, 0.0, 0.0, 0.0, 1.644588098695399E9, 0.0, 2022-02-12 01:01:38.695
114.0, -11335.91071795353, -10341.90629028157, -6455.273205670501, -13376.736745445342, -9291.419004371048, -6435.871891483294, -9838.835577825974, -7010.423482706962, -9732.97771608564, -12098.194610857321, -10072.970100995315, -9461.560483164845, -7772.036823277095, -11127.033666018686, -11276.835057358154, -16194.889389859367, 0.01, 0.234, 0.9440000000000001, 192.0, 0.0, 0.0, 0.0, 0.0, 0.0, 0.0, 0.0, 0.0, 0.0, 1.644588098703155E9, 0.0, 2022-02-12 01:01:38.703
116.0, -11374.266311438836, -10351.204615974977, -6456.726069060096, -13384.470449026878, -9304.070091732752, -6443.985574720571, -9847.530406419088, -7017.53133744375, -9744.935899369228, -12113.63966627594, -10070.779630038694, -9440.39338116567, -7768.72876509771, -11125.714913095822, -11275.650414902022, -16234.362570567439, 0.006, 0.234, 0.9480000000000001, 192.0, 0.0, 24.0, 3.5, 40.0, 14.5, 80.0, 0.0, 0.0, 0.0, 1.644588098713059E9, 0.0, 2022-02-12 01:01:38.713
118.0, -11376.814410306743, -10343.493264137896, -6459.408278394732, -13377.474353012367, -9298.683321319024, -6447.383039877777, -9859.175665280303, -7023.834529380147, -9742.857187134885, -12111.560954041595, -10073.081859717591, -9458.386535452191, -7760.793895816076, -11137.270764979216, -11279.941949837441, -16206.847573142955, 0.006, 0.234, 0.9480000000000001, 192.0, 0.0, 0.0, 0.0, 0.0, 0.0, 0.0, 0.0, 0.0, 0.0, 1.644588098718845E9, 0.0, 2022-02-12 01:01:38.718
120.0, -11350.14877917156, -10345.661383350061, -6453.216845180613, -13386.727975216863, -9301.052606231286, -6441.571586319397, -9851.553720421043, -7013.955058330901, -9748.176902315248, -12099.982750413747, -10076.702842319351, -9461.761648864944, -7771.67919536581, -11137.360171957038, -11282.020662071785, -16216.615285469925, 0.006, 0.234, 0.9480000000000001, 192.0, 0.0, 0.0, 0.0, 0.0, 0.0, 0.0, 0.0, 0.0, 0.0, 1.64458809872602E9, 0.0, 2022-02-12 01:01:38.726
122.0, -11369.795962547776, -10355.317336954753, -6456.368441148811, -13386.07977462766, -9297.498678862892, -6443.717353787107, -9850.14556052036, -7017.553689188206, -9753.720134940164, -12116.858317477503, -10067.963310237326, -9455.950195306563, -7782.676253637822, -11130.118206753517, -11273.28112998976, -16227.388826297383, 0.006, 0.234, 0.9480000000000001, 192.0, 0.0, 0.0, 0.0, 0.0, 0.0, 0.0, 0.0, 0.0, 0.0, 1.644588098732857E9, 0.0, 2022-02-12 01:01:38.732
124.0, -11348.830026248697, -10344.09676123819, -6450.579339334887, -13379.486010013345, -9296.448146873492, -6443.002097964537, -9857.05224955705, -7020.951154345412, -9741.985469101128, -12113.952590698313, -10070.399650382955, -9456.285471473393, -7773.7802593446095, -11133.359209699538, -11275.985691068852, -16198.197448038753, 0.006, 0.234, 0.9480000000000001, 192.0, 0.0, 0.0, 0.0, 0.0, 0.0, 0.0, 0.0, 0.0, 0.0, 1.64458809874117E9, 0.0, 2022-02-12 01:01:38.741
126.0, -11358.977718231406, -10336.47481637893, -6449.640566067764, -13390.4607165409, -9309.725083079944, -6448.232406167079, -9853.878301844396, -7019.431235722451, -9751.954347128194, -12122.78152975816, -10062.621243312507, -9456.01725053993, -7777.49064892419, -11132.643953876968, -11276.14215328004, -16238.11766363593, 0.004, 0.23800000000000002, 0.9460000000000001, 192.0, 0.0, 16.0, 3.5, 56.0, 14.5, 72.0, 0.0, 0.0, 0.0, 1.644588098747509E9, 0.0, 2022-02-12 01:01:38.747
128.0, -11368.432506136001, -10347.76244732886, -6461.643452840263, -13379.709527457897, -9307.51226037887, -6449.864083512317, -9861.276729259102, -7017.553689188206, -9745.807617402985, -12113.214983131289, -10070.645519571963, -9455.72667786201, -7774.026128533617, -11138.500110924258, -11277.930292836463, -16208.792174910568, 0.004, 0.23800000000000002, 0.9460000000000001, 192.0, 0.0, 0.0, 0.0, 0.0, 0.0, 0.0, 0.0, 0.0, 0.0, 1.644588098755674E9, 0.0, 2022-02-12 01:01:38.755
130.0, -11364.67741306751, -10353.23862472041, -6448.970013734104, -13390.84069619664, -9310.999132513898, -6448.053592211437, -9848.513883175121, -7009.618819906571, -9754.45774250719, -12116.076006421568, -10074.579426596098, -9456.129009262206, -7777.960035557751, -11141.808169103644, -11282.37828998307, -16219.230439571196, 0.004, 0.23800000000000002, 0.9460000000000001, 192.0, 0.0, 0.0, 0.0, 0.0, 0.0, 0.0, 0.0, 0.0, 0.0, 1.644588098765026E9, 0.0, 2022-02-12 01:01:38.765
132.0, -11366.666718324032, -10357.418400933553, -6450.624042823797, -13392.427670052966, -9306.282914433827, -6447.22657766659, -9852.537197177076, -7009.1047297841, -9756.715268697175, -12122.379198357965, -10066.130467191992, -9459.72764011951, -7785.604332161467, -11131.079331765097, -11276.388022469047, -16228.059378631042, 0.004, 0.23800000000000002, 0.9460000000000001, 192.0, 0.0, 0.0, 0.0, 0.0, 0.0, 0.0, 0.0, 0.0, 0.0, 1.644588098771254E9, 0.0, 2022-02-12 01:01:38.771
134.0, -11348.025363448307, -10346.33193568372, -6446.578377077387, -13375.97678613386, -9296.738719551411, -6441.638641552764, -9845.42934244029, -7005.640209393527, -9739.906756866785, -12107.627047017462, -10065.102286947047, -9465.628500655712, -7776.708337868255, -11133.694485866366, -11276.65624340251, -16191.134296790875, 0.004, 0.23800000000000002, 0.9460000000000001, 192.0, 0.0, 0.0, 0.0, 0.0, 0.0, 0.0, 0.0, 0.0, 0.0, 1.644588098778092E9, 0.0, 2022-02-12 01:01:38.778
136.0, -11334.346095841658, -10331.468025620941, -6450.80285677944, -13388.985501406849, -9310.105062735685, -6448.99236547856, -9856.09112454547, -7010.2893722402305, -9754.033059362539, -12121.507480324208, -10064.007051468738, -9450.138741748184, -7775.68015762331, -11127.927735796899, -11276.678595146966, -16230.78629145459, 0.006, 0.23800000000000002, 0.9480000000000001, 192.0, 0.0, 24.0, 3.5, 56.0, 14.5, 80.0, 0.0, 0.0, 0.0, 1.644588098786287E9, 0.0, 2022-02-12 01:01:38.786
138.0, -11366.890235768586, -10334.932546011514, -6456.3237376599, -13380.335376302646, -9297.342216651705, -6446.198397421646, -9852.80541811054, -7018.24659326632, -9742.991297601617, -12130.582288573061, -10078.893313275972, -9454.430276683603, -7775.210770989749, -11139.193015002373, -11275.80687711321, -16204.97002660871, 0.006, 0.23800000000000002, 0.9480000000000001, 192.0, 0.0, 0.0, 0.0, 0.0, 0.0, 0.0, 0.0, 0.0, 0.0, 1.644588098793304E9, 0.0, 2022-02-12 01:01:38.793
140.0, -11372.142895715582, -10347.114246739657, -6445.0808101988805, -13392.740594475341, -9306.953466767487, -6445.125513687792, -9850.324374476002, -7009.372950717563, -9748.378068015345, -12106.040073161135, -10068.253882915245, -9448.39530568067, -7774.763736100643, -11132.241622476771, -11275.628063157566, -16219.811584927034, 0.006, 0.23800000000000002, 0.9480000000000001, 192.0, 0.0, 0.0, 0.0, 0.0, 0.0, 0.0, 0.0, 0.0, 0.0, 1.644588098807667E9, 0.0, 2022-02-12 01:01:38.807
142.0, -11374.646291094577, -10362.358136458175, -6455.228502181591, -13388.60552175111, -9310.060359246774, -6452.725106802596, -9851.33020297649, -7017.441930465929, -9763.800771689508, -12122.02157044668, -10063.783534024184, -9454.005593538952, -7778.407070446858, -11132.509843410236, -11274.08579279015, -16233.557907767048, 0.006, 0.23800000000000002, 0.9480000000000001, 192.0, 0.0, 0.0, 0.0, 0.0, 0.0, 0.0, 0.0, 0.0, 0.0, 1.644588098815859E9, 0.0, 2022-02-12 01:01:38.815
144.0, -11349.567633815723, -10347.38246767312, -6458.693022572163, -13377.072021612172, -9305.7464725669, -6448.053592211437, -9848.670345386308, -7010.177613517954, -9753.183693073237, -12110.510422052195, -10073.730060306796, -9462.49925643197, -7773.087355266494, -11137.851910335054, -11281.6630341605, -16200.767898651113, 0.006, 0.23800000000000002, 0.9480000000000001, 192.0, 0.0, 0.0, 0.0, 0.0, 0.0, 0.0, 0.0, 0.0, 0.0, 1.644588098822953E9, 0.0, 2022-02-12 01:01:38.822
146.0, -11358.374221131113, -10352.009278775367, -6453.306252158434, -13390.863047941095, -9319.202222728994, -6458.156580705236, -9858.818037369017, -7017.710151399392, -9763.867826922873, -12141.624050333983, -10068.030365470691, -9444.684916101089, -7766.448887163268, -11132.375732943503, -11284.56876093969, -16240.397541570372, 0.002, 0.232, 0.9440000000000001, 192.0, 0.0, 8.0, 3.5, 32.0, 14.5, 64.0, 0.0, 0.0, 0.0, 1.644588098830629E9, 0.0, 2022-02-12 01:01:38.830
148.0, -11363.135142700094, -10330.909232009559, -6451.495760857554, -13382.279978070257, -9300.829088786733, -6453.8873975142715, -9858.23689201318, -7015.832604865147, -9758.056373364494, -12124.2120414033, -10071.338423650077, -9450.518721403923, -7789.1582595298605, -11140.936451069887, -11282.80297312772, -16215.676512202803, 0.002, 0.232, 0.9440000000000001, 192.0, 0.0, 0.0, 0.0, 0.0, 0.0, 0.0, 0.0, 0.0, 0.0, 1.644588098838942E9, 0.0, 2022-02-12 01:01:38.838
150.0, -11353.836817006686, -10348.701220595984, -6444.790237520962, -13389.097260129127, -9304.271257432849, -6448.366516633811, -9846.099894773948, -7008.925915828457, -9758.525759998056, -12126.201346659822, -10072.56776959512, -9456.866616829231, -7778.585884402501, -11139.237718491284, -11282.80297312772, -16224.237230329185, 0.002, 0.232, 0.9440000000000001, 192.0, 0.0, 0.0, 0.0, 0.0, 0.0, 0.0, 0.0, 0.0, 0.0, 1.644588098846588E9, 0.0, 2022-02-12 01:01:38.846
152.0, -11373.372241660625, -10350.422304919042, -6449.03706896747, -13385.208056593903, -9302.46076613197, -6449.7746765344955, -9850.302022731546, -7013.664485652982, -9761.565597243976, -12138.15952994341, -10064.208217168834, -9441.041581754873, -7774.2496459781705, -11131.7275323543, -11277.147981780528, -16235.12252987892, 0.002, 0.232, 0.9440000000000001, 192.0, 0.0, 0.0, 0.0, 0.0, 0.0, 0.0, 0.0, 0.0, 0.0, 1.644588098852995E9, 0.0, 2022-02-12 01:01:38.852
154.0, -11353.367430373124, -10340.609889103162, -6449.931138745683, -13380.424783280467, -9295.59878058419, -6443.695002042652, -9852.939528577272, -7017.0395990657335, -9749.495655238112, -12111.1586226414, -10065.951653236349, -9443.276756200405, -7772.01447153264, -11148.06665755113, -11279.09258354814, -16204.612398697425, 0.002, 0.232, 0.9440000000000001, 192.0, 0.0, 0.0, 0.0, 0.0, 0.0, 0.0, 0.0, 0.0, 0.0, 1.644588098860157E9, 0.0, 2022-02-12 01:01:38.860
156.0, -11353.456837350946, -10350.377601430131, -6463.722165074607, -13392.494725286333, -9311.200298213995, -6447.003060222038, -9858.95214783575, -7017.196061276921, -9772.070917137971, -12131.185785673355, -10074.400612640455, -9457.581872651801, -7780.5304861701115, -11130.185261986884, -11279.360804481603, -16246.074884662019, 0.01, 0.234, 0.9500000000000001, 192.0, 0.0, 40.0, 3.5, 40.0, 14.5, 88.0, 0.0, 0.0, 0.0, 1.644588098868076E9, 0.0, 2022-02-12 01:01:38.868
158.0, -11375.227436450416, -10345.99665951689, -6463.789220307973, -13383.352861804113, -9301.477289375936, -6447.2489294110455, -9859.242720513668, -7023.499253213317, -9767.466457780178, -12133.77858803017, -10089.37628142551, -9463.326270976815, -7784.531448427612, -11138.20953824634, -11279.09258354814, -16213.933076135289, 0.01, 0.234, 0.9500000000000001, 192.0, 0.0, 0.0, 0.0, 0.0, 0.0, 0.0, 0.0, 0.0, 0.0, 1.64458809887615E9, 0.0, 2022-02-12 01:01:38.876
160.0, -11370.48886662589, -10347.76244732886, -6458.13422896078, -13394.215809609392, -9310.216821457961, -6446.600728821842, -9854.392391966867, -7017.285468254741, -9767.287643824535, -12121.842756491036, -10077.038118486182, -9460.800523853364, -7782.4080327043575, -11144.691544138377, -11278.980824825863, -16225.7795006966, 0.01, 0.234, 0.9500000000000001, 192.0, 0.0, 0.0, 0.0, 0.0, 0.0, 0.0, 0.0, 0.0, 0.0, 1.644588098882783E9, 0.0, 2022-02-12 01:01:38.882
162.0, -11377.552017873766, -10358.625395134139, -6464.9738627641045, -13394.148754376025, -9310.328580180238, -6451.361650390822, -9862.327261248502, -7014.759721131292, -9774.663719494787, -12145.937937013858, -10072.344252150566, -9449.557596392346, -7786.453698450769, -11140.891747580976, -11274.7116416349, -16237.268297346629, 0.01, 0.234, 0.9500000000000001, 192.0, 0.0, 0.0, 0.0, 0.0, 0.0, 0.0, 0.0, 0.0, 0.0, 1.64458809889072E9, 0.0, 2022-02-12 01:01:38.890
164.0, -11377.39555566258, -10362.201674246988, -6461.308176673434, -13387.018547894782, -9307.981647012431, -6454.8261707813945, -9863.176627537803, -7022.158148545998, -9771.355661315401, -12136.192576431344, -10081.240246443778, -9456.039602284385, -7781.804535604065, -11146.792608117177, -11279.159638781506, -16210.44620400026, 0.009000000000000001, 0.23500000000000001, 0.9500000000000001, 192.0, 0.0, 32.0, 3.5, 48.0, 14.5, 88.0, 0.0, 0.0, 0.0, 1.644588098898925E9, 0.0, 2022-02-12 01:01:38.898
166.0, -11365.504427612357, -10366.67202313805, -6459.117705716813, -13400.429594567966, -9318.330504695237, -6462.917502274216, -9859.913272847329, -7029.087189327144, -9785.50431555561, -12144.105093968523, -10079.317996420623, -9455.346698206271, -7788.510058940657, -11147.798436617666, -11276.991519569341, -16255.060285933054, 0.009000000000000001, 0.23500000000000001, 0.9500000000000001, 192.0, 0.0, 0.0, 0.0, 0.0, 0.0, 0.0, 0.0, 0.0, 0.0, 1.644588098905535E9, 0.0, 2022-02-12 01:01:38.905
168.0, -11383.072898754228, -10338.441769890997, -6469.265397699523, -13384.716318215886, -9308.74160632391, -6458.983595250082, -9863.735421149186, -7026.181462547954, -9773.434373549744, -12142.026381734178, -10083.05073774466, -9460.487599430991, -7764.370174928925, -11154.794532632177, -11275.85158060212, -16225.555983252048, 0.009000000000000001, 0.23500000000000001, 0.9500000000000001, 192.0, 0.0, 0.0, 0.0, 0.0, 0.0, 0.0, 0.0, 0.0, 0.0, 1.644588098913521E9, 0.0, 2022-02-12 01:01:38.913
170.0, -11367.113753213138, -10347.248357206388, -6456.8154760379175, -13389.790164207241, -9311.289705191815, -6450.445228868155, -9857.85691235744, -7015.296162998219, -9773.322614827468, -12129.621163561484, -10073.551246351153, -9461.292262231382, -7784.464393194246, -11150.838273863588, -11272.767039867287, -16230.272201332118, 0.009000000000000001, 0.23500000000000001, 0.9500000000000001, 192.0, 0.0, 0.0, 0.0, 0.0, 0.0, 0.0, 0.0, 0.0, 0.0, 1.644588098928494E9, 0.0, 2022-02-12 01:01:38.928
172.0, -11375.361546917147, -10352.501017153385, -6462.693984829662, -13389.611350251598, -9307.981647012431, -6446.623080566297, -9850.14556052036, -7009.730578628848, -9781.212780620192, -12146.720248069794, -10072.366603895021, -9456.7325063625, -7789.359425229958, -11137.047247534663, -11268.028470042762, -16240.509300292648, 0.009000000000000001, 0.23500000000000001, 0.9500000000000001, 192.0, 0.0, 0.0, 0.0, 0.0, 0.0, 0.0, 0.0, 0.0, 0.0, 1.644588098935133E9, 0.0, 2022-02-12 01:01:38.935
174.0, -11362.5316455998, -10353.640956120606, -6451.853388768839, -13378.390774535033, -9304.159498710573, -6442.286842141967, -9847.530406419088, -7010.602296662605, -9768.047603136016, -12124.189689658844, -10072.053679472647, -9442.96383177803, -7783.838544349497, -11137.15900625694, -11269.257815987805, -16204.143012063863, 0.007500000000000001, 0.23650000000000002, 0.9480000000000001, 192.0, 0.0, 24.0, 3.5, 56.0, 14.5, 72.0, 0.0, 0.0, 0.0, 1.64458809894294E9, 0.0, 2022-02-12 01:01:38.942
176.0, -11352.093380939172, -10346.935432784014, -6456.726069060096, -13390.259550840801, -9315.31301919377, -6444.343202631856, -9850.547891920554, -7014.5138519422835, -9776.921245684773, -12134.471492108285, -10068.94678699336, -9441.10863698824, -7782.810364104554, -11131.705180609844, -11271.001252055317, -16242.185681126795, 0.007500000000000001, 0.23650000000000002, 0.9480000000000001, 192.0, 0.0, 0.0, 0.0, 0.0, 0.0, 0.0, 0.0, 0.0, 0.0, 1.644588098951019E9, 0.0, 2022-02-12 01:01:38.951
178.0, -11368.790134047287, -10341.95099377048, -6461.75521156254, -13384.448097282422, -9307.735777823422, -6442.286842141967, -9849.631470397886, -7008.836508850635, -9766.661794979787, -12136.818425276093, -10076.23345568579, -9446.830683568798, -7779.904637325363, -11132.956878299341, -11269.928368321463, -16209.753299922146, 0.007500000000000001, 0.23650000000000002, 0.9480000000000001, 192.0, 0.0, 0.0, 0.0, 0.0, 0.0, 0.0, 0.0, 0.0, 0.0, 1.644588098958143E9, 0.0, 2022-02-12 01:01:38.958
180.0, -11361.704631054954, -10335.290173922798, -6449.685269556674, -13390.617178752087, -9316.587068627723, -6445.013754965515, -9857.834560612984, -7013.083340297144, -9771.668585737776, -12129.330590883565, -10068.387993381977, -9455.525512161912, -7779.524657669624, -11140.176491758406, -11271.18006601096, -16219.632770971391, 0.007500000000000001, 0.23650000000000002, 0.9480000000000001, 192.0, 0.0, 0.0, 0.0, 0.0, 0.0, 0.0, 0.0, 0.0, 0.0, 1.644588098965687E9, 0.0, 2022-02-12 01:01:38.965
182.0, -11379.720137085931, -10361.32995621323, -6456.726069060096, -13394.931065431962, -9317.45878666148, -6456.010813237526, -9862.550778693054, -7029.936555616446, -9781.995091676128, -12143.389838145953, -10066.08576370308, -9445.690744601578, -7776.261302979148, -11140.042381291674, -11274.063441045695, -16238.899974691865, 0.007500000000000001, 0.23650000000000002, 0.9480000000000001, 192.0, 0.0, 0.0, 0.0, 0.0, 0.0, 0.0, 0.0, 0.0, 0.0, 1.644588098973619E9, 0.0, 2022-02-12 01:01:38.973
184.0, -11365.213854934438, -10344.208519960466, -6453.730935303085, -13388.829039195662, -9299.21976318595, -6444.387906120766, -9835.929851046783, -7006.690741382926, -9772.875579938362, -12109.057558662602, -10078.111002220036, -9453.357392949747, -7780.441079192291, -11144.378619716004, -11271.738859622343, -16206.244076042662, 0.00775, 0.23625000000000002, 0.9470000000000001, 192.0, 0.0, 32.0, 3.5, 48.0, 14.5, 72.0, 0.0, 0.0, 0.0, 1.644588098980903E9, 0.0, 2022-02-12 01:01:38.980
186.0, -11366.376145646114, -10347.226005461933, -6455.854351026339, -13395.780431721263, -9315.894164549609, -6446.265452655012, -9848.200958752746, -7006.757796616292, -9782.419774820779, -12141.02055323369, -10075.026461485204, -9445.53428239039, -7781.156335014861, -11134.320334711116, -11268.319042720681, -16235.12252987892, 0.00775, 0.23625000000000002, 0.9470000000000001, 192.0, 0.0, 0.0, 0.0, 0.0, 0.0, 0.0, 0.0, 0.0, 0.0, 1.644588098987764E9, 0.0, 2022-02-12 01:01:38.987
188.0, -11371.025308492817, -10358.021898033847, -6465.331490675389, -13383.308158315202, -9309.523917379847, -6448.366516633811, -9855.085296044981, -7012.412787963484, -9771.512123526589, -12155.1692074739, -10078.759202809239, -9450.96575629303, -7783.726785627221, -11141.115265025528, -11269.838961343643, -16206.579352209492, 0.00775, 0.23625000000000002, 0.9470000000000001, 192.0, 0.0, 0.0, 0.0, 0.0, 0.0, 0.0, 0.0, 0.0, 0.0, 1.644588098996129E9, 0.0, 2022-02-12 01:01:38.996
190.0, -11370.5335701148, -10359.251243978888, -6451.585167835376, -13393.344091575635, -9317.659952361579, -6454.110914958825, -9859.28742400258, -7019.140663044533, -9779.64815850832, -12145.647364335939, -10071.4278306279, -9450.652831870655, -7773.087355266494, -11141.20467200335, -11269.548388665724, -16218.246962815163, 0.00775, 0.23625000000000002, 0.9470000000000001, 192.0, 0.0, 0.0, 0.0, 0.0, 0.0, 0.0, 0.0, 0.0, 0.0, 1.644588099002627E9, 0.0, 2022-02-12 01:01:39.002
192.0, -11375.227436450416, -10358.603043389683, -6463.476295885599, -13397.300350344223, -9321.571507641258, -6456.234330682079, -9863.243682771168, -7019.967677589379, -9784.565542288488, -12152.822274306092, -10069.818505027117, -9454.095000516772, -7789.9852740747065, -11138.701276624355, -11273.839923601143, -16238.877622947412, 0.00775, 0.23625000000000002, 0.9470000000000001, 192.0, 0.0, 0.0, 0.0, 0.0, 0.0, 0.0, 0.0, 0.0, 0.0, 1.644588099010686E9, 0.0, 2022-02-12 01:01:39.010
194.0, -11370.06418348124, -10351.651650864083, -6461.732859818085, -13395.400452065523, -9313.07784474824, -6451.294595157457, -9850.637298898375, -7013.932706586445, -9778.821143963474, -12134.002105474723, -10084.816525556627, -9466.29905298937, -7778.384718702402, -11146.166759272428, -11275.739821879843, -16202.757203907635, 0.007875, 0.23712500000000003, 0.9485000000000001, 192.0, 0.0, 32.0, 3.5, 56.0, 14.5, 88.0, 0.0, 0.0, 0.0, 1.644588099018653E9, 0.0, 2022-02-12 01:01:39.018
196.0, -11380.368337675136, -10354.624432876639, -6456.144923704258, -13399.960207934406, -9322.93496405303, -6455.474371370598, -9854.66061290033, -7016.659619409993, -9796.36726336089, -12146.250861436232, -10074.914702762926, -9452.351564449258, -7798.21071603426, -11145.384448216493, -11275.583359668655, -16241.73864623769, 0.007875, 0.23712500000000003, 0.9485000000000001, 192.0, 0.0, 0.0, 0.0, 0.0, 0.0, 0.0, 0.0, 0.0, 0.0, 1.644588099025712E9, 0.0, 2022-02-12 01:01:39.025
198.0, -11371.20412244846, -10350.198787474488, -6461.799915051451, -13391.5112485303, -9319.470443662458, -6453.462714369621, -9862.371964737411, -7026.874366626069, -9781.369242831379, -12146.004992247224, -10076.211103941334, -9442.025058510908, -7790.141736285894, -11150.592404674579, -11277.57266492518, -16214.35775927994, 0.007875, 0.23712500000000003, 0.9485000000000001, 192.0, 0.0, 0.0, 0.0, 0.0, 0.0, 0.0, 0.0, 0.0, 0.0, 1.64458809903323E9, 0.0, 2022-02-12 01:01:39.033
200.0, -11346.661907036532, -10354.28915670981, -6460.212941195124, -13403.491783558344, -9324.097254764707, -6454.043859725459, -9851.486665187676, -7014.9832385758455, -9785.213742877691, -12142.49576836774, -10082.246074944267, -9445.668392857122, -7794.925009599329, -11142.29990748166, -11280.411336471003, -16223.857250673444, 0.007875, 0.23712500000000003, 0.9485000000000001, 192.0, 0.0, 0.0, 0.0, 0.0, 0.0, 0.0, 0.0, 0.0, 0.0, 1.644588099041537E9, 0.0, 2022-02-12 01:01:39.041
202.0, -11384.97279703293, -10370.471819695453, -6468.840714554873, -13405.391681837045, -9322.823205330755, -6454.08856321437, -9863.511903704632, -7023.678067168959, -9793.014501692594, -12168.960233802823, -10083.363662167032, -9463.907416332653, -7792.667483409344, -11139.304773724649, -11275.09162129064, -16242.967992182732, 0.007875, 0.23712500000000003, 0.9485000000000001, 192.0, 0.0, 0.0, 0.0, 0.0, 0.0, 0.0, 0.0, 0.0, 0.0, 1.644588099054746E9, 0.0, 2022-02-12 01:01:39.054
204.0, -11397.422718694535, -10362.447543435997, -6457.955415005138, -13392.204152608414, -9312.98843777042, -6448.8359032673725, -9856.828732112495, -7013.2845059972415, -9783.000920176617, -12146.228509691777, -10077.172228952913, -9455.369049950725, -7787.25836125116, -11149.29600349617, -11276.298615491225, -16207.004035354143, 0.0049375, 0.2365625, 0.9512500000000002, 192.0, 0.0, 8.0, 3.5, 48.0, 14.5, 104.0, 0.0, 0.0, 0.0, 1.644588099062923E9, 0.0, 2022-02-12 01:01:39.062
206.0, -11381.754145831364, -10352.18809273101, -6462.492819129565, -13413.259495885313, -9321.03506577433, -6455.988461493071, -9851.933700076783, -7018.134834544044, -9797.596609305932, -12157.203216219332, -10070.3772986385, -9453.223282483015, -7786.118422283938, -11150.882977352498, -11276.052746302217, -16248.421817829827, 0.0049375, 0.2365625, 0.9512500000000002, 192.0, 0.0, 0.0, 0.0, 0.0, 0.0, 0.0, 0.0, 0.0, 0.0, 1.644588099070814E9, 0.0, 2022-02-12 01:01:39.070
208.0, -11357.547206586267, -10351.092857252701, -6472.595807623364, -13406.88924871555, -9314.50835639338, -6454.781467292484, -9853.76654312212, -7013.977410075357, -9791.740452258642, -12133.219794418788, -10090.315054692634, -9475.373861238226, -7797.651922422877, -11153.475779709313, -11275.13632477955, -16222.247925072663, 0.0049375, 0.2365625, 0.9512500000000002, 192.0, 0.0, 0.0, 0.0, 0.0, 0.0, 0.0, 0.0, 0.0, 0.0, 1.644588099078124E9, 0.0, 2022-02-12 01:01:39.078
210.0, -11368.365450902636, -10362.156970758078, -6466.806705809439, -13407.380987093567, -9323.203184986494, -6458.268339427512, -9859.220368769213, -7017.866613610579, -9795.406138349312, -12151.659983594416, -10089.823316314616, -9467.506047189958, -7785.313759483548, -11153.453427964858, -11279.450211459423, -16229.244021087174, 0.0049375, 0.2365625, 0.9512500000000002, 192.0, 0.0, 0.0, 0.0, 0.0, 0.0, 0.0, 0.0, 0.0, 0.0, 1.644588099085426E9, 0.0, 2022-02-12 01:01:39.085
212.0, -11407.548058932789, -10385.648654180606, -6474.875685557805, -13406.755138248818, -9328.724065866956, -6465.085621486381, -9867.065831073027, -7023.566308446683, -9809.219516422692, -12175.039908294668, -10078.066298731124, -9450.853997570754, -7809.699512684288, -11157.230872777805, -11280.388984726547, -16248.287707363095, 0.0049375, 0.2365625, 0.9512500000000002, 192.0, 0.0, 0.0, 0.0, 0.0, 0.0, 0.0, 0.0, 0.0, 0.0, 1.644588099093868E9, 0.0, 2022-02-12 01:01:39.093
214.0, -11399.903762329073, -10366.627319649138, -6475.1886099801795, -13401.614237024098, -9324.521937909358, -6458.514208616521, -9866.395278739366, -7025.15328230301, -9797.171926161282, -12160.175998231889, -10090.985607026292, -9455.01142203944, -7802.993989347696, -11154.660422165445, -11284.345243495136, -16216.123547091907, 0.0049375, 0.2365625, 0.9512500000000002, 192.0, 0.0, 0.0, 3.5, 40.0, 14.5, 72.0, 0.0, 0.0, 0.0, 1.644588099101422E9, 0.0, 2022-02-12 01:01:39.101
216.0, -11390.58308489121, -10358.33482245622, -6469.332452932889, -13413.974751707883, -9329.305211222794, -6463.99038600807, -9862.327261248502, -7026.717904414882, -9813.019312980094, -12173.251768738242, -10082.223723199812, -9450.295203959371, -7804.0668730815505, -11157.454390222358, -11283.764098139298, -16258.681268534812, 0.0049375, 0.2365625, 0.9512500000000002, 192.0, 0.0, 0.0, 0.0, 0.0, 0.0, 0.0, 0.0, 0.0, 0.0, 1.644588099107746E9, 0.0, 2022-02-12 01:01:39.107
218.0, -11378.021404507328, -10364.593310903707, -6477.982578037093, -13402.642417269042, -9317.525841894847, -6457.128400460291, -9859.80151412505, -7019.34182874463, -9806.17967917677, -12155.21391096281, -10084.99533951227, -9462.342794220782, -7799.395358490391, -11151.173550030417, -11280.836019615654, -16226.651218730358, 0.0049375, 0.2365625, 0.9512500000000002, 192.0, 0.0, 0.0, 0.0, 0.0, 0.0, 0.0, 0.0, 0.0, 0.0, 1.644588099115038E9, 0.0, 2022-02-12 01:01:39.115
220.0, -11355.021459462818, -10352.121037497645, -6465.934987775682, -13406.956303948917, -9319.693961107012, -6457.553083604942, -9850.100857031448, -7017.0395990657335, -9803.788042520053, -12143.948631757336, -10091.253827959756, -9460.465247686536, -7786.654864150866, -11148.87132035152, -11280.791316126742, -16230.518070521126, 0.0049375, 0.2365625, 0.9512500000000002, 192.0, 0.0, 0.0, 0.0, 0.0, 0.0, 0.0, 0.0, 0.0, 0.0, 1.644588099123282E9, 0.0, 2022-02-12 01:01:39.123
222.0, -11378.177866718515, -10353.037459020312, -6472.752269834551, -13409.616161539097, -9321.146824496607, -6462.202246451646, -9858.57216818001, -7022.2028520349095, -9806.447900110234, -12172.290643726665, -10088.325749436111, -9458.900625574664, -7803.239858536704, -11147.239643006284, -11279.494914948335, -16251.93104170931, 0.0049375, 0.2365625, 0.9512500000000002, 192.0, 0.0, 0.0, 0.0, 0.0, 0.0, 0.0, 0.0, 0.0, 0.0, 1.644588099131084E9, 0.0, 2022-02-12 01:01:39.131
224.0, -11379.317805685736, -10351.696354352995, -6471.634682611786, -13403.044748669237, -9313.815452315266, -6458.424801638699, -9854.548854178054, -7024.795654391725, -9792.567466803488, -12143.59100384605, -10084.101269734057, -9466.567273922834, -7787.884210095908, -11155.733305899299, -11280.880723104563, -16218.604590726447, 0.00546875, 0.23228125, 0.950625, 192.0, 0.0, 24.0, 3.5, 16.0, 14.5, 88.0, 0.0, 0.0, 0.0, 1.644588099137924E9, 0.0, 2022-02-12 01:01:39.137
226.0, -11397.243904738893, -10380.86538086717, -6466.337319175878, -13415.584077308666, -9325.505414665391, -6463.632758096785, -9859.063906558027, -7019.319477000175, -9815.053321725527, -12164.400477933941, -10085.576484868108, -9450.272852214915, -7795.2602857661595, -11155.44273322138, -11280.053708559717, -16257.697791778779, 0.00546875, 0.23228125, 0.950625, 192.0, 0.0, 0.0, 0.0, 0.0, 0.0, 0.0, 0.0, 0.0, 0.0, 1.644588099146325E9, 0.0, 2022-02-12 01:01:39.146
228.0, -11393.667625626043, -10363.587482403218, -6468.013700010026, -13397.74738523333, -9310.395635413604, -6452.635699824775, -9861.500246703656, -7017.084302554644, -9804.816222764995, -12163.394649433452, -10079.720327820818, -9452.463323171536, -7807.374931260936, -11155.465084965836, -11280.32192949318, -16226.226535585707, 0.00546875, 0.23228125, 0.950625, 192.0, 0.0, 0.0, 0.0, 0.0, 0.0, 0.0, 0.0, 0.0, 0.0, 1.644588099153931E9, 0.0, 2022-02-12 01:01:39.153
230.0, -11363.24690142237, -10355.160874743566, -6460.592920850864, -13401.837754468652, -9314.12837673764, -6448.99236547856, -9847.28453723008, -7013.798596119714, -9798.155402917315, -12131.476358351274, -10078.826258042605, -9446.182482979595, -7798.635399178911, -11154.213387276339, -11280.724260893378, -16226.338294307983, 0.00546875, 0.23228125, 0.950625, 192.0, 0.0, 0.0, 0.0, 0.0, 0.0, 0.0, 0.0, 0.0, 0.0, 1.64458809916091E9, 0.0, 2022-02-12 01:01:39.160
232.0, -11380.994186519883, -10369.689508639516, -6468.259569199035, -13411.069024928693, -9324.141958253618, -6460.816438295417, -9863.422496726811, -7020.235898522842, -9807.856060010918, -12171.642443137462, -10080.010900498737, -9454.832608083798, -7799.060082323562, -11148.200768017861, -11278.310272492203, -16250.03114343061, 0.00546875, 0.23228125, 0.950625, 192.0, 0.0, 0.0, 0.0, 0.0, 0.0, 0.0, 0.0, 0.0, 0.0, 1.644588099175369E9, 0.0, 2022-02-12 01:01:39.175
234.0, -11385.799811577775, -10350.131732241123, -6469.287749443978, -13399.893152701039, -9316.631772116634, -6454.759115548029, -9856.202883267748, -7021.934631101446, -9797.194277905737, -12156.97969877478, -10088.437508158388, -9460.5323029199, -7797.338998000503, -11153.229910520306, -11282.646510916533, -16214.670683702314, 0.008, 0.23, 0.9520000000000001, 192.0, 0.0, 32.0, 3.5, 24.0, 14.5, 96.0, 0.0, 0.0, 0.0, 1.644588099183388E9, 0.0, 2022-02-12 01:01:39.183
236.0, -11380.927131286518, -10349.796456074293, -6459.698851072651, -13409.03501618326, -9327.740589110923, -6456.144923704258, -9860.583825180987, -7025.645020681027, -9810.359455389913, -12168.31203321362, -10082.111964477535, -9453.670317372122, -7795.1485270438825, -11146.926718583909, -11280.768964382287, -16254.21091964375, 0.008, 0.23, 0.9520000000000001, 192.0, 0.0, 0.0, 0.0, 0.0, 0.0, 0.0, 0.0, 0.0, 0.0, 1.644588099190588E9, 0.0, 2022-02-12 01:01:39.190
238.0, -11382.648215609577, -10373.757526130383, -6465.9126360312275, -13400.563705034698, -9318.263449461872, -6454.960281248126, -9861.991985081671, -7023.543956702228, -9798.490679084145, -12156.555015630129, -10088.593970369575, -9453.692669116577, -7799.417710234847, -11152.961689586842, -11277.706775391911, -16224.416044284826, 0.008, 0.23, 0.9520000000000001, 192.0, 0.0, 0.0, 0.0, 0.0, 0.0, 0.0, 0.0, 0.0, 0.0, 1.64458809919833E9, 0.0, 2022-02-12 01:01:39.198
240.0, -11385.643349366588, -10374.67394765305, -6456.502551615543, -13404.162335892002, -9319.917478551564, -6451.227539924091, -9850.972575065205, -7017.3301717436525, -9799.138879673348, -12154.20808246232, -10078.245112686767, -9452.977413294007, -7793.136870042905, -11152.715820397832, -11277.058574802706, -16229.311076320539, 0.008, 0.23, 0.9520000000000001, 192.0, 0.0, 0.0, 0.0, 0.0, 0.0, 0.0, 0.0, 0.0, 0.0, 1.644588099206063E9, 0.0, 2022-02-12 01:01:39.206
242.0, -11395.880448327118, -10367.633148149627, -6469.690080844174, -13405.995178937339, -9320.31980995176, -6457.396621393755, -9862.841351370973, -7020.928802600957, -9809.84536526744, -12167.105039013033, -10069.840856771572, -9443.880253300698, -7784.531448427612, -11144.892709838476, -11278.220865514382, -16248.712390507746, 0.008, 0.23, 0.9520000000000001, 192.0, 0.0, 0.0, 0.0, 0.0, 0.0, 0.0, 0.0, 0.0, 0.0, 1.644588099213406E9, 0.0, 2022-02-12 01:01:39.213
244.0, -11381.35181443117, -10344.722610082938, -6465.778525564495, -13401.70364400192, -9312.496699392403, -6457.530731860487, -9857.164008279326, -7022.560479946194, -9799.787080262551, -12145.423846891386, -10081.37435691051, -9454.095000516772, -7796.288466011103, -11155.643898921478, -11280.880723104563, -16215.92238139181, 0.002, 0.23600000000000002, 0.96, 192.0, 0.0, 8.0, 3.5, 48.0, 15.0, 0.0, 0.0, 0.0, 0.0, 1.644588099220751E9, 0.0, 2022-02-12 01:01:39.220
246.0, -11383.385823176603, -10354.087991009712, -6462.1575429627355, -13415.047635441737, -9325.03602803183, -6460.145885961758, -9863.3777932379, -7024.236860780342, -9814.852156025428, -12166.143914001455, -10072.433659128388, -9453.558558649846, -7797.182535789316, -11148.312526740137, -11278.42203121448, -16255.395562099882, 0.002, 0.23600000000000002, 0.96, 192.0, 0.0, 0.0, 0.0, 0.0, 0.0, 0.0, 0.0, 0.0, 0.0, 1.644588099227915E9, 0.0, 2022-02-12 01:01:39.227
248.0, -11376.613244606644, -10358.468932922951, -6470.248874455557, -13405.03405392576, -9316.207088971983, -6458.827133038894, -9868.250473529157, -7027.142587559532, -9805.4644233542, -12165.115733756511, -10084.99533951227, -9459.772343608422, -7787.906561840363, -11159.35428850106, -11279.874894604076, -16230.629829243402, 0.002, 0.23600000000000002, 0.96, 192.0, 0.0, 0.0, 0.0, 0.0, 0.0, 0.0, 0.0, 0.0, 0.0, 1.644588099235837E9, 0.0, 2022-02-12 01:01:39.235
250.0, -11365.325613656714, -10370.136543528622, -6461.41993539571, -13407.045710926737, -9317.45878666148, -6457.866008027317, -9848.71504887522, -7025.242689280831, -9802.066958196994, -12155.348021429541, -10087.386976168988, -9447.635346369188, -7794.925009599329, -11154.705125654356, -11277.550313180724, -16229.35577980945, 0.002, 0.23600000000000002, 0.96, 192.0, 0.0, 0.0, 0.0, 0.0, 0.0, 0.0, 0.0, 0.0, 0.0, 1.64458809924304E9, 0.0, 2022-02-12 01:01:39.243
252.0, -11398.562657661756, -10373.802229619292, -6463.99038600807, -13407.045710926737, -9324.052551275796, -6461.107010973336, -9857.901615846351, -7027.500215470817, -9814.89685951434, -12177.878579840492, -10074.355909151544, -9442.069761999817, -7796.891963111397, -11147.329049984104, -11278.265569003293, -16248.064189918541, 0.002, 0.23600000000000002, 0.96, 192.0, 0.0, 0.0, 0.0, 0.0, 0.0, 0.0, 0.0, 0.0, 0.0, 1.644588099250589E9, 0.0, 2022-02-12 01:01:39.250
254.0, -11388.526724401323, -10351.785761330815, -6458.335394660878, -13397.926199188973, -9314.46365290447, -6457.173103949202, -9857.991022824172, -7030.294183527731, -9805.84440300994, -12156.890291796959, -10082.00020575526, -9449.669355114622, -7791.236971764204, -11154.794532632177, -11283.719394650388, -16213.418986012815, 0.01, 0.232, 0.9480000000000001, 192.0, 0.0, 40.0, 3.5, 32.0, 14.5, 80.0, 0.0, 0.0, 0.0, 1.644588099258476E9, 0.0, 2022-02-12 01:01:39.258
0.0, -11375.674471339522, -10353.171569487044, -6455.317909159411, -13413.617123796597, -9323.069074519763, -6458.760077805528, -9858.594519924465, -7027.142587559532, -9811.007655979116, -12153.805751062126, -10075.56290335213, -9444.707267845544, -7787.325416484526, -11150.97238433032, -11281.059537060206, -16251.729876009213, 0.01, 0.232, 0.9480000000000001, 192.0, 0.0, 0.0, 0.0, 0.0, 0.0, 0.0, 0.0, 0.0, 0.0, 1.64458809926631E9, 0.0, 2022-02-12 01:01:39.266
2.0, -11375.20508470596, -10355.697316610494, -6462.246949940557, -13404.631722525564, -9309.03217900183, -6456.837827782372, -9851.129037276392, -7024.013343335789, -9807.654894310821, -12158.83489356457, -10085.420022656921, -9454.609090639246, -7791.2146200197485, -11150.190073274383, -11277.259740502805, -16226.15948035234, 0.01, 0.232, 0.9480000000000001, 192.0, 0.0, 0.0, 0.0, 0.0, 0.0, 0.0, 0.0, 0.0, 0.0, 1.644588099273145E9, 0.0, 2022-02-12 01:01:39.273
4.0, -11351.758104772343, -10372.48347669643, -6457.486028371576, -13404.631722525564, -9315.044798260307, -6458.067173727414, -9853.073639044003, -7022.024038079267, -9807.31961814399, -12156.487960396762, -10089.555095381153, -9453.022116782919, -7789.381776974414, -11154.749829143266, -11276.365670724592, -16232.865003688934, 0.01, 0.232, 0.9480000000000001, 192.0, 0.0, 0.0, 0.0, 0.0, 0.0, 0.0, 0.0, 0.0, 0.0, 1.64458809928095E9, 0.0, 2022-02-12 01:01:39.280
6.0, -11399.25556173987, -10367.81196210527, -6468.348976176855, -13406.956303948917, -9321.504452407891, -6460.950548762149, -9863.511903704632, -7026.695552670426, -9820.32833341698, -12178.88440834098, -10080.055603987646, -9448.10473300275, -7783.592675160489, -11153.028744820207, -11278.176162025471, -16253.383905098905, 0.01, 0.232, 0.9480000000000001, 192.0, 0.0, 0.0, 0.0, 0.0, 0.0, 0.0, 0.0, 0.0, 0.0, 1.644588099288891E9, 0.0, 2022-02-12 01:01:39.288
8.0, -11406.944561832495, -10357.95484280048, -6473.288711701479, -13391.645358997032, -9316.810586072277, -6450.422877123699, -9864.785953138586, -7020.727636900859, -9812.885202513362, -12145.222681191288, -10087.275217446711, -9451.032811526396, -7788.130079284916, -11149.29600349617, -11285.239313273349, -16213.910724390833, 0.006, 0.23600000000000002, 0.9520000000000001, 192.0, 0.0, 24.0, 3.5, 48.0, 14.5, 96.0, 0.0, 0.0, 0.0, 1.644588099302492E9, 0.0, 2022-02-12 01:01:39.302
10.0, -11379.898951041574, -10358.915967812058, -6461.710508073629, -13399.714338745396, -9324.588993142725, -6456.301385915445, -9864.271863016113, -7021.197023534421, -9819.791891550052, -12167.820294835603, -10074.110039962536, -9438.739352075978, -7797.9648468452515, -11145.138579027484, -11287.295673763238, -16250.74639925318, 0.006, 0.23600000000000002, 0.9520000000000001, 192.0, 0.0, 0.0, 0.0, 0.0, 0.0, 0.0, 0.0, 0.0, 0.0, 1.644588099311339E9, 0.0, 2022-02-12 01:01:39.311
12.0, -11382.938788287496, -10349.125903740634, -6467.387851165277, -13390.326606074168, -9308.339274923715, -6453.3733073918, -9860.449714714256, -7019.699456655915, -9806.939638488251, -12133.555070585619, -10084.928284278903, -9451.636308626688, -7805.430329493324, -11155.733305899299, -11283.652339417022, -16225.108948362942, 0.006, 0.23600000000000002, 0.9520000000000001, 192.0, 0.0, 0.0, 0.0, 0.0, 0.0, 0.0, 0.0, 0.0, 0.0, 1.644588099318575E9, 0.0, 2022-02-12 01:01:39.318
14.0, -11375.272139939325, -10368.90719758358, -6459.363574905822, -13391.421841552477, -9315.178908727039, -6454.692060314663, -9861.94728159276, -7029.713038171893, -9816.215612437203, -12154.543358629151, -10081.307301677145, -9453.357392949747, -7791.572247931033, -11149.54187268518, -11283.808801628209, -16228.7299309647, 0.006, 0.23600000000000002, 0.9520000000000001, 192.0, 0.0, 0.0, 0.0, 0.0, 0.0, 0.0, 0.0, 0.0, 0.0, 1.644588099325432E9, 0.0, 2022-02-12 01:01:39.325
16.0, -11387.92322730103, -10372.774049374348, -6471.165295978224, -13392.94176017544, -9315.31301919377, -6452.211016680124, -9859.3768309804, -7010.24466875132, -9829.313734688012, -12179.845533352558, -10080.23441794329, -9447.814160324831, -7793.047463065084, -11142.501073181758, -11282.937083594452, -16250.50053006417, 0.006, 0.23600000000000002, 0.9520000000000001, 192.0, 0.0, 0.0, 0.0, 0.0, 0.0, 0.0, 0.0, 0.0, 0.0, 1.64458809933309E9, 0.0, 2022-02-12 01:01:39.333
18.0, -11388.102041256672, -10354.57972938773, -6464.459772641632, -13384.448097282422, -9306.349969667193, -6448.791199778462, -9855.934662334283, -7014.24563100882, -9808.794833278042, -12149.581271360074, -10086.001168012759, -9448.574119636312, -7782.095108281984, -11143.909233082442, -11285.395775484536, -16211.8767156454, 0.004, 0.246, 0.9540000000000001, 192.0, 0.0, 16.0, 3.5, 88.0, 14.5, 104.0, 0.0, 0.0, 0.0, 1.644588099341409E9, 0.0, 2022-02-12 01:01:39.341
20.0, -11381.642387109088, -10371.164723773567, -6464.504476130543, -13396.093356143638, -9323.069074519763, -6457.977766749593, -9864.875360116406, -7021.219375278875, -9827.793816065052, -12176.93980657337, -10079.429755142899, -9438.33702067578, -7796.422576477836, -11146.949070328365, -11286.043976073739, -16255.484969077705, 0.004, 0.246, 0.9540000000000001, 192.0, 0.0, 0.0, 0.0, 0.0, 0.0, 0.0, 0.0, 0.0, 0.0, 1.644588099348334E9, 0.0, 2022-02-12 01:01:39.348
22.0, -11398.294436728293, -10368.460162694475, -6472.953435534649, -13389.477239784866, -9309.412158657571, -6455.742592304063, -9865.791781639075, -7014.647962409015, -9823.479929385177, -12176.962158317823, -10079.765031309727, -9452.038640026885, -7796.646093922388, -11150.01125931874, -11285.619292929088, -16228.618172242424, 0.004, 0.246, 0.9540000000000001, 192.0, 0.0, 0.0, 0.0, 0.0, 0.0, 0.0, 0.0, 0.0, 0.0, 1.644588099355054E9, 0.0, 2022-02-12 01:01:39.355
24.0, -11379.854247552663, -10369.644805150605, -6455.1167434593135, -13392.002986908316, -9314.195431971006, -6451.60751957983, -9859.577996680498, -7013.642133908526, -9816.908516515317, -12159.281928453676, -10079.049775487158, -9450.362259192736, -7775.076660523017, -11150.748866885766, -11283.60763592811, -16231.143919365875, 0.004, 0.246, 0.9540000000000001, 192.0, 0.0, 0.0, 0.0, 0.0, 0.0, 0.0, 0.0, 0.0, 0.0, 1.64458809936301E9, 0.0, 2022-02-12 01:01:39.363
26.0, -11379.027233007817, -10354.75854334337, -6466.203208709146, -13399.55787653421, -9318.241097717417, -6450.8922637572605, -9865.657671172343, -7017.441930465929, -9817.959048504717, -12158.54432088665, -10078.938016764881, -9443.612032367235, -7797.249591022682, -11156.15798904395, -11281.215999271393, -16251.998096942676, 0.004, 0.246, 0.9540000000000001, 192.0, 0.0, 0.0, 0.0, 0.0, 0.0, 0.0, 0.0, 0.0, 0.0, 1.644588099370872E9, 0.0, 2022-02-12 01:01:39.370
28.0, -11368.991299747384, -10347.717743839949, -6460.682327828686, -13386.638568239043, -9308.696902835001, -6445.147865432247, -9860.4273629698, -7007.808328605692, -9805.240905909646, -12156.17503597439, -10083.743641822773, -9452.239805726982, -7790.678178152822, -11147.977250573309, -11281.484220204857, -16212.547267979058, 0.006, 0.24, 0.9480000000000001, 192.0, 0.0, 24.0, 3.5, 64.0, 14.5, 80.0, 0.0, 0.0, 0.0, 1.64458809937789E9, 0.0, 2022-02-12 01:01:39.377
30.0, -11392.05830002526, -10374.226912763943, -6461.017603995515, -13398.17206837798, -9320.342161696215, -6457.508380116032, -9862.930758348795, -7017.263116510287, -9818.406083393822, -12173.676451882893, -10072.299548661656, -9445.467227157025, -7784.240875749693, -11145.92089008342, -11280.500743448823, -16251.908689964856, 0.006, 0.24, 0.9480000000000001, 192.0, 0.0, 0.0, 0.0, 0.0, 0.0, 0.0, 0.0, 0.0, 0.0, 1.644588099385649E9, 0.0, 2022-02-12 01:01:39.385
32.0, -11413.583029935722, -10388.219104792966, -6468.214865710123, -13391.22067585238, -9312.541402881314, -6459.9894237505705, -9865.367098494424, -7013.776244375258, -9821.647086339843, -12180.292568241664, -10075.540551607675, -9447.031849268897, -7786.185477517305, -11152.246433764272, -11282.758269638809, -16227.92526816431, 0.006, 0.24, 0.9480000000000001, 192.0, 0.0, 0.0, 0.0, 0.0, 0.0, 0.0, 0.0, 0.0, 0.0, 1.644588099393999E9, 0.0, 2022-02-12 01:01:39.393
34.0, -11390.448974424478, -10377.28910175432, -6460.436458639677, -13397.725033488874, -9318.442263417515, -6458.156580705236, -9866.99877583966, -7015.810253120691, -9822.831728795974, -12172.469457682308, -10077.842781286572, -9451.748067348966, -7794.679140410321, -11154.146332042972, -11283.987615583852, -16230.629829243402, 0.006, 0.24, 0.9480000000000001, 192.0, 0.0, 0.0, 0.0, 0.0, 0.0, 0.0, 0.0, 0.0, 0.0, 1.644588099401676E9, 0.0, 2022-02-12 01:01:39.401
36.0, -11384.279892954813, -10375.72447964245, -6475.456830913643, -13401.413071324001, -9322.554984397291, -6458.335394660878, -9877.638206200387, -7021.778168890259, -9834.052304512537, -12186.305187500142, -10079.452106887355, -9452.038640026885, -7802.301085269581, -11147.306698239649, -11284.255836517315, -16250.768750997633, 0.006, 0.24, 0.9480000000000001, 192.0, 0.0, 0.0, 0.0, 0.0, 0.0, 0.0, 0.0, 0.0, 0.0, 1.644588099408034E9, 0.0, 2022-02-12 01:01:39.408
38.0, -11377.619073107133, -10357.95484280048, -6462.761040063029, -13388.091431628638, -9304.360664410671, -6452.300423657945, -9860.33795599198, -7010.088206540133, -9820.529499117078, -12150.676506838383, -10089.555095381153, -9453.089172016284, -7796.8472596224865, -11155.465084965836, -11286.043976073739, -16213.575448224003, 0.006, 0.23800000000000002, 0.9480000000000001, 192.0, 0.0, 24.0, 3.5, 56.0, 14.5, 80.0, 0.0, 0.0, 0.0, 1.644588099423003E9, 0.0, 2022-02-12 01:01:39.423
40.0, -11369.170113703027, -10369.845970850703, -6463.029260996493, -13398.954379433917, -9319.112815751174, -6455.988461493071, -9861.276729259102, -7010.468186195873, -9833.42645566779, -12175.442239694863, -10085.71059533484, -9453.87148307222, -7798.389529989902, -11149.050134307163, -11284.747574895331, -16249.114721907941, 0.006, 0.23800000000000002, 0.9480000000000001, 192.0, 0.0, 0.0, 0.0, 0.0, 0.0, 0.0, 0.0, 0.0, 0.0, 1.644588099430443E9, 0.0, 2022-02-12 01:01:39.430
42.0, -11398.361491961658, -10373.265787752365, -6469.533618632987, -13387.867914184084, -9314.106024993185, -6460.369403406311, -9870.28448227459, -7018.715979899881, -9821.825900295486, -12178.772649618704, -10090.918551792927, -9459.191198252583, -7796.355521244469, -11154.481608209802, -11285.507534206812, -16226.338294307983, 0.006, 0.23800000000000002, 0.9480000000000001, 192.0, 0.0, 0.0, 0.0, 0.0, 0.0, 0.0, 0.0, 0.0, 0.0, 1.644588099437729E9, 0.0, 2022-02-12 01:01:39.437
44.0, -11409.336198489214, -10391.303645527798, -6463.699813330151, -13393.45585029791, -9321.03506577433, -6463.722165074607, -9871.33501426399, -7023.208680535398, -9826.385656164368, -12176.068088539612, -10086.09057499058, -9450.25050047046, -7784.643207149888, -11159.823675134621, -11290.246104031337, -16230.965105410232, 0.006, 0.23800000000000002, 0.9480000000000001, 192.0, 0.0, 0.0, 0.0, 0.0, 0.0, 0.0, 0.0, 0.0, 0.0, 1.644588099445852E9, 0.0, 2022-02-12 01:01:39.445
46.0, -11398.249733239381, -10380.105421555689, -6463.766868563517, -13396.830963710663, -9323.359647197682, -6461.978729007093, -9874.218389298725, -7009.90939258449, -9835.080484757482, -12197.212838794332, -10079.899141776461, -9445.735448090489, -7807.263172538659, -11149.698334896368, -11287.698005163433, -16249.137073652397, 0.005, 0.239, 0.9460000000000001, 192.0, 0.0, 16.0, 3.5, 64.0, 14.5, 64.0, 0.0, 0.0, 0.0, 1.644588099453714E9, 0.0, 2022-02-12 01:01:39.453
48.0, -11398.473250683934, -10369.130715028134, -6460.011775495026, -13390.058385140705, -9309.859193546676, -6454.84852252585, -9861.589653681476, -7010.311723984686, -9823.837557296463, -12168.043812280157, -10080.726156321307, -9450.87634931521, -7800.870573624441, -11153.185207031394, -11289.419089486491, -16211.340273778473, 0.005, 0.239, 0.9460000000000001, 192.0, 0.0, 0.0, 0.0, 0.0, 0.0, 0.0, 0.0, 0.0, 0.0, 1.644588099460452E9, 0.0, 2022-02-12 01:01:39.460
50.0, -11384.168134232537, -10371.209427262476, -6463.610406352331, -13403.000045180326, -9318.5987256287, -6455.809647537429, -9866.887017117384, -7012.993933319322, -9834.320525446, -12175.97868156179, -10072.031327728191, -9451.72571560451, -7798.92597185683, -11148.893672095975, -11289.754365653322, -16248.287707363095, 0.005, 0.239, 0.9460000000000001, 192.0, 0.0, 0.0, 0.0, 0.0, 0.0, 0.0, 0.0, 0.0, 0.0, 1.644588099468392E9, 0.0, 2022-02-12 01:01:39.468
52.0, -11383.363471432147, -10382.362947745676, -6469.131287232792, -13393.075870642171, -9308.071053990252, -6450.333470145878, -9865.05417407205, -7004.790843104225, -9821.08829272846, -12175.196370505855, -10082.246074944267, -9458.699459874566, -7795.729672399721, -11145.026820305207, -11286.960397596407, -16220.012750627131, 0.005, 0.239, 0.9460000000000001, 192.0, 0.0, 0.0, 0.0, 0.0, 0.0, 0.0, 0.0, 0.0, 0.0, 1.644588099475493E9, 0.0, 2022-02-12 01:01:39.475
54.0, -11387.20797147846, -10384.039328579824, -6461.934025518182, -13400.921332945984, -9315.55888838278, -6456.3237376599, -9865.545912450065, -7012.256325752298, -9828.553775376533, -12171.240111737265, -10086.80583081315, -9459.01238429694, -7788.510058940657, -11154.235739020794, -11288.882647619565, -16223.946657651266, 0.005, 0.239, 0.9460000000000001, 192.0, 0.0, 0.0, 0.0, 0.0, 0.0, 0.0, 0.0, 0.0, 0.0, 1.644588099483799E9, 0.0, 2022-02-12 01:01:39.483
56.0, -11407.481003699422, -10381.781802389838, -6468.572493621408, -13397.814440466696, -9319.895126807109, -6461.33052841789, -9874.866589887928, -7015.832604865147, -9838.992040037161, -12192.98835909228, -10082.961330766837, -9452.955061549552, -7802.1893265473045, -11154.503959954258, -11287.18391504096, -16252.422780087327, 0.0055, 0.2365, 0.9450000000000001, 192.0, 0.0, 24.0, 3.5, 40.0, 14.5, 64.0, 0.0, 0.0, 0.0, 1.644588099490077E9, 0.0, 2022-02-12 01:01:39.490
58.0, -11403.323579230737, -10363.654537636583, -6465.867932542316, -13389.141963618036, -9310.105062735685, -6455.161446948225, -9874.106630576449, -7013.686837397438, -9826.89974628684, -12178.750297874249, -10091.879676804505, -9454.989070294985, -7800.44589047979, -11161.410648990948, -11287.496839463334, -16210.759128422635, 0.0055, 0.2365, 0.9450000000000001, 192.0, 0.0, 0.0, 0.0, 0.0, 0.0, 0.0, 0.0, 0.0, 0.0, 1.644588099498291E9, 0.0, 2022-02-12 01:01:39.498
60.0, -11385.86686681114, -10382.80998263478, -6460.61527259532, -13404.207039380914, -9317.212917472472, -6454.84852252585, -9861.209674025737, -7007.71892162787, -9839.126150503893, -12176.582178662084, -10086.001168012759, -9451.815122582331, -7796.511983455656, -11159.890730367986, -11287.496839463334, -16245.493739306181, 0.0055, 0.2365, 0.9450000000000001, 192.0, 0.0, 0.0, 0.0, 0.0, 0.0, 0.0, 0.0, 0.0, 0.0, 1.64458809950604E9, 0.0, 2022-02-12 01:01:39.506
62.0, -11384.145782488082, -10389.202581549, -6467.387851165277, -13395.780431721263, -9312.764920325866, -6450.311118401422, -9864.942415349773, -7013.463319952884, -9834.499339401644, -12191.580199191594, -10093.71251984984, -9457.44776218507, -7793.069814809539, -11154.481608209802, -11287.22861852987, -16219.118680848918, 0.0055, 0.2365, 0.9450000000000001, 192.0, 0.0, 0.0, 0.0, 0.0, 0.0, 0.0, 0.0, 0.0, 0.0, 1.644588099513413E9, 0.0, 2022-02-12 01:01:39.513
64.0, -11396.394538449591, -10367.521389427351, -6462.112839473825, -13401.323664346179, -9321.526804152347, -6449.193531178657, -9861.14261879237, -7003.762662859281, -9827.99498176515, -12171.284815226176, -10083.296606933667, -9455.123180761717, -7798.613047434455, -11151.754695386255, -11290.849601131631, -16219.990398882675, 0.0055, 0.2365, 0.9450000000000001, 192.0, 0.0, 0.0, 0.0, 0.0, 0.0, 0.0, 0.0, 0.0, 0.0, 1.644588099520685E9, 0.0, 2022-02-12 01:01:39.520
66.0, -11411.906649101575, -10376.283273253832, -6462.425763896199, -13404.385853336556, -9328.187624000027, -6457.284862671479, -9872.184380553292, -7016.480805454351, -9837.382714436379, -12198.397481250464, -10084.593008112075, -9455.30199471736, -7804.133928314916, -11150.525349441214, -11291.833077887664, -16247.237175373695, 0.00875, 0.23425, 0.9465000000000001, 192.0, 0.0, 48.0, 3.5, 32.0, 14.5, 80.0, 0.0, 0.0, 0.0, 1.644588099528887E9, 0.0, 2022-02-12 01:01:39.528
68.0, -11397.869753583642, -10372.595235418707, -6464.61623485282, -13399.848449212128, -9314.41894941556, -6453.127438202791, -9863.62366242691, -7015.519680442772, -9829.649010854842, -12173.497637927252, -10086.224685457311, -9463.974471566018, -7792.06398630905, -11156.560320444147, -11293.665920933, -16212.144936578863, 0.00875, 0.23425, 0.9465000000000001, 192.0, 0.0, 0.0, 0.0, 0.0, 0.0, 0.0, 0.0, 0.0, 0.0, 1.644588099535945E9, 0.0, 2022-02-12 01:01:39.535
70.0, -11396.461593682956, -10400.803136921304, -6457.575435349398, -13406.956303948917, -9321.482100663436, -6457.597787093853, -9863.355441493446, -7016.614915921083, -9843.507092417132, -12185.41111772193, -10081.642577843973, -9446.87538705771, -7802.904582369874, -11153.945166342875, -11289.352034253125, -16250.612288786448, 0.00875, 0.23425, 0.9465000000000001, 192.0, 0.0, 0.0, 0.0, 0.0, 0.0, 0.0, 0.0, 0.0, 0.0, 1.644588099550438E9, 0.0, 2022-02-12 01:01:39.550
72.0, -11386.805640078264, -10375.366851731163, -6458.402449894244, -13397.546219533233, -9314.642466860112, -6455.988461493071, -9872.4302497423, -7013.86565135308, -9832.308868445023, -12194.709443415339, -10080.346176665566, -9445.400171923658, -7802.077567825028, -11157.812018133644, -11286.960397596407, -16226.271239074618, 0.00875, 0.23425, 0.9465000000000001, 192.0, 0.0, 0.0, 0.0, 0.0, 0.0, 0.0, 0.0, 0.0, 0.0, 1.644588099558279E9, 0.0, 2022-02-12 01:01:39.558
74.0, -11371.606453848655, -10356.412572433064, -6453.730935303085, -13396.763908477296, -9318.08463550623, -6451.138132946269, -9867.199941539759, -7009.082378039644, -9818.249621182636, -12154.431599906875, -10078.066298731124, -9450.630480126201, -7793.606256676467, -11162.282367024705, -11288.480316219368, -16225.645390229869, 0.00875, 0.23425, 0.9465000000000001, 192.0, 0.0, 0.0, 0.0, 0.0, 0.0, 0.0, 0.0, 0.0, 0.0, 1.644588099565696E9, 0.0, 2022-02-12 01:01:39.565
76.0, -11411.504317701378, -10376.998529076402, -6466.829057553895, -13404.497612058833, -9319.671609362556, -6450.825208523895, -9865.590615938976, -7005.126119271054, -9838.768522592607, -12191.200219535855, -10080.100307476558, -9446.294241701871, -7798.389529989902, -11153.8334076206, -11287.295673763238, -16245.113759650441, 0.0053750000000000004, 0.23512500000000003, 0.9472500000000001, 192.0, 0.0, 8.0, 3.5, 48.0, 14.5, 80.0, 0.0, 0.0, 0.0, 1.644588099573063E9, 0.0, 2022-02-12 01:01:39.573
78.0, -11403.189468764003, -10385.425136736052, -6467.834886054384, -13395.758079976807, -9308.31692317926, -6452.166313191213, -9863.556607193543, -7015.385569976041, -9827.615002109409, -12189.143859045966, -10084.123621478513, -9452.77624759391, -7789.87351535243, -11152.380544231004, -11286.647473174033, -16206.758166165135, 0.0053750000000000004, 0.23512500000000003, 0.9472500000000001, 192.0, 0.0, 0.0, 0.0, 0.0, 0.0, 0.0, 0.0, 0.0, 0.0, 1.644588099581007E9, 0.0, 2022-02-12 01:01:39.581
80.0, -11380.25657895286, -10384.508715213386, -6459.743554561563, -13410.711397017409, -9316.207088971983, -6459.005946994537, -9861.679060659297, -7011.809290863192, -9839.930813304283, -12201.951408618857, -10080.23441794329, -9442.069761999817, -7804.580963204023, -11156.40385823296, -11287.094508063139, -16247.840672473989, 0.0053750000000000004, 0.23512500000000003, 0.9472500000000001, 192.0, 0.0, 0.0, 0.0, 0.0, 0.0, 0.0, 0.0, 0.0, 0.0, 1.644588099588968E9, 0.0, 2022-02-12 01:01:39.588
82.0, -11386.895047056085, -10384.419308235563, -6468.572493621408, -13403.961170191906, -9309.054530746285, -6457.6424905827635, -9869.4798194742, -7009.216488506376, -9832.062999256015, -12187.959216589836, -10087.655197102451, -9458.453590685558, -7802.904582369874, -11161.678869924412, -11287.42978422997, -16224.661913473836, 0.0053750000000000004, 0.23512500000000003, 0.9472500000000001, 192.0, 0.0, 0.0, 0.0, 0.0, 0.0, 0.0, 0.0, 0.0, 0.0, 1.644588099595574E9, 0.0, 2022-02-12 01:01:39.595
84.0, -11402.250695496881, -10375.143334286611, -6462.358708662833, -13405.190516136947, -9313.882507548631, -6454.08856321437, -9865.300043261057, -7010.334075729142, -9830.56543237751, -12179.018518807712, -10091.097365748568, -9462.141628520683, -7778.429422191313, -11157.253224522261, -11288.23444703036, -16221.219744827718, 0.0053750000000000004, 0.23512500000000003, 0.9472500000000001, 192.0, 0.0, 0.0, 0.0, 0.0, 0.0, 0.0, 0.0, 0.0, 0.0, 1.644588099602785E9, 0.0, 2022-02-12 01:01:39.602
86.0, -11389.107869757161, -10371.075316795745, -6465.6220633533085, -13405.45873707041, -9317.145862239107, -6455.206150437135, -9868.719860162719, -7007.517755927773, -9843.171816250304, -12199.738585917781, -10088.66102560294, -9456.754858106955, -7806.436157993813, -11149.050134307163, -11285.641644673544, -16245.136111394897, 0.0036875000000000002, 0.2345625, 0.948625, 192.0, 0.0, 8.0, 3.5, 40.0, 14.5, 88.0, 0.0, 0.0, 0.0, 1.644588099610574E9, 0.0, 2022-02-12 01:01:39.610
88.0, -11377.641424851588, -10363.743944614405, -6460.972900506605, -13393.209981108903, -9305.65706558908, -6452.143961446758, -9861.343784492468, -7007.204831505398, -9823.546984618544, -12163.864036067014, -10094.986569283792, -9450.898701059665, -7805.1844603043155, -11155.733305899299, -11283.339414994647, -16206.981683609687, 0.0036875000000000002, 0.2345625, 0.948625, 192.0, 0.0, 0.0, 0.0, 0.0, 0.0, 0.0, 0.0, 0.0, 0.0, 1.644588099618559E9, 0.0, 2022-02-12 01:01:39.618
90.0, -11390.292512213293, -10384.24049427992, -6451.696926557652, -13407.5150975603, -9304.695940577501, -6457.3742696493, -9853.364211721922, -7006.131947771543, -9832.174757978291, -12189.970873590813, -10074.132391706991, -9448.954099292052, -7794.679140410321, -11161.231835035305, -11280.187819026449, -16243.839710216489, 0.0036875000000000002, 0.2345625, 0.948625, 192.0, 0.0, 0.0, 0.0, 0.0, 0.0, 0.0, 0.0, 0.0, 0.0, 1.644588099625165E9, 0.0, 2022-02-12 01:01:39.625
92.0, -11397.467422183445, -10383.52523845735, -6457.41897313821, -13404.430556825466, -9294.436489872514, -6455.60848183733, -9860.159142036337, -7006.847203594113, -9817.623772337887, -12196.832859138593, -10072.388955639477, -9447.434180669092, -7785.067890294539, -11156.694430910879, -11276.924464335974, -16222.091462861476, 0.0036875000000000002, 0.2345625, 0.948625, 192.0, 0.0, 0.0, 0.0, 0.0, 0.0, 0.0, 0.0, 0.0, 0.0, 1.644588099633169E9, 0.0, 2022-02-12 01:01:39.633
94.0, -11400.39550070709, -10379.077241310744, -6457.195455693657, -13406.79984173773, -9306.819356300755, -6460.369403406311, -9858.169836779814, -7009.887040840035, -9823.435225896266, -12190.775536391204, -10079.832086543094, -9451.077515015306, -7777.669462879832, -11160.226006534816, -11282.333586494158, -16222.247925072663, 0.0036875000000000002, 0.2345625, 0.948625, 192.0, 0.0, 0.0, 0.0, 0.0, 0.0, 0.0, 0.0, 0.0, 0.0, 1.6445880996413E9, 0.0, 2022-02-12 01:01:39.641
96.0, -11389.510201157356, -10375.903293598092, -6469.198342466158, -13410.689045272953, -9313.547231381803, -6467.611368609831, -9869.055136329549, -7022.694590412926, -9836.265127213614, -12208.679283699905, -10082.84957204456, -9458.92297731912, -7791.058157808561, -11163.735230414299, -11284.32289175068, -16248.757093996657, 0.00584375, 0.23628125, 0.9483125000000001, 192.0, 0.0, 32.0, 3.5, 56.0, 14.5, 80.0, 0.0, 0.0, 0.0, 1.644588099648401E9, 0.0, 2022-02-12 01:01:39.648
98.0, -11382.312939442747, -10362.939281814013, -6463.364537163322, -13400.496649801333, -9303.108966721175, -6458.693022572163, -9859.265072258124, -7010.95992457389, -9821.982362506671, -12169.787248347671, -10094.070147761126, -9463.72860237701, -7799.283599768115, -11180.230817822316, -11287.407432485514, -16215.58710522498, 0.00584375, 0.23628125, 0.9483125000000001, 192.0, 0.0, 0.0, 0.0, 0.0, 0.0, 0.0, 0.0, 0.0, 0.0, 1.644588099655825E9, 0.0, 2022-02-12 01:01:39.655
100.0, -11394.49464017089, -10385.000453591401, -6461.33052841789, -13410.465527828399, -9312.586106370223, -6457.217807438113, -9857.56633967952, -7013.552726930706, -9837.18154873628, -12193.301283514653, -10085.442374401377, -9460.06291628634, -7794.075643310028, -11157.364983244537, -11284.725223150877, -16247.706562007257, 0.00584375, 0.23628125, 0.9483125000000001, 192.0, 0.0, 0.0, 0.0, 0.0, 0.0, 0.0, 0.0, 0.0, 0.0, 1.644588099670981E9, 0.0, 2022-02-12 01:01:39.670
102.0, -11397.266256483348, -10379.0995930552, -6465.04091799747, -13398.932027689461, -9301.83491728722, -6453.574473091898, -9858.482761202189, -7017.48663395484, -9833.42645566779, -12203.247809797265, -10088.392804669476, -9447.568291135824, -7780.508134425657, -11156.739134399788, -11284.255836517315, -16228.126433864409, 0.00584375, 0.23628125, 0.9483125000000001, 192.0, 0.0, 0.0, 0.0, 0.0, 0.0, 0.0, 0.0, 0.0, 0.0, 1.644588099677467E9, 0.0, 2022-02-12 01:01:39.677
104.0, -11380.211875463949, -10379.457220966486, -6454.8261707813945, -13408.02918768277, -9308.65219934609, -6454.80381903694, -9859.71210714723, -7018.380703733052, -9826.028028253082, -12183.645329909961, -10083.587179611586, -9446.070724257317, -7779.30114022507, -11160.717744912834, -11281.975958582874, -16227.031198386097, 0.00584375, 0.23628125, 0.9483125000000001, 192.0, 0.0, 0.0, 0.0, 0.0, 0.0, 0.0, 0.0, 0.0, 0.0, 1.644588099685429E9, 0.0, 2022-02-12 01:01:39.685
106.0, -11394.82991633772, -10367.655499894083, -6460.570569106409, -13408.789146994251, -9308.182812712528, -6454.267377170012, -9858.482761202189, -7015.229107764853, -9835.03578126857, -12207.114661588033, -10075.85347603005, -9455.503160417456, -7794.612085176956, -11161.58946294659, -11278.936121336952, -16254.948527210776, 0.00584375, 0.23628125, 0.9483125000000001, 192.0, 0.0, 0.0, 3.5, 64.0, 14.5, 80.0, 0.0, 0.0, 0.0, 1.644588099693529E9, 0.0, 2022-02-12 01:01:39.693
108.0, -11395.075785526727, -10365.420325448553, -6456.390792893266, -13393.433498553455, -9293.40830962757, -6444.253795654035, -9853.163046021826, -7007.71892162787, -9820.730664817174, -12174.83874259457, -10079.452106887355, -9458.92297731912, -7781.044576292584, -11158.236701278294, -11275.628063157566, -16207.741642921168, 0.00584375, 0.23628125, 0.9483125000000001, 192.0, 0.0, 0.0, 0.0, 0.0, 0.0, 0.0, 0.0, 0.0, 0.0, 1.644588099700838E9, 0.0, 2022-02-12 01:01:39.700
110.0, -11384.615169121644, -10381.58063668974, -6461.665804584719, -13409.929085961472, -9306.305266178282, -6448.478275356088, -9856.180531523292, -7008.747101872815, -9838.61206038142, -12202.21962955232, -10079.385051653988, -9454.720849361522, -7789.3370734855025, -11157.20852103335, -11278.936121336952, -16244.018524172132, 0.00584375, 0.23628125, 0.9483125000000001, 192.0, 0.0, 0.0, 0.0, 0.0, 0.0, 0.0, 0.0, 0.0, 0.0, 1.644588099708202E9, 0.0, 2022-02-12 01:01:39.708
112.0, -11389.823125579731, -10378.183171532533, -6462.1575429627355, -13400.250780612325, -9298.415100385559, -6449.148827689747, -9859.62270016941, -7011.496366440817, -9829.09021724346, -12205.661798198438, -10079.94384526537, -9450.541073148379, -7785.246704250182, -11162.885864124997, -11280.165467281993, -16224.21487858473, 0.00584375, 0.23628125, 0.9483125000000001, 192.0, 0.0, 0.0, 0.0, 0.0, 0.0, 0.0, 0.0, 0.0, 0.0, 1.644588099716223E9, 0.0, 2022-02-12 01:01:39.716
114.0, -11385.39748017758, -10379.233703521932, -6456.614310337819, -13404.899943459028, -9301.857269031676, -6447.830074766884, -9855.442923956267, -7013.038636808234, -9826.564470120009, -12182.17011477591, -10086.224685457311, -9452.44097142708, -7784.643207149888, -11163.109381569551, -11284.300540006227, -16223.901954162355, 0.00584375, 0.23628125, 0.9483125000000001, 192.0, 0.0, 0.0, 0.0, 0.0, 0.0, 0.0, 0.0, 0.0, 0.0, 1.644588099723396E9, 0.0, 2022-02-12 01:01:39.723
116.0, -11390.136050002106, -10376.395031976108, -6462.693984829662, -13412.633647040564, -9304.360664410671, -6450.042897467959, -9854.504150689143, -7015.989067076334, -9841.406028438334, -12207.539344732684, -10082.402537155454, -9450.608128381746, -7788.375948473925, -11154.928643098909, -11280.724260893378, -16247.863024218444, 0.006, 0.23800000000000002, 0.9500000000000001, 192.0, 0.0, 24.0, 3.5, 56.0, 14.5, 88.0, 0.0, 0.0, 0.0, 1.644588099730267E9, 0.0, 2022-02-12 01:01:39.730
118.0, -11392.728852358921, -10359.340650956708, -6464.437420897177, -13404.810536481207, -9302.12548996514, -6443.337374131367, -9853.900653588851, -7020.370008989574, -9828.285554443068, -12189.0768038126, -10088.929246536403, -9461.49342793148, -7773.914369811341, -11160.941262357386, -11280.478391704368, -16212.144936578863, 0.006, 0.23800000000000002, 0.9500000000000001, 192.0, 0.0, 0.0, 0.0, 0.0, 0.0, 0.0, 0.0, 0.0, 0.0, 1.644588099738024E9, 0.0, 2022-02-12 01:01:39.738
120.0, -11383.564637132244, -10376.395031976108, -6458.067173727414, -13409.169126649991, -9316.721179094457, -6447.003060222038, -9855.107647789437, -7015.229107764853, -9845.89872907385, -12204.70067318686, -10074.937054507382, -9458.431238941102, -7803.865707381453, -11162.885864124997, -11284.32289175068, -16248.913556207843, 0.006, 0.23800000000000002, 0.9500000000000001, 192.0, 0.0, 0.0, 0.0, 0.0, 0.0, 0.0, 0.0, 0.0, 0.0, 1.644588099746269E9, 0.0, 2022-02-12 01:01:39.746
122.0, -11385.084555755206, -10370.404764462086, -6464.280958685989, -13395.623969510076, -9307.020522000852, -6439.314060129412, -9857.186360023781, -7007.316590227675, -9842.165987749815, -12204.812431909137, -10079.697976076362, -9450.272852214915, -7795.528506699623, -11158.594329189578, -11284.635816173055, -16223.141994850874, 0.006, 0.23800000000000002, 0.9500000000000001, 192.0, 0.0, 0.0, 0.0, 0.0, 0.0, 0.0, 0.0, 0.0, 0.0, 1.644588099753225E9, 0.0, 2022-02-12 01:01:39.753
124.0, -11382.022366764828, -10372.774049374348, -6457.083696971381, -13400.608408523609, -9314.106024993185, -6440.789275263462, -9854.615909411421, -7009.283543739742, -9836.242775469158, -12179.554960674639, -10081.553170866153, -9453.782076094398, -7789.895867096886, -11155.509788454747, -11284.188781283949, -16215.385939524884, 0.006, 0.23800000000000002, 0.9500000000000001, 192.0, 0.0, 0.0, 0.0, 0.0, 0.0, 0.0, 0.0, 0.0, 0.0, 1.644588099760405E9, 0.0, 2022-02-12 01:01:39.760
126.0, -11407.413948466057, -10375.076279053244, -6461.710508073629, -13407.760966749307, -9314.195431971006, -6446.980708477582, -9858.147485035359, -7011.451662951907, -9841.674249371797, -12202.89018188598, -10075.048813229658, -9440.929823032597, -7794.522678199134, -11155.196864032372, -11283.786449883753, -16246.365457339938, 0.012, 0.23600000000000002, 0.9560000000000001, 192.0, 0.0, 48.0, 3.5, 48.0, 14.5, 112.0, 0.0, 0.0, 0.0, 1.644588099768374E9, 0.0, 2022-02-12 01:01:39.768
128.0, -11389.577256390723, -10371.187075518023, -6456.726069060096, -13395.579266021165, -9305.522955122347, -6440.811627007917, -9858.035726313083, -7011.742235629826, -9835.125188246393, -12199.157440561943, -10073.573598095609, -9450.943404548574, -7781.133983270405, -11160.382468746004, -11282.244179516338, -16210.200334811252, 0.012, 0.23600000000000002, 0.9560000000000001, 192.0, 0.0, 0.0, 0.0, 0.0, 0.0, 0.0, 0.0, 0.0, 0.0, 1.644588099776371E9, 0.0, 2022-02-12 01:01:39.776
130.0, -11376.836762051196, -10364.570959159251, -6452.389830635766, -13409.549106305732, -9315.581240127236, -6439.135246173769, -9851.486665187676, -7005.059064037689, -9847.798627352551, -12202.912533630435, -10072.701880061852, -9442.047410255362, -7792.443965964791, -11159.197826289872, -11280.411336471003, -16247.617155029435, 0.012, 0.23600000000000002, 0.9560000000000001, 192.0, 0.0, 0.0, 0.0, 0.0, 0.0, 0.0, 0.0, 0.0, 0.0, 1.644588099782999E9, 0.0, 2022-02-12 01:01:39.782
132.0, -11370.220645692427, -10372.796401118803, -6464.280958685989, -13400.250780612325, -9306.037045244819, -6434.597842049342, -9850.726705876197, -7002.555668658694, -9837.650935369842, -12201.750242918759, -10085.844705801572, -9456.307823217849, -7792.06398630905, -11157.700259411367, -11278.153810281017, -16225.153651851851, 0.012, 0.23600000000000002, 0.9560000000000001, 192.0, 0.0, 0.0, 0.0, 0.0, 0.0, 0.0, 0.0, 0.0, 0.0, 1.644588099798019E9, 0.0, 2022-02-12 01:01:39.798
134.0, -11388.72789010142, -10361.53112191333, -6458.022470238504, -13397.836792211152, -9308.138109223617, -6430.306307113923, -9853.006583810638, -6997.995912789812, -9835.974554535695, -12179.778478119193, -10083.765993567229, -9449.15526499215, -7781.312797226048, -11157.096762311074, -11281.595978927135, -16219.811584927034, 0.012, 0.23600000000000002, 0.9560000000000001, 192.0, 0.0, 0.0, 0.0, 0.0, 0.0, 0.0, 0.0, 0.0, 0.0, 1.644588099806032E9, 0.0, 2022-02-12 01:01:39.806
136.0, -11394.896971571085, -10366.448505693497, -6462.8057435519395, -13401.614237024098, -9311.580277869734, -6430.7533420030295, -9856.269938501113, -6998.822927334658, -9848.133903519381, -12205.013597609235, -10069.192656182368, -9453.066820271828, -7788.73357638521, -11155.01805007673, -11285.976920840374, -16247.751265496168, 0.004, 0.228, 0.9520000000000001, 192.0, 0.0, 16.0, 3.5, 16.0, 14.5, 96.0, 0.0, 0.0, 0.0, 1.64458809981266E9, 0.0, 2022-02-12 01:01:39.812
138.0, -11386.246846466882, -10363.76629635886, -6458.782429549984, -13396.898018944028, -9303.93598126602, -6422.617307021297, -9848.692697130764, -6995.738386599825, -9833.068827756504, -12191.110812558034, -10071.271368416712, -9451.457494671047, -7782.698605382277, -11147.887843595487, -11284.389946984047, -16206.936980120778, 0.004, 0.228, 0.9520000000000001, 192.0, 0.0, 0.0, 0.0, 0.0, 0.0, 0.0, 0.0, 0.0, 0.0, 1.644588099820597E9, 0.0, 2022-02-12 01:01:39.820
140.0, -11381.128296986617, -10365.95676731548, -6463.297481929956, -13412.70070227393, -9323.203184986494, -6437.995307206548, -9857.722801890708, -7004.366159959574, -9849.027973297594, -12198.531591717196, -10071.673699816907, -9447.210663224538, -7792.466317709246, -11149.474817451814, -11282.17712428297, -16242.900936949365, 0.004, 0.228, 0.9520000000000001, 192.0, 0.0, 0.0, 0.0, 0.0, 0.0, 0.0, 0.0, 0.0, 0.0, 1.644588099828617E9, 0.0, 2022-02-12 01:01:39.828
142.0, -11385.911570300052, -10391.661273439084, -6467.723127332107, -13403.804707980718, -9319.582202384736, -6439.023487451493, -9865.56826419452, -7010.62464840706, -9847.70922037473, -12214.22251632482, -10075.160571951936, -9453.15622724965, -7798.367178245447, -11155.196864032372, -11283.250008016827, -16227.746454208667, 0.004, 0.228, 0.9520000000000001, 192.0, 0.0, 0.0, 0.0, 0.0, 0.0, 0.0, 0.0, 0.0, 0.0, 1.644588099835773E9, 0.0, 2022-02-12 01:01:39.835
144.0, -11389.644311624088, -10362.156970758078, -6467.767830821018, -13404.519963803288, -9315.447129660502, -6436.251871139035, -9847.038668041072, -6999.493479668317, -9848.178607008293, -12204.119527831022, -10086.582313368597, -9446.718924846522, -7787.638340906899, -11158.840198378588, -11278.533789936757, -16223.11964310642, 0.004, 0.228, 0.9520000000000001, 192.0, 0.0, 0.0, 0.0, 0.0, 0.0, 0.0, 0.0, 0.0, 0.0, 1.644588099843339E9, 0.0, 2022-02-12 01:01:39.843
146.0, -11394.5393436598, -10370.829447606737, -6473.154601234746, -13408.118594660593, -9328.858176333688, -6437.257699639524, -9854.392391966867, -6995.917200555468, -9856.582862923487, -12213.0825773576, -10078.356871409043, -9444.72961959, -7785.760794372653, -11156.426209977415, -11278.779659125765, -16248.734742252202, 0.002, 0.232, 0.9480000000000001, 192.0, 0.0, 8.0, 3.5, 32.0, 14.5, 80.0, 0.0, 0.0, 0.0, 1.644588099850405E9, 0.0, 2022-02-12 01:01:39.850
148.0, -11385.15161098857, -10370.695337140005, -6471.23235121159, -13393.277036342268, -9324.209013486983, -6427.668801268197, -9858.773333880108, -6992.720901098359, -9843.462388928221, -12195.916437615924, -10076.56873185262, -9449.177616736606, -7805.676198682332, -11156.247396021772, -11287.787412141253, -16209.976817366698, 0.002, 0.232, 0.9480000000000001, 192.0, 0.0, 0.0, 0.0, 0.0, 0.0, 0.0, 0.0, 0.0, 0.0, 1.64458809985827E9, 0.0, 2022-02-12 01:01:39.858
150.0, -11383.162305732048, -10365.66619463756, -6474.540409390976, -13409.45969932791, -9340.79400787282, -6437.391810106255, -9853.498322188654, -6995.894848811013, -9858.19218852427, -12211.808527923647, -10076.300510919156, -9450.898701059665, -7800.512945713156, -11150.01125931874, -11284.99344408434, -16244.622021272424, 0.002, 0.232, 0.9480000000000001, 192.0, 0.0, 0.0, 0.0, 0.0, 0.0, 0.0, 0.0, 0.0, 0.0, 1.64458809986537E9, 0.0, 2022-02-12 01:01:39.865
152.0, -11395.701634371477, -10380.57480818925, -6479.681310615696, -13402.955341691417, -9334.870795592165, -6436.251871139035, -9861.097915303459, -7005.19317450442, -9852.403086710345, -12209.729815689305, -10080.793211554672, -9461.180503509106, -7805.787957404609, -11156.91794835543, -11283.227656272371, -16226.092425118975, 0.002, 0.232, 0.9480000000000001, 192.0, 0.0, 0.0, 0.0, 0.0, 0.0, 0.0, 0.0, 0.0, 0.0, 1.644588099873013E9, 0.0, 2022-02-12 01:01:39.873
154.0, -11368.410154391546, -10367.901369083093, -6467.90194128775, -13407.783318493763, -9330.802778101299, -6437.883548484272, -9848.335069219478, -7000.76752910227, -9849.273842486602, -12209.953333133857, -10081.396708654966, -9446.785980079887, -7804.849184137486, -11157.722611155821, -11283.965263839396, -16224.460747773737, 0.002, 0.232, 0.9480000000000001, 192.0, 0.0, 0.0, 0.0, 0.0, 0.0, 0.0, 0.0, 0.0, 0.0, 1.644588099880803E9, 0.0, 2022-02-12 01:01:39.880
156.0, -11382.49175339839, -10360.838217835215, -6477.021453025514, -13403.871763214083, -9340.36932472817, -6440.051667696437, -9859.309775747035, -7002.62272389206, -9854.034764055583, -12198.553943461651, -10074.266502173723, -9447.6800498581, -7798.344826500992, -11151.218253519328, -11279.964301581897, -16247.371285840427, 0.01, 0.23600000000000002, 0.9500000000000001, 192.0, 0.0, 40.0, 3.5, 48.0, 14.5, 88.0, 0.0, 0.0, 0.0, 1.644588099888111E9, 0.0, 2022-02-12 01:01:39.888
158.0, -11394.561695404256, -10368.013127805369, -6468.483086643588, -13394.439327053944, -9339.318792738772, -6438.665859540208, -9857.633394912888, -7000.81223259118, -9841.495435416155, -12196.788155649681, -10075.764069052228, -9447.76945683592, -7802.368140502947, -11155.889768110486, -11290.871952876087, -16208.658064443836, 0.01, 0.23600000000000002, 0.9500000000000001, 192.0, 0.0, 0.0, 0.0, 0.0, 0.0, 0.0, 0.0, 0.0, 0.0, 1.644588099895632E9, 0.0, 2022-02-12 01:01:39.895
160.0, -11392.550038403278, -10366.247339993399, -6466.896112787261, -13399.714338745396, -9352.975708600963, -6437.32475487289, -9859.846217613962, -6998.755872101292, -9860.986156581183, -12201.638484196483, -10068.879731759993, -9437.82293055331, -7793.82977412102, -11151.039439563685, -11292.481278476867, -16246.700733506768, 0.01, 0.23600000000000002, 0.9500000000000001, 192.0, 0.0, 0.0, 0.0, 0.0, 0.0, 0.0, 0.0, 0.0, 0.0, 1.644588099903508E9, 0.0, 2022-02-12 01:01:39.903
162.0, -11391.991244791896, -10373.891636597114, -6473.154601234746, -13399.714338745396, -9343.6550311631, -6436.408333350222, -9862.148447292859, -6999.761700601781, -9854.347688477956, -12213.104929102055, -10071.159609694436, -9440.840416054776, -7802.636361436411, -11156.649727421967, -11292.101298821128, -16227.634695486391, 0.01, 0.23600000000000002, 0.9500000000000001, 192.0, 0.0, 0.0, 0.0, 0.0, 0.0, 0.0, 0.0, 0.0, 0.0, 1.644588099917796E9, 0.0, 2022-02-12 01:01:39.917
164.0, -11383.072898754228, -10369.510694683873, -6463.90097903025, -13403.245914369336, -9347.90186260961, -6431.960336203616, -9859.957976336238, -6995.805441833191, -9848.782104108584, -12203.046644097167, -10079.13918246498, -9450.406962681647, -7805.586791704512, -11155.800361132666, -11287.787412141253, -16220.750358194156, 0.01, 0.23600000000000002, 0.9500000000000001, 192.0, 0.0, 0.0, 0.0, 0.0, 0.0, 0.0, 0.0, 0.0, 0.0, 1.6445880999252E9, 0.0, 2022-02-12 01:01:39.925
166.0, -11398.763823361853, -10375.143334286611, -6473.489877401576, -13405.257571370314, -9355.635566191146, -6433.703772271129, -9857.409877468333, -6990.150450485999, -9862.774296137608, -12227.968839164834, -10079.608569098542, -9442.606203866746, -7810.504175484679, -11147.284346495193, -11286.08867956265, -16245.650201517368, 0.012, 0.234, 0.9560000000000001, 192.0, 0.0, 48.0, 3.5, 40.0, 14.5, 112.0, 0.0, 0.0, 0.0, 1.644588099933161E9, 0.0, 2022-02-12 01:01:39.933
168.0, -11387.655006367566, -10367.275520238343, -6472.28288320099, -13387.5102862728, -9346.627813175657, -6429.792216991451, -9849.273842486602, -6994.017302276767, -9850.883168087385, -12207.60639996605, -10083.676586589407, -9441.645078855167, -7808.82779465053, -11150.25712850775, -11287.027452829774, -16205.327654519995, 0.012, 0.234, 0.9560000000000001, 192.0, 0.0, 0.0, 0.0, 0.0, 0.0, 0.0, 0.0, 0.0, 0.0, 1.644588099941152E9, 0.0, 2022-02-12 01:01:39.941
170.0, -11386.49271565589, -10360.346479457197, -6471.053537255948, -13398.708510244907, -9366.543217485336, -6431.669763525697, -9853.05128729955, -6992.2068109758875, -9858.90744434684, -12201.16909756292, -10074.490019618275, -9433.19611945106, -7807.352579516481, -11145.58561391659, -11287.340377252147, -16240.285782848096, 0.012, 0.234, 0.9560000000000001, 192.0, 0.0, 0.0, 0.0, 0.0, 0.0, 0.0, 0.0, 0.0, 0.0, 1.644588099947747E9, 0.0, 2022-02-12 01:01:39.947
172.0, -11390.024291279828, -10349.550586885285, -6474.562761135431, -13390.348957818624, -9368.309005297304, -6437.950603717638, -9870.217427041225, -7007.361293716585, -9854.124171033403, -12209.483946500295, -10079.742679565274, -9436.05714274134, -7817.679085454833, -11149.519520940725, -11293.531810466267, -16223.969009395722, 0.012, 0.234, 0.9560000000000001, 192.0, 0.0, 0.0, 0.0, 0.0, 0.0, 0.0, 0.0, 0.0, 0.0, 1.644588099955706E9, 0.0, 2022-02-12 01:01:39.955
174.0, -11386.11273600015, -10357.23958697791, -6469.0865837438805, -13399.289655600745, -9369.270130308883, -6442.018621208504, -9866.529389206098, -7001.326322713652, -9852.537197177076, -12205.393577264975, -10076.345214408066, -9441.82389281081, -7805.810309149064, -11153.855759365053, -11294.895266878042, -16219.900991904855, 0.012, 0.234, 0.9560000000000001, 192.0, 0.0, 0.0, 0.0, 0.0, 0.0, 0.0, 0.0, 0.0, 0.0, 1.644588099964186E9, 0.0, 2022-02-12 01:01:39.964
176.0, -11392.751204103375, -10377.95965408798, -6480.150697249258, -13405.883420215061, -9384.245799093938, -6450.2440631680565, -9878.152296322858, -7005.617857649071, -9866.082354316994, -12216.99413263728, -10072.835990528583, -9447.121256246717, -7805.609143448966, -11158.862550123044, -11294.023548844285, -16249.204128885762, 0.008, 0.24, 0.9440000000000001, 192.0, 0.0, 32.0, 3.5, 64.0, 14.5, 64.0, 0.0, 0.0, 0.0, 1.644588099970665E9, 0.0, 2022-02-12 01:01:39.970
178.0, -11404.463518197957, -10384.128735557644, -6484.732804862596, -13392.852353197617, -9380.021319391886, -6444.99140322106, -9875.96182536624, -7006.914258827479, -9862.550778693054, -12212.27791455721, -10086.112926735035, -9443.701439345055, -7834.733466474232, -11169.434925250403, -11300.974941369885, -16208.63571269938, 0.008, 0.24, 0.9440000000000001, 192.0, 0.0, 0.0, 0.0, 0.0, 0.0, 0.0, 0.0, 0.0, 0.0, 1.644588099977403E9, 0.0, 2022-02-12 01:01:39.977
180.0, -11390.516029657845, -10371.142372029111, -6481.0000635385595, -13401.413071324001, -9390.213714863505, -6441.75040027504, -9873.749002665163, -6996.945380800412, -9875.917121877328, -12222.582068751106, -10082.827220300105, -9433.218471195516, -7838.197986864804, -11150.167721529928, -11303.008950115318, -16240.576355526015, 0.008, 0.24, 0.9440000000000001, 192.0, 0.0, 0.0, 0.0, 0.0, 0.0, 0.0, 0.0, 0.0, 0.0, 1.644588099985474E9, 0.0, 2022-02-12 01:01:39.985
182.0, -11377.104982984662, -10345.504921138874, -6481.536505405486, -13391.421841552477, -9381.049499636829, -6435.648374038741, -9872.609063697942, -6997.437119178429, -9865.702374661252, -12213.79783318017, -10079.720327820818, -9437.599413108755, -7834.420542051857, -11146.434980205891, -11299.835002402664, -16219.252791315652, 0.008, 0.24, 0.9440000000000001, 192.0, 0.0, 0.0, 0.0, 0.0, 0.0, 0.0, 0.0, 0.0, 0.0, 1.644588099993334E9, 0.0, 2022-02-12 01:01:39.993
184.0, -11385.844515066687, -10345.080237994223, -6476.462659414132, -13389.946626418428, -9386.503325283924, -6433.167330404202, -9872.989043353682, -6998.733520356837, -9850.927871576294, -12184.472344454807, -10083.05073774466, -9431.363276405726, -7821.367123289958, -11145.876186594509, -11299.030339602274, -16214.603628468947, 0.007, 0.239, 0.9420000000000001, 192.0, 0.0, 24.0, 3.5, 56.0, 14.5, 48.0, 0.0, 0.0, 0.0, 1.644588100000129E9, 0.0, 2022-02-12 01:01:40.000
186.0, -11399.434375695513, -10387.593255948217, -6477.870819314817, -13397.635626511053, -9393.968807931997, -6444.812589265417, -9869.502171218655, -6996.72186335586, -9857.14165653487, -12212.99317037978, -10068.790324782172, -9428.166976948616, -7823.647001224399, -11150.994736074774, -11295.85639188962, -16246.20899512875, 0.007, 0.239, 0.9420000000000001, 192.0, 0.0, 0.0, 0.0, 0.0, 0.0, 0.0, 0.0, 0.0, 0.0, 1.644588100008026E9, 0.0, 2022-02-12 01:01:40.008
188.0, -11411.817242123752, -10380.507752955884, -6482.788203094984, -13388.918446173484, -9397.299217855838, -6436.341278116855, -9877.928778878306, -6992.184459231432, -9862.774296137608, -12221.911516417447, -10080.703804576851, -9434.827796796299, -7828.944364660307, -11159.041364078685, -11298.315083779704, -16205.260599286628, 0.007, 0.239, 0.9420000000000001, 192.0, 0.0, 0.0, 0.0, 0.0, 0.0, 0.0, 0.0, 0.0, 0.0, 1.644588100016322E9, 0.0, 2022-02-12 01:01:40.016
190.0, -11394.315826215246, -10374.092802297211, -6476.395604180766, -13396.294521843734, -9410.442043595558, -6438.419990351199, -9876.654729444354, -6995.313703455175, -9867.110534561936, -12229.13112987651, -10074.490019618275, -9429.664543827123, -7843.093018900517, -11154.369849487526, -11301.489031492358, -16238.40823631385, 0.007, 0.239, 0.9420000000000001, 192.0, 0.0, 0.0, 0.0, 0.0, 0.0, 0.0, 0.0, 0.0, 0.0, 1.644588100023178E9, 0.0, 2022-02-12 01:01:40.023
192.0, -11392.661797125555, -10357.664270122561, -6480.083642015892, -13388.002024650816, -9400.562572546312, -6439.0905426848585, -9879.918084134828, -7002.533316914239, -9862.818999626517, -12221.33037106161, -10088.37045292502, -9437.82293055331, -7829.8384344385195, -11165.54572171518, -11299.589133213656, -16219.833936671488, 0.007, 0.239, 0.9420000000000001, 192.0, 0.0, 0.0, 0.0, 0.0, 0.0, 0.0, 0.0, 0.0, 0.0, 1.644588100030819E9, 0.0, 2022-02-12 01:01:40.030
194.0, -11389.197276734982, -10346.555453128274, -6469.153638977246, -13394.12640263157, -9408.34097961676, -6437.391810106255, -9880.4321742573, -6993.7937848322135, -9863.042517071071, -12196.341120760575, -10091.56675238213, -9444.81902656782, -7840.544920032611, -11153.20755877585, -11301.33256928117, -16209.954465622242, 0.0095, 0.2405, 0.9440000000000001, 192.0, 0.0, 48.0, 3.5, 72.0, 14.5, 72.0, 0.0, 0.0, 0.0, 1.644588100045953E9, 0.0, 2022-02-12 01:01:40.045
196.0, -11393.153535503572, -10380.395994233608, -6473.735746590584, -13389.544295018231, -9420.656790811634, -6440.185778163169, -9894.178497097313, -6999.493479668317, -9872.452601486755, -12206.600571465562, -10082.782516811194, -9436.213604952527, -7842.623632266955, -11145.473855194314, -11303.746557682343, -16240.35283808146, 0.0095, 0.2405, 0.9440000000000001, 192.0, 0.0, 0.0, 0.0, 0.0, 0.0, 0.0, 0.0, 0.0, 0.0, 1.644588100052872E9, 0.0, 2022-02-12 01:01:40.052
198.0, -11395.455765182467, -10367.968424316457, -6482.005892039048, -13380.491838513833, -9418.689837299567, -6441.079847941381, -9891.161011595847, -7003.203869247898, -9858.393354224367, -12218.357589049052, -10085.129449979002, -9419.785072777877, -7833.817044951564, -11152.425247719913, -11309.401549029535, -16202.041948085065, 0.0095, 0.2405, 0.9440000000000001, 192.0, 0.0, 0.0, 0.0, 0.0, 0.0, 0.0, 0.0, 0.0, 0.0, 1.644588100060566E9, 0.0, 2022-02-12 01:01:40.060
200.0, -11413.985361335917, -10381.200657034, -6483.034072283992, -13402.575362035675, -9439.946346276563, -6449.1264759452915, -9897.732424465708, -7009.931744328946, -9877.392337011379, -12228.482929287307, -10085.241208701278, -9420.455625111535, -7849.798542237108, -11156.5826721886, -11313.089586864662, -16243.795006727578, 0.0095, 0.2405, 0.9440000000000001, 192.0, 0.0, 0.0, 0.0, 0.0, 0.0, 0.0, 0.0, 0.0, 0.0, 1.644588100068267E9, 0.0, 2022-02-12 01:01:40.068
202.0, -11417.092253815204, -10365.196808003999, -6495.640456156785, -13395.98159742136, -9440.01340150993, -6442.756228775529, -9901.308703578557, -7002.555668658694, -9876.230046299703, -12233.154443878466, -10095.590066384086, -9443.030887011397, -7863.455458099301, -11161.857683880055, -11314.073063620695, -16223.298457062061, 0.0095, 0.2405, 0.9440000000000001, 192.0, 0.0, 0.0, 0.0, 0.0, 0.0, 0.0, 0.0, 0.0, 0.0, 1.644588100076458E9, 0.0, 2022-02-12 01:01:40.076
204.0, -11392.326520958724, -10359.38535444562, -6480.418918182721, -13395.26634159879, -9443.38851492268, -6444.209092165124, -9896.056043631559, -7004.4779186818505, -9875.514790477133, -12195.178830048899, -10099.971008297325, -9440.415732910125, -7862.606091809999, -11155.509788454747, -11320.71153172392, -16214.044834857565, 0.00875, 0.24025, 0.9460000000000001, 192.0, 0.0, 32.0, 3.5, 64.0, 14.5, 80.0, 0.0, 0.0, 0.0, 1.644588100082876E9, 0.0, 2022-02-12 01:01:40.082
206.0, -11405.961085076462, -10386.63213093664, -6490.320740976423, -13402.12832714657, -9452.217453982526, -6456.010813237526, -9897.419500043334, -7005.170822759966, -9887.405918527356, -12239.859967215058, -10087.029348257704, -9442.53914863338, -7848.904472458897, -11160.047192579173, -11314.117767109605, -16247.237175373695, 0.00875, 0.24025, 0.9460000000000001, 192.0, 0.0, 0.0, 0.0, 0.0, 0.0, 0.0, 0.0, 0.0, 0.0, 1.644588100091132E9, 0.0, 2022-02-12 01:01:40.091
208.0, -11406.743396132399, -10384.285197768831, -6490.030168298504, -13385.968015905382, -9452.77624759391, -6450.154656190236, -9901.95690416776, -7003.963828559378, -9883.606121969953, -12220.883336172503, -10102.005017042758, -9452.306860960349, -7872.619673325977, -11168.49615198328, -11319.459834034424, -16207.58518070998, 0.00875, 0.24025, 0.9460000000000001, 192.0, 0.0, 0.0, 0.0, 0.0, 0.0, 0.0, 0.0, 0.0, 0.0, 1.644588100097942E9, 0.0, 2022-02-12 01:01:40.097
210.0, -11409.850288611686, -10374.942168586513, -6488.599656653364, -13395.199286365425, -9463.773305865921, -6452.635699824775, -9907.678950748319, -7010.915221084979, -9887.227104571713, -12217.999961137768, -10093.064319260637, -9431.475035128002, -7871.211513425293, -11158.460218722847, -11322.611430002622, -16238.989381669688, 0.00875, 0.24025, 0.9460000000000001, 192.0, 0.0, 0.0, 0.0, 0.0, 0.0, 0.0, 0.0, 0.0, 0.0, 1.644588100105244E9, 0.0, 2022-02-12 01:01:40.105
212.0, -11416.041721825806, -10369.443639450508, -6496.579229423908, -13388.851390940117, -9455.078477272806, -6447.584205577875, -9909.981180427216, -6999.448776179407, -9876.67708118881, -12233.668534000939, -10099.14399375248, -9433.53139561789, -7873.401984381912, -11160.024840834718, -11323.28198233628, -16219.990398882675, 0.00875, 0.24025, 0.9460000000000001, 192.0, 0.0, 0.0, 0.0, 0.0, 0.0, 0.0, 0.0, 0.0, 0.0, 1.644588100112635E9, 0.0, 2022-02-12 01:01:40.112
214.0, -11400.909590829562, -10349.95291828548, -6485.313950218434, -13390.863047941095, -9460.06291628634, -6445.527845087987, -9907.321322837035, -6999.806404090692, -9874.486610232188, -12207.94167613288, -10109.71636887984, -9445.176654479106, -7868.417545368379, -11168.83142815011, -11325.315991081714, -16208.501602232649, 0.0053750000000000004, 0.24012499999999998, 0.9450000000000001, 192.0, 0.0, 8.0, 3.5, 64.0, 14.5, 64.0, 0.0, 0.0, 0.0, 1.644588100120635E9, 0.0, 2022-02-12 01:01:40.120
216.0, -11411.012579323362, -10378.943130844013, -6494.388758467288, -13401.636588768553, -9471.171733280627, -6448.813551522917, -9908.058930404059, -6997.615933134071, -9891.451584273766, -12231.299249088675, -10096.730005351306, -9434.559575862835, -7868.104620946005, -11165.277500781716, -11322.253802091338, -16240.062265403541, 0.0053750000000000004, 0.24012499999999998, 0.9450000000000001, 192.0, 0.0, 0.0, 0.0, 0.0, 0.0, 0.0, 0.0, 0.0, 0.0, 1.644588100128578E9, 0.0, 2022-02-12 01:01:40.128
218.0, -11421.897878873096, -10371.969386573957, -6493.04765379997, -13387.845562439628, -9467.528398934413, -6445.013754965515, -9909.780014727117, -7004.612029148582, -9871.71499391973, -12209.03691161119, -10095.724176850817, -9436.682991586089, -7880.129859462961, -11154.369849487526, -11330.05456090624, -16202.466631229716, 0.0053750000000000004, 0.24012499999999998, 0.9450000000000001, 192.0, 0.0, 0.0, 0.0, 0.0, 0.0, 0.0, 0.0, 0.0, 0.0, 1.644588100136822E9, 0.0, 2022-02-12 01:01:40.136
220.0, -11415.5946869367, -10374.450430208497, -6487.593828152875, -13397.523867788777, -9485.387442754203, -6446.041935210459, -9914.473881062733, -6999.448776179407, -9887.316511549534, -12218.290533815687, -10093.444298916376, -9430.53626186088, -7869.155152935405, -11161.231835035305, -11330.38983707307, -16235.368399067927, 0.0053750000000000004, 0.24012499999999998, 0.9450000000000001, 192.0, 0.0, 0.0, 0.0, 0.0, 0.0, 0.0, 0.0, 0.0, 0.0, 1.644588100143198E9, 0.0, 2022-02-12 01:01:40.143
222.0, -11402.83184085272, -10366.940244071513, -6496.132194534802, -13383.106992615103, -9481.49823921898, -6441.3704206193, -9922.565212555553, -7000.879287824547, -9882.041499858082, -12228.617039754039, -10108.151746767968, -9433.263174684427, -7887.0141967551945, -11159.041364078685, -11329.652229506044, -16216.816451170023, 0.0053750000000000004, 0.24012499999999998, 0.9450000000000001, 192.0, 0.0, 0.0, 0.0, 0.0, 0.0, 0.0, 0.0, 0.0, 0.0, 1.64458810015127E9, 0.0, 2022-02-12 01:01:40.151
224.0, -11405.44699495399, -10367.610796405173, -6488.174973508713, -13379.754230946808, -9485.655663687667, -6438.040010695459, -9918.139567153403, -6995.313703455175, -9873.927816620806, -12209.0816151001, -10104.061377532647, -9423.070779212807, -7877.514705361689, -11155.68860241039, -11331.90975569603, -16202.600741696448, 0.0056875, 0.2390625, 0.9465000000000001, 192.0, 0.0, 24.0, 3.5, 56.0, 14.5, 80.0, 0.0, 0.0, 0.0, 1.644588100164778E9, 0.0, 2022-02-12 01:01:40.164
226.0, -11423.797777151798, -10366.537912671318, -6493.874668344816, -13388.002024650816, -9498.373806282736, -6446.176045677191, -9923.526337567131, -7005.483747182339, -9891.406880784856, -12234.227327612321, -10093.936037294394, -9416.76758727641, -7895.977246281773, -11150.25712850775, -11330.501595795346, -16232.462672288737, 0.0056875, 0.2390625, 0.9465000000000001, 192.0, 0.0, 0.0, 0.0, 0.0, 0.0, 0.0, 0.0, 0.0, 0.0, 1.64458810017304E9, 0.0, 2022-02-12 01:01:40.173
228.0, -11402.094233285694, -10365.509732426373, -6494.366406722833, -13380.044803624727, -9498.284399304915, -6448.947661989649, -9928.108445180469, -7012.1669187744765, -9875.42538349931, -12207.785213921692, -10096.774708840217, -9427.71994205951, -7892.758595080209, -11160.360117001548, -11334.346095841658, -16200.566732951014, 0.0056875, 0.2390625, 0.9465000000000001, 192.0, 0.0, 0.0, 0.0, 0.0, 0.0, 0.0, 0.0, 0.0, 0.0, 1.644588100180867E9, 0.0, 2022-02-12 01:01:40.180
230.0, -11413.40421598008, -10367.409630705075, -6496.109842790347, -13399.490821300844, -9516.657533247177, -6452.546292846953, -9933.025828960637, -6996.364235444575, -9886.154220837858, -12219.452824527363, -10099.14399375248, -9438.784055564887, -7898.637103871954, -11171.156009573462, -11337.318877854213, -16229.624000742913, 0.0056875, 0.2390625, 0.9465000000000001, 192.0, 0.0, 0.0, 0.0, 0.0, 0.0, 0.0, 0.0, 0.0, 0.0, 1.644588100188285E9, 0.0, 2022-02-12 01:01:40.188
232.0, -11424.289515529814, -10383.86051462418, -6515.2205842996345, -13395.869838699084, -9518.736245481521, -6455.027336481493, -9941.765361042662, -7009.52941292875, -9889.61874122843, -12230.226365354822, -10110.744549124784, -9449.222320225515, -7902.548659151633, -11167.445619993881, -11340.738694755877, -16219.8786401604, 0.0056875, 0.2390625, 0.9465000000000001, 192.0, 0.0, 0.0, 0.0, 0.0, 0.0, 0.0, 0.0, 0.0, 0.0, 1.644588100195404E9, 0.0, 2022-02-12 01:01:40.195
234.0, -11423.395445751601, -10382.072375067757, -6507.7103981626515, -13390.4607165409, -9532.527271810446, -6456.010813237526, -9949.811989046573, -7014.782072875747, -9896.234857587202, -12233.668534000939, -10125.228479531823, -9445.556634134846, -7907.80131909863, -11166.484494982302, -11347.824197748208, -16212.726081934701, 0.00784375, 0.23953125, 0.9472500000000001, 192.0, 0.0, 40.0, 3.5, 64.0, 14.5, 80.0, 0.0, 0.0, 0.0, 1.644588100203699E9, 0.0, 2022-02-12 01:01:40.203
236.0, -11425.518861474857, -10371.72351738495, -6513.454796487666, -13393.165277619992, -9536.997620701506, -6459.363574905822, -9953.880006537438, -7017.911317099491, -9902.940380923794, -12241.312830604653, -10117.718293394839, -9437.331192175292, -7912.316371478602, -11160.002489090264, -11348.785322759786, -16243.571489283026, 0.00784375, 0.23953125, 0.9472500000000001, 192.0, 0.0, 0.0, 0.0, 0.0, 0.0, 0.0, 0.0, 0.0, 0.0, 1.644588100210687E9, 0.0, 2022-02-12 01:01:40.210
238.0, -11393.041776781294, -10355.272633465844, -6506.19047953969, -13376.69204195643, -9521.26199260497, -6448.433571867177, -9933.249346405191, -6999.448776179407, -9880.119249834926, -12208.612228466538, -10110.632790402507, -9426.20002343655, -7910.215307499803, -11160.740096657288, -11344.918470969018, -16196.297549760051, 0.00784375, 0.23953125, 0.9472500000000001, 192.0, 0.0, 0.0, 0.0, 0.0, 0.0, 0.0, 0.0, 0.0, 0.0, 1.644588100217186E9, 0.0, 2022-02-12 01:01:40.217
