%OpenBCI Raw EEG Data
%Number of channels = 16
%Sample Rate = 125 Hz
%Board = OpenBCI_GUI$BoardCytonSerialDaisy
Sample Index, EXG Channel 0, EXG Channel 1, EXG Channel 2, EXG Channel 3, EXG Channel 4, EXG Channel 5, EXG Channel 6, EXG Channel 7, EXG Channel 8, EXG Channel 9, EXG Channel 10, EXG Channel 11, EXG Channel 12, EXG Channel 13, EXG Channel 14, EXG Channel 15, Accel Channel 0, Accel Channel 1, Accel Channel 2, Other, Other, Other, Other, Other, Other, Other, Analog Channel 0, Analog Channel 1, Analog Channel 2, Timestamp, Other, Timestamp (Formatted)
0.0, -11512.288333450359, -11373.05931723825, -6806.374407574464, -12165.83098957908, -10008.239449052746, -6210.678066096076, -9036.49735885827, -6563.857980234383, 0.0, 0.0, 0.0, 0.0, 0.0, 0.0, 0.0, 0.0, 0.0, 0.0, 0.0, 192.0, 0.0, 0.0, 0.0, 0.0, 0.0, 0.0, 0.0, 0.0, 0.0, 1.644587852064805E9, 0.0, 2022-02-12 00:57:32.064
144.0, -11466.377850339157, -11337.00595343184, -6815.046884423124, -12138.204233432321, -9990.626274421964, -6201.782071802863, -9034.753922790756, -6557.554788297986, -10383.972273346457, -13004.602552008933, -9749.607413960388, -8240.350573104688, -8053.847617369607, -10617.726816860059, -11134.096817266562, -15309.514440240198, 0.002, 0.11800000000000001, 0.47400000000000003, 192.0, 0.0, 16.0, 3.5, 48.0, 14.5, 80.0, 0.0, 0.0, 0.0, 1.64458785206481E9, 0.0, 2022-02-12 00:57:32.064
0.0, -6034.76983723281, -5730.2496707737055, -3203.2508496345104, -6415.464748795599, -4558.0347845595825, -2645.172494074404, -4531.100932490937, -3129.2442237429887, -5170.584341357272, -6493.673502644719, -4849.099200856591, -4106.976581451486, -4027.516129912869, -5297.385787652229, -5553.805000043511, -7668.369432493381, 0.004, 0.23, 0.9500000000000001, 192.0, 0.0, 16.0, 3.5, 24.0, 14.5, 88.0, 0.0, 0.0, 0.0, 1.644587852205718E9, 0.0, 2022-02-12 00:57:32.205
2.0, -12058.162636537867, -11473.664519031587, -6402.344274800334, -12836.070398815918, -9118.975295898354, -5289.629732326238, -9060.212559725353, -6259.315462030824, -10839.500825345616, -13454.587871383175, -9600.767147632498, -7938.266746791214, -7520.691456877167, -10298.409795571542, -11488.03669071635, -16258.860082490455, 0.004, 0.23, 0.9500000000000001, 192.0, 0.0, 0.0, 0.0, 0.0, 0.0, 0.0, 0.0, 0.0, 0.0, 1.644587852212035E9, 0.0, 2022-02-12 00:57:32.212
4.0, -12059.928424349837, -11469.149466651616, -6412.246097594035, -12846.016925098531, -9126.440778546426, -5293.921267261657, -9071.567245908647, -6262.735278932486, -10846.608680082403, -13475.173828026514, -9596.252095252526, -7924.945107095851, -7522.434892944681, -10293.537115280285, -11489.26603666139, -16312.928952327842, 0.004, 0.23, 0.9500000000000001, 192.0, 0.0, 0.0, 0.0, 0.0, 0.0, 0.0, 0.0, 0.0, 0.0, 1.644587852218266E9, 0.0, 2022-02-12 00:57:32.218
6.0, -12062.968261595757, -11446.417742540569, -6394.45410900761, -12836.49508196057, -9111.532164994736, -5286.276970657942, -9055.473989900827, -6254.219264295014, -10838.115017189386, -13455.5266446503, -9599.358987731814, -7941.977136370795, -7526.9499453246535, -10299.2815136053, -11491.054176217816, -16257.183701656308, 0.004, 0.23, 0.9500000000000001, 192.0, 0.0, 0.0, 0.0, 0.0, 0.0, 0.0, 0.0, 0.0, 0.0, 1.644587852224473E9, 0.0, 2022-02-12 00:57:32.224
8.0, -12060.844845872503, -11468.74713525142, -6389.916704883183, -12853.460056002148, -9126.865461691077, -5295.66470332917, -9063.833542327111, -6262.020023109916, -10849.492055117138, -13471.195217513468, -9583.04221427944, -7932.187072299371, -7525.25121274605, -10293.000673413359, -11489.5119058504, -16303.65297837889, 0.004, 0.234, 0.9440000000000001, 192.0, 0.0, 16.0, 3.5, 40.0, 14.5, 64.0, 0.0, 0.0, 0.0, 1.644587852232621E9, 0.0, 2022-02-12 00:57:32.232
10.0, -12072.1995320558, -11486.136792437648, -6407.395769047233, -12849.660259444745, -9127.826586702657, -5301.565563865372, -9071.947225564389, -6272.100659859259, -10849.469703372682, -13479.420659473022, -9592.787574861954, -7927.180281541381, -7534.5271866950025, -10296.733414737393, -11493.848144274729, -16299.27203646565, 0.004, 0.234, 0.9440000000000001, 192.0, 0.0, 0.0, 0.0, 0.0, 0.0, 0.0, 0.0, 0.0, 0.0, 1.644587852239054E9, 0.0, 2022-02-12 00:57:32.239
12.0, -12075.440535001819, -11477.933702222552, -6408.8039289479175, -12853.080076346407, -9125.859633190588, -5301.342046420818, -9058.044440513188, -6267.138572590181, -10852.263671429595, -13474.592682670676, -9625.152900833238, -7937.95382236884, -7535.1083320508405, -10308.065749176234, -11503.817022301797, -16278.037879233108, 0.004, 0.234, 0.9440000000000001, 192.0, 0.0, 0.0, 0.0, 0.0, 0.0, 0.0, 0.0, 0.0, 0.0, 1.644587852246203E9, 0.0, 2022-02-12 00:57:32.246
14.0, -12088.15867759689, -11488.237856416448, -6412.156690616213, -12867.184027097706, -9130.9558309264, -5303.867793544268, -9063.967652793843, -6265.149267333659, -10874.593064140447, -13491.535304967798, -9598.509621442512, -7948.9955841297615, -7540.875082120309, -10308.1328044096, -11499.011397243905, -16329.022208335664, 0.004, 0.234, 0.9440000000000001, 192.0, 0.0, 0.0, 0.0, 0.0, 0.0, 0.0, 0.0, 0.0, 0.0, 1.644587852254294E9, 0.0, 2022-02-12 00:57:32.254
16.0, -12069.763191910171, -11473.753926009409, -6419.823338964384, -12853.504759491057, -9113.096787106608, -5290.344988148808, -9059.989042280798, -6255.202741051047, -10863.014860512598, -13481.901703107562, -9615.318133272904, -7969.045098906172, -7518.34452370936, -10300.667321761528, -11502.252400189926, -16272.137018696907, 0.004, 0.234, 0.9440000000000001, 192.0, 0.0, 0.0, 3.5, 40.0, 14.5, 88.0, 0.0, 0.0, 0.0, 1.644587852262044E9, 0.0, 2022-02-12 00:57:32.262
18.0, -12055.726296392239, -11471.339937608236, -6409.139205114747, -12861.886663661799, -9127.223089602363, -5294.18948819512, -9060.190207980897, -6254.912168373128, -10855.05763948651, -13469.854112846151, -9606.623304679788, -7944.100552094049, -7528.15693952524, -10290.474926289908, -11503.682911835065, -16310.202039504295, 0.004, 0.234, 0.9440000000000001, 192.0, 0.0, 0.0, 0.0, 0.0, 0.0, 0.0, 0.0, 0.0, 0.0, 1.644587852268746E9, 0.0, 2022-02-12 00:57:32.268
20.0, -12079.083869348035, -11482.51580983589, -6412.111987127303, -12857.952756637664, -9122.216298844374, -5300.626790598249, -9061.039574270199, -6261.327119031802, -10848.776799294568, -13471.932825080494, -9593.435775451157, -7937.752656668742, -7523.865404589821, -10294.744109480871, -11504.554629868822, -16306.759870858179, 0.004, 0.234, 0.9440000000000001, 192.0, 0.0, 0.0, 0.0, 0.0, 0.0, 0.0, 0.0, 0.0, 0.0, 1.644587852276665E9, 0.0, 2022-02-12 00:57:32.276
22.0, -12099.356901568997, -11498.31849316579, -6407.239306836046, -12858.243329315583, -9126.306668079695, -5303.174889466154, -9059.966690536343, -6263.003499865949, -10876.62707288588, -13477.945444338971, -9615.89927862874, -7946.089857350571, -7541.5679861984245, -10302.164888640034, -11503.392339157146, -16286.062155492564, 0.004, 0.234, 0.9440000000000001, 192.0, 0.0, 0.0, 0.0, 0.0, 0.0, 0.0, 0.0, 0.0, 0.0, 1.644587852284744E9, 0.0, 2022-02-12 00:57:32.284
24.0, -12105.324817338565, -11497.826754787775, -6413.251926094524, -12873.263701589549, -9135.694400750925, -5305.790043567425, -9066.98513829531, -6266.535075489888, -10889.278160247584, -13502.755880684363, -9608.813775636409, -7949.196749829859, -7545.367782755827, -10306.858754975648, -11508.913220037606, -16340.66746719688, 0.004, 0.234, 0.9440000000000001, 192.0, 0.0, 0.0, 0.0, 0.0, 0.0, 0.0, 0.0, 0.0, 0.0, 1.644587852291325E9, 0.0, 2022-02-12 00:57:32.291
26.0, -12100.094509136023, -11516.781034085874, -6415.375341817778, -12864.814742185443, -9119.310572065184, -5295.1729649511535, -9063.051231271176, -6262.847037654762, -10877.811715342012, -13479.063031561736, -9619.989647864062, -7956.90810166694, -7533.499006450058, -10308.579839298707, -11511.841298561252, -16283.268187435651, 0.004, 0.234, 0.9440000000000001, 192.0, 0.0, 0.0, 3.5, 56.0, 14.5, 88.0, 0.0, 0.0, 0.0, 1.644587852299583E9, 0.0, 2022-02-12 00:57:32.299
28.0, -12087.599883985506, -11503.302932179324, -6411.664952238197, -12879.365727825849, -9126.61959250207, -5294.86004052878, -9060.972519036832, -6261.327119031802, -10887.8700003469, -13497.52557248182, -9633.80302593744, -7957.24337783377, -7513.293029462461, -10296.398138570565, -11506.588638614254, -16326.004722834197, 0.004, 0.234, 0.9440000000000001, 192.0, 0.0, 0.0, 0.0, 0.0, 0.0, 0.0, 0.0, 0.0, 0.0, 1.644587852307431E9, 0.0, 2022-02-12 00:57:32.307
30.0, -12128.59298331654, -11510.857821805219, -6417.968144174593, -12874.40364055677, -9126.641944246525, -5297.676360330148, -9078.965673323355, -6275.364014549735, -10873.989567040155, -13498.754918426863, -9620.168461819705, -7976.24236062078, -7540.338640253382, -10290.899609434558, -11511.908353794617, -16319.567420431069, 0.004, 0.234, 0.9440000000000001, 192.0, 0.0, 0.0, 0.0, 0.0, 0.0, 0.0, 0.0, 0.0, 0.0, 1.644587852321124E9, 0.0, 2022-02-12 00:57:32.321
32.0, -12123.362675113998, -11517.384531186168, -6408.066321380892, -12876.705870235666, -9128.452435547404, -5301.319694676363, -9070.98610055281, -6272.480639515, -10889.05464280303, -13493.032871846304, -9611.339522759858, -7954.203540587848, -7541.791503642978, -10308.602191043163, -11518.99385678695, -16301.127231255441, 0.004, 0.234, 0.9440000000000001, 192.0, 0.0, 0.0, 0.0, 0.0, 0.0, 0.0, 0.0, 0.0, 0.0, 1.644587852329576E9, 0.0, 2022-02-12 00:57:32.329
34.0, -12114.466680820786, -11532.002572059939, -6418.146958130236, -12885.043070917496, -9137.728409496356, -5305.119491233765, -9082.854876858579, -6275.408718038645, -10906.06432033352, -13513.48471802291, -9620.213165308614, -7951.4766277643, -7533.521358194514, -10304.89180146358, -11521.184327743571, -16356.29133657114, 0.004, 0.234, 0.9440000000000001, 192.0, 0.0, 0.0, 0.0, 0.0, 0.0, 0.0, 0.0, 0.0, 0.0, 1.644587852337052E9, 0.0, 2022-02-12 00:57:32.337
36.0, -12103.782546971148, -11523.911240567119, -6409.496833026032, -12874.560102767957, -9129.480615792349, -5301.900840032201, -9087.36992923855, -6283.410642553645, -10888.115869535908, -13499.470174249433, -9626.918688645208, -7954.71763071032, -7545.881872878298, -10309.786833499293, -11523.464205678012, -16304.211771990273, 0.003, 0.23500000000000001, 0.9460000000000001, 192.0, 0.0, 8.0, 3.5, 48.0, 14.5, 80.0, 0.0, 0.0, 0.0, 1.644587852344556E9, 0.0, 2022-02-12 00:57:32.344
38.0, -12101.480317292253, -11518.211545731014, -6404.892373668239, -12885.199533128683, -9138.801293230212, -5298.14574696371, -9080.619702413047, -6281.398985552667, -10895.514296950614, -13499.894857394083, -9620.079054841883, -7957.24337783377, -7545.300727522461, -10302.0307781733, -11525.453510934534, -16346.925955644365, 0.003, 0.23500000000000001, 0.9460000000000001, 192.0, 0.0, 0.0, 0.0, 0.0, 0.0, 0.0, 0.0, 0.0, 0.0, 1.644587852351634E9, 0.0, 2022-02-12 00:57:32.351
40.0, -12120.546355312628, -11524.648848134142, -6415.576507517875, -12884.59603602839, -9135.716752495378, -5301.051473742899, -9082.519600691749, -6277.330968061801, -10895.715462650713, -13512.3894825446, -9623.722389188099, -7959.053869134649, -7534.303669250449, -10299.66149326104, -11528.694513880553, -16340.13102532995, 0.003, 0.23500000000000001, 0.9460000000000001, 192.0, 0.0, 0.0, 0.0, 0.0, 0.0, 0.0, 0.0, 0.0, 0.0, 1.644587852359623E9, 0.0, 2022-02-12 00:57:32.359
42.0, -12111.896230208426, -11499.36902515519, -6413.453091794621, -12888.462887819158, -9126.70899947989, -5297.0505114853995, -9073.020109298242, -6275.118145360726, -10898.35296849644, -13494.061052091249, -9625.398770022246, -7975.772973987219, -7521.764340611022, -10311.172641655523, -11528.023961546894, -16320.215621020274, 0.003, 0.23500000000000001, 0.9460000000000001, 192.0, 0.0, 0.0, 0.0, 0.0, 0.0, 0.0, 0.0, 0.0, 0.0, 1.644587852367758E9, 0.0, 2022-02-12 00:57:32.367
44.0, -12106.688273750338, -11504.845202546741, -6415.93413542916, -12903.013873459564, -9147.47377007887, -5311.512090147983, -9087.302874005183, -6291.144346135181, -10897.905933607333, -13504.208744073958, -9617.888583885264, -7986.881790981507, -7545.278375778005, -10301.024949672812, -11532.94134532706, -16375.245615869238, 0.003, 0.23500000000000001, 0.9460000000000001, 192.0, 0.0, 0.0, 0.0, 0.0, 0.0, 0.0, 0.0, 0.0, 0.0, 1.644587852373718E9, 0.0, 2022-02-12 00:57:32.373
46.0, -12124.904945481414, -11543.603127432243, -6418.504586041521, -12884.640739517301, -9144.746857255323, -5310.57331688086, -9096.824717143145, -6290.4067385681565, -10899.336445252473, -13497.659682948552, -9636.507587016535, -7969.782706473197, -7551.894492136776, -10319.71100803745, -11543.446665221056, -16326.004722834197, 0.0045000000000000005, 0.2315, 0.9420000000000001, 192.0, 0.0, 24.0, 3.5, 16.0, 14.5, 40.0, 0.0, 0.0, 0.0, 1.644587852381521E9, 0.0, 2022-02-12 00:57:32.381
48.0, -12129.73292228376, -11550.062781579827, -6409.496833026032, -12897.090661178907, -9150.245386391329, -5310.170985480665, -9090.99091184031, -6293.334817091802, -10915.92143963831, -13522.783043716317, -9619.699075186143, -7944.100552094049, -7539.399866986259, -10311.060882933245, -11545.57008094431, -16364.472075041782, 0.0045000000000000005, 0.2315, 0.9420000000000001, 192.0, 0.0, 0.0, 0.0, 0.0, 0.0, 0.0, 0.0, 0.0, 0.0, 1.64458785238922E9, 0.0, 2022-02-12 00:57:32.389
50.0, -12130.850509506525, -11547.04529607836, -6421.566775031898, -12894.922541966742, -9142.131703154053, -5311.6685523591705, -9087.660501916469, -6292.552506035866, -10915.608515215936, -13537.758712501372, -9624.5717554774, -7965.982909915795, -7539.511625708536, -10314.100720179167, -11544.318383254813, -16363.488598285747, 0.0045000000000000005, 0.2315, 0.9420000000000001, 192.0, 0.0, 0.0, 0.0, 0.0, 0.0, 0.0, 0.0, 0.0, 0.0, 1.644587852396696E9, 0.0, 2022-02-12 00:57:32.396
52.0, -12128.92825948337, -11533.433083705078, -6411.195565604636, -12897.98473095712, -9142.131703154053, -5309.43337791364, -9082.854876858579, -6288.5291920339105, -10912.903954136844, -13513.641180234097, -9624.795272921952, -7979.349253100068, -7538.572852441413, -10320.001580715369, -11547.04529607836, -16337.448815995314, 0.0045000000000000005, 0.2315, 0.9420000000000001, 192.0, 0.0, 0.0, 0.0, 0.0, 0.0, 0.0, 0.0, 0.0, 0.0, 1.644587852403818E9, 0.0, 2022-02-12 00:57:32.403
54.0, -12122.1109774245, -11527.174595257593, -6422.863176210306, -12916.134347454828, -9156.90620623901, -5319.022276284966, -9103.463185246372, -6296.53111654891, -10924.504509509148, -13536.238793878412, -9628.058627612429, -7983.149049657471, -7541.009192587041, -10321.923830738526, -11555.091924082271, -16391.517685832703, 0.0045000000000000005, 0.2315, 0.9420000000000001, 192.0, 0.0, 0.0, 0.0, 0.0, 0.0, 0.0, 0.0, 0.0, 0.0, 1.644587852412027E9, 0.0, 2022-02-12 00:57:32.412
56.0, -12139.321820655086, -11545.950060600051, -6421.097388398336, -12906.32193163895, -9140.723543253367, -5309.411026169184, -9088.442812972406, -6286.562238521843, -10912.412215758826, -13521.643104749097, -9651.550311034956, -8002.148032444482, -7557.281262550505, -10316.022970202324, -11549.436932735078, -16335.571269461068, 0.00725, 0.23175, 0.9420000000000001, 192.0, 0.0, 40.0, 3.5, 32.0, 14.5, 56.0, 0.0, 0.0, 0.0, 1.644587852419864E9, 0.0, 2022-02-12 00:57:32.419
58.0, -12156.242091207754, -11559.47286599551, -6407.529879513965, -12911.93221949723, -9157.800276017222, -5320.095160018821, -9107.08416784813, -6303.393102096689, -10931.83588169049, -13541.491453825409, -9630.137339846771, -7967.033441905194, -7555.761343927544, -10318.079330692211, -11547.961717601029, -16375.782057736167, 0.00725, 0.23175, 0.9420000000000001, 192.0, 0.0, 0.0, 0.0, 0.0, 0.0, 0.0, 0.0, 0.0, 0.0, 1.64458785242673E9, 0.0, 2022-02-12 00:57:32.426
60.0, -12167.641480879962, -11568.771191688918, -6419.599821519831, -12909.965265985164, -9153.598148059626, -5321.7044856196035, -9102.770281168256, -6299.012160183449, -10936.775617215111, -13570.951053017505, -9637.491063772568, -7963.568921514621, -7555.783695671999, -10325.23188891791, -11552.610880447732, -16374.95504319132, 0.00725, 0.23175, 0.9420000000000001, 192.0, 0.0, 0.0, 0.0, 0.0, 0.0, 0.0, 0.0, 0.0, 0.0, 1.644587852441672E9, 0.0, 2022-02-12 00:57:32.441
62.0, -12141.2664224227, -11556.4777322385, -6410.055626637415, -12910.144079940806, -9156.079191694163, -5316.474177417062, -9097.271752032251, -6290.4067385681565, -10934.562794514037, -13544.643049793607, -9644.420104553712, -7985.920665969928, -7552.095657836874, -10324.293115650788, -11556.075400838305, -16346.434217266347, 0.00725, 0.23175, 0.9420000000000001, 192.0, 0.0, 0.0, 0.0, 0.0, 0.0, 0.0, 0.0, 0.0, 0.0, 1.64458785244945E9, 0.0, 2022-02-12 00:57:32.449
64.0, -12154.319841184599, -11560.992784618473, -6419.219841864091, -12922.169318457762, -9160.594244074136, -5325.6383926437375, -9091.75087115179, -6307.01408469845, -10940.64246900588, -13575.399050164111, -9634.540633504466, -7980.802116489664, -7546.418314745226, -10317.542888825285, -11554.533130470889, -16401.821840026598, 0.00725, 0.23175, 0.9420000000000001, 192.0, 0.0, 0.0, 0.0, 0.0, 0.0, 0.0, 0.0, 0.0, 0.0, 1.644587852456144E9, 0.0, 2022-02-12 00:57:32.456
66.0, -12144.887405024458, -11545.458322222034, -6419.219841864091, -12911.88751600832, -9151.8100085032, -5319.536366407438, -9096.981179354332, -6295.190011881592, -10928.080788621997, -13551.840311508216, -9643.280165586491, -7979.125735655515, -7535.510663451036, -10325.187185429, -11555.226034549003, -16351.865691168989, 0.006625000000000001, 0.230875, 0.9430000000000001, 192.0, 0.0, 24.0, 3.5, 24.0, 14.5, 64.0, 0.0, 0.0, 0.0, 1.644587852464164E9, 0.0, 2022-02-12 00:57:32.464
68.0, -12152.755219072727, -11555.248386293459, -6413.922478428183, -12927.041998749019, -9161.711831296901, -5319.022276284966, -9087.235818771818, -6294.899439203673, -10936.663858492835, -13555.662459810073, -9639.592127751366, -7979.505715311256, -7546.574776956413, -10323.309638894754, -11559.137589828682, -16388.991938709252, 0.006625000000000001, 0.230875, 0.9430000000000001, 192.0, 0.0, 0.0, 0.0, 0.0, 0.0, 0.0, 0.0, 0.0, 0.0, 1.6445878524723E9, 0.0, 2022-02-12 00:57:32.472
70.0, -12152.777570817181, -11570.402869034157, -6428.026429179482, -12920.515289368068, -9162.62825281957, -5320.363380952284, -9116.293086563717, -6301.046168928882, -10942.005925417654, -13562.055058724292, -9641.447322541157, -7986.591218303588, -7554.979032871608, -10324.293115650788, -11567.921825399617, -16387.29320613065, 0.006625000000000001, 0.230875, 0.9430000000000001, 192.0, 0.0, 0.0, 0.0, 0.0, 0.0, 0.0, 0.0, 0.0, 0.0, 1.644587852479194E9, 0.0, 2022-02-12 00:57:32.479
72.0, -12148.798960304137, -11555.4272002491, -6412.916649927694, -12919.822385289954, -9155.363935871594, -5319.871642574268, -9092.376719996539, -6299.883878217206, -10939.100198638464, -13551.147407430102, -9644.509511531534, -7989.720462527331, -7556.789524172488, -10330.395141887086, -11571.833380679296, -16358.906490672409, 0.006625000000000001, 0.230875, 0.9430000000000001, 192.0, 0.0, 0.0, 0.0, 0.0, 0.0, 0.0, 0.0, 0.0, 0.0, 1.644587852486876E9, 0.0, 2022-02-12 00:57:32.486
74.0, -12169.429620436385, -11582.517514528932, -6421.74558898754, -12936.675600609256, -9162.538845841747, -5331.941584580134, -9104.603124213592, -6308.556355065865, -10952.175969144819, -13580.316433944277, -9641.760246963531, -7986.948846214873, -7558.197684073172, -10326.483586607408, -11571.118124856726, -16413.15417446544, 0.006625000000000001, 0.230875, 0.9430000000000001, 192.0, 0.0, 0.0, 0.0, 0.0, 0.0, 0.0, 0.0, 0.0, 0.0, 1.64458785249369E9, 0.0, 2022-02-12 00:57:32.493
76.0, -12161.852379066037, -11570.380517289701, -6429.948679202638, -12928.204289460695, -9156.347412627627, -5332.679192147159, -9112.94032489542, -6316.446520858589, -10943.324678340517, -13576.762506575884, -9671.778639767008, -7993.117927684538, -7547.513550223536, -10336.765389056849, -11576.571950503821, -16366.014345409198, 0.0063125, 0.23243750000000002, 0.9445000000000001, 192.0, 0.0, 24.0, 3.5, 40.0, 14.5, 72.0, 0.0, 0.0, 0.0, 1.644587852502148E9, 0.0, 2022-02-12 00:57:32.502
78.0, -12153.716344084305, -11574.359127802745, -6420.739760487051, -12941.145949500316, -9161.510665596803, -5329.706410134603, -9101.585638712126, -6311.909116734161, -10963.798876261579, -13570.682832084041, -9650.410372067736, -7991.039215450194, -7544.808989144443, -10336.675982079028, -11580.304691827858, -16406.850982529042, 0.0063125, 0.23243750000000002, 0.9445000000000001, 192.0, 0.0, 0.0, 0.0, 0.0, 0.0, 0.0, 0.0, 0.0, 0.0, 1.644587852508418E9, 0.0, 2022-02-12 00:57:32.508
80.0, -12182.527742687196, -11586.026738408416, -6422.751417488029, -12939.335458199437, -9157.330889383662, -5323.783197853947, -9111.442758016916, -6301.7390730069965, -10957.473332580726, -13574.97436701946, -9646.029430154495, -7999.5328783432105, -7564.769096943033, -10334.060827977757, -11578.069517382326, -16403.408813882925, 0.0063125, 0.23243750000000002, 0.9445000000000001, 192.0, 0.0, 0.0, 0.0, 0.0, 0.0, 0.0, 0.0, 0.0, 0.0, 1.64458785251642E9, 0.0, 2022-02-12 00:57:32.516
82.0, -12169.65313788094, -11583.366880818234, -6410.167385359691, -12939.223699477161, -9150.960642213899, -5317.748226851014, -9101.56328696767, -6298.810994483351, -10950.991326688687, -13573.901483285605, -9651.036220912483, -8003.377378389523, -7547.491198479081, -10332.38444714361, -11579.4329737941, -16372.272833856683, 0.0063125, 0.23243750000000002, 0.9445000000000001, 192.0, 0.0, 0.0, 0.0, 0.0, 0.0, 0.0, 0.0, 0.0, 0.0, 1.644587852524446E9, 0.0, 2022-02-12 00:57:32.524
84.0, -12173.967024560812, -11588.910113443151, -6417.990495919049, -12947.22562399216, -9161.421258618982, -5324.967840310078, -9104.536068980226, -6301.873183473728, -10966.16816117384, -13592.49813467242, -9640.307383573936, -7994.146107929481, -7552.497989237069, -10330.752769798371, -11573.666223724631, -16425.514689149226, 0.0063125, 0.23243750000000002, 0.9445000000000001, 192.0, 0.0, 0.0, 0.0, 0.0, 0.0, 0.0, 0.0, 0.0, 0.0, 1.644587852531516E9, 0.0, 2022-02-12 00:57:32.531
86.0, -12177.543303673661, -11584.506819785454, -6424.293687855446, -12934.954516286198, -9155.498046338325, -5321.033933285944, -9114.37083654056, -6304.667151530642, -10956.31104186905, -13579.802343821806, -9652.936119191185, -8004.874945268029, -7551.223939803117, -10339.089970480201, -11578.360090060245, -16373.368069334992, 0.008, 0.234, 0.9480000000000001, 192.0, 0.0, 32.0, 3.5, 40.0, 14.5, 80.0, 0.0, 0.0, 0.0, 1.644587852538933E9, 0.0, 2022-02-12 00:57:32.538
88.0, -12158.253748208732, -11572.995671390972, -6422.483196554565, -12950.444275193726, -9163.075287708674, -5315.781273338946, -9111.487461505827, -6305.047131186382, -10972.784277532612, -13584.764431090884, -9657.67468901571, -8005.813718535152, -7544.205492044151, -10334.418455889041, -11580.908188928152, -16409.71200581932, 0.008, 0.234, 0.9480000000000001, 192.0, 0.0, 0.0, 0.0, 0.0, 0.0, 0.0, 0.0, 0.0, 0.0, 1.644587852547214E9, 0.0, 2022-02-12 00:57:32.547
90.0, -12170.591911148062, -11575.879046425707, -6428.98755419106, -12947.382086203348, -9159.990746973843, -5320.34102920783, -9114.572002240659, -6310.277439388924, -10963.709469283756, -13588.720689859474, -9678.238293914592, -8009.635866837009, -7553.436762504192, -10333.189109944, -11583.478639540512, -16408.393252896458, 0.008, 0.234, 0.9480000000000001, 192.0, 0.0, 0.0, 0.0, 0.0, 0.0, 0.0, 0.0, 0.0, 0.0, 1.644587852554987E9, 0.0, 2022-02-12 00:57:32.554
92.0, -12172.067126282112, -11568.346508544268, -6414.056588894915, -12947.829121092454, -9155.207473660406, -5317.837633828835, -9090.99091184031, -6297.179317138114, -10976.002928734175, -13573.074468740759, -9669.05172694346, -8023.940983288406, -7576.883742437809, -10347.114246739657, -11582.606921506755, -16376.497313558737, 0.008, 0.234, 0.9480000000000001, 192.0, 0.0, 0.0, 0.0, 0.0, 0.0, 0.0, 0.0, 0.0, 0.0, 1.644587852568821E9, 0.0, 2022-02-12 00:57:32.568
94.0, -12164.892216311959, -11596.95674144706, -6418.79515871944, -12957.932109586252, -9160.817761518689, -5319.849290829813, -9103.016150357265, -6302.163756151647, -10980.69679506979, -13593.593370150731, -9664.804895496953, -8012.832166294118, -7570.245274334583, -10344.208519960466, -11581.824610450818, -16434.030703786695, 0.008, 0.234, 0.9480000000000001, 192.0, 0.0, 0.0, 0.0, 0.0, 0.0, 0.0, 0.0, 0.0, 0.0, 1.644587852577008E9, 0.0, 2022-02-12 00:57:32.577
96.0, -12180.203161263844, -11576.549598759366, -6414.369513317289, -12942.867033823375, -9151.47473233637, -5322.509148419995, -9098.054063088186, -6311.931468478617, -10960.289652382095, -13578.595349621219, -9654.277223858504, -8002.907991755962, -7558.7341259401, -10343.917947282547, -11582.584569762299, -16383.404002595425, 0.004, 0.23800000000000002, 0.9520000000000001, 192.0, 0.0, 16.0, 3.5, 56.0, 14.5, 96.0, 0.0, 0.0, 0.0, 1.644587852584751E9, 0.0, 2022-02-12 00:57:32.584
98.0, -12174.212893749822, -11591.882895455707, -6410.502661526521, -12953.394705461826, -9162.225921419373, -5326.1077792772985, -9104.826641658145, -6316.602983069776, -10977.679309568324, -13594.286274228845, -9650.812703467931, -7992.112099184049, -7557.080096850407, -10343.783836815815, -11589.535962287899, -16423.614790870524, 0.004, 0.23800000000000002, 0.9520000000000001, 192.0, 0.0, 0.0, 0.0, 0.0, 0.0, 0.0, 0.0, 0.0, 0.0, 1.644587852591191E9, 0.0, 2022-02-12 00:57:32.591
100.0, -12177.677414140393, -11602.432918838611, -6423.131397143769, -12955.249900251616, -9153.195816659429, -5322.799721097913, -9109.878135905044, -6316.223003414036, -10974.371251388939, -13597.907256830606, -9664.357860607846, -8001.2986661551795, -7564.612634731846, -10332.675019821527, -11584.082136640804, -16423.167755981416, 0.004, 0.23800000000000002, 0.9520000000000001, 192.0, 0.0, 0.0, 0.0, 0.0, 0.0, 0.0, 0.0, 0.0, 0.0, 1.644587852599222E9, 0.0, 2022-02-12 00:57:32.599
102.0, -12180.247864752755, -11580.975244161516, -6407.261658580502, -12951.248937994116, -9149.530130568759, -5314.797796582913, -9102.323246279151, -6309.964514966549, -10970.593806575991, -13577.187189720535, -9666.615386797832, -8000.20343067687, -7546.015983345031, -10339.894633280592, -11585.825572708318, -16394.557523078623, 0.004, 0.23800000000000002, 0.9520000000000001, 192.0, 0.0, 0.0, 0.0, 0.0, 0.0, 0.0, 0.0, 0.0, 0.0, 1.644587852608637E9, 0.0, 2022-02-12 00:57:32.608
104.0, -12206.22059180982, -11609.943104975595, -6411.061455137904, -12958.80382762001, -9164.416392375993, -5323.917308320679, -9107.508850992781, -6312.982000468016, -10974.862989766954, -13588.698338115018, -9660.267491372526, -7990.167497416437, -7556.320137538927, -10333.434979133008, -11587.457250053556, -16444.67013414742, 0.004, 0.23800000000000002, 0.9520000000000001, 192.0, 0.0, 0.0, 0.0, 0.0, 0.0, 0.0, 0.0, 0.0, 0.0, 1.644587852615077E9, 0.0, 2022-02-12 00:57:32.615
106.0, -12206.51116448774, -11614.212288166558, -6423.533728543965, -12953.260594995094, -9158.761401028802, -5317.189433239631, -9108.089996348619, -6318.636991815209, -10991.60444636398, -13617.017998339892, -9653.33845059138, -7997.454166108867, -7569.820591189932, -10341.079275736724, -11591.748784988975, -16395.496296345747, -0.002, 0.23600000000000002, 0.9500000000000001, 192.0, 127.5, 120.0, 3.5, 48.0, 14.5, 88.0, 0.0, 0.0, 0.0, 1.644587852621202E9, 0.0, 2022-02-12 00:57:32.621
108.0, -12194.463574226329, -11594.430994323611, -6409.116853370292, -12965.911682356798, -9167.635043577558, -5318.441130929128, -9108.961714382376, -6316.066541202848, -10998.645245867401, -13607.362044735199, -9657.562930293434, -8000.091671954593, -7569.239445834094, -10333.256165177365, -11596.353244346768, -16429.962686295832, -0.002, 0.23600000000000002, 0.9500000000000001, 192.0, 0.0, 0.0, 0.0, 0.0, 0.0, 0.0, 0.0, 0.0, 0.0, 1.644587852628856E9, 0.0, 2022-02-12 00:57:32.628
110.0, -12200.811469651637, -11615.419282367146, -6421.611478520808, -12966.582234690457, -9160.504837096314, -5323.1126455202875, -9112.672103961957, -6319.732227293519, -11000.254571468184, -13614.134623305157, -9666.168351908726, -8010.82050929314, -7562.869198664332, -10337.838272790703, -11595.481526313011, -16431.415549685426, -0.002, 0.23600000000000002, 0.9500000000000001, 192.0, 0.0, 0.0, 0.0, 0.0, 0.0, 0.0, 0.0, 0.0, 0.0, 1.644587852636995E9, 0.0, 2022-02-12 00:57:32.636
112.0, -12197.659873683438, -11591.569971033332, -6416.001190662527, -12964.99526083413, -9153.888720737545, -5312.294401203919, -9102.90439163499, -6311.193860911591, -10995.918333043854, -13593.682777128552, -9674.214979912636, -8030.870024069551, -7552.229768303606, -10343.001525759879, -11595.883857713206, -16401.017177226207, -0.002, 0.23600000000000002, 0.9500000000000001, 192.0, 0.0, 0.0, 0.0, 0.0, 0.0, 0.0, 0.0, 0.0, 0.0, 1.644587852643555E9, 0.0, 2022-02-12 00:57:32.643
114.0, -12204.70067318686, -11616.514517845455, -6408.446301036633, -12966.626938179368, -9161.57772083017, -5323.045590286922, -9106.078339347641, -6316.513576091955, -10996.70064409979, -13601.97527432147, -9657.629985526799, -8005.0537592236715, -7548.295861279472, -10326.975324985424, -11597.448479825078, -16450.861567361542, -0.002, 0.23600000000000002, 0.9500000000000001, 192.0, 0.0, 0.0, 0.0, 0.0, 0.0, 0.0, 0.0, 0.0, 0.0, 1.64458785265154E9, 0.0, 2022-02-12 00:57:32.651
116.0, -12196.117603316023, -11623.935297004617, -6413.542498772443, -12956.613356663389, -9156.8615027501, -5323.1126455202875, -9122.372761055562, -6323.9790587400275, -10992.207943464273, -13614.156975049613, -9663.396735596269, -8008.406520891967, -7563.11506785334, -10347.42717116203, -11597.448479825078, -16401.508915604223, 0.006, 0.232, 0.9460000000000001, 192.0, 0.0, 24.0, 3.5, 32.0, 14.5, 72.0, 0.0, 0.0, 0.0, 1.644587852659524E9, 0.0, 2022-02-12 00:57:32.659
118.0, -12189.054452068145, -11615.665151556153, -6407.239306836046, -12974.673566183277, -9157.263834150295, -5324.431398443151, -9103.552592224192, -6330.773989054441, -10997.974693533743, -13618.94024836305, -9672.15861942275, -8008.384169147512, -7552.430934003703, -10340.274612936331, -11601.896476971684, -16438.188128255384, 0.006, 0.232, 0.9460000000000001, 192.0, 0.0, 0.0, 0.0, 0.0, 0.0, 0.0, 0.0, 0.0, 0.0, 1.644587852666792E9, 0.0, 2022-02-12 00:57:32.666
120.0, -12184.807620621637, -11608.624352052731, -6418.169309874691, -12969.689127169744, -9153.866368993089, -5323.827901342857, -9111.062778361176, -6316.91590749215, -11003.763795347668, -13622.672989687086, -9678.260645659047, -8020.945849531395, -7562.332756797405, -10344.56614787175, -11599.750709503975, -16441.33972422358, 0.006, 0.232, 0.9460000000000001, 192.0, 0.0, 0.0, 0.0, 0.0, 0.0, 0.0, 0.0, 0.0, 0.0, 1.644587852674305E9, 0.0, 2022-02-12 00:57:32.674
122.0, -12221.240964083787, -11614.480509100022, -6402.411330033699, -12966.559882946001, -9148.881929979556, -5321.838596086335, -9115.935458652433, -6316.245355158491, -10997.997045278198, -13618.135585562657, -9668.984671710095, -8016.453148895878, -7547.267681034527, -10343.42620890453, -11602.902305472173, -16410.650779086445, 0.006, 0.232, 0.9460000000000001, 192.0, 0.0, 0.0, 0.0, 0.0, 0.0, 0.0, 0.0, 0.0, 0.0, 1.644587852689423E9, 0.0, 2022-02-12 00:57:32.689
124.0, -12227.141824619988, -11620.91781150315, -6407.50752776951, -12979.836819152453, -9162.784715030755, -5329.460540945594, -9117.61183948658, -6325.811901785362, -11014.246763497205, -13625.712826933006, -9647.258776099537, -8001.745701044286, -7544.518416466524, -10332.183281443511, -11606.500936329478, -16466.328974524615, 0.006, 0.232, 0.9460000000000001, 192.0, 0.0, 0.0, 0.0, 0.0, 0.0, 0.0, 0.0, 0.0, 0.0, 1.644587852697015E9, 0.0, 2022-02-12 00:57:32.697
126.0, -12220.011618138746, -11616.58157307882, -6416.0235424069815, -12968.415077735792, -9152.8605404926, -5327.895918833723, -9106.65948470348, -6328.136483208715, -11011.743368118212, -13626.338675777755, -9672.426840356213, -8016.430797151423, -7555.426067760714, -10347.941261284503, -11613.00529396597, -16423.391273425972, 0.006, 0.234, 0.9480000000000001, 192.0, 0.0, 24.0, 3.5, 40.0, 14.5, 80.0, 0.0, 0.0, 0.0, 1.644587852704019E9, 0.0, 2022-02-12 00:57:32.704
128.0, -12212.70259770186, -11619.889631258206, -6397.717463698085, -12987.347005289437, -9169.28907266725, -5337.171892782676, -9117.61183948658, -6335.713724579064, -11015.878440842444, -13631.993667124947, -9667.844732742875, -8015.447320395389, -7568.054803377963, -10344.029706004823, -11612.20063116558, -16459.668154676932, 0.006, 0.234, 0.9480000000000001, 192.0, 0.0, 0.0, 0.0, 0.0, 0.0, 0.0, 0.0, 0.0, 0.0, 1.644587852711922E9, 0.0, 2022-02-12 00:57:32.711
130.0, -12205.572391220618, -11601.672959527132, -6409.295667325934, -12982.161400575806, -9160.706002796413, -5336.255471260009, -9119.243516831817, -6335.736076323518, -11010.692836128812, -13624.304667032322, -9671.376308366813, -8028.1207595015485, -7569.708832467656, -10351.875168308636, -11618.995561479995, -16471.44752400488, 0.006, 0.234, 0.9480000000000001, 192.0, 0.0, 0.0, 0.0, 0.0, 0.0, 0.0, 0.0, 0.0, 0.0, 1.644587852720008E9, 0.0, 2022-02-12 00:57:32.720
132.0, -12212.099100601567, -11618.749692290985, -6406.881678924761, -12973.824199893976, -9155.453342849416, -5330.309907234897, -9120.025827887754, -6330.952803010083, -11013.911487330377, -13615.475727972476, -9679.24412241508, -8026.4443786674, -7536.740009396078, -10349.483531651918, -11617.475642857033, -16433.941296808876, 0.006, 0.234, 0.9480000000000001, 192.0, 0.0, 0.0, 0.0, 0.0, 0.0, 0.0, 0.0, 0.0, 0.0, 1.644587852726429E9, 0.0, 2022-02-12 00:57:32.726
134.0, -12226.270106586231, -11638.195709967102, -6414.548327272932, -12985.42475526628, -9171.09956396813, -5336.367229982285, -9121.925726166455, -6333.478550133533, -11031.211737538784, -13651.886719690172, -9667.91178797624, -8010.172308703936, -7545.323079266916, -10339.33583966921, -11625.410512138667, -16492.145239370497, 0.006, 0.234, 0.9480000000000001, 192.0, 0.0, 0.0, 0.0, 0.0, 0.0, 0.0, 0.0, 0.0, 0.0, 1.644587852734566E9, 0.0, 2022-02-12 00:57:32.734
136.0, -12212.32261804612, -11618.146195190691, -6413.654257494719, -12973.868903382887, -9154.38045911556, -5328.991154312033, -9108.067644604165, -6328.650573331186, -11014.537336175124, -13638.922707906093, -9683.312139905947, -8024.767997833253, -7569.217094089639, -10345.057886249768, -11625.186994694113, -16439.55158466716, 0.01, 0.234, 0.9500000000000001, 192.0, 0.0, 40.0, 3.5, 40.0, 14.5, 88.0, 0.0, 0.0, 0.0, 1.644587852741451E9, 0.0, 2022-02-12 00:57:32.741
138.0, -12215.451862269863, -11622.571840592844, -6401.405501533211, -12982.407269764813, -9161.66712780799, -5329.169968267675, -9111.062778361176, -6328.427055886634, -11013.799728608099, -13629.691437446052, -9660.781581494997, -8016.453148895878, -7559.6505474627675, -10346.66721185055, -11623.48826211551, -16471.7380966828, 0.01, 0.234, 0.9500000000000001, 192.0, 0.0, 0.0, 0.0, 0.0, 0.0, 0.0, 0.0, 0.0, 0.0, 1.644587852748836E9, 0.0, 2022-02-12 00:57:32.748
140.0, -12219.050493127168, -11630.417302896656, -6416.224708107079, -12980.887351141853, -9162.829418519666, -5333.662668903193, -9117.142452853019, -6329.589346598309, -11020.214679266774, -13639.593260239752, -9660.021622183516, -8020.9011460424845, -7559.203512573661, -10340.252261191878, -11623.689427815609, -16475.9402246404, 0.01, 0.234, 0.9500000000000001, 192.0, 0.0, 0.0, 0.0, 0.0, 0.0, 0.0, 0.0, 0.0, 0.0, 1.644587852756036E9, 0.0, 2022-02-12 00:57:32.756
142.0, -12201.280856285199, -11604.422224095133, -6411.530841771465, -12984.150705832328, -9156.012136460799, -5324.34199146533, -9111.375702783549, -6324.314334906857, -11025.512042702681, -13621.331885019767, -9685.659073073753, -8026.332619945124, -7556.387192772293, -10349.818807818749, -11624.963477249561, -16443.373732969016, 0.01, 0.234, 0.9500000000000001, 192.0, 0.0, 0.0, 0.0, 0.0, 0.0, 0.0, 0.0, 0.0, 0.0, 1.644587852764367E9, 0.0, 2022-02-12 00:57:32.764
144.0, -12237.177757880421, -11632.563070364366, -6408.8039289479175, -13000.422775795792, -9164.684613309457, -5329.035857800944, -9115.443720274416, -6331.511596621465, -11028.507176459692, -13632.664219458607, -9664.916654219229, -8023.359837932568, -7534.7283523951, -10336.56422335675, -11626.796320294896, -16492.92755042643, 0.01, 0.234, 0.9500000000000001, 192.0, 0.0, 0.0, 0.0, 0.0, 0.0, 0.0, 0.0, 0.0, 0.0, 1.644587852772448E9, 0.0, 2022-02-12 00:57:32.772
146.0, -12239.122359648032, -11643.291907702913, -6413.296629583434, -12984.038947110052, -9152.391153859038, -5328.857043845302, -9115.689589463424, -6326.124826207737, -11028.127196803951, -13646.119969620702, -9674.863180501841, -8024.924460044439, -7560.075230607418, -10346.935432784014, -11629.120901718248, -16447.642916159977, 0.006, 0.232, 0.9460000000000001, 192.0, 0.0, 24.0, 3.5, 32.0, 14.5, 72.0, 0.0, 0.0, 0.0, 1.644587852778946E9, 0.0, 2022-02-12 00:57:32.778
148.0, -12209.595705222573, -11631.11020697477, -6408.334542314356, -12993.985473392662, -9164.036412720254, -5325.727799621559, -9108.42527251545, -6317.072369703337, -11027.501347959203, -13642.45428353003, -9673.946758979173, -8024.0750937551375, -7560.075230607418, -10343.537967626808, -11631.557241863877, -16478.108343852564, 0.006, 0.232, 0.9460000000000001, 192.0, 0.0, 0.0, 0.0, 0.0, 0.0, 0.0, 0.0, 0.0, 0.0, 1.644587852786781E9, 0.0, 2022-02-12 00:57:32.786
150.0, -12221.12920536151, -11627.086892972815, -6426.282993111968, -12994.208990837216, -9165.355165643115, -5335.316697992886, -9123.602107000603, -6336.227814701536, -11026.60727818099, -13650.120931878202, -9690.934084765207, -8029.797140335696, -7558.130628839806, -10349.662345607561, -11636.698143088597, -16487.69724222389, 0.006, 0.232, 0.9460000000000001, 192.0, 0.0, 0.0, 0.0, 0.0, 0.0, 0.0, 0.0, 0.0, 0.0, 1.644587852794874E9, 0.0, 2022-02-12 00:57:32.794
152.0, -12229.689923487893, -11635.82642505484, -6411.083806882359, -12991.862057669408, -9165.869255765589, -5337.037782315944, -9116.8518801751, -6333.813826300362, -11035.771493407667, -13632.194832825046, -9684.697948062176, -8036.9273468169395, -7562.2880533084935, -10366.828485349237, -11642.531948391432, -16459.154064554463, 0.006, 0.232, 0.9460000000000001, 192.0, 0.0, 0.0, 0.0, 0.0, 0.0, 0.0, 0.0, 0.0, 0.0, 1.644587852802615E9, 0.0, 2022-02-12 00:57:32.802
154.0, -12242.81039748316, -11642.844872813806, -6411.508490027009, -13004.982531664675, -9170.026680234276, -5333.573261925371, -9123.311534322684, -6330.863396032262, -11036.285583530138, -13659.821588971805, -9673.186799667692, -8022.845747810095, -7539.377515241804, -10340.833406547716, -11641.928451291138, -16511.770071002255, 0.006, 0.233, 0.9440000000000001, 192.0, 0.0, 24.0, 3.5, 40.0, 14.5, 56.0, 0.0, 0.0, 0.0, 1.644587852816599E9, 0.0, 2022-02-12 00:57:32.816
156.0, -12238.250641614277, -11648.566919394365, -6415.777673217974, -12993.270217570092, -9157.710869039402, -5334.109703792299, -9126.887813435533, -6334.8420065453065, -11026.450815969803, -13642.342524807755, -9675.667843302232, -8038.715486373364, -7555.090791593885, -10345.1919967165, -11638.553337878388, -16466.194864057885, 0.006, 0.233, 0.9440000000000001, 192.0, 0.0, 0.0, 0.0, 0.0, 0.0, 0.0, 0.0, 0.0, 0.0, 1.6445878528246E9, 0.0, 2022-02-12 00:57:32.824
158.0, -12227.410045553452, -11638.821558811851, -6408.513356269998, -13001.652121740834, -9162.918825497487, -5329.304078734408, -9112.068606861665, -6323.956706995572, -11035.547975963114, -13643.638925986163, -9667.732974020599, -8021.974029776339, -7561.483390508103, -10348.947089784991, -11642.286079202424, -16496.190905116906, 0.006, 0.233, 0.9440000000000001, 192.0, 0.0, 0.0, 0.0, 0.0, 0.0, 0.0, 0.0, 0.0, 0.0, 1.644587852831513E9, 0.0, 2022-02-12 00:57:32.831
160.0, -12232.550946778172, -11629.567936607355, -6428.026429179482, -13002.277970585583, -9160.504837096314, -5327.962974067089, -9117.589487742125, -6326.929489008127, -11042.655830699901, -13664.94013845207, -9679.557046837455, -8028.2995734571905, -7557.929463139709, -10347.740095584404, -11641.324954190846, -16500.7953644747, 0.006, 0.233, 0.9440000000000001, 192.0, 0.0, 0.0, 0.0, 0.0, 0.0, 0.0, 0.0, 0.0, 0.0, 1.644587852839138E9, 0.0, 2022-02-12 00:57:32.839
162.0, -12223.36437980704, -11638.195709967102, -6413.833071450362, -13001.138031618362, -9160.415430118494, -5327.694753133625, -9115.600182485603, -6331.5563001103765, -11029.13302530444, -13637.93923115006, -9690.084718475904, -8050.49485570131, -7551.179236314206, -10350.198787474488, -11643.87305305875, -16464.384372757002, 0.006, 0.233, 0.9440000000000001, 192.0, 0.0, 0.0, 0.0, 0.0, 0.0, 0.0, 0.0, 0.0, 0.0, 1.644587852847269E9, 0.0, 2022-02-12 00:57:32.847
164.0, -12249.739438264303, -11656.099457275803, -6422.147920387736, -13014.370264335903, -9170.63017733457, -5339.407067228207, -9125.837281446133, -6341.391067670712, -11050.724810448268, -13653.831321457783, -9690.35293940937, -8036.882643328028, -7552.229768303606, -10359.944148057002, -11651.338535706824, -16527.729216543343, 0.006, 0.233, 0.9440000000000001, 192.0, 0.0, 0.0, 3.5, 40.0, 14.5, 56.0, 0.0, 0.0, 0.0, 1.644587852854139E9, 0.0, 2022-02-12 00:57:32.854
166.0, -12244.822054484137, -11654.221910741559, -6423.198452377135, -13001.830935696476, -9164.036412720254, -5335.629622415259, -9126.217261101874, -6342.151026982192, -11038.967792864776, -13656.915862192614, -9693.504535377568, -8037.2179194948585, -7562.489219008591, -10360.279424223832, -11650.243300228512, -16475.716707195843, 0.006, 0.233, 0.9440000000000001, 192.0, 0.0, 0.0, 0.0, 0.0, 0.0, 0.0, 0.0, 0.0, 0.0, 1.644587852861682E9, 0.0, 2022-02-12 00:57:32.861
168.0, -12256.847293001092, -11644.54360539241, -6416.202356362624, -13017.633619026377, -9166.875084266077, -5329.52759617896, -9115.868403419066, -6335.043172245404, -11053.451723271815, -13650.411504556121, -9684.787355039996, -8048.505550444788, -7560.812838174444, -10349.327069440731, -11650.288003717424, -16504.70691975438, 0.006, 0.233, 0.9440000000000001, 192.0, 0.0, 0.0, 0.0, 0.0, 0.0, 0.0, 0.0, 0.0, 0.0, 1.644587852868999E9, 0.0, 2022-02-12 00:57:32.868
170.0, -12257.540197079206, -11659.228701499547, -6423.0643419104035, -13008.849383455443, -9166.428049376971, -5332.8580061028015, -9126.261964590783, -6342.575710126843, -11056.42450528437, -13662.101466906246, -9682.552180594466, -8035.809759594174, -7567.987748144597, -10346.309583939264, -11648.835140327828, -16513.826431492143, 0.006, 0.233, 0.9440000000000001, 192.0, 0.0, 0.0, 0.0, 0.0, 0.0, 0.0, 0.0, 0.0, 0.0, 1.64458785287679E9, 0.0, 2022-02-12 00:57:32.876
172.0, -12233.04268515619, -11666.247149258514, -6415.487100540055, -13003.641426997356, -9156.973261472376, -5327.784160111447, -9115.801348185701, -6338.462989147066, -11041.560595221592, -13649.405676055632, -9689.257703931058, -8035.16155900497, -7561.014003874541, -10353.350383442687, -11653.283137474435, -16476.946053140888, 0.006, 0.233, 0.9440000000000001, 192.0, 0.0, 0.0, 0.0, 0.0, 0.0, 0.0, 0.0, 0.0, 0.0, 1.644587852884135E9, 0.0, 2022-02-12 00:57:32.884
174.0, -12235.747246235282, -11651.897329318206, -6416.582336018364, -13024.562659807523, -9171.8148197907, -5338.065962560888, -9121.165766854974, -6349.9294340526385, -11049.964851136787, -13662.034411672881, -9692.454003388168, -8039.810721851674, -7552.565044470435, -10350.891691552602, -11658.759314865985, -16539.64269633802, 0.007, 0.2335, 0.9420000000000001, 192.0, 0.0, 32.0, 3.5, 40.0, 14.5, 48.0, 0.0, 0.0, 0.0, 1.644587852891381E9, 0.0, 2022-02-12 00:57:32.891
176.0, -12235.456673557363, -11627.958611006572, -6415.688266240152, -13010.369302078403, -9158.068496950686, -5335.696677648625, -9132.028714660253, -6350.421172430655, -11046.366220279482, -13654.144245880158, -9706.200326228181, -8056.038088326227, -7573.195704602684, -10364.325089970242, -11660.5027509335, -16492.12288762604, 0.007, 0.2335, 0.9420000000000001, 192.0, 0.0, 0.0, 0.0, 0.0, 0.0, 0.0, 0.0, 0.0, 0.0, 1.644587852899631E9, 0.0, 2022-02-12 00:57:32.899
178.0, -12258.456618601873, -11656.188864253625, -6404.087710867848, -13017.633619026377, -9166.048069721232, -5334.355572981307, -9118.572964498158, -6336.294869934902, -11040.979449865754, -13646.634059743174, -9672.538599078489, -8017.68249484092, -7559.784657929499, -10357.887787567113, -11661.262710244979, -16519.995512961807, 0.007, 0.2335, 0.9420000000000001, 192.0, 0.0, 0.0, 0.0, 0.0, 0.0, 0.0, 0.0, 0.0, 0.0, 1.644587852907349E9, 0.0, 2022-02-12 00:57:32.907
180.0, -12283.244703202809, -11694.209181572101, -6425.679496011674, -13021.209898139226, -9167.947967999931, -5342.022221329477, -9127.245441346819, -6345.503788650488, -11069.679089746367, -13679.111144436734, -9686.01670098504, -8036.21209099437, -7558.555311984457, -10354.937357299013, -11661.240358500525, -16528.667989810467, 0.007, 0.2335, 0.9420000000000001, 192.0, 0.0, 0.0, 0.0, 0.0, 0.0, 0.0, 0.0, 0.0, 0.0, 1.644587852915403E9, 0.0, 2022-02-12 00:57:32.915
182.0, -12254.343897622097, -11651.383239195733, -6416.425873807178, -13017.879488215387, -9167.992671488842, -5338.6694596611815, -9128.720656480868, -6346.129637495236, -11063.688822232345, -13660.670955261106, -9694.376253411325, -8047.656184155487, -7549.525207224514, -10362.000508546891, -11662.82733235685, -16494.492172538303, 0.007, 0.2335, 0.9420000000000001, 192.0, 0.0, 0.0, 0.0, 0.0, 0.0, 0.0, 0.0, 0.0, 0.0, 1.644587852922001E9, 0.0, 2022-02-12 00:57:32.922
184.0, -12240.485816059807, -11657.64172764322, -6421.6561820097195, -13033.302191889548, -9174.675843080979, -5343.63154693026, -9125.658467490492, -6347.962480540572, -11071.199008369329, -13672.807952500338, -9689.548276608977, -8050.383096979034, -7562.623329475324, -10354.020935776345, -11664.950748080106, -16549.723333087364, 0.0085, 0.23575000000000002, 0.9450000000000001, 192.0, 0.0, 40.0, 3.5, 56.0, 14.5, 80.0, 0.0, 0.0, 0.0, 1.64458785293631E9, 0.0, 2022-02-12 00:57:32.936
186.0, -12270.034822229723, -11671.991547583528, -6422.1255686432805, -13020.785214994576, -9173.111220969107, -5347.610157443304, -9135.090903650631, -6354.422134688156, -11056.111580861996, -13669.61165304323, -9707.608486128865, -8055.725163903852, -7578.40366106077, -10362.738116113916, -11665.30837599139, -16501.734137741823, 0.0085, 0.23575000000000002, 0.9450000000000001, 192.0, 0.0, 0.0, 0.0, 0.0, 0.0, 0.0, 0.0, 0.0, 0.0, 1.644587852944479E9, 0.0, 2022-02-12 00:57:32.944
188.0, -12285.23400845933, -11677.780649397451, -6416.64939125173, -13031.91638373332, -9180.420241405993, -5355.29915753593, -9137.639002518536, -6359.384221957233, -11067.175694367374, -13661.632080272686, -9693.795108055487, -8036.077980527638, -7563.182123086706, -10368.86249409467, -11670.046945815915, -16532.825414279152, 0.0085, 0.23575000000000002, 0.9450000000000001, 192.0, 0.0, 0.0, 0.0, 0.0, 0.0, 0.0, 0.0, 0.0, 0.0, 1.644587852951565E9, 0.0, 2022-02-12 00:57:32.951
190.0, -12287.692700349415, -11686.676643690664, -6428.27229836849, -13042.131130949394, -9183.013043762809, -5360.909445394212, -9139.315383352683, -6364.815695859873, -11075.557598538113, -13675.333699623789, -9688.20717194166, -8051.455980712889, -7574.827381947921, -10377.043232565313, -11670.4045737272, -16545.6553155965, 0.0085, 0.23575000000000002, 0.9450000000000001, 192.0, 0.0, 0.0, 0.0, 0.0, 0.0, 0.0, 0.0, 0.0, 0.0, 1.644587852959041E9, 0.0, 2022-02-12 00:57:32.959
192.0, -12249.851196986581, -11658.379335210246, -6420.180966875669, -13029.837671498975, -9171.993633746342, -5346.626680687271, -9142.198758387418, -6358.0878207788255, -11071.847208958532, -13673.344394367266, -9697.304331934969, -8050.919538845961, -7567.540713255491, -10372.550531929795, -11674.182018540147, -16506.472707566347, 0.0085, 0.23575000000000002, 0.9450000000000001, 192.0, 0.0, 0.0, 0.0, 0.0, 0.0, 0.0, 0.0, 0.0, 0.0, 1.644587852966972E9, 0.0, 2022-02-12 00:57:32.966
194.0, -12250.499397575784, -11668.147047537213, -6423.913708199705, -13041.527633849102, -9180.062613494709, -5345.978480098067, -9132.587508271636, -6360.255939990991, -11076.697537505333, -13682.307443893844, -9697.304331934969, -8043.185835264425, -7551.983899114597, -10356.591386388705, -11674.137315051237, -16560.519225659278, 0.009250000000000001, 0.235875, 0.9455, 192.0, 0.0, 40.0, 3.5, 48.0, 14.5, 72.0, 0.0, 0.0, 0.0, 1.644587852974922E9, 0.0, 2022-02-12 00:57:32.974
196.0, -12301.506078422795, -11690.901123392716, -6427.132359401269, -13031.849328499953, -9176.933369270966, -5350.828808644868, -9148.61370904609, -6369.084879050837, -11060.939557664342, -13674.976071712503, -9709.664846618754, -8048.460846955878, -7566.758402199555, -10370.136543528622, -11674.114963306782, -16514.60874254808, 0.009250000000000001, 0.235875, 0.9455, 192.0, 0.0, 0.0, 0.0, 0.0, 0.0, 0.0, 0.0, 0.0, 0.0, 1.644587852981671E9, 0.0, 2022-02-12 00:57:32.981
198.0, -12290.531371895238, -11687.12367857977, -6424.114873899803, -13046.400314140357, -9199.732148615378, -5353.801590657424, -9157.688517294946, -6375.790402387429, -11083.96185445331, -13687.56010384084, -9696.007930756561, -8045.30925098768, -7574.134477869807, -10368.124886527645, -11685.380242512256, -16548.6057458646, 0.009250000000000001, 0.235875, 0.9455, 192.0, 0.0, 0.0, 0.0, 0.0, 0.0, 0.0, 0.0, 0.0, 0.0, 1.644587852989991E9, 0.0, 2022-02-12 00:57:32.989
200.0, -12289.279674205742, -11698.679530463163, -6439.045839195948, -13053.508168877146, -9200.000369548843, -5363.68106170667, -9150.37949685806, -6379.523143711465, -11093.081366191074, -13699.697101080073, -9705.73093959462, -8056.887454615528, -7570.088812123396, -10375.590369175718, -11690.677605948164, -16561.592109393136, 0.009250000000000001, 0.235875, 0.9455, 192.0, 0.0, 0.0, 0.0, 0.0, 0.0, 0.0, 0.0, 0.0, 0.0, 1.644587852996549E9, 0.0, 2022-02-12 00:57:32.996
202.0, -12246.967821951846, -11679.792306398429, -6427.221766379091, -13041.10295070445, -9184.957645530421, -5358.2719395484855, -9150.871235236078, -6382.4065187462, -11088.722776022289, -13678.351185125255, -9711.162413497259, -8063.123591318559, -7583.253989607572, -10381.714747156471, -11688.285969291446, -16525.181117675438, 0.009250000000000001, 0.235875, 0.9455, 192.0, 0.0, 0.0, 0.0, 0.0, 0.0, 0.0, 0.0, 0.0, 0.0, 1.644587853004657E9, 0.0, 2022-02-12 00:57:33.004
204.0, -12261.943490736901, -11653.797227596908, -6427.802911734929, -13052.569395610022, -9192.780756089778, -5361.647052961237, -9152.011174203299, -6379.83606813384, -11081.927845707876, -13683.402679372155, -9705.283904705513, -8054.384059236534, -7573.598036002879, -10379.457220966486, -11686.140201823737, -16580.792257880243, 0.009625000000000002, 0.23693750000000002, 0.95075, 192.0, 0.0, 40.0, 3.5, 56.0, 14.5, 112.0, 0.0, 0.0, 0.0, 1.644587853011135E9, 0.0, 2022-02-12 00:57:33.011
206.0, -12321.935572854945, -11712.559963769909, -6426.908841956716, -13042.15348269385, -9180.889628039555, -5355.187398813653, -9154.38045911556, -6379.970178600572, -11078.396270083937, -13694.690310322085, -9710.223640230137, -8060.26256802828, -7580.638835506301, -10377.870247110159, -11688.956521625105, -16533.8535945241, 0.009625000000000002, 0.23693750000000002, 0.95075, 192.0, 0.0, 0.0, 0.0, 0.0, 0.0, 0.0, 0.0, 0.0, 0.0, 1.644587853019114E9, 0.0, 2022-02-12 00:57:33.019
208.0, -12289.592598628116, -11694.633864716752, -6421.566775031898, -13050.423628142313, -9189.785622332767, -5348.079544076865, -9145.14918865552, -6364.9498063266055, -11099.518668594203, -13692.164563198634, -9700.321817436436, -8056.842751126618, -7575.922617426231, -10366.448505693497, -11692.152821082214, -16554.46190291189, 0.009625000000000002, 0.23693750000000002, 0.95075, 192.0, 0.0, 0.0, 0.0, 0.0, 0.0, 0.0, 0.0, 0.0, 0.0, 1.644587853027261E9, 0.0, 2022-02-12 00:57:33.027
210.0, -12286.932741037936, -11700.378263041766, -6433.435551337666, -13047.71906706322, -9191.305540955727, -5349.890035377745, -9153.799313759722, -6369.911893595683, -11093.930732480376, -13701.686406336596, -9715.945686810695, -8061.044879084216, -7582.941065185198, -10368.795438861303, -11696.310245550902, -16563.313193716192, 0.009625000000000002, 0.23693750000000002, 0.95075, 192.0, 0.0, 0.0, 0.0, 0.0, 0.0, 0.0, 0.0, 0.0, 0.0, 1.644587853033762E9, 0.0, 2022-02-12 00:57:33.033
212.0, -12268.224330928842, -11677.490076719532, -6417.878737196772, -13043.762808294632, -9180.442593150448, -5346.1796457981645, -9139.673011263969, -6367.810829616885, -11074.037679915153, -13676.697156035561, -9734.20706203068, -8066.11872507557, -7552.587396214891, -10376.350328487199, -11694.566809483387, -16520.621361806556, 0.009625000000000002, 0.23693750000000002, 0.95075, 192.0, 0.0, 0.0, 0.0, 0.0, 0.0, 0.0, 0.0, 0.0, 0.0, 1.644587853041951E9, 0.0, 2022-02-12 00:57:33.041
214.0, -12292.543028896216, -11695.304417050413, -6414.637734250753, -13056.77152356762, -9186.544619386748, -5353.712183679603, -9148.501950323815, -6375.343367498323, -11104.078424463085, -13699.51828712443, -9694.711529578153, -8044.124608531548, -7571.988710402097, -10367.119058027156, -11692.309283293402, -16578.691193901443, 0.008812500000000001, 0.23646875, 0.952375, 192.0, 0.0, 32.0, 3.5, 48.0, 14.5, 104.0, 0.0, 0.0, 0.0, 1.644587853049768E9, 0.0, 2022-02-12 00:57:33.049
216.0, -12303.808308101692, -11701.40644328671, -6415.062417395404, -13046.86970077392, -9175.368747159095, -5351.63347144526, -9146.065610178186, -6370.671852907164, -11087.739299266255, -13702.580476114808, -9705.909753550262, -8060.128457561548, -7578.828344205421, -10381.826505878747, -11688.464783247087, -16531.998399734308, 0.008812500000000001, 0.23646875, 0.952375, 192.0, 0.0, 0.0, 0.0, 0.0, 0.0, 0.0, 0.0, 0.0, 0.0, 1.644587853063521E9, 0.0, 2022-02-12 00:57:33.063
218.0, -12283.892903792013, -11692.488097249043, -6412.111987127303, -13056.43624740079, -9178.922674527488, -5345.442038231139, -9136.275546106763, -6364.9498063266055, -11097.059976704119, -13689.907037008648, -9705.06038726096, -8056.038088326227, -7573.240408091594, -10377.311453498776, -11685.469649490076, -16555.691248856932, 0.008812500000000001, 0.23646875, 0.952375, 192.0, 0.0, 0.0, 0.0, 0.0, 0.0, 0.0, 0.0, 0.0, 0.0, 1.644587853071637E9, 0.0, 2022-02-12 00:57:33.071
220.0, -12274.1475432095, -11695.058547861403, -6417.632868007764, -13055.072790989017, -9176.463982637404, -5344.726782408569, -9153.128761426064, -6371.185943029635, -11096.836459259566, -13699.42888014661, -9713.576401898432, -8064.419992496967, -7562.198646330673, -10369.15306677259, -11688.576541969365, -16566.353030962113, 0.008812500000000001, 0.23646875, 0.952375, 192.0, 0.0, 0.0, 0.0, 0.0, 0.0, 0.0, 0.0, 0.0, 0.0, 1.644587853079433E9, 0.0, 2022-02-12 00:57:33.079
222.0, -12280.830714801636, -11679.524085464966, -6405.384112046256, -13050.311869420037, -9174.027642491776, -5340.211730028597, -9131.872252449066, -6367.095573794315, -11083.045432930641, -13679.021737458914, -9711.475337919634, -8069.002100110305, -7546.977108356608, -10372.48347669643, -11692.577504226865, -16526.343408387114, 0.008812500000000001, 0.23646875, 0.952375, 192.0, 0.0, 0.0, 0.0, 0.0, 0.0, 0.0, 0.0, 0.0, 0.0, 1.644587853086762E9, 0.0, 2022-02-12 00:57:33.086
224.0, -12286.530409637739, -11699.104213607814, -6406.971085902583, -13058.246738701671, -9184.734128085867, -5344.7714858974805, -9146.244424133829, -6374.002262831004, -11100.569200583603, -13703.027511003913, -9702.109956992861, -8040.458922440877, -7576.0790796374185, -10367.186113260523, -11693.493925749532, -16581.70867940291, 0.01140625, 0.235234375, 0.9471875000000001, 192.0, 0.0, 56.0, 3.5, 40.0, 14.5, 56.0, 0.0, 0.0, 0.0, 1.644587853094072E9, 0.0, 2022-02-12 00:57:33.094
226.0, -12300.366139455575, -11689.895294892227, -6412.782539460963, -13043.807511783543, -9164.416392375993, -5343.63154693026, -9130.70996173739, -6375.969216343072, -11091.852020246031, -13688.856505019248, -9710.894192563796, -8053.7135069028745, -7568.635948733801, -10379.881904111136, -11694.879733905762, -16533.495966612812, 0.01140625, 0.235234375, 0.9471875000000001, 192.0, 0.0, 0.0, 0.0, 0.0, 0.0, 0.0, 0.0, 0.0, 0.0, 1.644587853102192E9, 0.0, 2022-02-12 00:57:33.102
228.0, -12287.178610226943, -11709.497774779533, -6402.79130968944, -13061.465389903235, -9176.19576170394, -5342.849235874323, -9133.816854216679, -6372.638806419231, -11094.556581325125, -13696.791374300883, -9707.943762295696, -8045.465713198867, -7568.077155122418, -10368.884845839126, -11694.052719360914, -16557.32292620217, 0.01140625, 0.235234375, 0.9471875000000001, 192.0, 0.0, 0.0, 0.0, 0.0, 0.0, 0.0, 0.0, 0.0, 0.0, 1.644587853110064E9, 0.0, 2022-02-12 00:57:33.110
230.0, -12298.10861326559, -11712.202335858625, -6416.738798229551, -13057.755000323654, -9168.327947655673, -5344.100933563821, -9136.208490873396, -6378.338501255334, -11103.29611340715, -13709.084833751302, -9691.403471398768, -8053.288823758224, -7547.357088012349, -10366.806133604781, -11694.432699016656, -16571.248062997827, 0.01140625, 0.235234375, 0.9471875000000001, 192.0, 0.0, 0.0, 0.0, 0.0, 0.0, 0.0, 0.0, 0.0, 0.0, 1.644587853116365E9, 0.0, 2022-02-12 00:57:33.116
232.0, -12283.244703202809, -11668.191751026125, -6399.349141043323, -13052.323526421014, -9163.209398175406, -5334.9143665926895, -9133.079246649653, -6367.877884850251, -11096.121203436996, -13687.493048607475, -9710.357750696869, -8062.609501196087, -7572.860428435854, -10372.416421463064, -11691.437565259645, -16529.338542144127, 0.01140625, 0.235234375, 0.9471875000000001, 192.0, 0.0, 0.0, 0.0, 0.0, 0.0, 0.0, 0.0, 0.0, 0.0, 1.644587853123679E9, 0.0, 2022-02-12 00:57:33.123
234.0, -12297.683930120938, -11710.011864902004, -6408.893335925739, -13067.835637072998, -9179.325005927683, -5343.855064374812, -9138.845996719123, -6380.372510000767, -11107.29707566465, -13704.636836604695, -9700.075948247428, -8048.5502539336985, -7573.285111580505, -10366.560264415773, -11694.276236805468, -16585.128496304573, 0.008, 0.23600000000000002, 0.9500000000000001, 192.0, 0.0, 32.0, 3.5, 48.0, 14.5, 88.0, 0.0, 0.0, 0.0, 1.644587853131902E9, 0.0, 2022-02-12 00:57:33.131
236.0, -12302.020168545267, -11705.966199155593, -6415.93413542916, -13061.286575947594, -9168.372651144582, -5340.949337595623, -9141.081171164653, -6379.232571033546, -11103.229058173783, -13702.80399355936, -9712.615276886854, -8059.033222083238, -7575.7885069594995, -10371.0976685402, -11699.21597233009, -16542.906051028498, 0.008, 0.23600000000000002, 0.9500000000000001, 192.0, 0.0, 0.0, 0.0, 0.0, 0.0, 0.0, 0.0, 0.0, 0.0, 1.644587853138857E9, 0.0, 2022-02-12 00:57:33.138
238.0, -12278.394374656007, -11691.75048968202, -6400.869059666284, -13067.030974272606, -9176.665148337503, -5340.234081773053, -9139.427142074961, -6374.181076786647, -11109.621657088, -13691.449307376064, -9718.024399045038, -8061.201341295403, -7564.098544609374, -10369.421287706053, -11698.478364763067, -16562.508530915802, 0.008, 0.23600000000000002, 0.9500000000000001, 192.0, 0.0, 0.0, 0.0, 0.0, 0.0, 0.0, 0.0, 0.0, 0.0, 1.644587853146538E9, 0.0, 2022-02-12 00:57:33.146
240.0, -12304.903543580001, -11717.41029231671, -6410.927344671171, -13072.30598596406, -9175.8157820482, -5343.139808552242, -9147.585528801148, -6382.808850146395, -11113.712026323323, -13710.023607018426, -9711.318875708446, -8058.988518594328, -7556.20837881665, -10377.110287798678, -11700.422966530678, -16576.165446777995, 0.008, 0.23600000000000002, 0.9500000000000001, 192.0, 0.0, 0.0, 0.0, 0.0, 0.0, 0.0, 0.0, 0.0, 0.0, 1.644587853154321E9, 0.0, 2022-02-12 00:57:33.154
242.0, -12299.0026830438, -11698.880696163262, -6411.396731304733, -13063.29823294857, -9164.617558076092, -5338.915328850189, -9131.358162326595, -6377.466783221577, -11101.776194784188, -13696.791374300883, -9724.886384592817, -8068.912693132484, -7557.325966039416, -10372.706994140983, -11700.065338619392, -16534.03240847974, 0.008, 0.23600000000000002, 0.9500000000000001, 192.0, 0.0, 0.0, 0.0, 0.0, 0.0, 0.0, 0.0, 0.0, 0.0, 1.644587853162916E9, 0.0, 2022-02-12 00:57:33.162
244.0, -12316.884078608045, -11721.388902829756, -6407.708693469607, -13079.503247678667, -9182.968340273897, -5352.460485990106, -9149.686592779946, -6390.766071172485, -11122.228040960794, -13717.802014088871, -9700.053596502972, -8057.066268571171, -7570.379384801315, -10373.086973796722, -11704.490984021544, -16590.962301607407, 0.008, 0.232, 0.9480000000000001, 192.0, 0.0, 32.0, 3.5, 32.0, 14.5, 80.0, 0.0, 0.0, 0.0, 1.644587853168963E9, 0.0, 2022-02-12 00:57:33.168
246.0, -12297.81804058767, -11708.760167212507, -6416.090597640347, -13064.661689360344, -9171.367784901595, -5343.877416119268, -9143.29399386573, -6385.669873436675, -11118.182375214385, -13711.565877385841, -9713.129367009327, -8062.855370385096, -7581.085870395407, -10382.72057565696, -11703.619265987787, -16551.31030694369, 0.008, 0.232, 0.9480000000000001, 192.0, 0.0, 0.0, 0.0, 0.0, 0.0, 0.0, 0.0, 0.0, 0.0, 1.64458785318398E9, 0.0, 2022-02-12 00:57:33.183
248.0, -12296.566342898172, -11701.60760898681, -6404.110062612303, -13068.640299873388, -9169.490238367349, -5338.602404427816, -9132.09576989362, -6376.036271576438, -11121.646895604956, -13699.741804568983, -9708.323741951435, -8055.233425525836, -7564.076192864918, -10374.316319741765, -11699.93122815266, -16568.8117228522, 0.008, 0.232, 0.9480000000000001, 192.0, 0.0, 0.0, 0.0, 0.0, 0.0, 0.0, 0.0, 0.0, 0.0, 1.644587853192171E9, 0.0, 2022-02-12 00:57:33.192
250.0, -12324.617782189582, -11722.282972607967, -6422.818472721395, -13069.176741740315, -9173.737069813857, -5339.407067228207, -9144.43393283295, -6379.031405333449, -11126.050189262653, -13714.650418120673, -9712.794090842497, -8060.441381983922, -7552.54269272598, -10382.29589251231, -11701.875829920273, -16582.066307314195, 0.008, 0.232, 0.9480000000000001, 192.0, 0.0, 0.0, 0.0, 0.0, 0.0, 0.0, 0.0, 0.0, 0.0, 1.644587853198583E9, 0.0, 2022-02-12 00:57:33.198
252.0, -12307.116366281078, -11719.846632462339, -6413.877774939272, -13062.448866659268, -9165.019889476287, -5331.136921779743, -9135.04620016172, -6377.176210543658, -11125.692561351367, -13704.94976102707, -9724.841681103908, -8064.196475052414, -7575.877913937321, -10368.303700483288, -11707.12848986727, -16536.826376536654, 0.008, 0.232, 0.9480000000000001, 192.0, 0.0, 0.0, 0.0, 0.0, 0.0, 0.0, 0.0, 0.0, 0.0, 1.64458785320678E9, 0.0, 2022-02-12 00:57:33.206
254.0, -12314.470090206873, -11721.567716785397, -6412.246097594035, -13081.783125613108, -9177.872142538088, -5341.418724229184, -9130.374685570561, -6376.103326809804, -11128.7771020862, -13719.456043178565, -9711.341227452902, -8057.200379037903, -7577.554294771468, -10360.458238179473, -11705.765033455496, -16594.739746420353, 0.01, 0.23600000000000002, 0.9480000000000001, 192.0, 0.0, 40.0, 3.5, 48.0, 14.5, 80.0, 0.0, 0.0, 0.0, 1.644587853214584E9, 0.0, 2022-02-12 00:57:33.214
0.0, -12311.117328538578, -11717.857327205817, -6423.421969821688, -13068.617948128933, -9165.265758665295, -5338.468293961084, -9137.549595540715, -6375.745698898519, -11126.474872407303, -13707.319045939334, -9737.917451610261, -8075.528809491255, -7563.83032367591, -10380.284235511332, -11708.536649767953, -16553.56783313368, 0.01, 0.23600000000000002, 0.9480000000000001, 192.0, 0.0, 0.0, 0.0, 0.0, 0.0, 0.0, 0.0, 0.0, 0.0, 1.644587853223167E9, 0.0, 2022-02-12 00:57:33.223
2.0, -12278.9978717563, -11708.916629423695, -6406.345237057833, -13076.217541243737, -9170.764287801301, -5333.528558436461, -9128.228918102852, -6377.623245432765, -11129.425302675403, -13710.582400629808, -9711.29652396399, -8064.30823377469, -7554.219073560128, -10372.774049374348, -11702.591085742843, -16572.209188009405, 0.01, 0.23600000000000002, 0.9480000000000001, 192.0, 0.0, 0.0, 0.0, 0.0, 0.0, 0.0, 0.0, 0.0, 0.0, 1.644587853229279E9, 0.0, 2022-02-12 00:57:33.229
4.0, -12333.200852060421, -11735.112873925314, -6422.192623876646, -13075.926968565818, -9170.853694779122, -5344.279747519463, -9130.799368715212, -6388.486193238044, -11139.282421980193, -13727.122691526734, -9717.040922289005, -8060.419030239467, -7556.186027072195, -10371.678813896038, -11703.88748692125, -16592.728089419375, 0.01, 0.23600000000000002, 0.9480000000000001, 192.0, 0.0, 0.0, 0.0, 0.0, 0.0, 0.0, 0.0, 0.0, 0.0, 1.644587853236337E9, 0.0, 2022-02-12 00:57:33.236
6.0, -12328.462282235896, -11727.714446510607, -6410.256792337513, -13074.697622620777, -9166.159828443508, -5339.362363739296, -9127.871290191566, -6383.88173388025, -11134.834424833587, -13719.76896760094, -9718.963172312162, -8071.93017863395, -7578.247198849583, -10381.602988434195, -11706.4132340447, -16554.03721976724, 0.01, 0.23600000000000002, 0.9480000000000001, 192.0, 0.0, 0.0, 0.0, 0.0, 0.0, 0.0, 0.0, 0.0, 0.0, 1.644587853244386E9, 0.0, 2022-02-12 00:57:33.244
8.0, -12313.508965195295, -11723.132338897269, -6411.866117938294, -13090.232085017215, -9176.665148337503, -5340.189378284143, -9131.76049372679, -6385.871039136772, -11134.63325913349, -13739.706723655072, -9712.235297231115, -8068.68917568793, -7570.088812123396, -10376.462087209475, -11706.301475322423, -16611.637665228565, 0.008, 0.23800000000000002, 0.9480000000000001, 192.0, 0.0, 32.0, 3.5, 56.0, 14.5, 80.0, 0.0, 0.0, 0.0, 1.644587853251364E9, 0.0, 2022-02-12 00:57:33.251
10.0, -12331.524471226272, -11728.407350588723, -6407.6863417251525, -13082.453677946769, -9158.895511495533, -5325.571337410372, -9125.367894812573, -6375.9915680875265, -11131.615773632024, -13730.162528772657, -9719.879593834828, -8080.759117693797, -7563.606806231357, -10375.478610453441, -11705.250943333023, -16560.675687870465, 0.008, 0.23800000000000002, 0.9480000000000001, 192.0, 0.0, 0.0, 0.0, 0.0, 0.0, 0.0, 0.0, 0.0, 0.0, 1.644587853258937E9, 0.0, 2022-02-12 00:57:33.258
12.0, -12311.72082563887, -11730.37430410079, -6395.5940479748315, -13085.493515192691, -9160.706002796413, -5328.879395589757, -9116.583659241636, -6371.431812218644, -11137.449578934858, -13715.879764065716, -9714.090492020905, -8056.932158104439, -7557.057745105952, -10360.033555034823, -11703.17223109868, -16578.244159012338, 0.008, 0.23800000000000002, 0.9480000000000001, 192.0, 0.0, 0.0, 0.0, 0.0, 0.0, 0.0, 0.0, 0.0, 0.0, 1.644587853266872E9, 0.0, 2022-02-12 00:57:33.266
14.0, -12315.028883818255, -11734.956411714127, -6413.251926094524, -13084.39827971438, -9158.828456262167, -5337.015430571489, -9127.938345424933, -6379.254922778002, -11139.01420104673, -13731.637743906707, -9715.945686810695, -8053.624099925054, -7547.401791501259, -10368.549569672296, -11707.530821267464, -16600.171220322994, 0.008, 0.23800000000000002, 0.9480000000000001, 192.0, 0.0, 0.0, 0.0, 0.0, 0.0, 0.0, 0.0, 0.0, 0.0, 1.644587853273979E9, 0.0, 2022-02-12 00:57:33.273
16.0, -12311.564363427684, -11713.051702147926, -6413.117815627792, -13078.095087777983, -9153.084057937152, -5327.337125222341, -9124.831452945644, -6374.717518653574, -11132.733360854789, -13705.106223238257, -9719.544317668, -8067.5045332317995, -7529.96743082612, -10378.831372121736, -11706.323827066879, -16557.09940875762, 0.008, 0.23800000000000002, 0.9480000000000001, 192.0, 0.0, 0.0, 0.0, 0.0, 0.0, 0.0, 0.0, 0.0, 0.0, 1.644587853281443E9, 0.0, 2022-02-12 00:57:33.281
18.0, -12327.05412233521, -11726.395693587745, -6415.17417611768, -13092.40020422938, -9171.971282001887, -5332.589785169338, -9138.063685663186, -6381.646559434719, -11145.16093077194, -13728.66496189415, -9712.503518164578, -8065.448172741912, -7572.189876102195, -10361.017031790858, -11713.65519924822, -16612.24116232886, 0.004, 0.234, 0.9420000000000001, 192.0, 0.0, 16.0, 3.5, 40.0, 14.5, 56.0, 0.0, 0.0, 0.0, 1.644587853289625E9, 0.0, 2022-02-12 00:57:33.289
20.0, -12336.598317217627, -11748.121589198303, -6418.996324419538, -13079.391488956391, -9159.566063829192, -5335.003773570511, -9134.375647828061, -6390.743719428029, -11134.566203900124, -13733.224717763034, -9714.291657721002, -8059.16733254997, -7563.405640531259, -10368.236645249921, -11714.348103326334, -16569.817551352688, 0.004, 0.234, 0.9420000000000001, 192.0, 0.0, 0.0, 0.0, 0.0, 0.0, 0.0, 0.0, 0.0, 0.0, 1.644587853297691E9, 0.0, 2022-02-12 00:57:33.297
22.0, -12341.24748006433, -11758.537502114476, -6412.357856316311, -13094.121288552438, -9171.032508734765, -5341.038744573444, -9131.04523790422, -6386.742757170529, -11148.848968607064, -13724.172261258635, -9709.553087896478, -8051.567739435165, -7561.25987306355, -10369.935377828524, -11715.644504504742, -16594.560932464712, 0.004, 0.234, 0.9420000000000001, 192.0, 0.0, 0.0, 0.0, 0.0, 0.0, 0.0, 0.0, 0.0, 0.0, 1.644587853311087E9, 0.0, 2022-02-12 00:57:33.311
24.0, -12356.223148849387, -11765.667708595718, -6428.65227802423, -13098.949265354786, -9167.992671488842, -5344.525616708472, -9135.582642028647, -6391.347216528323, -11165.21044554835, -13752.313107527865, -9726.898041593795, -8070.745536177819, -7559.114105595841, -10376.327976742743, -11718.818452217396, -16614.90101991904, 0.004, 0.234, 0.9420000000000001, 192.0, 0.0, 0.0, 0.0, 0.0, 0.0, 0.0, 0.0, 0.0, 0.0, 1.644587853319322E9, 0.0, 2022-02-12 00:57:33.319
26.0, -12348.422390034484, -11745.417028119211, -6423.578432032876, -13091.483782706713, -9159.051973706719, -5332.612136913793, -9123.110368622585, -6377.109155310292, -11159.019012334229, -13731.771854373439, -9745.047658091506, -8082.1225741055705, -7545.837169389388, -10376.327976742743, -11717.611458016809, -16565.99540305083, 0.004, 0.234, 0.9420000000000001, 192.0, 0.0, 0.0, 0.0, 0.0, 0.0, 0.0, 0.0, 0.0, 0.0, 1.644587853327253E9, 0.0, 2022-02-12 00:57:33.327
28.0, -12395.74103304637, -11792.646264153274, -6427.065304167903, -13110.415710260357, -9176.419279148493, -5344.43620973065, -9129.19004311443, -6387.726233926563, -11174.397012519481, -13761.365564032265, -9754.97183262966, -8096.382987068056, -7568.54654175598, -10376.216218020465, -11725.74749299854, -16623.95347642344, 0.006, 0.23600000000000002, 0.9440000000000001, 192.0, 0.0, 24.0, 3.5, 48.0, 14.5, 64.0, 0.0, 0.0, 0.0, 1.64458785333397E9, 0.0, 2022-02-12 00:57:33.333
30.0, -12428.374579951118, -11821.301200544978, -6428.182891390668, -13103.821945646043, -9165.62338657658, -5341.4857794625495, -9139.069514163675, -6390.810774661395, -11185.081146369117, -13776.408288050687, -9751.350850027902, -8112.565650053699, -7572.59220750239, -10390.387224005131, -11727.826205232885, -16587.408374239014, 0.006, 0.23600000000000002, 0.9440000000000001, 192.0, 0.0, 0.0, 0.0, 0.0, 0.0, 0.0, 0.0, 0.0, 0.0, 1.644587853341739E9, 0.0, 2022-02-12 00:57:33.341
32.0, -12401.708948815936, -11817.411997009754, -6420.650353509231, -13112.807346917076, -9167.52328485528, -5335.227291015064, -9130.866423948577, -6384.664044936186, -11190.423213293936, -13758.750409930994, -9763.800771689508, -8120.791092013252, -7563.718564953633, -10384.821639635758, -11727.870908721794, -16604.172182580493, 0.006, 0.23600000000000002, 0.9440000000000001, 192.0, 0.0, 0.0, 0.0, 0.0, 0.0, 0.0, 0.0, 0.0, 0.0, 1.644587853349771E9, 0.0, 2022-02-12 00:57:33.349
34.0, -12457.543606465293, -11872.486695347632, -6427.691153012652, -13111.55564922758, -9164.215226675895, -5341.664593418192, -9118.550612753703, -6382.048890834915, -11191.78666970571, -13779.939863674625, -9769.858094436895, -8117.08070243367, -7578.381309316315, -10383.569941946262, -11728.094426166348, -16621.8747641891, 0.006, 0.23600000000000002, 0.9440000000000001, 192.0, 0.0, 0.0, 0.0, 0.0, 0.0, 0.0, 0.0, 0.0, 0.0, 1.644587853356986E9, 0.0, 2022-02-12 00:57:33.356
36.0, -12489.707766736481, -11869.469209846166, -6427.266469868001, -13102.771413656643, -9152.547616070226, -5325.6383926437375, -9114.236726073828, -6376.528009954454, -11192.926608672931, -13779.112849129779, -9764.873655423362, -8114.040865187749, -7563.159771342251, -10389.29198852682, -11727.714446510607, -16574.5114176883, 0.006, 0.23600000000000002, 0.9440000000000001, 192.0, 0.0, 0.0, 0.0, 0.0, 0.0, 0.0, 0.0, 0.0, 0.0, 1.644587853363563E9, 0.0, 2022-02-12 00:57:33.363
38.0, -12501.978874442444, -11902.818012573483, -6424.606612277819, -13119.02113187565, -9163.76819178679, -5330.823997357368, -9123.691513978423, -6377.243265777024, -11210.45037632589, -13779.403421807698, -9767.98054790265, -8102.753234237819, -7557.571835228424, -10384.821639635758, -11727.423873832688, -16628.37912182559, 0.014, 0.232, 0.9440000000000001, 192.0, 0.0, 56.0, 3.5, 32.0, 14.5, 64.0, 0.0, 0.0, 0.0, 1.644587853371545E9, 0.0, 2022-02-12 00:57:33.371
40.0, -12506.873906478157, -11903.3097509515, -6428.294650112945, -13109.78986141561, -9155.140418427041, -5331.114570035287, -9125.725522723857, -6374.5834081868425, -11210.606838537078, -13803.83387849735, -9775.893065439828, -8125.37319962659, -7571.608730746357, -10386.09568906971, -11733.011809946514, -16586.559007949712, 0.014, 0.232, 0.9440000000000001, 192.0, 0.0, 0.0, 0.0, 0.0, 0.0, 0.0, 0.0, 0.0, 0.0, 1.644587853379366E9, 0.0, 2022-02-12 00:57:33.379
42.0, -12487.18201961303, -11884.578989097952, -6426.171234389692, -13123.290315066615, -9154.648680049024, -5328.4547124451055, -9113.61087722908, -6371.8788471077505, -11215.211297894872, -13789.841686468326, -9776.943597429228, -8131.22935667388, -7566.467829521636, -10383.972273346457, -11729.636696533764, -16604.8203831697, 0.014, 0.232, 0.9440000000000001, 192.0, 0.0, 0.0, 0.0, 0.0, 0.0, 0.0, 0.0, 0.0, 0.0, 1.644587853386098E9, 0.0, 2022-02-12 00:57:33.386
44.0, -12506.605685544693, -11914.329160967965, -6429.7028100136295, -13121.524527254645, -9157.085020194652, -5334.0873520478435, -9122.082188377643, -6384.529934469454, -11208.21520188036, -13800.279951128954, -9789.259408624102, -8133.911566008516, -7559.9411201406865, -10382.00531983439, -11726.663914521208, -16623.48408978988, 0.014, 0.232, 0.9440000000000001, 192.0, 0.0, 0.0, 0.0, 0.0, 0.0, 0.0, 0.0, 0.0, 0.0, 1.644587853394027E9, 0.0, 2022-02-12 00:57:33.394
46.0, -12514.451147848506, -11898.057091004503, -6427.6464495237415, -13115.511907996168, -9154.33575562665, -5332.72389563607, -9116.56130749718, -6375.768050642973, -11210.27156237025, -13789.662872512685, -9774.753126472608, -8127.2060426719245, -7565.126724854318, -10395.68458744104, -11729.010847689015, -16582.066307314195, 0.013000000000000001, 0.233, 0.9450000000000001, 192.0, 0.0, 48.0, 3.5, 40.0, 14.5, 72.0, 0.0, 0.0, 0.0, 1.644587853402062E9, 0.0, 2022-02-12 00:57:33.402
48.0, -12504.66108377708, -11902.862716062393, -6431.17802514768, -13132.186309359826, -9172.19479944644, -5340.792875384435, -9123.624458745058, -6376.013919831982, -11224.263754399271, -13813.199259424122, -9772.428545049257, -8109.257591874313, -7562.7574399420555, -10384.933398358036, -11731.022504689992, -16640.15849115354, 0.013000000000000001, 0.233, 0.9450000000000001, 192.0, 0.0, 0.0, 0.0, 0.0, 0.0, 0.0, 0.0, 0.0, 0.0, 1.644587853409332E9, 0.0, 2022-02-12 00:57:33.409
50.0, -12488.746641724902, -11885.204837942701, -6431.759170503517, -13119.378759786936, -9163.947005742431, -5336.031953815455, -9129.391208814528, -6378.606722188798, -11210.830355981632, -13795.876657471259, -9771.333309570946, -8128.882423506073, -7588.260780365561, -10391.281293783342, -11733.99528670255, -16598.85246740013, 0.013000000000000001, 0.233, 0.9450000000000001, 192.0, 0.0, 0.0, 0.0, 0.0, 0.0, 0.0, 0.0, 0.0, 0.0, 1.644587853416941E9, 0.0, 2022-02-12 00:57:33.416
52.0, -12451.151007551076, -11845.843415956906, -6421.142091887247, -13123.066797622061, -9170.160790701007, -5336.434285215651, -9128.407732058493, -6374.270483764468, -11210.852707726086, -13761.812598921371, -9766.84060893543, -8126.222565915891, -7573.9109604252535, -10381.804154134292, -11736.252812892535, -16613.604618740632, 0.013000000000000001, 0.233, 0.9450000000000001, 192.0, 0.0, 0.0, 0.0, 0.0, 0.0, 0.0, 0.0, 0.0, 0.0, 1.64458785343172E9, 0.0, 2022-02-12 00:57:33.431
54.0, -12477.838990430713, -11869.715079035173, -6428.339353601856, -13121.792748188109, -9170.80899129021, -5338.423590472173, -9134.129778639053, -6380.931303612149, -11214.876021728041, -13794.133221403745, -9773.054393894005, -8108.587039540654, -7574.916788925742, -10383.704052412993, -11740.432589105678, -16638.28094461929, 0.013000000000000001, 0.233, 0.9450000000000001, 192.0, 0.0, 0.0, 0.0, 0.0, 0.0, 0.0, 0.0, 0.0, 0.0, 1.644587853439223E9, 0.0, 2022-02-12 00:57:33.439
56.0, -12460.695202433491, -11853.867692216361, -6424.472501811088, -13117.545916741601, -9157.375592872571, -5332.679192147159, -9122.66333373348, -6378.338501255334, -11201.152050632483, -13772.653194982195, -9768.829914191952, -8109.726978507874, -7563.964434142642, -10393.62822695115, -11734.665839036208, -16594.449173742436, 0.0115, 0.2335, 0.9455, 192.0, 0.0, 40.0, 3.5, 40.0, 14.5, 72.0, 0.0, 0.0, 0.0, 1.6445878534463E9, 0.0, 2022-02-12 00:57:33.446
58.0, -12439.885728345602, -11846.648078757296, -6424.807777977918, -13130.97931515924, -9172.48537212436, -5335.629622415259, -9125.9043366795, -6378.517315210976, -11216.820623495654, -13781.035099152936, -9758.704573953697, -8098.662865002498, -7568.032451633508, -10381.088898311722, -11733.682362280175, -16649.076837191205, 0.0115, 0.2335, 0.9455, 192.0, 0.0, 0.0, 0.0, 0.0, 0.0, 0.0, 0.0, 0.0, 0.0, 1.644587853454569E9, 0.0, 2022-02-12 00:57:33.454
60.0, -12458.616490199149, -11846.53632003502, -6430.351010602833, -13120.742216198709, -9164.639909820546, -5333.528558436461, -9128.228918102852, -6385.044024591926, -11205.801213479188, -13790.86986671327, -9777.904722440806, -8105.3683883390895, -7567.227788833116, -10384.374604746652, -11735.671667536697, -16603.38987152456, 0.0115, 0.2335, 0.9455, 192.0, 0.0, 0.0, 0.0, 0.0, 0.0, 0.0, 0.0, 0.0, 0.0, 1.644587853462625E9, 0.0, 2022-02-12 00:57:33.462
62.0, -12428.55339390676, -11812.204040551667, -6415.263583095501, -13132.298068082104, -9165.533979598758, -5335.0261253149665, -9118.572964498158, -6374.717518653574, -11218.318190374159, -13769.076915869346, -9753.854245406896, -8114.376141354578, -7577.375480815826, -10382.072375067757, -11734.732894269573, -16617.71733972041, 0.0115, 0.2335, 0.9455, 192.0, 0.0, 0.0, 0.0, 0.0, 0.0, 0.0, 0.0, 0.0, 0.0, 1.644587853469114E9, 0.0, 2022-02-12 00:57:33.469
64.0, -12413.443614654972, -11808.895982372283, -6428.562871046409, -13132.83450994903, -9161.644776063535, -5340.323488750874, -9131.84990070461, -6376.617416932276, -11213.60197229409, -13765.791209434416, -9763.59960598941, -8120.478167590877, -7571.944006913186, -10385.693357669516, -11736.99042045956, -16640.20319464245, 0.0115, 0.2335, 0.9455, 192.0, 0.0, 0.0, 0.0, 0.0, 0.0, 0.0, 0.0, 0.0, 0.0, 1.644587853476953E9, 0.0, 2022-02-12 00:57:33.476
66.0, -12417.757501334847, -11818.14960457678, -6425.321868100389, -13126.397207545902, -9157.643813806035, -5337.2612997604965, -9129.681781492447, -6379.523143711465, -11195.430004051925, -13759.1974448201, -9771.892103182328, -8108.050597673727, -7571.698137724178, -10392.622398450661, -11736.811606503918, -16596.19260980995, 0.01175, 0.23275, 0.9477500000000001, 192.0, 0.0, 48.0, 3.5, 32.0, 14.5, 88.0, 0.0, 0.0, 0.0, 1.644587853484191E9, 0.0, 2022-02-12 00:57:33.484
68.0, -12409.621466353115, -11825.749197691584, -6421.298554098435, -13144.926803699353, -9174.139401214052, -5345.0620585753995, -9129.435912303437, -6388.21797230458, -11216.105367673084, -13768.786343191427, -9749.585062215932, -8100.160431881003, -7567.83128593341, -10387.794421648316, -11738.487987338065, -16657.078761706205, 0.01175, 0.23275, 0.9477500000000001, 192.0, 0.0, 0.0, 0.0, 0.0, 0.0, 0.0, 0.0, 0.0, 0.0, 1.644587853492149E9, 0.0, 2022-02-12 00:57:33.492
70.0, -12409.532059375295, -11808.583057949909, -6430.7533420030295, -13127.760663957675, -9167.456229621916, -5346.3584597538065, -9136.364953084583, -6393.045949106926, -11208.349312347093, -13766.81938967936, -9765.097172867916, -8108.899963963028, -7559.136457340295, -10398.411500264585, -11744.612365318819, -16618.611409498622, 0.01175, 0.23275, 0.9477500000000001, 192.0, 0.0, 0.0, 0.0, 0.0, 0.0, 0.0, 0.0, 0.0, 0.0, 1.644587853498724E9, 0.0, 2022-02-12 00:57:33.498
72.0, -12388.767288776315, -11790.276979241013, -6416.716446485097, -13133.795634960608, -9170.965453501398, -5343.698602163626, -9131.916955937977, -6381.579504201353, -11203.946018689398, -13760.739715187516, -9753.004879117594, -8092.851411444118, -7582.695195996189, -10392.53299147284, -11747.451036864644, -16635.419921329012, 0.01175, 0.23275, 0.9477500000000001, 192.0, 0.0, 0.0, 0.0, 0.0, 0.0, 0.0, 0.0, 0.0, 0.0, 1.644587853506701E9, 0.0, 2022-02-12 00:57:33.506
74.0, -12386.30859688623, -11801.519906702031, -6428.27229836849, -13134.957925672285, -9167.85856102211, -5343.005698085511, -9139.874176964066, -6389.31320778289, -11197.843992453098, -13778.732869474039, -9753.78719017353, -8088.448117786422, -7570.066460378941, -10384.754584402393, -11745.349972885844, -16658.844549518177, 0.01175, 0.23275, 0.9477500000000001, 192.0, 0.0, 0.0, 0.0, 0.0, 0.0, 0.0, 0.0, 0.0, 0.0, 1.64458785351472E9, 0.0, 2022-02-12 00:57:33.514
76.0, -12380.608902050126, -11781.492743670076, -6419.264545353001, -13131.001666903696, -9154.536921326748, -5333.86383460329, -9129.167691369974, -6383.345292013323, -11188.813887693153, -13749.474435982042, -9762.5043705111, -8093.521963777776, -7564.433820776203, -10384.464011724474, -11747.696906053652, -16609.53660124977, 0.011875, 0.232375, 0.9488750000000001, 192.0, 0.0, 48.0, 3.5, 32.0, 14.5, 88.0, 0.0, 0.0, 0.0, 1.644587853521234E9, 0.0, 2022-02-12 00:57:33.521
78.0, -12373.009308935323, -11769.176932475202, -6419.465711053099, -13150.648850279911, -9171.725412812879, -5338.378886983262, -9136.700229251413, -6390.833126405851, -11202.157879132972, -13750.592023204807, -9739.482073722134, -8107.558859295709, -7567.317195810938, -10383.502886712897, -11746.780484530984, -16665.81829378823, 0.011875, 0.232375, 0.9488750000000001, 192.0, 0.0, 0.0, 0.0, 0.0, 0.0, 0.0, 0.0, 0.0, 0.0, 1.644587853529521E9, 0.0, 2022-02-12 00:57:33.529
80.0, -12399.294960414763, -11794.389700220789, -6420.449187809132, -13122.64211447741, -9171.658357579512, -5342.9609945966, -9147.585528801148, -6398.902106154216, -11201.487326799313, -13754.10124708429, -9747.640460448321, -8103.17791738247, -7563.49504750908, -10391.951846117003, -11753.217786934112, -16627.306238091736, 0.011875, 0.232375, 0.9488750000000001, 192.0, 0.0, 0.0, 0.0, 0.0, 0.0, 0.0, 0.0, 0.0, 0.0, 1.644587853537239E9, 0.0, 2022-02-12 00:57:33.537
82.0, -12365.454419309428, -11784.644339638275, -6408.021617891982, -13129.638210491921, -9180.017910005798, -5343.340974252341, -9149.284261379751, -6403.104234111815, -11208.863402469564, -13761.566729732363, -9743.214815046169, -8074.1430013350255, -7562.109239352852, -10389.537857715828, -11765.600653362353, -16645.92524122301, 0.011875, 0.232375, 0.9488750000000001, 192.0, 0.0, 0.0, 0.0, 0.0, 0.0, 0.0, 0.0, 0.0, 0.0, 1.644587853544582E9, 0.0, 2022-02-12 00:57:33.544
84.0, -12369.1201054001, -11789.517019929532, -6416.425873807178, -13132.722751226755, -9181.426069906482, -5354.896826135734, -9152.61467130359, -6410.480309782066, -11201.174402376939, -13769.859226925282, -9734.02824807504, -8078.568646737176, -7578.984806416608, -10387.012110592379, -11766.56177837393, -16672.00972700235, 0.011875, 0.232375, 0.9488750000000001, 192.0, 0.0, 0.0, 0.0, 0.0, 0.0, 0.0, 0.0, 0.0, 0.0, 1.644587853558967E9, 0.0, 2022-02-12 00:57:33.558
86.0, -12372.852846724136, -11772.149714487758, -6405.629981235264, -13124.251440078193, -9164.304633653717, -5340.882282362257, -9147.294956123229, -6404.825318434873, -11189.059756882163, -13747.1945580476, -9737.872748121352, -8088.850449186618, -7564.702041709667, -10388.330863515243, -11763.052554494448, -16623.126461878594, 0.0099375, 0.2311875, 0.9504375, 192.0, 0.0, 32.0, 3.5, 24.0, 14.5, 96.0, 0.0, 0.0, 0.0, 1.644587853566851E9, 0.0, 2022-02-12 00:57:33.566
88.0, -12381.994710206356, -11762.359650416332, -6406.859327180306, -13141.730504242243, -9172.53007561327, -5344.682078919659, -9141.438799075937, -6404.691207968141, -11212.372626349048, -13756.291718040911, -9736.643402176309, -8095.3324550786565, -7560.902245152265, -10380.261883766876, -11760.325641670901, -16682.425639918525, 0.0099375, 0.2311875, 0.9504375, 192.0, 0.0, 0.0, 0.0, 0.0, 0.0, 0.0, 0.0, 0.0, 0.0, 1.644587853574239E9, 0.0, 2022-02-12 00:57:33.574
90.0, -12370.081230411677, -11781.716261114629, -6420.98562967606, -13129.817024447564, -9166.71862205489, -5343.564491696893, -9144.344525855127, -6398.723292198574, -11195.809983707666, -13743.640630679207, -9756.469399508167, -8094.348978322623, -7553.146189826273, -10391.43775599453, -11759.029240492493, -16638.973848697406, 0.0099375, 0.2311875, 0.9504375, 192.0, 0.0, 0.0, 0.0, 0.0, 0.0, 0.0, 0.0, 0.0, 0.0, 1.644587853581464E9, 0.0, 2022-02-12 00:57:33.581
92.0, -12357.631308750071, -11765.868874295817, -6406.591106246842, -13137.17074837336, -9176.039299492753, -5341.128151551265, -9140.388267086539, -6402.8136614338955, -11208.639885025012, -13750.1449883157, -9733.156530041282, -8091.286789332246, -7562.645681219778, -10390.968369360968, -11766.025336507004, -16653.793055271275, 0.0099375, 0.2311875, 0.9504375, 192.0, 0.0, 0.0, 0.0, 0.0, 0.0, 0.0, 0.0, 0.0, 0.0, 1.644587853589764E9, 0.0, 2022-02-12 00:57:33.589
94.0, -12349.294108068241, -11759.789199803972, -6421.075036653881, -13126.330152312536, -9170.853694779122, -5342.849235874323, -9145.52916831126, -6403.372455045278, -11205.22006812335, -13768.227549580044, -9735.481111464633, -8084.514210762288, -7550.35222176936, -10385.894523369614, -11765.980633018093, -16678.44702940548, 0.0099375, 0.2311875, 0.9504375, 192.0, 0.0, 0.0, 0.0, 0.0, 0.0, 0.0, 0.0, 0.0, 0.0, 1.644587853597704E9, 0.0, 2022-02-12 00:57:33.597
96.0, -12369.63419552257, -11764.393659161766, -6413.989533661549, -13119.915201653863, -9165.153999943019, -5337.350706738318, -9144.880967722054, -6398.723292198574, -11196.100556385583, -13743.90885161267, -9750.836759905429, -8083.441327028433, -7547.200625801162, -10387.928532115047, -11767.701717341151, -16624.176993867994, 0.00996875, 0.23159375, 0.9542187500000001, 192.0, 0.0, 40.0, 3.5, 32.0, 14.5, 120.0, 0.0, 0.0, 0.0, 1.644587853604234E9, 0.0, 2022-02-12 00:57:33.604
98.0, -12381.659434039526, -11793.249761253568, -6407.127548113769, -13132.812158204575, -9175.636968092558, -5342.849235874323, -9140.14239789753, -6393.872963651773, -11209.779823992232, -13768.361660046776, -9733.223585274647, -8074.50062924631, -7578.537771527502, -10381.088898311722, -11770.450981909155, -16684.72786959742, 0.00996875, 0.23159375, 0.9542187500000001, 192.0, 0.0, 0.0, 0.0, 0.0, 0.0, 0.0, 0.0, 0.0, 0.0, 1.64458785361118E9, 0.0, 2022-02-12 00:57:33.611
100.0, -12387.694405042459, -11784.800801849462, -6416.872908696283, -13123.156204599883, -9165.511627854303, -5343.542139952438, -9140.924708953466, -6401.047873621926, -11204.057777411674, -13766.417058279165, -9740.376143500345, -8088.1128416195925, -7566.311367310449, -10389.247285037909, -11770.428630164699, -16642.930107465996, 0.00996875, 0.23159375, 0.9542187500000001, 192.0, 0.0, 0.0, 0.0, 0.0, 0.0, 0.0, 0.0, 0.0, 0.0, 1.644587853619255E9, 0.0, 2022-02-12 00:57:33.619
102.0, -12367.533131543772, -11762.270243438512, -6415.688266240152, -13144.859748465986, -9168.819686033688, -5334.9143665926895, -9134.375647828061, -6399.192678832135, -11216.015960695262, -13746.166377802656, -9746.925204625752, -8088.470469530877, -7569.217094089639, -10393.091785084223, -11769.132228986291, -16653.4801308489, 0.00996875, 0.23159375, 0.9542187500000001, 192.0, 0.0, 0.0, 0.0, 0.0, 0.0, 0.0, 0.0, 0.0, 0.0, 1.644587853626415E9, 0.0, 2022-02-12 00:57:33.626
104.0, -12382.464096839918, -11787.125383272814, -6421.611478520808, -13144.658582765887, -9172.775944802279, -5351.946395867633, -9148.077267179164, -6414.45892029511, -11225.806024766687, -13774.486038027531, -9757.184655330737, -8093.4549085444105, -7574.872085436832, -10389.58256120474, -11770.719202842618, -16681.6880323515, 0.00996875, 0.23159375, 0.9542187500000001, 192.0, 0.0, 0.0, 0.0, 0.0, 0.0, 0.0, 0.0, 0.0, 0.0, 1.644587853633961E9, 0.0, 2022-02-12 00:57:33.633
106.0, -12374.395117091552, -11776.776525590007, -6415.352990073323, -13133.192137860315, -9157.62146206158, -5336.858968360301, -9139.985935686344, -6406.524051013476, -11211.031521681729, -13770.775648447949, -9765.141876356825, -8098.193478368936, -7553.459114248648, -10399.260866553888, -11771.702679598651, -16633.743540494866, 0.008984375, 0.23379687500000002, 0.954109375, 192.0, 0.0, 32.0, 3.5, 48.0, 14.5, 104.0, 0.0, 0.0, 0.0, 1.644587853641783E9, 0.0, 2022-02-12 00:57:33.641
108.0, -12369.075401911188, -11781.068060525426, -6405.384112046256, -13145.798521733108, -9168.14913370003, -5340.479950962062, -9139.538900797237, -6402.321923055879, -11222.632077054033, -13776.184770606134, -9742.208986545682, -8092.471431788377, -7568.0995068668735, -10384.687529169027, -11771.166237731724, -16687.544189398788, 0.008984375, 0.23379687500000002, 0.954109375, 192.0, 0.0, 0.0, 0.0, 0.0, 0.0, 0.0, 0.0, 0.0, 0.0, 1.644587853649824E9, 0.0, 2022-02-12 00:57:33.649
110.0, -12382.039413695265, -11776.150676745257, -6408.759225459007, -13136.142568128416, -9156.101543438619, -5334.176759025665, -9144.121008410575, -6401.7631294444955, -11211.545611804202, -13775.402459550198, -9753.02723086205, -8098.50640279131, -7571.429916790715, -10391.504811227896, -11766.04768825146, -16647.512215079336, 0.008984375, 0.23379687500000002, 0.954109375, 192.0, 0.0, 0.0, 0.0, 0.0, 0.0, 0.0, 0.0, 0.0, 0.0, 1.644587853656396E9, 0.0, 2022-02-12 00:57:33.656
112.0, -12370.081230411677, -11761.666746338218, -6405.004132390515, -13151.721734013765, -9161.421258618982, -5336.38958172674, -9130.821720459668, -6399.147975343225, -11212.484385071324, -13772.429677537642, -9746.969908114661, -8097.791146968741, -7561.0587073634515, -10389.001415848901, -11768.819304563916, -16659.783322785297, 0.008984375, 0.23379687500000002, 0.954109375, 192.0, 0.0, 0.0, 0.0, 0.0, 0.0, 0.0, 0.0, 0.0, 0.0, 1.644587853664804E9, 0.0, 2022-02-12 00:57:33.664
114.0, -12384.565160818716, -11804.71620615914, -6413.721312728085, -13152.057010180595, -9163.879950509066, -5339.541177694939, -9144.076304921664, -6401.651370722219, -11224.12964393254, -13779.24695959651, -9749.138027326826, -8106.575382539676, -7559.203512573661, -10391.594218205717, -11768.036993507982, -16685.465477164445, 0.008984375, 0.23379687500000002, 0.954109375, 192.0, 0.0, 0.0, 0.0, 0.0, 0.0, 0.0, 0.0, 0.0, 0.0, 1.644587853679598E9, 0.0, 2022-02-12 00:57:33.679
116.0, -12378.083154926677, -11789.964054818638, -6409.139205114747, -13141.17171063086, -9155.051011449219, -5335.830788115357, -9133.28041234975, -6400.6455422217305, -11217.200603151394, -13777.257654339988, -9759.822161176464, -8091.264437587791, -7551.7827334144995, -10394.902276385103, -11773.826095321905, -16633.475319561403, 0.006, 0.232, 0.9440000000000001, 192.0, 0.0, 24.0, 3.5, 32.0, 14.5, 64.0, 0.0, 0.0, 0.0, 1.64458785368606E9, 0.0, 2022-02-12 00:57:33.686
118.0, -12378.172561904497, -11782.029185537003, -6409.899164426228, -13157.913167227885, -9166.025717976776, -5336.411933471195, -9136.409656573494, -6397.739815442541, -11226.27541140025, -13784.097288143312, -9759.26336756508, -8083.463678772889, -7583.477507052125, -10386.475668725452, -11763.052554494448, -16689.220570232937, 0.006, 0.232, 0.9440000000000001, 192.0, 0.0, 0.0, 0.0, 0.0, 0.0, 0.0, 0.0, 0.0, 0.0, 1.644587853694087E9, 0.0, 2022-02-12 00:57:33.694
120.0, -12376.473829325894, -11778.877589568805, -6413.810719705906, -13148.41367583438, -9153.173464914975, -5333.3273927363625, -9139.024810674764, -6393.202411318113, -11222.02857995374, -13783.694956743117, -9764.136047856337, -8106.933010450961, -7573.285111580505, -10393.225895550955, -11768.640490608275, -16652.653116304056, 0.006, 0.232, 0.9440000000000001, 192.0, 0.0, 0.0, 0.0, 0.0, 0.0, 0.0, 0.0, 0.0, 0.0, 1.644587853702074E9, 0.0, 2022-02-12 00:57:33.702
122.0, -12383.246407895853, -11772.3285284434, -6407.127548113769, -13154.538053815133, -9156.012136460799, -5330.712238635092, -9130.687609992936, -6395.862268908295, -11217.73704501832, -13772.608491493285, -9761.297376310513, -8088.895152675528, -7562.153942841762, -10389.202581549, -11772.484990654588, -16657.21287217294, 0.006, 0.232, 0.9440000000000001, 192.0, 0.0, 0.0, 0.0, 0.0, 0.0, 0.0, 0.0, 0.0, 0.0, 1.644587853709259E9, 0.0, 2022-02-12 00:57:33.709
124.0, -12386.956797475434, -11795.730804888106, -6426.5288623009765, -13157.5555393166, -9165.556331343214, -5332.187453769142, -9134.174482127963, -6398.74564394303, -11235.663144071477, -13788.478230056553, -9741.31491676747, -8094.639551000542, -7546.328907767404, -10387.749718159404, -11775.61423487833, -16689.86877082214, 0.006, 0.232, 0.9440000000000001, 192.0, 0.0, 0.0, 0.0, 0.0, 0.0, 0.0, 0.0, 0.0, 0.0, 1.644587853716649E9, 0.0, 2022-02-12 00:57:33.716
126.0, -12382.061765439721, -11780.688080869686, -6418.571641274887, -13147.251385122703, -9159.543712084736, -5324.945488565622, -9137.102560651609, -6395.370530530278, -11227.214184667371, -13766.350003045798, -9765.343042056924, -8105.256629616813, -7568.7477074560775, -10392.264770539376, -11775.636586622786, -16637.29746786326, 0.012, 0.234, 0.9420000000000001, 192.0, 0.0, 48.0, 3.5, 40.0, 14.5, 56.0, 0.0, 0.0, 0.0, 1.64458785372476E9, 0.0, 2022-02-12 00:57:33.724
128.0, -12381.301806128242, -11784.376118704811, -6409.966219659594, -13162.875254496963, -9171.948930257431, -5327.694753133625, -9151.452380591916, -6404.579449245864, -11226.342466633614, -13789.081727156847, -9752.669602950764, -8097.36646382409, -7573.463925536147, -10386.878000125647, -11777.312967456934, -16694.517933668845, 0.012, 0.234, 0.9420000000000001, 192.0, 0.0, 0.0, 0.0, 0.0, 0.0, 0.0, 0.0, 0.0, 0.0, 1.644587853733301E9, 0.0, 2022-02-12 00:57:33.733
130.0, -12380.787716005769, -11786.231313494602, -6424.494853555543, -13160.595376562522, -9161.28714815225, -5330.019334556978, -9135.001496672809, -6400.757300944007, -11215.524222317246, -13780.744526475017, -9769.656928736798, -8098.059367902204, -7566.423126032726, -10397.562133975283, -11776.150676745257, -16657.05640996175, 0.012, 0.234, 0.9420000000000001, 192.0, 0.0, 0.0, 0.0, 0.0, 0.0, 0.0, 0.0, 0.0, 0.0, 1.644587853739663E9, 0.0, 2022-02-12 00:57:33.739
132.0, -12375.177428147486, -11788.600598406863, -6410.659123737708, -13165.378649875958, -9160.594244074136, -5323.984363554045, -9131.872252449066, -6394.543515985431, -11216.17242290645, -13778.084668884834, -9764.426620534256, -8099.109899891603, -7570.245274334583, -10398.72442468696, -11775.211903478135, -16665.25950017685, 0.012, 0.234, 0.9420000000000001, 192.0, 0.0, 0.0, 0.0, 0.0, 0.0, 0.0, 0.0, 0.0, 0.0, 1.644587853746346E9, 0.0, 2022-02-12 00:57:33.746
134.0, -12382.508800328827, -11803.86683986984, -6424.696019255641, -13166.719754543275, -9165.690441809946, -5331.159273524198, -9140.47767406436, -6404.400635290222, -11227.750626534298, -13801.174020907167, -9756.849379163907, -8099.601638269621, -7556.118971838829, -10394.00820660689, -11777.447077923665, -16696.618997647645, 0.012, 0.234, 0.9420000000000001, 192.0, 0.0, 0.0, 0.0, 0.0, 0.0, 0.0, 0.0, 0.0, 0.0, 1.644587853754568E9, 0.0, 2022-02-12 00:57:33.754
136.0, -12379.580721805183, -11774.429592422199, -6424.338391344356, -13161.310632385092, -9155.766267271789, -5325.593689154826, -9140.075342664164, -6403.327751556368, -11217.781748507232, -13776.609453750785, -9778.687033496743, -8106.240106372847, -7558.376498028815, -10395.706939185493, -11779.57049364692, -16645.880537734098, 0.012, 0.23600000000000002, 0.9480000000000001, 192.0, 0.0, 48.0, 3.5, 48.0, 14.5, 80.0, 0.0, 0.0, 0.0, 1.644587853761638E9, 0.0, 2022-02-12 00:57:33.761
138.0, -12400.256085426341, -11801.05052006847, -6419.465711053099, -13173.045298224128, -9165.601034832125, -5332.075695046866, -9139.851825219612, -6404.534745756954, -11227.996495723308, -13789.752279490505, -9745.584099958432, -8095.824193456673, -7563.182123086706, -10388.91200887108, -11777.916464557227, -16701.916361083553, 0.012, 0.23600000000000002, 0.9480000000000001, 192.0, 0.0, 0.0, 0.0, 0.0, 0.0, 0.0, 0.0, 0.0, 0.0, 1.644587853769115E9, 0.0, 2022-02-12 00:57:33.769
140.0, -12402.64772208306, -11808.04661608298, -6431.580356547875, -13167.077382454561, -9163.991709231343, -5336.523692193472, -9150.066572435686, -6413.251926094524, -11230.857519013587, -13799.989378451035, -9765.231283334648, -8097.187649868447, -7570.178219101217, -10398.165631075577, -11780.933950058694, -16667.517026366833, 0.012, 0.23600000000000002, 0.9480000000000001, 192.0, 0.0, 0.0, 0.0, 0.0, 0.0, 0.0, 0.0, 0.0, 0.0, 1.644587853776953E9, 0.0, 2022-02-12 00:57:33.776
142.0, -12369.231864122376, -11781.13511575879, -6421.0079814205155, -13174.967548247285, -9167.567988344192, -5329.237023501042, -9141.550557798215, -6407.261658580502, -11229.35995213508, -13777.72704097355, -9767.913492669284, -8117.103054178126, -7566.6913469661895, -10399.104404342701, -11781.828019836907, -16676.97181427143, 0.012, 0.23600000000000002, 0.9480000000000001, 192.0, 0.0, 0.0, 0.0, 0.0, 0.0, 0.0, 0.0, 0.0, 0.0, 1.64458785378514E9, 0.0, 2022-02-12 00:57:33.785
144.0, -12390.823649266202, -11776.70947035664, -6432.139150159258, -13173.067649968583, -9167.8138575332, -5328.365305467285, -9145.283299122251, -6405.272353323979, -11230.857519013587, -13793.037985925435, -9768.069954880471, -8105.815423228196, -7547.580605456902, -10398.0538723533, -11778.89994131326, -16701.268160494346, 0.012, 0.23600000000000002, 0.9480000000000001, 192.0, 0.0, 0.0, 0.0, 0.0, 0.0, 0.0, 0.0, 0.0, 0.0, 1.644587853791634E9, 0.0, 2022-02-12 00:57:33.791
146.0, -12388.521419587305, -11793.965017076138, -6423.645487266242, -13155.275661382158, -9155.296880638229, -5322.687962375637, -9136.007325173297, -6396.488117753043, -11225.001361966297, -13778.241131096021, -9770.349832814913, -8097.299408590724, -7558.085925350896, -10396.802174663804, -11778.587016890886, -16645.43350284499, 0.008, 0.23800000000000002, 0.9480000000000001, 192.0, 0.0, 32.0, 3.5, 56.0, 14.5, 80.0, 0.0, 0.0, 0.0, 1.644587853807929E9, 0.0, 2022-02-12 00:57:33.807
148.0, -12375.78092524778, -11792.065118797436, -6426.931193701172, -13172.754725546209, -9169.24436917834, -5328.633526400748, -9141.483502564848, -6404.825318434873, -11229.60582132409, -13793.082689414347, -9749.316841282469, -8086.637626485543, -7570.580550501412, -10382.787630890327, -11783.70556637115, -16703.07865179523, 0.008, 0.23800000000000002, 0.9480000000000001, 192.0, 0.0, 0.0, 0.0, 0.0, 0.0, 0.0, 0.0, 0.0, 0.0, 1.644587853814627E9, 0.0, 2022-02-12 00:57:33.814
150.0, -12365.968509431901, -11796.982502577604, -6440.9680892191045, -13164.216359164282, -9159.387249873549, -5329.147616523221, -9146.982031700854, -6407.060492880403, -11222.319152631659, -13794.78142199295, -9770.528646770555, -8096.517097534788, -7565.774925443522, -10388.017939092868, -11779.145810502268, -16669.819256045732, 0.008, 0.23800000000000002, 0.9480000000000001, 192.0, 0.0, 0.0, 0.0, 0.0, 0.0, 0.0, 0.0, 0.0, 0.0, 1.644587853821244E9, 0.0, 2022-02-12 00:57:33.821
152.0, -12401.776004049303, -11788.622950151319, -6421.633830265264, -13176.778039548164, -9167.366822644093, -5332.8580061028015, -9143.47280782137, -6400.354969543811, -11223.16851892096, -13778.419945051664, -9786.487792311644, -8104.943705194439, -7571.184047601706, -10393.181192062044, -11785.784278605495, -16674.781343314808, 0.008, 0.23800000000000002, 0.9480000000000001, 192.0, 0.0, 0.0, 0.0, 0.0, 0.0, 0.0, 0.0, 0.0, 0.0, 1.644587853829351E9, 0.0, 2022-02-12 00:57:33.829
154.0, -12405.128765717598, -11787.550066417465, -6429.434589080166, -13180.935464016851, -9168.23854067785, -5337.507168949505, -9148.703116023913, -6407.306362069412, -11239.12766446205, -13800.54817206242, -9751.082629094439, -8112.632705287065, -7559.9411201406865, -10396.064567096779, -11783.347938459867, -16709.046567564794, 0.008, 0.23800000000000002, 0.9480000000000001, 192.0, 0.0, 0.0, 0.0, 0.0, 0.0, 0.0, 0.0, 0.0, 0.0, 1.644587853837225E9, 0.0, 2022-02-12 00:57:33.837
156.0, -12378.26196888232, -11796.155488032759, -6419.1304348862695, -13165.579815576055, -9156.414467860994, -5328.588822911838, -9139.337735097139, -6399.192678832135, -11227.772978278754, -13782.487962542531, -9764.784248445541, -8098.551106280221, -7563.2268265756165, -10398.456203753496, -11785.963092561138, -16655.871767505618, 0.006, 0.23600000000000002, 0.9500000000000001, 192.0, 0.0, 24.0, 3.5, 48.0, 14.5, 88.0, 0.0, 0.0, 0.0, 1.644587853844032E9, 0.0, 2022-02-12 00:57:33.844
158.0, -12378.396079349051, -11791.32751123041, -6417.543461029943, -13185.539923374645, -9163.634081320059, -5332.947413080623, -9147.160845656497, -6403.55126900092, -11232.46684461437, -13785.773668977461, -9759.241015820626, -8084.760079951297, -7566.467829521636, -10402.881849155647, -11785.292540227478, -16710.92411409904, 0.006, 0.23600000000000002, 0.9500000000000001, 192.0, 0.0, 0.0, 0.0, 0.0, 0.0, 0.0, 0.0, 0.0, 0.0, 1.644587853851776E9, 0.0, 2022-02-12 00:57:33.851
160.0, -12396.88097201359, -11788.913522829238, -6431.245080381046, -13171.838304023542, -9153.821665504178, -5328.857043845302, -9150.37949685806, -6399.8185276768845, -11226.029542211241, -13791.898046958215, -9769.70163222571, -8102.015626670794, -7552.587396214891, -10395.706939185493, -11786.454830939154, -16680.525741639824, 0.006, 0.23600000000000002, 0.9500000000000001, 192.0, 0.0, 0.0, 0.0, 0.0, 0.0, 0.0, 0.0, 0.0, 0.0, 1.644587853858973E9, 0.0, 2022-02-12 00:57:33.858
162.0, -12393.662320812025, -11790.254627496557, -6425.5900890338535, -13181.024870994672, -9156.23565390535, -5330.823997357368, -9133.593336772125, -6396.845745664328, -11238.770036550766, -13791.115735902278, -9762.772591444564, -8106.977713939872, -7552.430934003703, -10390.968369360968, -11790.366386218833, -16683.11854399664, 0.006, 0.23600000000000002, 0.9500000000000001, 192.0, 0.0, 0.0, 0.0, 0.0, 0.0, 0.0, 0.0, 0.0, 0.0, 1.644587853867014E9, 0.0, 2022-02-12 00:57:33.867
164.0, -12396.031605724289, -11812.092281829391, -6430.060437924914, -13189.496182143233, -9157.219130661384, -5335.6743259041705, -9150.357145113605, -6407.50752776951, -11241.295783674215, -13800.391709851232, -9761.207969332692, -8098.349940580123, -7564.903207409765, -10391.929494372547, -11784.510229171543, -16714.522744956346, 0.006, 0.23600000000000002, 0.9500000000000001, 192.0, 0.0, 0.0, 0.0, 0.0, 0.0, 0.0, 0.0, 0.0, 0.0, 1.644587853873542E9, 0.0, 2022-02-12 00:57:33.873
166.0, -12374.730393258382, -11784.823153593918, -6423.444321566144, -13176.979205248263, -9150.737124769346, -5327.650049644715, -9143.025772932264, -6408.468652781088, -11226.051893955695, -13788.657044012196, -9768.27112058057, -8102.417958070989, -7567.272492322028, -10399.77495667636, -11786.276016983511, -16668.47815137841, 0.006, 0.23800000000000002, 0.9480000000000001, 192.0, 0.0, 24.0, 3.5, 56.0, 14.5, 80.0, 0.0, 0.0, 0.0, 1.64458785388147E9, 0.0, 2022-02-12 00:57:33.881
168.0, -12385.25806489683, -11792.445098453176, -6421.991458176549, -13191.127859488472, -9164.617558076092, -5331.29338399093, -9146.244424133829, -6407.50752776951, -11238.345353406115, -13790.176962635156, -9791.516934814088, -8094.5054405338105, -7573.799201702977, -10395.617532207672, -11788.600598406863, -16721.049454337295, 0.006, 0.23800000000000002, 0.9480000000000001, 192.0, 0.0, 0.0, 0.0, 0.0, 0.0, 0.0, 0.0, 0.0, 0.0, 1.644587853889473E9, 0.0, 2022-02-12 00:57:33.889
170.0, -12417.042245512277, -11812.069930084936, -6428.562871046409, -13178.432068637858, -9161.488313852347, -5331.606308413304, -9156.034488205254, -6411.106158626814, -11238.255946428293, -13805.487907587041, -9764.31486181198, -8102.216792370891, -7574.894437181287, -10400.311398543286, -11793.495630442576, -16688.974701043928, 0.006, 0.23800000000000002, 0.9480000000000001, 192.0, 0.0, 0.0, 0.0, 0.0, 0.0, 0.0, 0.0, 0.0, 0.0, 1.644587853896983E9, 0.0, 2022-02-12 00:57:33.896
172.0, -12404.189992450476, -11816.607334209364, -6424.450150066633, -13184.914074529896, -9164.57285458718, -5324.945488565622, -9147.786694501245, -6411.21791734909, -11245.967298265374, -13794.982587693046, -9759.084553609438, -8097.098242890626, -7566.803105688466, -10400.065529354279, -11799.351787489866, -16690.5393231558, 0.006, 0.23800000000000002, 0.9480000000000001, 192.0, 0.0, 0.0, 0.0, 0.0, 0.0, 0.0, 0.0, 0.0, 0.0, 1.644587853904238E9, 0.0, 2022-02-12 00:57:33.904
174.0, -12400.569009848716, -11806.19142129319, -6434.888414727261, -13188.177429220372, -9168.283244166762, -5328.946450823123, -9156.012136460799, -6410.390902804244, -11250.37059192307, -13813.601590824317, -9767.667623480276, -8095.578324267665, -7549.9051868802535, -10392.041253094823, -11798.301255500468, -16725.02806485034, 0.006, 0.23800000000000002, 0.9480000000000001, 192.0, 0.0, 0.0, 0.0, 0.0, 0.0, 0.0, 0.0, 0.0, 0.0, 1.644587853912121E9, 0.0, 2022-02-12 00:57:33.912
176.0, -12383.536980573772, -11798.725938645119, -6430.239251880557, -13183.260045440204, -9160.080153951663, -5323.805549598402, -9150.37949685806, -6399.751472443518, -11241.742818563322, -13799.654102284207, -9776.161286373292, -8108.564687796198, -7573.665091236245, -10403.530049744852, -11799.24002876759, -16671.24976769087, 0.006, 0.24, 0.9440000000000001, 192.0, 0.0, 24.0, 3.5, 64.0, 14.5, 64.0, 0.0, 0.0, 0.0, 1.644587853926253E9, 0.0, 2022-02-12 00:57:33.926
178.0, -12384.565160818716, -11790.47814494111, -6420.98562967606, -13202.28137997167, -9169.66905232299, -5324.297287976419, -9144.389229344039, -6404.780614945962, -11251.264661701282, -13806.694901787629, -9773.590835760931, -8103.669655760486, -7565.953739399164, -10400.020825865367, -11798.211848522646, -16727.173832318047, 0.006, 0.24, 0.9440000000000001, 192.0, 0.0, 0.0, 0.0, 0.0, 0.0, 0.0, 0.0, 0.0, 0.0, 1.644587853933785E9, 0.0, 2022-02-12 00:57:33.933
180.0, -12406.425166896006, -11812.919296374237, -6432.854405981828, -13188.736222831754, -9166.450401121427, -5332.410971213695, -9156.794447516733, -6415.151824373224, -11242.994516252818, -13799.072956928369, -9784.878466710863, -8117.259516389313, -7569.418259789737, -10403.932381145047, -11797.29542699998, -16697.155439514572, 0.006, 0.24, 0.9440000000000001, 192.0, 0.0, 0.0, 0.0, 0.0, 0.0, 0.0, 0.0, 0.0, 0.0, 1.644587853941655E9, 0.0, 2022-02-12 00:57:33.941
182.0, -12407.632161096593, -11801.743424146583, -6423.8913564552495, -13190.881990299464, -9175.927540770477, -5330.354610723807, -9144.568043299681, -6409.9215161706825, -11253.656298358, -13790.378128335255, -9776.116582884382, -8107.737673251352, -7575.989672659597, -10411.800195193315, -11805.09618581488, -16701.178753516528, 0.006, 0.24, 0.9440000000000001, 192.0, 0.0, 0.0, 0.0, 0.0, 0.0, 0.0, 0.0, 0.0, 0.0, 1.644587853949706E9, 0.0, 2022-02-12 00:57:33.949
184.0, -12408.45917564144, -11812.628723696318, -6429.300478613434, -13190.859638555008, -9171.792468046246, -5328.834692100846, -9150.692421280435, -6410.882641182261, -11257.389039682037, -13818.988361238047, -9776.02717590656, -8095.779489967763, -7556.342489283382, -10409.162689347588, -11803.844488125384, -16735.801605677796, 0.005, 0.235, 0.9440000000000001, 192.0, 0.0, 16.0, 3.5, 24.0, 14.5, 64.0, 0.0, 0.0, 0.0, 1.644587853956374E9, 0.0, 2022-02-12 00:57:33.956
186.0, -12396.299826657752, -11799.441194467689, -6425.791254733951, -13185.22699895227, -9167.277415666273, -5314.931907049645, -9148.770171257278, -6403.104234111815, -11242.659240085988, -13794.624959781762, -9769.902797925806, -8101.1439086370365, -7564.098544609374, -10405.117023601179, -11807.688988171696, -16680.77161082883, 0.005, 0.235, 0.9440000000000001, 192.0, 0.0, 0.0, 0.0, 0.0, 0.0, 0.0, 0.0, 0.0, 0.0, 1.644587853964383E9, 0.0, 2022-02-12 00:57:33.964
188.0, -12406.089890729178, -11820.675351700229, -6424.405446577722, -13204.337740461558, -9179.883799539066, -5324.274936231964, -9144.90331946651, -6411.664952238197, -11258.730144349354, -13799.050605183913, -9757.877559408851, -8089.0516148867155, -7564.009137631552, -10390.566037960773, -11811.689950429196, -16735.73455044443, 0.005, 0.235, 0.9440000000000001, 192.0, 0.0, 0.0, 0.0, 0.0, 0.0, 0.0, 0.0, 0.0, 0.0, 1.644587853972361E9, 0.0, 2022-02-12 00:57:33.972
190.0, -12415.678789100504, -11811.019398095537, -6435.357801360822, -13192.915999044895, -9175.011119247809, -5325.124302521265, -9151.251214891818, -6412.424911549677, -11255.958528036897, -13803.163326163689, -9774.037870650038, -8111.6492285310305, -7563.942082398186, -10404.267657311877, -11815.556802219964, -16707.034910563816, 0.005, 0.235, 0.9440000000000001, 192.0, 0.0, 0.0, 0.0, 0.0, 0.0, 0.0, 0.0, 0.0, 0.0, 1.64458785397851E9, 0.0, 2022-02-12 00:57:33.978
192.0, -12404.771137806314, -11806.258476526556, -6426.215937878602, -13200.739109604254, -9177.045127993242, -5324.0067152985, -9154.738087026846, -6412.380208060767, -11259.579510638656, -13800.704634273605, -9772.02621364906, -8104.563725538698, -7542.171483298717, -10404.49117475643, -11815.042712097493, -16712.48873621091, 0.005, 0.235, 0.9440000000000001, 192.0, 0.0, 0.0, 0.0, 0.0, 0.0, 0.0, 0.0, 0.0, 0.0, 1.644587853986037E9, 0.0, 2022-02-12 00:57:33.986
194.0, -12417.981018779401, -11813.81336615245, -6440.811627007917, -13208.651627141433, -9181.493125139848, -5335.808436370902, -9158.627290562068, -6418.146958130236, -11262.306423462203, -13824.553945607418, -9774.194332861225, -8119.494690834844, -7583.857486707865, -10407.083977113245, -11812.069930084936, -16747.4021610501, 0.0055, 0.2345, 0.9410000000000001, 192.0, 0.0, 24.0, 3.5, 40.0, 14.5, 40.0, 0.0, 0.0, 0.0, 1.644587853994008E9, 0.0, 2022-02-12 00:57:33.994
196.0, -12422.02668452581, -11828.565517492952, -6436.60949905032, -13202.460193927313, -9174.787601803257, -5329.974631068067, -9153.374630615072, -6420.024504664481, -11263.08873451814, -13807.92424773267, -9789.639388279842, -8123.026266458782, -7578.917751183242, -10413.454224283007, -11812.494613229586, -16694.763802857855, 0.0055, 0.2345, 0.9410000000000001, 192.0, 0.0, 0.0, 0.0, 0.0, 0.0, 0.0, 0.0, 0.0, 0.0, 1.644587854002073E9, 0.0, 2022-02-12 00:57:34.002
198.0, -12411.186088464987, -11830.063084371459, -6435.871891483294, -13217.257048756725, -9182.811878062712, -5334.020296814478, -9147.943156712432, -6423.533728543965, -11278.243217258838, -13822.050550228423, -9781.302187598014, -8101.166260381492, -7578.157791871762, -10409.140337603134, -11813.589848707898, -16750.73257097394, 0.0055, 0.2345, 0.9410000000000001, 192.0, 0.0, 0.0, 0.0, 0.0, 0.0, 0.0, 0.0, 0.0, 0.0, 1.644587854008675E9, 0.0, 2022-02-12 00:57:34.008
200.0, -12404.50291687285, -11812.092281829391, -6440.632813052275, -13203.778946850176, -9168.640872078047, -5332.746247380525, -9147.227900889862, -6425.232461122569, -11260.56298739469, -13820.888259516749, -9784.140859143838, -8110.5316413082655, -7569.26179757855, -10413.275410327366, -11813.187517307702, -16718.657817680578, 0.0055, 0.2345, 0.9410000000000001, 192.0, 0.0, 0.0, 0.0, 0.0, 0.0, 0.0, 0.0, 0.0, 0.0, 1.644587854016639E9, 0.0, 2022-02-12 00:57:34.016
202.0, -12396.679806313492, -11783.347938459867, -6422.617307021297, -13211.467946942801, -9169.445534878438, -5322.419741442173, -9139.963583941888, -6408.312190569901, -11250.594109367623, -13794.244980126023, -9791.65104528082, -8106.284809861757, -7554.576701471413, -10399.618494465172, -11810.594714950887, -16717.65198918009, 0.0055, 0.2345, 0.9410000000000001, 192.0, 0.0, 0.0, 0.0, 0.0, 0.0, 0.0, 0.0, 0.0, 0.0, 1.644587854024643E9, 0.0, 2022-02-12 00:57:34.024
204.0, -12421.60200138116, -11818.06019759896, -6433.480254826576, -13217.167641778904, -9178.72150882739, -5332.254509002508, -9146.57970030066, -6414.235402850557, -11262.619347884578, -13817.602553081817, -9769.612225247887, -8114.219679143391, -7574.425050547726, -10400.132584587644, -11811.935819618204, -16754.487664042434, 0.00475, 0.23925, 0.9445000000000001, 192.0, 0.0, 16.0, 3.5, 80.0, 14.5, 80.0, 0.0, 0.0, 0.0, 1.644587854031764E9, 0.0, 2022-02-12 00:57:34.031
206.0, -12410.180259964498, -11817.76962492104, -6426.506510556521, -13198.593342136544, -9164.349337142628, -5325.236061243541, -9141.930537453954, -6413.833071450362, -11257.70196410441, -13799.274122628465, -9782.352719587412, -8107.514155806799, -7555.850750905365, -10399.126756087155, -11814.796842908483, -16699.77059361584, 0.00475, 0.23925, 0.9445000000000001, 192.0, 0.0, 0.0, 0.0, 0.0, 0.0, 0.0, 0.0, 0.0, 0.0, 1.644587854040761E9, 0.0, 2022-02-12 00:57:34.040
208.0, -12405.620504095616, -11810.4382527397, -6425.388923333755, -13209.545696919644, -9176.978072759875, -5326.9571455666, -9137.996630429821, -6407.2169550915905, -11261.635871128545, -13803.364491863787, -9756.22353031916, -8083.262513072791, -7569.708832467656, -10391.728328672449, -11810.818232395439, -16751.000791907405, 0.00475, 0.23925, 0.9445000000000001, 192.0, 0.0, 0.0, 0.0, 0.0, 0.0, 0.0, 0.0, 0.0, 0.0, 1.644587854054493E9, 0.0, 2022-02-12 00:57:34.054
210.0, -12418.629219368604, -11823.983409879615, -6436.162464161213, -13201.879048571474, -9164.014060975798, -5324.967840310078, -9141.282336864751, -6409.876812681772, -11263.356955451603, -13814.719178047084, -9769.589873503432, -8089.073966631171, -7570.245274334583, -10400.892543899125, -11810.706473673163, -16717.383768246626, 0.00475, 0.23925, 0.9445000000000001, 192.0, 0.0, 0.0, 0.0, 0.0, 0.0, 0.0, 0.0, 0.0, 0.0, 1.644587854060873E9, 0.0, 2022-02-12 00:57:34.060
212.0, -12402.558315105238, -11817.836680154405, -6418.236365108057, -13212.04909229864, -9161.555369085714, -5321.905651319701, -9136.14143564003, -6406.568754502387, -11262.239368228838, -13810.986436723048, -9773.434373549744, -8110.643400030542, -7545.7924659004775, -10400.557267732294, -11805.252648026068, -16714.88037286763, 0.00475, 0.23925, 0.9445000000000001, 192.0, 0.0, 0.0, 0.0, 0.0, 0.0, 0.0, 0.0, 0.0, 0.0, 1.64458785406903E9, 0.0, 2022-02-12 00:57:34.069
214.0, -12398.40089063655, -11816.093244086891, -6433.569661804398, -13216.608848167522, -9166.696270310435, -5324.409046698695, -9139.918880452977, -6409.854460937317, -11263.580472896156, -13818.83189902686, -9779.5587515305, -8095.533620778754, -7575.006195903564, -10394.924628129558, -11805.230296281612, -16749.88320468464, 0.005375, 0.24162499999999998, 0.9472500000000001, 192.0, 0.0, 24.0, 3.5, 80.0, 14.5, 88.0, 0.0, 0.0, 0.0, 1.644587854077212E9, 0.0, 2022-02-12 00:57:34.077
216.0, -12414.225925710909, -11802.168107291236, -6423.019638421493, -13206.192935251349, -9155.632156805057, -5317.032971028444, -9130.888775693033, -6405.3617603018, -11245.69907733191, -13794.356738848299, -9779.782268975052, -8111.6492285310305, -7563.360937042348, -10400.467860754474, -11807.756043405063, -16698.094212781692, 0.005375, 0.24162499999999998, 0.9472500000000001, 192.0, 0.0, 0.0, 0.0, 0.0, 0.0, 0.0, 0.0, 0.0, 0.0, 1.644587854084067E9, 0.0, 2022-02-12 00:57:34.084
218.0, -12411.163736720531, -11799.62000842333, -6420.002152920027, -13215.960647578318, -9166.495104610338, -5313.948430293612, -9127.781883213745, -6401.718425955585, -11261.390001939537, -13792.814468480883, -9772.070917137971, -8099.579286525165, -7550.463980491636, -10387.190924548022, -11802.592790435887, -16748.586803506234, 0.005375, 0.24162499999999998, 0.9472500000000001, 192.0, 0.0, 0.0, 0.0, 0.0, 0.0, 0.0, 0.0, 0.0, 0.0, 1.644587854091588E9, 0.0, 2022-02-12 00:57:34.091
220.0, -12411.499012887361, -11817.948438876681, -6432.9885164485595, -13202.907228816419, -9165.757497043312, -5318.217613484575, -9132.542804782726, -6408.178080103169, -11255.08681000314, -13816.64142807024, -9768.092306624927, -8098.953437680417, -7559.0023468735635, -10395.841049652225, -11809.72299691713, -16719.73070141443, 0.005375, 0.24162499999999998, 0.9472500000000001, 192.0, 0.0, 0.0, 0.0, 0.0, 0.0, 0.0, 0.0, 0.0, 0.0, 1.644587854099653E9, 0.0, 2022-02-12 00:57:34.099
222.0, -12393.662320812025, -11821.569421478442, -6424.0031151775265, -13207.645798640944, -9164.841075520644, -5321.2350989860415, -9126.61959250207, -6407.0381411359485, -11252.762228579788, -13807.857192499303, -9756.804675674997, -8097.992312668838, -7543.6243466883125, -10396.10927058569, -11812.874592885328, -16718.948390358495, 0.005375, 0.24162499999999998, 0.9472500000000001, 192.0, 0.0, 0.0, 0.0, 0.0, 0.0, 0.0, 0.0, 0.0, 0.0, 1.644587854106626E9, 0.0, 2022-02-12 00:57:34.106
224.0, -12408.481527385895, -11806.593752693387, -6430.619231536297, -13218.106415046028, -9173.826476791677, -5330.645183401726, -9141.058819420197, -6419.935097686661, -11272.498818933824, -13809.175945422166, -9771.5568270155, -8103.624952271575, -7571.921655168731, -10402.300703799809, -11812.740482418596, -16761.394353079122, 0.0066875, 0.23981249999999998, 0.9476250000000002, 192.0, 0.0, 32.0, 3.5, 56.0, 14.5, 80.0, 0.0, 0.0, 0.0, 1.644587854114715E9, 0.0, 2022-02-12 00:57:34.114
226.0, -12406.425166896006, -11812.516964974042, -6426.46180706761, -13208.428109696879, -9165.086944709652, -5331.651011902215, -9138.220147874374, -6426.752379745529, -11257.478446659858, -13796.323692360365, -9780.497524797622, -8103.669655760486, -7571.027585390519, -10402.814793922282, -11816.897906887283, -16707.459593708467, 0.0066875, 0.23981249999999998, 0.9476250000000002, 192.0, 0.0, 0.0, 0.0, 0.0, 0.0, 0.0, 0.0, 0.0, 0.0, 1.644587854121205E9, 0.0, 2022-02-12 00:57:34.121
228.0, -12419.836213569191, -11831.068912871948, -6421.611478520808, -13227.42709248389, -9169.870218023088, -5332.902709591712, -9135.716752495378, -6424.1819291331685, -11264.362783952092, -13820.485928116552, -9758.749277442608, -8085.855315429607, -7566.668995221734, -10396.019863607868, -11821.792938922994, -16765.596481036722, 0.0066875, 0.23981249999999998, 0.9476250000000002, 192.0, 0.0, 0.0, 0.0, 0.0, 0.0, 0.0, 0.0, 0.0, 0.0, 1.644587854129356E9, 0.0, 2022-02-12 00:57:34.129
230.0, -12426.586440394693, -11824.139872090802, -6434.486083327065, -13217.033531312172, -9163.187046430952, -5326.487758933039, -9149.95481371341, -6414.704789484119, -11262.060554273196, -13821.089425216845, -9766.08064962395, -8103.9602284384055, -7565.663166721245, -10401.29487529932, -11821.636476711808, -16736.49450975591, 0.0066875, 0.23981249999999998, 0.9476250000000002, 192.0, 0.0, 0.0, 0.0, 0.0, 0.0, 0.0, 0.0, 0.0, 0.0, 1.644587854137342E9, 0.0, 2022-02-12 00:57:34.137
232.0, -12390.018986465811, -11809.544182961487, -6426.618269278797, -13223.202612781837, -9167.232712177361, -5319.446959429617, -9136.990801929333, -6412.626077249775, -11261.881740317553, -13803.878581986259, -9779.670510252776, -8116.119577422092, -7540.517454209024, -10398.523258986863, -11825.324514546934, -16734.393445777114, 0.0066875, 0.23981249999999998, 0.9476250000000002, 192.0, 0.0, 0.0, 0.0, 0.0, 0.0, 0.0, 0.0, 0.0, 0.0, 1.644587854143919E9, 0.0, 2022-02-12 00:57:34.143
234.0, -12416.952838534457, -11805.520868959531, -6437.660031039719, -13231.38335125248, -9174.765250058801, -5325.236061243541, -9127.915993680477, -6419.823338964384, -11267.693193875934, -13819.88243101626, -9793.193315648237, -8119.807615257218, -7572.949835413675, -10393.58352346224, -11826.978543636626, -16770.51386481689, 0.00734375, 0.23890625, 0.9448125, 192.0, 0.0, 32.0, 3.5, 56.0, 14.5, 56.0, 0.0, 0.0, 0.0, 1.644587854151743E9, 0.0, 2022-02-12 00:57:34.151
236.0, -12425.021818282821, -11849.978488681138, -6422.371437832289, -13207.75755736322, -9164.751668542824, -5325.705447877103, -9130.285278592739, -6420.3150773424, -11260.719449605876, -13802.045738940924, -9784.565542288488, -8105.547202294732, -7559.0023468735635, -10407.039273624334, -11824.698665702184, -16718.21078279147, 0.00734375, 0.23890625, 0.9448125, 192.0, 0.0, 0.0, 0.0, 0.0, 0.0, 0.0, 0.0, 0.0, 0.0, 1.644587854160174E9, 0.0, 2022-02-12 00:57:34.160
238.0, -12430.69916137447, -11837.685029230719, -6415.621211006786, -13221.70504590333, -9173.62531109158, -5326.264241488486, -9132.833377460645, -6425.478330311576, -11277.103278291617, -13832.198242211134, -9763.689012967232, -8083.396623539523, -7575.0285476480185, -10392.220067050466, -11823.737540690607, -16774.17955090756, 0.00734375, 0.23890625, 0.9448125, 192.0, 0.0, 0.0, 0.0, 0.0, 0.0, 0.0, 0.0, 0.0, 0.0, 1.644587854173661E9, 0.0, 2022-02-12 00:57:34.173
240.0, -12422.406664181552, -11808.38189224981, -6432.876757726283, -13212.630237654477, -9170.205494189919, -5323.649087387215, -9134.554461783704, -6425.724199500585, -11274.80104861272, -13817.624904826273, -9774.88723693934, -8105.390740083545, -7572.234579591105, -10391.750680416904, -11822.262325556556, -16746.128111616148, 0.00734375, 0.23890625, 0.9448125, 192.0, 0.0, 0.0, 0.0, 0.0, 0.0, 0.0, 0.0, 0.0, 0.0, 1.644587854181403E9, 0.0, 2022-02-12 00:57:34.181
