%OpenBCI Raw EEG Data
%Number of channels = 16
%Sample Rate = 125 Hz
%Board = OpenBCI_GUI$BoardCytonSerialDaisy
Sample Index, EXG Channel 0, EXG Channel 1, EXG Channel 2, EXG Channel 3, EXG Channel 4, EXG Channel 5, EXG Channel 6, EXG Channel 7, EXG Channel 8, EXG Channel 9, EXG Channel 10, EXG Channel 11, EXG Channel 12, EXG Channel 13, EXG Channel 14, EXG Channel 15, Accel Channel 0, Accel Channel 1, Accel Channel 2, Other, Other, Other, Other, Other, Other, Other, Analog Channel 0, Analog Channel 1, Analog Channel 2, Timestamp, Other, Timestamp (Formatted)
56.0, -7830.397228049902, -7953.711802209831, -5507.380426809839, -9897.039520387592, -7730.395523356859, -4774.6902435648735, -7006.802500105203, -5085.714767660471, -7632.472530898158, -10985.614178849957, -6012.865127666608, -5163.677652320583, -5432.412675906739, -8278.169724723068, -8592.055272108946, -12909.518231096057, 0.006, 0.23600000000000002, 0.936, 192.0, 0.0, 24.0, 3.5, 48.0, 14.5, 32.0, 0.0, 0.0, 0.0, 1.644587743301373E9, 0.0, 2022-02-12 00:55:43.301
58.0, -7829.413751293869, -7950.359040541535, -5505.2570110865845, -9877.99583411167, -7712.692941748255, -4770.018728973714, -6999.33701745713, -5081.423232725052, -7616.22281267915, -10964.22355940623, -6009.042979364751, -5173.73593732547, -5422.264983924029, -8282.863591058684, -8584.70154818315, -12839.06553257293, 0.006, 0.23600000000000002, 0.936, 192.0, 0.0, 0.0, 0.0, 0.0, 0.0, 0.0, 0.0, 0.0, 0.0, 1.644587743301378E9, 0.0, 2022-02-12 00:55:43.301
0.0, -5058.66915686955, -4946.843379359649, -2886.772499891818, -6144.40514378609, -4201.949143642085, -2536.431257299335, -4149.601358127757, -3000.9452105695264, -3806.9714673723543, -5487.554429477982, -2993.8373558327385, -2573.535153095145, -2709.769035550241, -4141.107695234739, -4289.612685395799, -6454.245025425556, 0.007, 0.23600000000000002, 0.9390000000000001, 192.0, 0.0, 32.0, 3.5, 48.0, 14.5, 56.0, 0.0, 0.0, 0.0, 1.644587743381666E9, 0.0, 2022-02-12 00:55:43.381
2.0, -10119.305267251166, -9875.71595617723, -5762.95027291182, -12289.659653861483, -8400.634932593695, -5068.928607574536, -8292.094861518724, -6000.549316471734, -9721.868899091352, -12783.38733713476, -7187.762223215369, -6127.909556378074, -6206.095958482738, -9259.299547588773, -10816.366769834372, -15670.919796338057, 0.007, 0.23600000000000002, 0.9390000000000001, 192.0, 0.0, 0.0, 0.0, 0.0, 0.0, 0.0, 0.0, 0.0, 0.0, 1.644587743389392E9, 0.0, 2022-02-12 00:55:43.389
4.0, -10109.269333990733, -9875.693604432774, -5762.927921167365, -12296.320473709164, -8414.42595892262, -5071.230837253433, -8303.784823868851, -6009.244145064848, -9720.63955314631, -12790.316377915906, -7179.961464400467, -6115.929021350029, -6207.593525361243, -9249.509483517348, -10821.060636169987, -15734.957544202513, 0.007, 0.23600000000000002, 0.9390000000000001, 192.0, 0.0, 0.0, 0.0, 0.0, 0.0, 0.0, 0.0, 0.0, 0.0, 1.644587743395982E9, 0.0, 2022-02-12 00:55:43.395
6.0, -10095.545362895175, -9877.347633522468, -5763.509066523203, -12284.116421236566, -8402.735996572495, -5068.168648263055, -8304.254210502411, -6011.568726488201, -9713.174070498237, -12784.169648190697, -7160.291929279796, -6128.535405222822, -6203.1231764701815, -9249.844759684178, -10825.374522849861, -15686.566017456773, 0.007, 0.23600000000000002, 0.9390000000000001, 192.0, 0.0, 0.0, 0.0, 0.0, 0.0, 0.0, 0.0, 0.0, 0.0, 1.644587743404263E9, 0.0, 2022-02-12 00:55:43.404
8.0, -10082.894275533472, -9863.668365915819, -5751.305014050605, -12298.130965010043, -8411.207307721055, -5070.202657008488, -8304.07539654677, -6006.4278252634795, -9711.363579197357, -12777.777049276478, -7164.672871193036, -6117.4265882285345, -6202.966714258995, -9254.337460319693, -10825.598040294415, -15712.896372425124, 0.01, 0.23800000000000002, 0.9500000000000001, 192.0, 0.0, 40.0, 3.5, 56.0, 14.5, 88.0, 0.0, 0.0, 0.0, 1.644587743411785E9, 0.0, 2022-02-12 00:55:43.411
10.0, -10088.929246536403, -9860.941453092271, -5770.505162537714, -12305.641151147027, -8414.962400789547, -5083.81486938177, -8314.111329807201, -6023.213985349415, -9715.878631577329, -12792.730366317079, -7172.361871285662, -6135.866777404163, -6202.318513669791, -9255.186826608995, -10826.04507518352, -15728.564945288295, 0.01, 0.23800000000000002, 0.9500000000000001, 192.0, 0.0, 0.0, 0.0, 0.0, 0.0, 0.0, 0.0, 0.0, 0.0, 1.644587743418922E9, 0.0, 2022-02-12 00:55:43.418
12.0, -10094.718348350329, -9867.870493873417, -5758.904607165409, -12292.163049240477, -8418.181051991112, -5082.00437808089, -8331.523338737887, -6033.00404942084, -9716.996218800095, -12786.226008680584, -7182.286045823818, -6128.289536033814, -6207.057083494316, -9266.40740232556, -10841.557185835503, -15692.95861637099, 0.01, 0.23800000000000002, 0.9500000000000001, 192.0, 0.0, 0.0, 0.0, 0.0, 0.0, 0.0, 0.0, 0.0, 0.0, 1.644587743426546E9, 0.0, 2022-02-12 00:55:43.426
14.0, -10102.76497635424, -9884.276674303614, -5768.649967747923, -12316.682912907949, -8442.991488336504, -5096.488308487929, -8332.193891071545, -6041.274194869304, -9733.000067830095, -12795.770203563, -7178.262731821863, -6115.929021350029, -6214.053179508827, -9267.055602914763, -10852.017802240587, -15758.560986347316, 0.01, 0.23800000000000002, 0.9500000000000001, 192.0, 0.0, 0.0, 0.0, 0.0, 0.0, 0.0, 0.0, 0.0, 0.0, 1.644587743434504E9, 0.0, 2022-02-12 00:55:43.434
16.0, -10106.520069422731, -9891.317473807034, -5774.886104450954, -12303.517735423773, -8429.312220729855, -5091.7273869189485, -8340.441684775555, -6040.983622191385, -9727.680352649732, -12796.10547972983, -7194.266580851863, -6131.195262813004, -6222.345676701746, -9270.542475049791, -10858.410401154804, -15713.499869525418, 0.006, 0.234, 0.9500000000000001, 192.0, 0.0, 8.0, 3.5, 24.0, 14.5, 88.0, 0.0, 0.0, 0.0, 1.644587743448749E9, 0.0, 2022-02-12 00:55:43.448
18.0, -10099.233400730302, -9873.704299176252, -5770.3934038154375, -12327.903488624514, -8436.263613255454, -5095.415424754075, -8336.731295195972, -6042.6376512810775, -9735.369352742357, -12792.842125039355, -7197.4181768200615, -6147.802608943297, -6221.585717390266, -9271.905931461564, -10863.528950635071, -15739.360837860208, 0.006, 0.234, 0.9500000000000001, 192.0, 0.0, 0.0, 0.0, 0.0, 0.0, 0.0, 0.0, 0.0, 0.0, 1.644587743456385E9, 0.0, 2022-02-12 00:55:43.456
20.0, -10093.62311287202, -9855.867607100918, -5783.513877810702, -12328.864613636091, -8441.33745924681, -5104.53493649184, -8343.280356321378, -6047.6891455279765, -9735.16818704226, -12778.58171207687, -7204.056644923287, -6155.26809159137, -6225.676086625587, -9276.17511465253, -10866.457029158715, -15764.864178283713, 0.006, 0.234, 0.9500000000000001, 192.0, 0.0, 0.0, 0.0, 0.0, 0.0, 0.0, 0.0, 0.0, 0.0, 1.644587743464121E9, 0.0, 2022-02-12 00:55:43.464
22.0, -10081.508467377242, -9878.554627723053, -5774.684938750856, -12309.306837237697, -8432.977906820524, -5092.710863674983, -8335.837225417761, -6033.920470943507, -9710.290695463502, -12784.86255226881, -7197.842859964712, -6134.9727076259505, -6205.268943937891, -9276.130411163618, -10867.060526259009, -15721.077110895767, 0.006, 0.234, 0.9500000000000001, 192.0, 0.0, 0.0, 0.0, 0.0, 0.0, 0.0, 0.0, 0.0, 0.0, 1.644587743471194E9, 0.0, 2022-02-12 00:55:43.471
24.0, -10134.10212208058, -9934.210471416769, -5779.043528919641, -12329.44575899193, -8451.395744251698, -5098.745834677915, -8341.581623742775, -6040.827159980197, -9744.69003018022, -12822.547593420459, -7200.23449662143, -6120.220556285448, -6221.295144712347, -9257.287890587795, -10867.507561148115, -15774.386021421675, 0.006, 0.234, 0.9500000000000001, 192.0, 0.0, 0.0, 0.0, 0.0, 0.0, 0.0, 0.0, 0.0, 0.0, 1.644587743478749E9, 0.0, 2022-02-12 00:55:43.478
26.0, -10150.731819955328, -9925.135663167914, -5781.636331276457, -12321.086206565644, -8438.610546423262, -5091.705035174494, -8340.396981286643, -6039.374296590602, -9758.011669875583, -12835.265736015528, -7211.477424082449, -6153.368193312668, -6233.230976251481, -9278.07501293123, -10872.62611062838, -15729.660180766605, 0.004, 0.234, 0.9460000000000001, 192.0, 0.0, 8.0, 3.5, 40.0, 14.5, 56.0, 0.0, 0.0, 0.0, 1.644587743486703E9, 0.0, 2022-02-12 00:55:43.486
28.0, -10133.923308124937, -9897.799479699073, -5776.629540518468, -12334.340791027642, -8446.701877916084, -5088.53108746184, -8331.612745715707, -6034.3675058326135, -9754.860073907385, -12806.230819968085, -7205.934191457533, -6146.5956147427105, -6226.301935470336, -9269.491943060391, -10872.20142748373, -15752.190739177555, 0.004, 0.234, 0.9460000000000001, 192.0, 0.0, 0.0, 0.0, 0.0, 0.0, 0.0, 0.0, 0.0, 0.0, 1.64458774349478E9, 0.0, 2022-02-12 00:55:43.494
30.0, -10160.365421815566, -9931.975296971237, -5787.492488323747, -12343.482654509862, -8450.568729706853, -5096.220087554466, -8339.771132441894, -6043.419962337013, -9766.103001368405, -12835.06457031543, -7222.385075376639, -6174.244722633925, -6232.180444262081, -9279.952559465475, -10875.308319963016, -15772.64258535416, 0.004, 0.234, 0.9460000000000001, 192.0, 0.0, 0.0, 0.0, 0.0, 0.0, 0.0, 0.0, 0.0, 0.0, 1.644587743500931E9, 0.0, 2022-02-12 00:55:43.500
32.0, -10115.326656738122, -9933.4952155942, -5781.301055109627, -12332.73146542686, -8446.947747105092, -5088.151107806099, -8334.36201028371, -6040.111904157628, -9757.899911153307, -12817.026712539997, -7242.881625042156, -6162.085373650239, -6232.605127406732, -9280.6901670325, -10880.605683398924, -15730.30838135581, 0.004, 0.234, 0.9460000000000001, 192.0, 0.0, 0.0, 0.0, 0.0, 0.0, 0.0, 0.0, 0.0, 0.0, 1.644587743508465E9, 0.0, 2022-02-12 00:55:43.508
34.0, -10156.476218280342, -9934.97043072825, -5777.948293441331, -12347.573023745183, -8461.319918789855, -5099.215221311477, -8346.499007522942, -6049.499636828857, -9764.158399600792, -12820.379474208294, -7223.614421321681, -6149.724858966453, -6242.506950200433, -9267.8379139707, -10880.382165954372, -15788.042937283868, 0.004, 0.234, 0.9460000000000001, 192.0, 0.0, 0.0, 0.0, 0.0, 0.0, 0.0, 0.0, 0.0, 0.0, 1.644587743516423E9, 0.0, 2022-02-12 00:55:43.516
36.0, -10160.097200882103, -9937.518529596155, -5781.14459289844, -12331.949154370923, -8444.109075559269, -5088.799308395303, -8341.447513276044, -6033.585194776678, -9760.939748399229, -12828.359046978838, -7224.687305055536, -6159.380812571146, -6236.360220475223, -9282.523010077835, -10884.316072978507, -15746.155768174622, 0.003, 0.23500000000000001, 0.9460000000000001, 192.0, 0.0, 8.0, 3.5, 48.0, 14.5, 72.0, 0.0, 0.0, 0.0, 1.644587743524347E9, 0.0, 2022-02-12 00:55:43.524
38.0, -10136.560813970664, -9900.571096011532, -5770.974549171276, -12338.542918985238, -8448.646479683695, -5081.28912225832, -8331.07630384878, -6026.186767361971, -9750.680297694242, -12814.7244828611, -7222.206261420997, -6151.021260144861, -6224.513795913911, -9273.559960551258, -10884.226666000684, -15758.516282858407, 0.003, 0.23500000000000001, 0.9460000000000001, 192.0, 0.0, 0.0, 0.0, 0.0, 0.0, 0.0, 0.0, 0.0, 0.0, 1.644587743531724E9, 0.0, 2022-02-12 00:55:43.531
40.0, -10147.2449478203, -9929.650715547887, -5782.083366165562, -12345.740180699848, -8449.138218061713, -5084.351311248697, -8338.050048118836, -6036.110941900128, -9759.956271643196, -12822.033503297986, -7210.873926982156, -6162.845332961719, -6224.022057535894, -9263.12169589063, -10884.003148556132, -15776.710602845027, 0.003, 0.23500000000000001, 0.9460000000000001, 192.0, 0.0, 0.0, 0.0, 0.0, 0.0, 0.0, 0.0, 0.0, 0.0, 1.644587743539212E9, 0.0, 2022-02-12 00:55:43.539
42.0, -10122.658028919463, -9913.088072906503, -5772.986206172252, -12334.921936383478, -8444.71257265956, -5080.52916294684, -8343.235652832467, -6035.887424455575, -9748.713344182175, -12795.770203563, -7225.3578573891955, -6150.328356066747, -6209.94045852905, -9271.391841339093, -10886.595950912948, -15734.845785480236, 0.003, 0.23500000000000001, 0.9460000000000001, 192.0, 0.0, 0.0, 0.0, 0.0, 0.0, 0.0, 0.0, 0.0, 0.0, 1.644587743546408E9, 0.0, 2022-02-12 00:55:43.546
44.0, -10109.023464801725, -9929.24838414769, -5777.925941696875, -12349.070590623689, -8454.748505919993, -5090.408633996086, -8335.3678387842, -6037.452046567446, -9752.446085506212, -12810.835279325876, -7225.201395178008, -6141.700582706998, -6226.860729081718, -9260.26067260035, -10889.255808503129, -15793.832039097791, 0.003, 0.23500000000000001, 0.9460000000000001, 192.0, 0.0, 0.0, 0.0, 0.0, 0.0, 0.0, 0.0, 0.0, 0.0, 1.644587743554679E9, 0.0, 2022-02-12 00:55:43.554
46.0, -10140.561776228164, -9914.719750251741, -5778.507087052713, -12338.520567240783, -8440.28692725741, -5088.7322531619375, -8345.001440644437, -6046.884482727585, -9752.64725120631, -12803.526258888991, -7226.564851589782, -6161.16895212757, -6229.677048883087, -9266.474457558925, -10886.372433468394, -15753.956526989525, 0.0045000000000000005, 0.2395, 0.9490000000000001, 192.0, 0.0, 24.0, 3.5, 80.0, 14.5, 96.0, 0.0, 0.0, 0.0, 1.644587743568833E9, 0.0, 2022-02-12 00:55:43.568
48.0, -10138.86304364956, -9914.25036361818, -5768.962892170298, -12340.912203897502, -8451.462799485063, -5089.24634328441, -8343.07919062128, -6043.330555359192, -9745.271175536058, -12814.63507588328, -7208.482290325438, -6153.234082845936, -6218.255307466425, -9269.156666893563, -10892.452107960238, -15776.688251100572, 0.0045000000000000005, 0.2395, 0.9490000000000001, 192.0, 0.0, 0.0, 0.0, 0.0, 0.0, 0.0, 0.0, 0.0, 0.0, 1.644587743576037E9, 0.0, 2022-02-12 00:55:43.576
50.0, -10153.72695371234, -9939.194910430302, -5782.150421398928, -12346.477788266873, -8460.984642623025, -5097.270619543865, -8351.438743047565, -6053.142971175072, -9744.064181335472, -12835.265736015528, -7216.7300840294465, -6150.618928744666, -6219.819929578296, -9264.887483702598, -10896.989512084665, -15794.636701898182, 0.0045000000000000005, 0.2395, 0.9490000000000001, 192.0, 0.0, 0.0, 0.0, 0.0, 0.0, 0.0, 0.0, 0.0, 0.0, 1.644587743584279E9, 0.0, 2022-02-12 00:55:43.584
52.0, -10135.95731687037, -9920.397093343388, -5783.871505721987, -12342.856805665113, -8452.803904152383, -5088.307570017287, -8350.455266291532, -6047.19740714996, -9760.35860304339, -12821.54176491997, -7217.6688572965695, -6160.677213749554, -6224.826720336285, -9271.101268661174, -10900.811660386522, -15752.458960111018, 0.0045000000000000005, 0.2395, 0.9490000000000001, 192.0, 0.0, 0.0, 0.0, 0.0, 0.0, 0.0, 0.0, 0.0, 0.0, 1.644587743592167E9, 0.0, 2022-02-12 00:55:43.592
54.0, -10127.486005721808, -9921.380570099422, -5780.675206264878, -12352.512759269806, -8461.923415890147, -5099.81871841177, -8343.392115043654, -6049.253767639848, -9762.459667022189, -12813.875116571799, -7216.394807862617, -6145.142751353115, -6219.819929578296, -9269.60370178267, -10900.163459797319, -15809.277094516408, 0.0045000000000000005, 0.2395, 0.9490000000000001, 192.0, 0.0, 0.0, 0.0, 0.0, 0.0, 0.0, 0.0, 0.0, 0.0, 1.644587743598877E9, 0.0, 2022-02-12 00:55:43.598
56.0, -10146.06030536417, -9905.15320362487, -5792.43222384837, -12349.785846446259, -8453.832084397327, -5096.130680576644, -8351.595205258753, -6050.818389751719, -9764.35956530089, -12821.564116664424, -7230.2305376804525, -6158.129114881649, -6225.161996503115, -9272.844704728688, -10907.137204067374, -15768.261643440921, 0.00525, 0.23775000000000002, 0.9485000000000001, 192.0, 0.0, 24.0, 3.5, 48.0, 14.5, 80.0, 0.0, 0.0, 0.0, 1.644587743606746E9, 0.0, 2022-02-12 00:55:43.606
58.0, -10148.72016295435, -9936.266831906656, -5779.848191720032, -12359.218282606398, -8461.38697402322, -5100.556325978795, -8350.008231402426, -6055.221683409415, -9758.145780342315, -12818.01018929603, -7224.553194588804, -6169.3720423426685, -6213.986124275461, -9262.674661001523, -10908.746529668157, -15786.902998316647, 0.00525, 0.23775000000000002, 0.9485000000000001, 192.0, 0.0, 0.0, 0.0, 0.0, 0.0, 0.0, 0.0, 0.0, 0.0, 1.644587743614753E9, 0.0, 2022-02-12 00:55:43.614
60.0, -10157.549102014196, -9950.72841056924, -5784.318540611093, -12360.335869829163, -8465.879674658738, -5102.098596346212, -8362.636967019675, -6058.619148566622, -9767.444106035722, -12842.239480285583, -7222.742703287924, -6166.5557225412995, -6240.8082176218295, -9269.000204682376, -10908.545363968058, -15807.868934615724, 0.00525, 0.23775000000000002, 0.9485000000000001, 192.0, 0.0, 0.0, 0.0, 0.0, 0.0, 0.0, 0.0, 0.0, 0.0, 1.64458774362084E9, 0.0, 2022-02-12 00:55:43.620
62.0, -10145.81443617516, -9928.264907391656, -5782.016310932197, -12354.256195337319, -8455.262596042467, -5092.7779189083485, -8354.679745993584, -6055.5569595762445, -9744.198291802204, -12820.737102119578, -7238.8583110402005, -6164.298196351314, -6230.973450061495, -9267.815562226244, -10908.344198267961, -15759.924442759091, 0.00525, 0.23775000000000002, 0.9485000000000001, 192.0, 0.0, 0.0, 0.0, 0.0, 0.0, 0.0, 0.0, 0.0, 0.0, 1.644587743628628E9, 0.0, 2022-02-12 00:55:43.628
64.0, -10144.2945175522, -9929.538956825609, -5788.9453517133425, -12367.35431758813, -8469.970043894058, -5095.258962542887, -8358.904225695638, -6055.758125276342, -9764.471324023167, -12838.976125595109, -7209.9798572039435, -6153.234082845936, -6232.247499495447, -9269.156666893563, -10908.63477094588, -15816.161431808643, 0.00525, 0.23775000000000002, 0.9485000000000001, 192.0, 0.0, 0.0, 0.0, 0.0, 0.0, 0.0, 0.0, 0.0, 0.0, 1.644587743636344E9, 0.0, 2022-02-12 00:55:43.636
66.0, -10169.909616697982, -9942.033581976126, -5794.2874186381605, -12355.083209882167, -8462.415154268165, -5091.0791863297445, -8360.89353095216, -6058.775610777809, -9759.576291987454, -12829.767206879522, -7232.063380725787, -6169.148524898115, -6230.28054598338, -9278.052661186775, -10911.071111091509, -15775.21303596652, 0.007625, 0.237875, 0.95025, 192.0, 0.0, 40.0, 3.5, 56.0, 14.5, 96.0, 0.0, 0.0, 0.0, 1.644587743644265E9, 0.0, 2022-02-12 00:55:43.644
68.0, -10150.105971110579, -9946.123951211448, -5778.484735308259, -12360.738201229358, -8465.589101980819, -5085.267732771365, -8352.51162678142, -6057.300395643759, -9754.658908207288, -12820.558288163935, -7226.073113211765, -6155.8715886916625, -6232.336906473268, -9268.754335493366, -10910.668779691314, -15787.662957628127, 0.007625, 0.237875, 0.95025, 192.0, 0.0, 0.0, 0.0, 0.0, 0.0, 0.0, 0.0, 0.0, 0.0, 1.644587743651017E9, 0.0, 2022-02-12 00:55:43.651
70.0, -10173.105916155091, -9947.420352389856, -5789.079462180074, -12371.221169378898, -8465.946729892103, -5086.139450805122, -8353.60686225973, -6051.041907196272, -9761.520893755067, -12825.028637054997, -7220.060493953288, -6162.845332961719, -6231.845168095251, -9263.032288912807, -10908.25479129014, -15810.059405572345, 0.007625, 0.237875, 0.95025, 192.0, 0.0, 0.0, 0.0, 0.0, 0.0, 0.0, 0.0, 0.0, 0.0, 1.644587743660343E9, 0.0, 2022-02-12 00:55:43.660
72.0, -10152.63171823403, -9944.671087821853, -5787.0678051790965, -12364.627404764582, -8463.353927535287, -5089.380453751141, -8342.408638287621, -6046.392744349569, -9760.515065254578, -12826.526203933503, -7243.060438997798, -6174.356481356202, -6230.571118661299, -9269.626053527123, -10905.863154633422, -15762.919576516102, 0.007625, 0.237875, 0.95025, 192.0, 0.0, 0.0, 0.0, 0.0, 0.0, 0.0, 0.0, 0.0, 0.0, 1.644587743667063E9, 0.0, 2022-02-12 00:55:43.667
74.0, -10142.193453573402, -9944.87225352195, -5788.319502868593, -12370.148285645044, -8476.340291063821, -5090.743910162915, -8349.807065702327, -6048.829084495197, -9772.383841560346, -12849.235576300094, -7239.081828484754, -6161.548931783311, -6218.143548744149, -9271.682414017012, -10909.417082001815, -15823.22458305652, 0.007625, 0.237875, 0.95025, 192.0, 0.0, 0.0, 0.0, 0.0, 0.0, 0.0, 0.0, 0.0, 0.0, 1.644587743674208E9, 0.0, 2022-02-12 00:55:43.674
76.0, -10166.802724218694, -9944.134645954926, -5790.979360458775, -12356.245500593843, -8464.136238591223, -5083.479593214941, -8352.824551203794, -6042.950575703451, -9759.375126287357, -12840.987782596087, -7240.33352617425, -6161.146600383116, -6244.965642090517, -9273.179980895518, -10913.105119836942, -15779.884550557681, 0.0068125, 0.2399375, 0.9501250000000001, 192.0, 0.0, 24.0, 3.5, 72.0, 14.5, 88.0, 0.0, 0.0, 0.0, 1.644587743681563E9, 0.0, 2022-02-12 00:55:43.681
78.0, -10152.229386833833, -9942.950003498794, -5784.184430144362, -12361.699326240938, -8462.795133923904, -5078.316340245765, -8336.798350429339, -6038.077895412194, -9760.760934443586, -12833.902279603753, -7225.71548530048, -6155.469257291467, -6229.319420971802, -9264.59691102468, -10913.194526814763, -15791.440402441074, 0.0068125, 0.2399375, 0.9501250000000001, 192.0, 0.0, 0.0, 0.0, 0.0, 0.0, 0.0, 0.0, 0.0, 0.0, 1.644587743696653E9, 0.0, 2022-02-12 00:55:43.696
80.0, -10158.934910170427, -9942.72648605424, -5784.631465033468, -12368.717773999904, -8462.19163682361, -5081.937322847524, -8346.99074590096, -6049.879616484597, -9759.822161176464, -12836.249212771561, -7224.955525988999, -6164.074678906761, -6229.364124460712, -9255.387992309094, -10909.707654679734, -15815.982617853, 0.0068125, 0.2399375, 0.9501250000000001, 192.0, 0.0, 0.0, 0.0, 0.0, 0.0, 0.0, 0.0, 0.0, 0.0, 1.644587743703994E9, 0.0, 2022-02-12 00:55:43.703
82.0, -10150.038915877214, -9934.366933627956, -5788.386558101959, -12366.661413510015, -8458.43654375512, -5076.617607667161, -8350.723487224996, -6057.546264832767, -9746.478169736645, -12809.717692103111, -7227.458921367994, -6168.500324308911, -6223.396208691145, -9254.7844952088, -10913.775672170601, -15773.916634788113, 0.0068125, 0.2399375, 0.9501250000000001, 192.0, 0.0, 0.0, 0.0, 0.0, 0.0, 0.0, 0.0, 0.0, 0.0, 1.64458774371133E9, 0.0, 2022-02-12 00:55:43.711
84.0, -10174.312910355677, -9953.902358281894, -5792.007540703719, -12383.961663718423, -8476.29558757491, -5088.776956650849, -8353.718620982007, -6053.254729897348, -9777.591798018431, -12841.993611096575, -7239.819436051779, -6168.36621384218, -6231.241670994958, -9257.801980710266, -10918.15661408384, -15834.243993072987, 0.0068125, 0.2399375, 0.9501250000000001, 192.0, 0.0, 0.0, 0.0, 0.0, 0.0, 0.0, 0.0, 0.0, 0.0, 1.644587743719152E9, 0.0, 2022-02-12 00:55:43.719
86.0, -10183.119497671069, -9965.324099698557, -5797.1037384395295, -12364.090962897655, -8469.992395638514, -5085.468898471463, -8351.03641164737, -6044.336383859681, -9774.149629372314, -12841.926555863209, -7242.658107597603, -6171.115478410182, -6239.243595509958, -9268.709632004457, -10916.524936738604, -15795.039033298379, 0.0064062500000000005, 0.23996875, 0.9500625, 192.0, 0.0, 24.0, 3.5, 64.0, 14.5, 88.0, 0.0, 0.0, 0.0, 1.644587743726364E9, 0.0, 2022-02-12 00:55:43.726
88.0, -10176.995119690315, -9973.773059102663, -5787.738357512755, -12371.422335078996, -8471.132334605734, -5077.131697789633, -8341.089885364758, -6040.9389187024735, -9778.418812563279, -12839.333753506393, -7242.076962241765, -6168.142696397626, -6222.23391797947, -9265.245111613884, -10917.798986172556, -15805.052614814356, 0.0064062500000000005, 0.23996875, 0.9500625, 192.0, 0.0, 0.0, 0.0, 0.0, 0.0, 0.0, 0.0, 0.0, 0.0, 1.644587743733728E9, 0.0, 2022-02-12 00:55:43.733
90.0, -10187.366329117576, -9972.320195713068, -5792.499279081736, -12375.110372914121, -8476.519105019463, -5078.182229779033, -8356.266719849911, -6046.616261794122, -9774.283739839047, -12849.704962933656, -7234.209148193497, -6158.5537980263, -6232.560423917821, -9253.935128919498, -10918.626000717402, -15830.80182442687, 0.0064062500000000005, 0.23996875, 0.9500625, 192.0, 0.0, 0.0, 0.0, 0.0, 0.0, 0.0, 0.0, 0.0, 0.0, 1.644587743741867E9, 0.0, 2022-02-12 00:55:43.741
92.0, -10162.779410216739, -9934.433988861321, -5784.0726714220855, -12363.889797197557, -8465.544398491907, -5069.554456419284, -8355.41735356061, -6036.848549467153, -9768.628748491854, -12824.626305654801, -7232.800988292813, -6162.353594583702, -6234.750894874442, -9254.717439975433, -10919.631829217891, -15778.588149379273, 0.0064062500000000005, 0.23996875, 0.9500625, 192.0, 0.0, 0.0, 0.0, 0.0, 0.0, 0.0, 0.0, 0.0, 0.0, 1.644587743748752E9, 0.0, 2022-02-12 00:55:43.748
94.0, -10163.002927661291, -9954.081172237537, -5775.243732362239, -12387.873218998102, -8477.055546886391, -5079.031596068335, -8345.962565656015, -6046.549206560756, -9775.513085784089, -12826.615610911324, -7229.984668491444, -6163.717050995476, -6230.079380283282, -9251.789361451789, -10918.424835017304, -15834.534565750906, 0.0064062500000000005, 0.23996875, 0.9500625, 192.0, 0.0, 0.0, 0.0, 0.0, 0.0, 0.0, 0.0, 0.0, 0.0, 1.64458774375599E9, 0.0, 2022-02-12 00:55:43.755
96.0, -10173.888227211026, -9960.809047318584, -5785.212610389306, -12379.603073549639, -8472.473439273053, -5079.568037935262, -8361.541731541363, -6053.925282231007, -9776.787135218041, -12836.852709871855, -7242.881625042156, -6176.010510445894, -6231.778112861885, -9256.97496616542, -10921.218803074218, -15802.549219435361, 0.006, 0.23800000000000002, 0.9500000000000001, 192.0, 0.0, 24.0, 3.5, 56.0, 14.5, 88.0, 0.0, 0.0, 0.0, 1.644587743763383E9, 0.0, 2022-02-12 00:55:43.763
98.0, -10180.72786101435, -9965.234692720735, -5773.232075361261, -12385.012195707823, -8473.032232884436, -5078.5175059458625, -8342.36393479871, -6037.452046567446, -9774.775478217063, -12835.332791248893, -7229.157653946598, -6164.834638218241, -6231.465188439512, -9260.081858644708, -10925.823262432012, -15813.74744340747, 0.006, 0.23800000000000002, 0.9500000000000001, 192.0, 0.0, 0.0, 0.0, 0.0, 0.0, 0.0, 0.0, 0.0, 0.0, 1.644587743773043E9, 0.0, 2022-02-12 00:55:43.773
100.0, -10195.211791421389, -9980.88091383945, -5781.882200465465, -12389.281378898786, -8474.86507592977, -5081.5126397028735, -8355.484408793976, -6043.554072803745, -9785.526667300066, -12856.477541503615, -7224.66495331108, -6167.069812663772, -6235.086171041271, -9258.427829555016, -10925.420931031817, -15840.502481520472, 0.006, 0.23800000000000002, 0.9500000000000001, 192.0, 0.0, 0.0, 0.0, 0.0, 0.0, 0.0, 0.0, 0.0, 0.0, 1.644587743779571E9, 0.0, 2022-02-12 00:55:43.779
102.0, -10163.740535228317, -9950.817817547062, -5781.681034765367, -12381.54767531725, -8467.086668859323, -5071.834334353725, -8352.019888403403, -6040.849511724653, -9782.889161454339, -12841.390113996282, -7241.5628721192925, -6181.374929115168, -6228.961793060517, -9257.243187098884, -10927.611401988435, -15788.691137873071, 0.006, 0.23800000000000002, 0.9500000000000001, 192.0, 0.0, 0.0, 0.0, 0.0, 0.0, 0.0, 0.0, 0.0, 0.0, 1.64458774378618E9, 0.0, 2022-02-12 00:55:43.786
104.0, -10164.522846284253, -9950.326079169045, -5776.853057963021, -12389.527248087794, -8478.374299809253, -5079.009244323879, -8356.356126827732, -6043.934052459485, -9776.340100328935, -12838.529090706003, -7243.775694820368, -6168.679138264553, -6214.7460835869415, -9250.716477717933, -10929.310134567038, -15848.057371146366, 0.006, 0.23800000000000002, 0.9500000000000001, 192.0, 0.0, 0.0, 0.0, 0.0, 0.0, 0.0, 0.0, 0.0, 0.0, 1.644587743794503E9, 0.0, 2022-02-12 00:55:43.794
106.0, -10190.137945430035, -9958.797390317606, -5785.614941789501, -12381.190047405964, -8474.239227085021, -5085.647712427105, -8361.89935945265, -6051.421886852013, -9783.962045188195, -12840.674858173712, -7228.375342890661, -6169.729670253953, -6235.175578019092, -9264.060469157752, -10931.254736334651, -15812.294580017875, 0.01, 0.23, 0.9520000000000001, 192.0, 0.0, 40.0, 3.5, 24.0, 14.5, 96.0, 0.0, 0.0, 0.0, 1.644587743802144E9, 0.0, 2022-02-12 00:55:43.802
108.0, -10176.123401656558, -9976.87995158195, -5775.9142846958985, -12382.59820730665, -8481.525895777451, -5082.138488547622, -8362.435801319576, -6048.67262228401, -9789.192353390736, -12829.431930712693, -7230.856386525201, -6157.637376503632, -6219.350542944735, -9257.7349254769, -10932.931117168799, -15823.470452245529, 0.01, 0.23, 0.9520000000000001, 192.0, 0.0, 0.0, 0.0, 0.0, 0.0, 0.0, 0.0, 0.0, 0.0, 1.644587743815778E9, 0.0, 2022-02-12 00:55:43.815
110.0, -10183.54418081572, -9972.007271290693, -5780.742261498244, -12387.537942831272, -8485.482154546042, -5081.937322847524, -8367.956682200036, -6050.617224051622, -9790.019367935583, -12855.11408509184, -7233.67270632657, -6159.492571293423, -6245.055049068338, -9257.422001054527, -10936.26152709264, -15854.584080527316, 0.01, 0.23, 0.9520000000000001, 192.0, 0.0, 0.0, 0.0, 0.0, 0.0, 0.0, 0.0, 0.0, 0.0, 1.64458774382363E9, 0.0, 2022-02-12 00:55:43.823
112.0, -10172.01068067678, -9961.926634541349, -5778.037700419152, -12384.989843963367, -8478.262541086977, -5074.494191943907, -8356.199664616546, -6038.8825582125855, -9778.88819919684, -12834.237555770584, -7246.323793688273, -6181.598446559721, -6239.556519932333, -9257.77962896581, -10934.965125914232, -15798.995292066968, 0.01, 0.23, 0.9520000000000001, 192.0, 0.0, 0.0, 0.0, 0.0, 0.0, 0.0, 0.0, 0.0, 0.0, 1.644587743832093E9, 0.0, 2022-02-12 00:55:43.832
114.0, -10187.925122728959, -9974.175390502858, -5776.651892262923, -12394.936370245978, -8493.819355227872, -5085.334788004731, -8363.46398156452, -6058.686203799988, -9800.770557018586, -12849.481445489104, -7227.257755667896, -6168.857952220196, -6241.23290076648, -9258.047849899274, -10940.530710283603, -15860.037906174412, 0.01, 0.23, 0.9520000000000001, 192.0, 0.0, 0.0, 0.0, 0.0, 0.0, 0.0, 0.0, 0.0, 0.0, 1.644587743840264E9, 0.0, 2022-02-12 00:55:43.840
116.0, -10195.524715843763, -9979.092774283024, -5785.570238300591, -12381.659434039526, -8485.63861675723, -5080.037424568824, -8362.614615275219, -6044.828122237697, -9797.663664539297, -12852.25306180156, -7240.512340129893, -6178.312740124791, -6242.752819389441, -9257.578463265714, -10943.92817544081, -15825.303295290863, 0.004, 0.228, 0.9460000000000001, 192.0, 0.0, 16.0, 3.5, 16.0, 14.5, 72.0, 0.0, 0.0, 0.0, 1.64458774384659E9, 0.0, 2022-02-12 00:55:43.846
118.0, -10163.91934918396, -9960.049088007103, -5772.963854427798, -12390.488373099372, -8483.179924867145, -5075.008282066379, -8359.239501862467, -6045.409267593535, -9794.735586015653, -12842.7312186636, -7240.020601751877, -6171.562513299288, -6224.379685447179, -9251.811713196244, -10941.335373083994, -15830.734769193503, 0.004, 0.228, 0.9460000000000001, 192.0, 0.0, 0.0, 0.0, 0.0, 0.0, 0.0, 0.0, 0.0, 0.0, 1.644587743854503E9, 0.0, 2022-02-12 00:55:43.854
120.0, -10186.896942484014, -9983.764288874185, -5786.039624934152, -12391.002463221845, -8491.785346482438, -5087.569962450262, -8370.66124327913, -6047.3985728500575, -9795.160269160304, -12854.935271136197, -7242.769866319879, -6156.206864858493, -6244.272738012402, -9255.700916731468, -10941.536538784092, -15860.820217230346, 0.004, 0.228, 0.9460000000000001, 192.0, 0.0, 0.0, 0.0, 0.0, 0.0, 0.0, 0.0, 0.0, 0.0, 1.644587743861434E9, 0.0, 2022-02-12 00:55:43.861
122.0, -10207.63936133854, -9978.288111482634, -5785.749052256233, -12389.16962017651, -8486.666797002174, -5079.38922397962, -8358.099562895246, -6041.184787891482, -9797.641312794842, -12852.275413546016, -7245.116799487687, -6171.786030743841, -6239.5788716767875, -9274.40932684056, -10944.017582418632, -15809.969998594523, 0.004, 0.228, 0.9460000000000001, 192.0, 0.0, 0.0, 0.0, 0.0, 0.0, 0.0, 0.0, 0.0, 0.0, 1.64458774386804E9, 0.0, 2022-02-12 00:55:43.868
124.0, -10180.392584847521, -9969.906207311895, -5781.122241153985, -12403.251219183352, -8494.57931453935, -5079.6350931686275, -8364.603920531741, -6042.391782092069, -9807.453728610722, -12855.650526958767, -7242.3228314307735, -6177.172801157571, -6227.106598270727, -9259.187788866495, -10944.97870743021, -15864.552958554383, 0.004, 0.228, 0.9460000000000001, 192.0, 0.0, 0.0, 0.0, 0.0, 0.0, 0.0, 0.0, 0.0, 0.0, 1.644587743876158E9, 0.0, 2022-02-12 00:55:43.876
126.0, -10203.705454314406, -9987.497030198221, -5789.90647672492, -12398.736166803381, -8486.957369680093, -5077.981064078935, -8365.967376943514, -6047.666793783521, -9801.061129696505, -12856.388134525792, -7258.3490322052285, -6188.303969896313, -6237.880139098184, -9257.377297565616, -10947.079771409008, -15832.008818627457, 0.008, 0.232, 0.9520000000000001, 192.0, 0.0, 32.0, 3.5, 32.0, 14.5, 96.0, 0.0, 0.0, 0.0, 1.644587743883968E9, 0.0, 2022-02-12 00:55:43.883
128.0, -10187.612198306584, -9983.294902240623, -5782.820973732588, -12404.637027339582, -8489.72898599255, -5078.71867164596, -8359.395964073654, -6045.029287937795, -9803.944504731238, -12849.950832122664, -7255.488008914949, -6180.011472703394, -6246.485560713478, -9265.893312203087, -10949.896091210378, -15840.614240242749, 0.008, 0.232, 0.9520000000000001, 192.0, 0.0, 0.0, 0.0, 0.0, 0.0, 0.0, 0.0, 0.0, 0.0, 1.644587743891254E9, 0.0, 2022-02-12 00:55:43.891
130.0, -10201.246762424322, -9989.776908132662, -5794.421529104892, -12415.07529200021, -8498.87084947477, -5085.670064171561, -8366.481467065987, -6059.915549745029, -9812.460519368711, -12866.938157908698, -7246.4355524105495, -6176.5916558017325, -6244.51860720141, -9264.999242424876, -10951.617175533436, -15874.879464492735, 0.008, 0.232, 0.9520000000000001, 192.0, 0.0, 0.0, 0.0, 0.0, 0.0, 0.0, 0.0, 0.0, 0.0, 1.644587743898481E9, 0.0, 2022-02-12 00:55:43.898
132.0, -10194.317721643178, -9973.124858513458, -5789.504145324725, -12402.848887783157, -8485.482154546042, -5080.417404224563, -8361.60878677473, -6047.711497272432, -9812.594629835443, -12857.572776981924, -7265.501590430927, -6202.810252047808, -6246.507912457933, -9278.007957697864, -10952.779466245112, -15824.297466790375, 0.008, 0.232, 0.9520000000000001, 192.0, 0.0, 0.0, 0.0, 0.0, 0.0, 0.0, 0.0, 0.0, 0.0, 1.64458774390658E9, 0.0, 2022-02-12 00:55:43.906
134.0, -10195.748233288317, -9976.812896348583, -5787.313674368104, -12412.817765810225, -8502.447128587619, -5084.999511837901, -8369.409545589631, -6044.068162926217, -9812.102891457425, -12850.30846003395, -7268.116744532197, -6171.182533643549, -6234.437970452067, -9271.615358783647, -10955.327565113017, -15877.651080805193, 0.008, 0.232, 0.9520000000000001, 192.0, 0.0, 0.0, 0.0, 0.0, 0.0, 0.0, 0.0, 0.0, 0.0, 1.644587743914528E9, 0.0, 2022-02-12 00:55:43.914
136.0, -10203.437233380942, -9995.521306457676, -5793.214534904306, -12389.147268432054, -8483.24698010051, -5080.5738664357505, -8359.686536751573, -6042.190616391971, -9808.347798388935, -12852.186006568196, -7248.67072685608, -6176.234027890448, -6237.053124553338, -9273.492905317891, -10954.321736612528, -15841.307144320865, 0.006, 0.228, 0.9500000000000001, 192.0, 0.0, 24.0, 3.5, 16.0, 14.5, 88.0, 0.0, 0.0, 0.0, 1.644587743921317E9, 0.0, 2022-02-12 00:55:43.921
138.0, -10200.710320557395, -9987.340567987034, -5776.741299240744, -12400.747823804359, -8487.136183635734, -5079.724500146449, -8361.89935945265, -6047.376221105603, -9807.341969888446, -12853.728276935612, -7242.702811086513, -6165.572245785266, -6238.4612844540225, -9260.238320855895, -10951.527768555614, -15842.335324565807, 0.006, 0.228, 0.9500000000000001, 192.0, 0.0, 0.0, 0.0, 0.0, 0.0, 0.0, 0.0, 0.0, 0.0, 1.644587743929261E9, 0.0, 2022-02-12 00:55:43.929
140.0, -10186.584018061641, -9978.712794627285, -5791.605209303523, -12409.59911460866, -8491.070090659869, -5082.026729825346, -8372.359975857733, -6049.589043806678, -9816.506185115122, -12868.25691083156, -7243.216901208985, -6179.720900025475, -6237.544862931355, -9258.83016095521, -10952.488893567193, -15879.573330828349, 0.006, 0.228, 0.9500000000000001, 192.0, 0.0, 0.0, 0.0, 0.0, 0.0, 0.0, 0.0, 0.0, 0.0, 1.644587743944112E9, 0.0, 2022-02-12 00:55:43.944
142.0, -10186.136983172535, -9981.819687106572, -5782.083366165562, -12394.39992837905, -8481.123564377256, -5077.265808256365, -8362.927539697594, -6044.2246251374045, -9812.259353668613, -12856.611651970346, -7257.052631026821, -6184.884152994651, -6232.538072173366, -9265.78155348081, -10953.807646490055, -15824.364522023741, 0.006, 0.228, 0.9500000000000001, 192.0, 0.0, 0.0, 0.0, 0.0, 0.0, 0.0, 0.0, 0.0, 0.0, 1.644587743950912E9, 0.0, 2022-02-12 00:55:43.950
144.0, -10208.980466005858, -9999.991655348738, -5781.323406854082, -12409.397948908561, -8495.54043955093, -5078.293988501309, -8373.32110086931, -6049.00789845084, -9822.787025307063, -12870.134457365806, -7243.887453542645, -6173.976501700462, -6233.856825096229, -9260.461838300447, -10953.204149389763, -15877.13699068272, 0.006, 0.228, 0.9500000000000001, 192.0, 0.0, 0.0, 0.0, 0.0, 0.0, 0.0, 0.0, 0.0, 0.0, 1.644587743958868E9, 0.0, 2022-02-12 00:55:43.958
146.0, -10208.131099716556, -9992.839097123038, -5793.86273549351, -12403.139460461076, -8480.63182599924, -5077.109346045178, -8365.028603676392, -6044.157569904038, -9811.119414701392, -12868.21220734265, -7249.944776290033, -6177.552780813311, -6224.826720336285, -9264.954538935965, -10954.679364523812, -15847.632688001715, 0.002, 0.234, 0.9500000000000001, 192.0, 0.0, 8.0, 3.5, 40.0, 14.5, 88.0, 0.0, 0.0, 0.0, 1.644587743966981E9, 0.0, 2022-02-12 00:55:43.966
148.0, -10191.277884397256, -9969.235654978234, -5775.489601551247, -12411.901344287557, -8482.934055678137, -5076.52820068934, -8355.015022160414, -6035.261575610826, -9802.581048319465, -12850.084942589396, -7264.026375296877, -6186.225257661969, -6245.859711868729, -9271.481248316913, -10954.433495334804, -15850.627821758728, 0.002, 0.234, 0.9500000000000001, 192.0, 0.0, 0.0, 0.0, 0.0, 0.0, 0.0, 0.0, 0.0, 0.0, 1.644587743973491E9, 0.0, 2022-02-12 00:55:43.973
150.0, -10210.567439862185, -9993.196725034324, -5792.834555248565, -12415.298809444763, -8488.499640047508, -5087.189982794522, -8362.100525152746, -6053.277081641803, -9820.32833341698, -12863.227768329118, -7243.283956442351, -6174.200019145014, -6238.528339687388, -9266.854437214666, -10952.399486589371, -15889.229284433042, 0.002, 0.234, 0.9500000000000001, 192.0, 0.0, 0.0, 0.0, 0.0, 0.0, 0.0, 0.0, 0.0, 0.0, 1.644587743981462E9, 0.0, 2022-02-12 00:55:43.981
152.0, -10198.25162866731, -9995.007216335203, -5782.038662676652, -12404.592323850671, -8475.021538140958, -5080.3950524801085, -8348.912995924115, -6041.095380913661, -9819.098987471938, -12866.938157908698, -7257.745535104935, -6186.359368128702, -6225.251403480936, -9272.8894082176, -10954.03116393461, -15843.430560044118, 0.002, 0.234, 0.9500000000000001, 192.0, 0.0, 0.0, 0.0, 0.0, 0.0, 0.0, 0.0, 0.0, 0.0, 1.644587743989528E9, 0.0, 2022-02-12 00:55:43.989
154.0, -10180.549047058708, -9982.959626073793, -5782.396290587937, -12416.751672834358, -8487.650273758207, -5079.255113512888, -8356.400830316643, -6036.267404111315, -9812.505222857622, -12856.477541503615, -7249.34127918974, -6175.183495901048, -6228.760627360419, -9259.321899333227, -10952.243024378184, -15893.878447279747, 0.002, 0.234, 0.9500000000000001, 192.0, 0.0, 0.0, 0.0, 0.0, 0.0, 0.0, 0.0, 0.0, 0.0, 1.644587743996621E9, 0.0, 2022-02-12 00:55:43.996
156.0, -10231.779245350272, -9998.516440214687, -5794.198011660339, -12408.727396574903, -8487.24794235801, -5079.009244323879, -8371.3764991017, -6050.0360786957835, -9821.37886540638, -12878.35989932536, -7260.204226995019, -6196.4623566225, -6237.857787353729, -9263.188751123995, -10959.462637837249, -15864.374144598742, 0.004, 0.23600000000000002, 0.9460000000000001, 192.0, 0.0, 16.0, 3.5, 48.0, 14.5, 72.0, 0.0, 0.0, 0.0, 1.644587744003101E9, 0.0, 2022-02-12 00:55:44.003
158.0, -10208.444024138931, -10004.21613505079, -5784.229133633272, -12414.181222221998, -8478.374299809253, -5072.7060523874825, -8353.942138426559, -6041.296546613758, -9830.744246333152, -12864.278300318516, -7258.214921738497, -6180.972597714973, -6232.627479151187, -9265.423925569527, -10960.289652382095, -15863.390667842707, 0.004, 0.23600000000000002, 0.9460000000000001, 192.0, 0.0, 0.0, 0.0, 0.0, 0.0, 0.0, 0.0, 0.0, 0.0, 1.644587744011402E9, 0.0, 2022-02-12 00:55:44.011
160.0, -10220.089283000147, -10004.998446106727, -5794.376825615982, -12424.038341526788, -8481.928227177648, -5082.272599014354, -8356.84786520575, -6047.085648427684, -9834.253470212636, -12867.54165500899, -7253.6551658696135, -6174.155315656104, -6238.908319343129, -9267.636748270601, -10955.484027324204, -15902.662682850681, 0.004, 0.23600000000000002, 0.9460000000000001, 192.0, 0.0, 0.0, 0.0, 0.0, 0.0, 0.0, 0.0, 0.0, 0.0, 1.644587744019108E9, 0.0, 2022-02-12 00:55:44.019
162.0, -10215.39541666453, -9994.493126212732, -5795.427357605381, -12415.74584433387, -8476.563808508374, -5073.667177399061, -8354.836208204772, -6037.4743983119015, -9823.748150318641, -12867.921634664732, -7262.327642718273, -6195.277714166369, -6233.499197184944, -9276.197466396985, -10959.97672795972, -15850.337249080809, 0.004, 0.23600000000000002, 0.9460000000000001, 192.0, 0.0, 0.0, 0.0, 0.0, 0.0, 0.0, 0.0, 0.0, 0.0, 1.644587744026291E9, 0.0, 2022-02-12 00:55:44.026
164.0, -10215.663637597996, -10010.78754792065, -5801.082348952574, -12430.073312529721, -8492.545305793918, -5084.775994393349, -8362.279339108389, -6055.445200853968, -9829.559603877022, -12879.857466203865, -7244.334488431751, -6182.60427506021, -6237.90249084264, -9255.231530097906, -10961.608405304958, -15902.90855203969, -0.002, 0.242, 0.9470000000000001, 192.0, 127.5, 96.0, 3.5, 96.0, 14.5, 80.0, 0.0, 0.0, 0.0, 1.644587744033756E9, 0.0, 2022-02-12 00:55:44.033
166.0, -10227.085379014658, -10012.173356076879, -5812.392331646959, -12422.049036270266, -8496.233343629045, -5091.146241563111, -8370.102449667746, -6051.377183363103, -9832.80060682304, -12882.02558541603, -7272.587093423259, -6195.635342077654, -6228.335944215768, -9268.307300604261, -10965.45290535127, -15874.924167981646, -0.002, 0.242, 0.9470000000000001, 192.0, 0.0, 0.0, 0.0, 0.0, 0.0, 0.0, 0.0, 0.0, 0.0, 1.644587744041739E9, 0.0, 2022-02-12 00:55:44.041
168.0, -10211.2603439403, -9996.482431469254, -5795.4050058609255, -12429.492167173883, -8497.127413407256, -5086.094747316211, -8373.075231680303, -6053.6794130419985, -9836.153368491337, -12864.25594857406, -7268.496724187938, -6197.669350823087, -6240.182368777081, -9273.895236718088, -10968.626853063925, -15875.974699971046, -0.002, 0.242, 0.9470000000000001, 192.0, 0.0, 0.0, 0.0, 0.0, 0.0, 0.0, 0.0, 0.0, 0.0, 1.644587744049814E9, 0.0, 2022-02-12 00:55:44.049
170.0, -10240.474073943386, -10027.171376606391, -5801.14940418594, -12432.017914297334, -8497.999131441013, -5092.397939252608, -8366.839094977271, -6061.502523601356, -9832.644144611853, -12880.080983648419, -7247.776657077869, -6181.263170392892, -6237.254290253436, -9267.54734129278, -10966.928120485321, -15914.129127756254, -0.002, 0.242, 0.9470000000000001, 192.0, 0.0, 0.0, 0.0, 0.0, 0.0, 0.0, 0.0, 0.0, 0.0, 1.644587744063309E9, 0.0, 2022-02-12 00:55:44.063
172.0, -10242.865710600105, -10009.580553720065, -5801.082348952574, -12424.932411305, -8491.695939504616, -5089.0228258398565, -8355.573815771797, -6058.999128222362, -9830.923060288795, -12893.044995432496, -7256.2926717153405, -6197.244667678437, -6244.630365923687, -9276.532742563813, -10971.554931587569, -15861.446066075096, -0.002, 0.242, 0.9470000000000001, 192.0, 0.0, 0.0, 0.0, 0.0, 0.0, 0.0, 0.0, 0.0, 0.0, 1.644587744071967E9, 0.0, 2022-02-12 00:55:44.071
174.0, -10222.637381868051, -10015.816690423095, -5799.540078585158, -12434.655420143059, -8503.765881510482, -5092.4873462304295, -8358.79246697336, -6060.809619523242, -9844.557624406532, -12895.749556511588, -7254.660994370102, -6193.467222865489, -6239.265947254414, -9275.303396618772, -10975.578245589524, -15918.66653188068, 0.002, 0.24, 0.9475, 192.0, 0.0, 24.0, 3.5, 56.0, 14.5, 80.0, 0.0, 0.0, 0.0, 1.644587744078453E9, 0.0, 2022-02-12 00:55:44.078
176.0, -10233.388570951054, -10020.242335825245, -5815.678038081889, -12422.093739759177, -8496.948599451614, -5089.402805495597, -8370.482429323487, -6059.759087533843, -9834.991077779661, -12891.50272506508, -7273.682328901569, -6197.915220012095, -6245.122104301704, -9271.570655294736, -10978.327510157527, -15889.832781533336, 0.002, 0.24, 0.9475, 192.0, 0.0, 0.0, 0.0, 0.0, 0.0, 0.0, 0.0, 0.0, 0.0, 1.644587744086191E9, 0.0, 2022-02-12 00:55:44.086
178.0, -10220.73748358935, -9999.902248370916, -5803.630447820478, -12430.296829974275, -8489.036081914435, -5087.05587232779, -8364.916844954116, -6059.334404389192, -9834.119359745904, -12872.414335300247, -7262.43940144055, -6192.081414709261, -6238.975374576495, -9263.50167554637, -10983.021376493141, -15886.457668120584, 0.002, 0.24, 0.9475, 192.0, 0.0, 0.0, 0.0, 0.0, 0.0, 0.0, 0.0, 0.0, 0.0, 1.644587744093949E9, 0.0, 2022-02-12 00:55:44.093
180.0, -10247.291356002255, -10016.867222412495, -5811.453558379836, -12439.729266134415, -8499.58610529734, -5090.743910162915, -8377.076193937803, -6063.134200946593, -9848.268013986113, -12887.5911697854, -7243.172197720075, -6202.922010770084, -6239.891796099162, -9267.480286059414, -10984.049556738086, -15927.093139540333, 0.002, 0.24, 0.9475, 192.0, 0.0, 0.0, 0.0, 0.0, 0.0, 0.0, 0.0, 0.0, 0.0, 1.644587744102301E9, 0.0, 2022-02-12 00:55:44.102
182.0, -10214.121367230578, -10018.856527669017, -5803.071654209096, -12426.98877179489, -8482.77759346695, -5080.082128057734, -8365.98972868797, -6056.719250287921, -9843.28357497258, -12885.601864528879, -7268.586131165759, -6196.819984533785, -6243.75864788993, -9267.50263780387, -10982.104954970475, -15870.699688279592, 0.002, 0.24, 0.9475, 192.0, 0.0, 0.0, 0.0, 0.0, 0.0, 0.0, 0.0, 0.0, 0.0, 1.644587744108644E9, 0.0, 2022-02-12 00:55:44.108
184.0, -10242.016344310803, -10028.4677777848, -5800.747072785744, -12435.527138176816, -8496.166288395678, -5084.016035081868, -8370.974167701503, -6054.126447931105, -9841.160159249326, -12890.139268653307, -7254.348069947729, -6177.016338946383, -6235.890833841662, -9257.7349254769, -10979.176876446829, -15921.996941804522, -0.002, 0.243, 0.94675, 192.0, 127.5, 104.0, 3.5, 88.0, 14.5, 72.0, 0.0, 0.0, 0.0, 1.644587744115702E9, 0.0, 2022-02-12 00:55:44.115
186.0, -10248.587757180663, -10022.566917248598, -5815.678038081889, -12425.446501427472, -8489.259599358988, -5083.121965303656, -8364.089830409268, -6056.920415988018, -9841.249566227147, -12890.921579709242, -7257.857293827212, -6191.7908420313415, -6231.0628570393155, -9269.40253608257, -10980.182704947318, -15894.504296124494, -0.002, 0.243, 0.94675, 192.0, 0.0, 0.0, 0.0, 0.0, 0.0, 0.0, 0.0, 0.0, 0.0, 1.64458774412374E9, 0.0, 2022-02-12 00:55:44.123
188.0, -10241.59166116615, -10001.891553627438, -5804.144537942951, -12435.638896899092, -8484.29751208991, -5080.350348991197, -8354.098600637746, -6052.025383952307, -9842.61302263892, -12873.442515545192, -7271.5589131783145, -6191.120289697682, -6237.880139098184, -9275.504562318869, -10978.528675857626, -15886.81529603187, -0.002, 0.243, 0.94675, 192.0, 0.0, 0.0, 0.0, 0.0, 0.0, 0.0, 0.0, 0.0, 0.0, 1.644587744131851E9, 0.0, 2022-02-12 00:55:44.131
190.0, -10243.156283278024, -10037.69904824484, -5804.85979376552, -12445.875995859624, -8482.308206833388, -5081.199715280499, -8352.064591892313, -6052.33830837468, -9843.976479050694, -12895.41428034476, -7258.393735694139, -6192.304932153814, -6234.415618707611, -9268.396707582082, -10976.31585315655, -15928.657761652204, -0.002, 0.243, 0.94675, 192.0, 0.0, 0.0, 0.0, 0.0, 0.0, 0.0, 0.0, 0.0, 0.0, 1.644587744138327E9, 0.0, 2022-02-12 00:55:44.138
192.0, -10231.041637783246, -10015.056731111614, -5809.263087423216, -12433.046094542276, -8475.267407329966, -5070.359119219675, -8354.545635526852, -6052.159494419038, -9830.744246333152, -12890.07221341994, -7261.76884910689, -6202.22910669197, -6235.309688485824, -9263.300509846273, -10977.925178757332, -15873.828932503337, -0.002, 0.243, 0.94675, 192.0, 0.0, 0.0, 0.0, 0.0, 0.0, 0.0, 0.0, 0.0, 0.0, 1.644587744147091E9, 0.0, 2022-02-12 00:55:44.147
194.0, -10216.378893420566, -10011.16752757639, -5799.6294855629785, -12451.888615118101, -8489.103137147802, -5073.890694843614, -8358.546597784352, -6050.371354862614, -9835.393409179856, -12888.485239563614, -7251.151770490619, -6192.841374020741, -6226.726618614986, -9253.756314963855, -10980.808553792067, -15921.81812784888, -0.005, 0.2405, 0.9453750000000001, 192.0, 127.5, 96.0, 3.5, 56.0, 14.5, 64.0, 0.0, 0.0, 0.0, 1.644587744154241E9, 0.0, 2022-02-12 00:55:44.154
196.0, -10245.704382145928, -10011.189879320846, -5807.251430422239, -12432.88963233109, -8478.687224231628, -5074.248322754899, -8349.158865113124, -6042.794113492265, -9839.304964459536, -12885.467754062147, -7252.872854813678, -6202.050292736327, -6225.251403480936, -9262.138219134597, -10980.607388091968, -15900.29339793842, -0.005, 0.2405, 0.9453750000000001, 192.0, 0.0, 0.0, 0.0, 0.0, 0.0, 0.0, 0.0, 0.0, 0.0, 1.644587744161739E9, 0.0, 2022-02-12 00:55:44.161
198.0, -10238.752989620327, -10015.995504378738, -5800.456500107825, -12433.917812576034, -8483.135221378234, -5064.726479616938, -8346.297841822845, -6038.748447745854, -9840.154330748837, -12877.510533036058, -7254.951567048021, -6197.870516523185, -6224.714961614009, -9257.511408032347, -10977.701661312778, -15889.76572629997, -0.005, 0.2405, 0.9453750000000001, 192.0, 0.0, 0.0, 0.0, 0.0, 0.0, 0.0, 0.0, 0.0, 0.0, 1.644587744168945E9, 0.0, 2022-02-12 00:55:44.168
200.0, -10249.593585681152, -10038.704876745329, -5807.899631011443, -12435.79535911028, -8482.77759346695, -5075.589427422217, -8358.904225695638, -6048.516160072823, -9839.819054582007, -12897.917675723753, -7251.241177468441, -6172.166010399582, -6238.371877476201, -9261.288852845295, -10978.551027602081, -15933.0610553099, -0.005, 0.2405, 0.9453750000000001, 192.0, 0.0, 0.0, 0.0, 0.0, 0.0, 0.0, 0.0, 0.0, 0.0, 1.644587744177E9, 0.0, 2022-02-12 00:55:44.177
202.0, -10238.104789031124, -10021.762254448206, -5800.881183252476, -12430.319181718729, -8474.01570964047, -5066.536970917818, -8357.585472772775, -6045.252805382348, -9837.539176647566, -12895.481335578124, -7259.623081639181, -6186.314664639791, -6221.071627267794, -9267.524989548325, -10983.379004404427, -15882.054374462889, -0.005, 0.2405, 0.9453750000000001, 192.0, 0.0, 0.0, 0.0, 0.0, 0.0, 0.0, 0.0, 0.0, 0.0, 1.644587744190501E9, 0.0, 2022-02-12 00:55:44.190
204.0, -10240.608184410117, -10018.297734057634, -5796.410834361414, -12449.9887168394, -8485.280988845943, -5067.945130818503, -8355.149132627146, -6045.409267593535, -9845.004659295639, -12891.256855876072, -7253.185779236052, -6199.546897357332, -6219.395246433645, -9251.610547496146, -10987.402318406383, -15936.413816978196, -0.0015, 0.23925000000000002, 0.9486875000000001, 192.0, 0.0, 8.0, 3.5, 56.0, 14.5, 96.0, 0.0, 0.0, 0.0, 1.644587744198706E9, 0.0, 2022-02-12 00:55:44.198
206.0, -10250.062972314712, -10027.663114984407, -5813.778139803188, -12440.13159753461, -8479.715404476572, -5072.460183198475, -8365.60974903223, -6055.3781456206025, -9837.986211536672, -12899.281132135528, -7265.166314264097, -6192.79667053183, -6220.043447022849, -9255.477399286914, -10987.178800961829, -15912.251581222008, -0.0015, 0.23925000000000002, 0.9486875000000001, 192.0, 0.0, 0.0, 0.0, 0.0, 0.0, 0.0, 0.0, 0.0, 0.0, 1.644587744206451E9, 0.0, 2022-02-12 00:55:44.206
208.0, -10240.250556498833, -10013.469757255287, -5806.156194943928, -12443.976097580922, -8478.553113764896, -5066.559322662273, -8356.669051250106, -6050.058430440239, -9847.418647696812, -12895.906018722775, -7249.631851867659, -6196.261190922402, -6224.402037191634, -9259.254844099862, -10991.827963808533, -15905.948389285611, -0.0015, 0.23925000000000002, 0.9486875000000001, 192.0, 0.0, 0.0, 0.0, 0.0, 0.0, 0.0, 0.0, 0.0, 0.0, 1.644587744213795E9, 0.0, 2022-02-12 00:55:44.213
210.0, -10265.440972499964, -10040.381257579476, -5810.112453712518, -12453.743809907892, -8484.141049878723, -5076.237628011421, -8360.55825478533, -6056.540436332279, -9849.407952953334, -12911.954571241686, -7251.017660023887, -6198.965752001495, -6201.625609591676, -9252.169341107528, -10988.31873992905, -15945.019238593488, -0.0015, 0.23925000000000002, 0.9486875000000001, 192.0, 0.0, 0.0, 0.0, 0.0, 0.0, 0.0, 0.0, 0.0, 0.0, 1.644587744221152E9, 0.0, 2022-02-12 00:55:44.221
212.0, -10252.78988513826, -10026.07614112808, -5810.62654383499, -12444.780760381313, -8480.944750421613, -5074.158915777078, -8372.874065980204, -6056.451029354457, -9848.357420963934, -12904.46673684916, -7272.385927723161, -6206.163013716104, -6236.8743105976955, -9270.721289005434, -10997.997045278198, -15897.18650545913, -0.0015, 0.23925000000000002, 0.9486875000000001, 192.0, 0.0, 0.0, 0.0, 0.0, 0.0, 0.0, 0.0, 0.0, 0.0, 1.644587744229195E9, 0.0, 2022-02-12 00:55:44.229
214.0, -10243.156283278024, -10018.968286391293, -5808.7713490452, -12460.292871033296, -8495.607494784295, -5079.500982701896, -8371.890589224171, -6066.062279470239, -9853.095990788459, -12906.634856061322, -7256.046802526332, -6186.426423362068, -6239.75768563243, -9264.954538935965, -11001.774490091144, -15952.194148563642, 2.5E-4, 0.239625, 0.9493437500000002, 192.0, 0.0, 8.0, 3.5, 64.0, 14.5, 88.0, 0.0, 0.0, 0.0, 1.644587744237166E9, 0.0, 2022-02-12 00:55:44.237
216.0, -10242.016344310803, -10025.405588794421, -5818.024971249696, -12451.016897084344, -8478.642520742718, -5072.884866343125, -8364.738030998473, -6061.43546836799, -9846.94926106325, -12900.17520191374, -7268.094392787742, -6210.409845162612, -6237.433104209078, -9271.257730872361, -11002.04271102461, -15930.311790741896, 2.5E-4, 0.239625, 0.9493437500000002, 192.0, 0.0, 0.0, 0.0, 0.0, 0.0, 0.0, 0.0, 0.0, 0.0, 1.644587744243275E9, 0.0, 2022-02-12 00:55:44.243
218.0, -10258.131952063079, -10026.992562650748, -5806.871450766498, -12454.168493052543, -8474.239227085021, -5069.7109186304715, -8357.630176261686, -6050.326651373703, -9847.820979097007, -12893.044995432496, -7261.00888979541, -6212.823833563785, -6223.70913311352, -9257.936091176998, -11000.61219937947, -15915.961970801589, 2.5E-4, 0.239625, 0.9493437500000002, 192.0, 0.0, 0.0, 0.0, 0.0, 0.0, 0.0, 0.0, 0.0, 0.0, 1.644587744250827E9, 0.0, 2022-02-12 00:55:44.250
220.0, -10274.672242960007, -10052.98764145227, -5812.6605525804225, -12470.41821127155, -8489.907799948192, -5081.602046680695, -8368.403717089142, -6066.419907381524, -9852.80541811054, -12936.429731420247, -7264.4510584415275, -6193.243705420936, -6225.631383136676, -9258.047849899274, -11001.886248813422, -15964.956994647622, 2.5E-4, 0.239625, 0.9493437500000002, 192.0, 0.0, 0.0, 0.0, 0.0, 0.0, 0.0, 0.0, 0.0, 0.0, 1.644587744258805E9, 0.0, 2022-02-12 00:55:44.258
222.0, -10252.3204985047, -10037.743751733751, -5816.4156456489145, -12460.494036733395, -8476.228532341544, -5077.265808256365, -8370.907112468138, -6071.717270817432, -9850.14556052036, -12916.849603277398, -7269.346090477239, -6217.294182454847, -6216.958906288017, -9273.582312295714, -11005.306065715084, -15913.905610311702, 2.5E-4, 0.239625, 0.9493437500000002, 192.0, 0.0, 0.0, 0.0, 0.0, 0.0, 0.0, 0.0, 0.0, 0.0, 1.644587744266921E9, 0.0, 2022-02-12 00:55:44.266
224.0, -10269.777210924294, -10047.332650105078, -5805.887974010465, -12477.70487996398, -8493.104099405302, -5079.121003046155, -8372.248217135455, -6067.805715537753, -9854.973537322705, -12928.070178993963, -7270.597788166737, -6202.162051458604, -6230.906394828128, -9273.7387745069, -11002.243876724706, -15961.179549834676, -0.001875, 0.2368125, 0.946671875, 192.0, 127.5, 112.0, 3.5, 40.0, 14.5, 64.0, 0.0, 0.0, 0.0, 1.644587744273314E9, 0.0, 2022-02-12 00:55:44.273
226.0, -10276.996824383357, -10043.89048145896, -5820.8189393066095, -12466.596062969693, -8485.750375479505, -5077.891657101114, -8375.936254970582, -6069.77266904982, -9862.684889159786, -12921.811690546476, -7271.178933522575, -6207.727635827975, -6248.51956945891, -9266.07212615873, -11005.976618048742, -15938.224308279076, -0.001875, 0.2368125, 0.946671875, 192.0, 0.0, 0.0, 0.0, 0.0, 0.0, 0.0, 0.0, 0.0, 0.0, 1.644587744281753E9, 0.0, 2022-02-12 00:55:44.281
228.0, -10239.043562298246, -10020.510556758709, -5816.147424715451, -12465.590234469204, -8483.291683589421, -5074.293026243809, -8364.89449320966, -6068.990357993885, -9854.705316389241, -12903.796184515499, -7269.77077362189, -6206.945324772039, -6228.85003433824, -9270.989509938898, -11010.446966939804, -15925.0591307949, -0.001875, 0.2368125, 0.946671875, 192.0, 0.0, 0.0, 0.0, 0.0, 0.0, 0.0, 0.0, 0.0, 0.0, 1.644587744289422E9, 0.0, 2022-02-12 00:55:44.289
230.0, -10268.793734168261, -10052.495903074254, -5823.1658724744175, -12480.700013720993, -8497.73091050755, -5080.998549580401, -8377.858504993737, -6081.552038377767, -9858.862740857929, -12929.590097616923, -7271.022471311388, -6219.70817085602, -6236.896662342151, -9271.257730872361, -11011.36338846247, -15973.897692429746, -0.001875, 0.2368125, 0.946671875, 192.0, 0.0, 0.0, 0.0, 0.0, 0.0, 0.0, 0.0, 0.0, 0.0, 1.644587744296479E9, 0.0, 2022-02-12 00:55:44.296
232.0, -10284.395251798065, -10058.016783954714, -5827.345648687559, -12469.524141493339, -8488.834916214337, -5069.62151165265, -8372.047051435358, -6069.3479859051695, -9860.80734262554, -12913.407434631281, -7288.188611053063, -6249.793618892863, -6240.428237966089, -9278.656158287067, -11017.510118187682, -15923.785081360948, -0.001875, 0.2368125, 0.946671875, 192.0, 0.0, 0.0, 0.0, 0.0, 0.0, 0.0, 0.0, 0.0, 0.0, 1.644587744311205E9, 0.0, 2022-02-12 00:55:44.311
234.0, -10276.281568560787, -10063.828237513095, -5829.1561399884395, -12476.90021716359, -8503.63177104375, -5071.968444820457, -8372.382327602189, -6074.466535385434, -9873.324319520512, -12923.108091724884, -7276.945683592044, -6200.642132835643, -6227.866557582207, -9267.88261745961, -11018.158318776885, -15965.87341617029, 0.008, 0.232, 0.9480000000000001, 192.0, 0.0, 32.0, 3.5, 32.0, 14.5, 80.0, 0.0, 0.0, 0.0, 1.644587744319151E9, 0.0, 2022-02-12 00:55:44.319
236.0, -10286.362205310132, -10052.920586218905, -5835.079352269096, -12463.355060023674, -8496.54626805142, -5075.790593122315, -8380.116031183725, -6082.691977344987, -9867.602272939954, -12931.400588917802, -7273.458811457016, -6204.8219090487855, -6236.5837379197765, -9270.7883442388, -11023.209813023785, -15949.869567140291, 0.008, 0.232, 0.9480000000000001, 192.0, 0.0, 0.0, 0.0, 0.0, 0.0, 0.0, 0.0, 0.0, 0.0, 1.644587744325875E9, 0.0, 2022-02-12 00:55:44.325
238.0, -10248.587757180663, -10027.529004517675, -5823.3446864300595, -12470.172342082542, -8489.77368948146, -5068.3027587297875, -8371.890589224171, -6078.311035431748, -9858.90744434684, -12907.50657409508, -7265.814514853301, -6199.725711312975, -6245.077400812794, -9272.665890773045, -11023.27686825715, -15939.34189550184, 0.008, 0.232, 0.9480000000000001, 192.0, 0.0, 0.0, 0.0, 0.0, 0.0, 0.0, 0.0, 0.0, 0.0, 1.644587744333615E9, 0.0, 2022-02-12 00:55:44.333
240.0, -10253.21456828291, -10042.169397135902, -5827.05507600964, -12479.202446842486, -8499.92138146417, -5074.181267521532, -8379.289016638877, -6088.548134392278, -9855.957014078738, -12918.391873644814, -7269.927235833077, -6220.579888889777, -6235.4214472081, -9263.479323801914, -11023.790958379623, -15983.844218712356, 0.008, 0.232, 0.9480000000000001, 192.0, 0.0, 0.0, 0.0, 0.0, 0.0, 0.0, 0.0, 0.0, 0.0, 1.644587744341949E9, 0.0, 2022-02-12 00:55:44.341
242.0, -10278.114411606122, -10068.65621431544, -5826.719799842811, -12468.98769962641, -8485.526858034951, -5070.068546541756, -8373.61167354723, -6076.254674941859, -9854.168874522315, -12915.061463720975, -7277.9515120925325, -6231.778112861885, -6230.034676794372, -9272.17415239503, -11024.617972924469, -15928.747168630025, 0.008, 0.232, 0.9480000000000001, 192.0, 0.0, 0.0, 0.0, 0.0, 0.0, 0.0, 0.0, 0.0, 0.0, 1.6445877443488E9, 0.0, 2022-02-12 00:55:44.348
244.0, -10287.189219854978, -10064.387031124477, -5822.271802696205, -12481.95171141049, -8495.942770951126, -5068.19100000751, -8371.600016546252, -6073.594817351677, -9869.748040407663, -12932.69699009621, -7262.327642718273, -6204.978371259973, -6227.218356993003, -9262.987585423898, -11026.89785085891, -15972.802456951435, 0.006, 0.232, 0.9420000000000001, 192.0, 0.0, 24.0, 3.5, 32.0, 14.5, 56.0, 0.0, 0.0, 0.0, 1.644587744356244E9, 0.0, 2022-02-12 00:55:44.356
246.0, -10294.453536802952, -10058.217949654812, -5832.039515023174, -12474.530932251328, -8494.57931453935, -5069.018014552357, -8379.758403272439, -6074.175962707515, -9875.67125268832, -12929.992429017118, -7275.693985902547, -6219.641115622654, -6239.4000577211455, -9266.83208547021, -11028.574231693057, -15954.675192198181, 0.006, 0.232, 0.9420000000000001, 192.0, 0.0, 0.0, 0.0, 0.0, 0.0, 0.0, 0.0, 0.0, 0.0, 1.644587744363513E9, 0.0, 2022-02-12 00:55:44.363
248.0, -10264.435143999475, -10029.3171440741, -5825.15517773094, -12470.149990338086, -8493.394672083221, -5064.190037750011, -8367.576702544296, -6066.062279470239, -9867.445810728766, -12919.375350400847, -7285.796974396346, -6227.441874437556, -6237.611918164721, -9268.083783159707, -11026.853147369999, -15939.140729801742, 0.006, 0.232, 0.9420000000000001, 192.0, 0.0, 0.0, 0.0, 0.0, 0.0, 0.0, 0.0, 0.0, 0.0, 1.644587744371517E9, 0.0, 2022-02-12 00:55:44.371
250.0, -10269.598396968651, -10046.639746026964, -5829.022029521708, -12488.344310324706, -8498.245000630022, -5069.845029097203, -8371.220036890512, -6075.315901674736, -9868.406935740344, -12914.07798696494, -7266.082735786765, -6215.059008009316, -6235.533205930377, -9258.83016095521, -11028.462472970781, -15985.319433846407, 0.006, 0.232, 0.9420000000000001, 192.0, 0.0, 0.0, 0.0, 0.0, 0.0, 0.0, 0.0, 0.0, 0.0, 1.644587744379638E9, 0.0, 2022-02-12 00:55:44.379
252.0, -10289.334987322687, -10080.927322021404, -5822.651782351945, -12477.995452641899, -8485.862134201781, -5064.100630772189, -8368.224903133501, -6067.537494604289, -9865.389450238878, -12927.399626660303, -7277.817401625801, -6223.776188346886, -6219.976391789483, -9270.341309349693, -11031.32349626106, -15929.283610496952, 0.006, 0.232, 0.9420000000000001, 192.0, 0.0, 0.0, 0.0, 0.0, 0.0, 0.0, 0.0, 0.0, 0.0, 1.644587744385935E9, 0.0, 2022-02-12 00:55:44.385
254.0, -10272.571178981207, -10065.951653236349, -5815.074540981596, -12493.909894694078, -8492.947637194115, -5068.258055240876, -8367.08496416628, -6070.510276616845, -9875.045403843571, -12934.283963952537, -7276.655110914125, -6214.075531253283, -6230.816987850308, -9253.35398356366, -11031.32349626106, -15978.25628259853, 0.006, 0.232, 0.9420000000000001, 192.0, 0.0, 0.0, 3.5, 56.0, 14.5, 88.0, 0.0, 0.0, 0.0, 1.644587744394328E9, 0.0, 2022-02-12 00:55:44.394
0.0, -10273.80052492625, -10053.345269363555, -5826.518634142713, -12481.929359666034, -8487.940846436126, -5060.949034803991, -8370.638891534674, -6071.516105117334, -9860.606176925443, -12927.623144104857, -7278.398546981639, -6222.390380190656, -6233.253327995936, -9256.125599876119, -11033.670429428868, -15963.370020791295, 0.006, 0.232, 0.9420000000000001, 192.0, 0.0, 0.0, 0.0, 0.0, 0.0, 0.0, 0.0, 0.0, 0.0, 1.644587744401923E9, 0.0, 2022-02-12 00:55:44.401
2.0, -10273.1746760815, -10062.196560167857, -5824.015238763719, -12488.433717302529, -8496.121584906768, -5062.580712149228, -8363.642795520163, -6071.091421972683, -9860.829694369995, -12911.775757286045, -7292.837773899767, -6218.478824910978, -6227.911261071117, -9257.869035943631, -11034.810368396089, -15947.187357805653, 0.006, 0.232, 0.9420000000000001, 192.0, 0.0, 0.0, 0.0, 0.0, 0.0, 0.0, 0.0, 0.0, 0.0, 1.644587744408879E9, 0.0, 2022-02-12 00:55:44.408
4.0, -10315.307714379755, -10057.994432210258, -5828.10560799904, -12493.351101082695, -8505.486965833541, -5070.582636664229, -8375.824496248306, -6077.305206931259, -9879.806325412552, -12937.837891320933, -7277.7726981368905, -6235.689668141565, -6248.51956945891, -9267.972024437431, -11038.699571931313, -15996.78587875198, 0.006, 0.232, 0.9420000000000001, 192.0, 0.0, 0.0, 0.0, 0.0, 0.0, 0.0, 0.0, 0.0, 0.0, 1.644587744416671E9, 0.0, 2022-02-12 00:55:44.416
6.0, -10291.212533856933, -10083.497772633764, -5834.386448190981, -12479.403612542585, -8494.713425006083, -5066.8945988291025, -8377.143249171168, -6075.1594394635495, -9872.206732297747, -12930.37240867286, -7296.235239056974, -6233.454493696034, -6236.919014086606, -9266.295643603284, -11038.587813209035, -15938.671343168182, 0.006, 0.232, 0.9420000000000001, 192.0, 0.0, 0.0, 0.0, 0.0, 0.0, 0.0, 0.0, 0.0, 0.0, 1.64458774442463E9, 0.0, 2022-02-12 00:55:44.424
8.0, -10287.166868110522, -10067.739792792772, -5816.527404371191, -12505.66691227757, -8506.001055956014, -5074.069508799256, -8383.625255063207, -6079.763898821342, -9881.169781824325, -12937.592022131923, -7276.699814403036, -6223.597374391244, -6236.248461752947, -9258.49488478838, -11040.443007998825, -15987.599311780848, 0.006, 0.23600000000000002, 0.9500000000000001, 192.0, 0.0, 24.0, 3.5, 48.0, 14.5, 88.0, 0.0, 0.0, 0.0, 1.64458774443827E9, 0.0, 2022-02-12 00:55:44.438
10.0, -10302.209592128944, -10075.920531263415, -5829.53611964418, -12497.173249384554, -8496.658026773695, -5073.689529143516, -8388.475583610008, -6080.456802899457, -9883.919046392328, -12933.881632552342, -7286.065195329809, -6227.665391882109, -6237.90249084264, -9256.237358598395, -11040.644173698924, -15980.379698321785, 0.006, 0.23600000000000002, 0.9500000000000001, 192.0, 0.0, 0.0, 0.0, 0.0, 0.0, 0.0, 0.0, 0.0, 0.0, 1.644587744446318E9, 0.0, 2022-02-12 00:55:44.446
12.0, -10288.731490222393, -10065.99635672526, -5823.858776552532, -12490.311263836773, -8499.899029719714, -5066.782840106826, -8376.249179392957, -6073.259541184848, -9880.789802168585, -12933.74752208561, -7295.229410556485, -6217.115368499204, -6228.313592471313, -9259.344251077682, -11043.058162100097, -15958.072657355387, 0.006, 0.23600000000000002, 0.9500000000000001, 192.0, 0.0, 0.0, 0.0, 0.0, 0.0, 0.0, 0.0, 0.0, 0.0, 1.644587744454653E9, 0.0, 2022-02-12 00:55:44.454
14.0, -10293.13478388009, -10066.89042650347, -5830.050209766652, -12504.459918076984, -8516.260506661, -5079.9256658465465, -8387.849734765261, -6092.929076305518, -9890.646921473375, -12951.204234505205, -7282.555971450326, -6223.530319157877, -6229.051200038338, -9252.750486463367, -11048.735505191744, -16009.50402134705, 0.006, 0.23600000000000002, 0.9500000000000001, 192.0, 0.0, 0.0, 0.0, 0.0, 0.0, 0.0, 0.0, 0.0, 0.0, 1.644587744460884E9, 0.0, 2022-02-12 00:55:44.460
16.0, -10298.32038859372, -10100.529801908708, -5833.2018057348505, -12492.345272582206, -8506.626904800762, -5076.483497200429, -8387.559162087342, -6087.922285547529, -9884.209619070247, -12939.201347732705, -7300.392663525661, -6234.169749518604, -6238.036601309372, -9260.037155155796, -11054.591662239036, -15955.97159337659, 0.006, 0.23600000000000002, 0.9500000000000001, 192.0, 0.0, 0.0, 0.0, 0.0, 0.0, 0.0, 0.0, 0.0, 0.0, 1.644587744469064E9, 0.0, 2022-02-12 00:55:44.469
18.0, -10289.022062900312, -10072.456010872844, -5829.312602199627, -12510.383130357639, -8518.719198551084, -5080.372700735653, -8389.861391766237, -6091.140936749093, -9893.843220930485, -12941.101246011407, -7291.407262254627, -6240.472941455, -6246.016174079916, -9260.439486555993, -11056.80448494011, -16003.670216044215, 0.004, 0.234, 0.9460000000000001, 192.0, 0.0, 16.0, 3.5, 40.0, 14.5, 72.0, 0.0, 0.0, 0.0, 1.644587744477389E9, 0.0, 2022-02-12 00:55:44.477
20.0, -10283.814106442227, -10077.529856864197, -5836.3757534475035, -12503.096461665209, -8514.651181060217, -5084.843049626715, -8397.863316281238, -6097.175907752026, -9882.421479513821, -12947.985583303642, -7310.920335164111, -6236.896662342151, -6250.218302037514, -9269.60370178267, -11058.682031474356, -15994.103669417344, 0.004, 0.234, 0.9460000000000001, 192.0, 0.0, 0.0, 0.0, 0.0, 0.0, 0.0, 0.0, 0.0, 0.0, 1.644587744484073E9, 0.0, 2022-02-12 00:55:44.484
22.0, -10301.51668805083, -10072.903045761948, -5825.19988121985, -12505.242229132919, -8515.031160715957, -5075.835296611225, -8388.453231865553, -6086.3129599467475, -9890.021072628626, -12936.630897120345, -7288.769756408901, -6229.90056632764, -6246.127932802193, -9257.801980710266, -11060.984261153253, -15970.477875528084, 0.004, 0.234, 0.9460000000000001, 192.0, 0.0, 0.0, 0.0, 0.0, 0.0, 0.0, 0.0, 0.0, 0.0, 1.644587744490633E9, 0.0, 2022-02-12 00:55:44.490
24.0, -10301.22611537291, -10085.531781379197, -5834.162930746428, -12506.315112866774, -8525.625887587772, -5080.417404224563, -8402.37836866121, -6092.4149861830465, -9892.457412774254, -12955.89810084082, -7280.276093515885, -6212.42150216359, -6248.541921203366, -9243.250995069862, -11061.14072336444, -16017.617704584325, 0.004, 0.234, 0.9460000000000001, 192.0, 0.0, 0.0, 0.0, 0.0, 0.0, 0.0, 0.0, 0.0, 0.0, 1.644587744498768E9, 0.0, 2022-02-12 00:55:44.498
26.0, -10291.391347812576, -10083.430717400399, -5837.20276799235, -12496.122717395154, -8508.236230401544, -5075.835296611225, -8399.159717459646, -6094.11371876165, -9883.986101625695, -12944.99044954663, -7294.178878567086, -6231.174615761593, -6242.596357178254, -9257.086724887697, -11063.979394910264, -15962.386544035262, 0.004, 0.234, 0.9460000000000001, 192.0, 0.0, 0.0, 0.0, 0.0, 0.0, 0.0, 0.0, 0.0, 0.0, 1.644587744506614E9, 0.0, 2022-02-12 00:55:44.506
28.0, -10291.771327468316, -10078.692147575874, -5833.872358068509, -12513.266505392374, -8512.885393248247, -5077.154049534089, -8391.358958644743, -6087.743471591887, -9891.04925287357, -12945.415132691282, -7288.836811642267, -6225.8996040701395, -6220.289316211858, -9247.967213149932, -11062.347717565026, -16007.000625968056, 0.006, 0.234, 0.9560000000000001, 192.0, 0.0, 24.0, 3.5, 40.0, 14.5, 112.0, 0.0, 0.0, 0.0, 1.644587744514258E9, 0.0, 2022-02-12 00:55:44.514
30.0, -10300.622618272617, -10085.151801723458, -5841.20373024985, -12502.783537242834, -8499.675512275162, -5078.584561179228, -8385.838077764283, -6085.530648890812, -9894.58082849751, -12955.786342118543, -7295.140003578664, -6228.961793060517, -6243.423371723101, -9257.64551849908, -11056.648022728923, -15993.12019266131, 0.006, 0.234, 0.9560000000000001, 192.0, 0.0, 0.0, 0.0, 0.0, 0.0, 0.0, 0.0, 0.0, 0.0, 1.644587744521164E9, 0.0, 2022-02-12 00:55:44.521
32.0, -10288.150344866555, -10069.594987582563, -5828.5079393992355, -12503.632903532136, -8498.692035519129, -5069.397994208097, -8379.221961405512, -6075.360605163647, -9886.645959215875, -12936.049751764507, -7290.222619798496, -6238.975374576495, -6241.299955999846, -9254.69508823098, -11058.525569263169, -15969.472047027595, 0.006, 0.234, 0.9560000000000001, 192.0, 0.0, 0.0, 0.0, 0.0, 0.0, 0.0, 0.0, 0.0, 0.0, 1.644587744529385E9, 0.0, 2022-02-12 00:55:44.529
34.0, -10287.055109388246, -10080.2791214322, -5836.4875121697805, -12516.798081016314, -8509.890259491236, -5077.355215234186, -8389.593170832773, -6086.692939602487, -9898.559439010554, -12952.031249050051, -7291.6307796991805, -6225.921955814595, -6246.887892113673, -9254.091591130686, -11062.14655186493, -16024.703207576658, 0.006, 0.234, 0.9560000000000001, 192.0, 0.0, 0.0, 0.0, 0.0, 0.0, 0.0, 0.0, 0.0, 0.0, 1.644587744537504E9, 0.0, 2022-02-12 00:55:44.537
36.0, -10305.160022397045, -10081.731984821796, -5840.354363960549, -12500.034272674833, -8501.642465787229, -5071.342595975709, -8390.733109799994, -6087.475250658424, -9886.377738282412, -12949.483150182146, -7312.68612297608, -6219.328191200279, -6241.657583911131, -9253.242224841384, -11061.632461742456, -15970.20965459462, 0.006, 0.234, 0.9560000000000001, 192.0, 0.0, 0.0, 0.0, 0.0, 0.0, 0.0, 0.0, 0.0, 0.0, 1.644587744544023E9, 0.0, 2022-02-12 00:55:44.544
38.0, -10288.731490222393, -10086.224685457311, -5836.576919147601, -12509.310246623785, -8510.449053102619, -5069.666215141561, -8385.61456031973, -6093.44316642799, -9901.465165789743, -12952.590042661435, -7284.142945306653, -6215.528394642877, -6242.8645781117175, -9244.189768336984, -11067.399211811926, -16012.432099870695, 0.002, 0.23, 0.9540000000000001, 192.0, 0.0, 8.0, 3.5, 24.0, 14.5, 104.0, 0.0, 0.0, 0.0, 1.644587744559273E9, 0.0, 2022-02-12 00:55:44.559
40.0, -10313.050188189769, -10100.574505397619, -5851.485532699291, -12504.214048887974, -8508.906782735203, -5074.091860543712, -8392.722415056518, -6082.200238966971, -9898.313569821545, -12957.08274329695, -7299.453890258538, -6230.839339594762, -6240.361182732723, -9246.514349760337, -11066.728659478267, -15995.891808973767, 0.002, 0.23, 0.9540000000000001, 192.0, 0.0, 0.0, 0.0, 0.0, 0.0, 0.0, 0.0, 0.0, 0.0, 1.644587744566134E9, 0.0, 2022-02-12 00:55:44.566
42.0, -10305.361188097142, -10076.076993474602, -5841.002564549753, -12506.873906478157, -8502.625942543262, -5064.748831361393, -8386.821554520317, -6079.406270910057, -9897.62066574343, -12940.60950763339, -7295.967018123511, -6230.101732027738, -6235.063819296815, -9246.491998015881, -11070.126124635473, -15972.377773806784, 0.002, 0.23, 0.9540000000000001, 192.0, 0.0, 0.0, 0.0, 0.0, 0.0, 0.0, 0.0, 0.0, 0.0, 1.644587744573592E9, 0.0, 2022-02-12 00:55:44.573
44.0, -10295.347606581165, -10080.703804576851, -5848.4680471978245, -12520.128490940153, -8513.533593837452, -5071.499058186896, -8387.626217320707, -6089.978646037418, -9901.375758811922, -12964.302356756016, -7298.090433846764, -6237.6342699091765, -6240.718810644008, -9238.914756645532, -11073.367127581492, -16024.323227920919, 0.002, 0.23, 0.9540000000000001, 192.0, 0.0, 0.0, 0.0, 0.0, 0.0, 0.0, 0.0, 0.0, 0.0, 1.644587744581482E9, 0.0, 2022-02-12 00:55:44.581
46.0, -10296.331083337198, -10076.412269641432, -5846.836369852587, -12507.008016944888, -8500.457823331097, -5071.856686098181, -8388.252066165456, -6094.314884461747, -9892.323302307523, -12960.480208454157, -7304.259515316429, -6233.342734973757, -6239.020078065405, -9254.382163808605, -11076.965758438797, -15975.238797097063, 0.002, 0.233, 0.9520000000000001, 192.0, 0.0, 8.0, 3.5, 48.0, 14.5, 88.0, 0.0, 0.0, 0.0, 1.644587744589413E9, 0.0, 2022-02-12 00:55:44.589
48.0, -10280.46134477393, -10072.388955639477, -5839.549701160157, -12520.664932807082, -8509.756149024504, -5070.71674713096, -8383.13351668519, -6085.821221568731, -9896.570133754032, -12947.89617632582, -7292.524849477393, -6235.823778608296, -6241.925804844595, -9257.712573732446, -11076.943406694343, -16014.9801987386, 0.002, 0.233, 0.9520000000000001, 192.0, 0.0, 0.0, 0.0, 0.0, 0.0, 0.0, 0.0, 0.0, 0.0, 1.644587744596057E9, 0.0, 2022-02-12 00:55:44.596
50.0, -10294.721757736417, -10083.52012437822, -5853.005451322252, -12514.942886226521, -8507.319808878876, -5073.890694843614, -8396.745729058472, -6086.447070413479, -9888.881133661405, -12952.99237406163, -7305.131233350186, -6233.968583818506, -6234.974412318995, -9250.112980617641, -11076.831647972065, -16005.726576534104, 0.002, 0.233, 0.9520000000000001, 192.0, 0.0, 0.0, 0.0, 0.0, 0.0, 0.0, 0.0, 0.0, 0.0, 1.644587744604029E9, 0.0, 2022-02-12 00:55:44.604
52.0, -10306.858754975648, -10100.440394930887, -5842.276613983705, -12512.081862936242, -8505.39755885572, -5071.543761675806, -8386.03924346438, -6081.373224422125, -9887.405918527356, -12944.342248957426, -7300.459718759027, -6217.718865599498, -6246.843188624763, -9248.347192805672, -11082.151363152429, -15982.033727411477, 0.002, 0.233, 0.9520000000000001, 192.0, 0.0, 0.0, 0.0, 0.0, 0.0, 0.0, 0.0, 0.0, 0.0, 1.644587744611153E9, 0.0, 2022-02-12 00:55:44.611
54.0, -10301.94137119548, -10092.818450071627, -5849.116247787028, -12525.045874720321, -8510.11377693579, -5077.712843145471, -8388.341473143277, -6097.77940485232, -9901.286351834102, -12971.90194987082, -7274.174067279586, -6207.749987572431, -6240.115313543715, -9243.809788681245, -11078.038642172653, -16035.946135037679, 0.002, 0.233, 0.9520000000000001, 192.0, 0.0, 0.0, 0.0, 0.0, 0.0, 0.0, 0.0, 0.0, 0.0, 1.644587744619135E9, 0.0, 2022-02-12 00:55:44.619
56.0, -10309.89859222157, -10096.953522795859, -5851.597291421568, -12522.900107252612, -8506.11281467829, -5080.283293757831, -8392.633008078696, -6084.234247712404, -9891.406880784856, -12952.701801383711, -7293.441271000061, -6229.274717482891, -6232.4710169400005, -9250.515312017837, -11079.089174162053, -15983.620701267804, 0.005, 0.23550000000000001, 0.9500000000000001, 192.0, 0.0, 32.0, 3.5, 56.0, 14.5, 80.0, 0.0, 0.0, 0.0, 1.64458774462575E9, 0.0, 2022-02-12 00:55:44.625
58.0, -10296.88987694858, -10096.461784417843, -5847.998660564263, -12531.013790489887, -8513.846518259827, -5081.5126397028735, -8387.849734765261, -6086.402366924569, -9912.797500228584, -12968.99622309163, -7301.06321585932, -6232.493368684455, -6235.6449646526535, -9257.936091176998, -11081.547866052135, -16025.105538976853, 0.005, 0.23550000000000001, 0.9500000000000001, 192.0, 0.0, 0.0, 0.0, 0.0, 0.0, 0.0, 0.0, 0.0, 0.0, 1.644587744633759E9, 0.0, 2022-02-12 00:55:44.633
60.0, -10294.207667613944, -10102.228534487313, -5860.761506648244, -12531.9078602681, -8506.805718756405, -5079.478630957441, -8390.733109799994, -6083.921323290029, -9905.600238513976, -12970.717307414689, -7312.082625875786, -6246.194988035559, -6249.547749703855, -9259.903044689065, -11082.263121874705, -16019.964637752133, 0.005, 0.23550000000000001, 0.9500000000000001, 192.0, 0.0, 0.0, 0.0, 0.0, 0.0, 0.0, 0.0, 0.0, 0.0, 1.644587744641827E9, 0.0, 2022-02-12 00:55:44.641
62.0, -10289.066766389224, -10074.1770951959, -5855.151218789962, -12531.796101545824, -8502.245962887522, -5068.883904085625, -8384.988711474982, -6075.3382534191915, -9897.598313998975, -12943.045847779018, -7315.658904988636, -6255.627424195698, -6230.571118661299, -9260.327727833715, -11082.464287574803, -15993.522524061505, 0.005, 0.23550000000000001, 0.9500000000000001, 192.0, 0.0, 0.0, 0.0, 0.0, 0.0, 0.0, 0.0, 0.0, 0.0, 1.644587744648332E9, 0.0, 2022-02-12 00:55:44.648
64.0, -10319.0851591927, -10105.134261266501, -5862.013204337741, -12537.205223704008, -8518.003942728514, -5076.19292452251, -8395.918714513626, -6081.596741866678, -9903.812098957551, -12953.327650228459, -7303.2536868159405, -6230.727580872486, -6251.581758449288, -9252.772838207822, -11084.47594457578, -16046.049123531477, 0.005, 0.23550000000000001, 0.9500000000000001, 192.0, 0.0, 0.0, 0.0, 0.0, 0.0, 0.0, 0.0, 0.0, 0.0, 1.644587744656549E9, 0.0, 2022-02-12 00:55:44.656
66.0, -10314.36894111263, -10100.976836797814, -5860.582692692601, -12519.793214773325, -8506.246925145022, -5068.459220940974, -8394.80112729086, -6082.177887222515, -9892.211543585247, -12966.51517945709, -7309.869803174711, -6221.250441223436, -6252.4311247385895, -9253.555149263759, -11090.220342900795, -15992.606102538837, 0.005, 0.23550000000000001, 0.9500000000000001, 192.0, 0.0, 0.0, 3.5, 40.0, 14.5, 48.0, 0.0, 0.0, 0.0, 1.64458774466438E9, 0.0, 2022-02-12 00:55:44.664
68.0, -10279.522571506808, -10085.487077890288, -5853.474837955813, -12540.647392350125, -8514.315904893387, -5072.10255528719, -8391.783641789394, -6081.306169188759, -9899.520564022132, -12953.350001972914, -7298.693930947057, -6234.393266963157, -6249.503046214944, -9248.749524205867, -11091.159116167917, -16032.928649536212, 0.005, 0.23550000000000001, 0.9500000000000001, 192.0, 0.0, 0.0, 0.0, 0.0, 0.0, 0.0, 0.0, 0.0, 0.0, 1.644587744671445E9, 0.0, 2022-02-12 00:55:44.671
70.0, -10331.736246554405, -10111.035121802703, -5862.773163649222, -12537.093464981732, -8510.247887402522, -5079.053947812789, -8394.130574957202, -6088.816355325742, -9898.96177041075, -12960.971946832175, -7300.996160625954, -6244.876235112695, -6242.350487989246, -9254.203349852962, -11092.567276068601, -16032.414559413739, 0.005, 0.23550000000000001, 0.9500000000000001, 192.0, 0.0, 0.0, 0.0, 0.0, 0.0, 0.0, 0.0, 0.0, 0.0, 1.644587744685923E9, 0.0, 2022-02-12 00:55:44.685
72.0, -10306.210554386444, -10100.730967608806, -5846.7022593858555, -12530.030313733854, -8507.655085045706, -5069.934436075025, -8389.74963304396, -6091.297398960281, -9902.29218033459, -12962.983603833152, -7290.8708203877, -6235.622612908199, -6250.084191570782, -9255.902082431565, -11092.723738279788, -16006.933570734689, 0.005, 0.23550000000000001, 0.9500000000000001, 192.0, 0.0, 0.0, 0.0, 0.0, 0.0, 0.0, 0.0, 0.0, 0.0, 1.644587744693994E9, 0.0, 2022-02-12 00:55:44.693
74.0, -10303.863621218637, -10099.90395306396, -5851.999622821763, -12541.474406894971, -8518.786253784448, -5072.7060523874825, -8387.626217320707, -6087.117622747139, -9899.3864535554, -12966.693993412733, -7283.986483095466, -6217.160071988114, -6240.495293199456, -9243.094532858675, -11091.96377896831, -16059.214301015652, 0.005, 0.23550000000000001, 0.9500000000000001, 192.0, 0.0, 0.0, 0.0, 0.0, 0.0, 0.0, 0.0, 0.0, 0.0, 1.644587744700988E9, 0.0, 2022-02-12 00:55:44.700
76.0, -10307.439900331487, -10099.434566430398, -5859.710974658844, -12535.774712058868, -8516.238154916544, -5073.398956465597, -8396.343397658276, -6091.7667855938425, -9896.212505842746, -12954.46758919568, -7307.388759540172, -6235.399095463646, -6243.71394440102, -9258.986623166398, -11097.216438915306, -16007.492364346072, 0.0035, 0.23575000000000002, 0.9460000000000001, 192.0, 0.0, 8.0, 3.5, 48.0, 14.5, 56.0, 0.0, 0.0, 0.0, 1.644587744708847E9, 0.0, 2022-02-12 00:55:44.708
78.0, -10301.51668805083, -10083.430717400399, -5855.240625767783, -12542.010848761898, -8529.135111467256, -5074.896523344102, -8396.94689475857, -6093.7113873614535, -9904.884982691407, -12962.581272432957, -7294.648265200647, -6231.845168095251, -6235.689668141565, -9252.415210296538, -11100.7703662837, -16047.03260028751, 0.0035, 0.23575000000000002, 0.9460000000000001, 192.0, 0.0, 0.0, 0.0, 0.0, 0.0, 0.0, 0.0, 0.0, 0.0, 1.64458774471653E9, 0.0, 2022-02-12 00:55:44.716
80.0, -10312.223173644921, -10113.605572415063, -5862.6837566714, -12540.267412694386, -8533.627812102774, -5072.795459365304, -8407.742787330484, -6102.048588043283, -9900.593447755988, -12960.770781132076, -7314.831890443789, -6242.574005433799, -6258.220226552514, -9252.616375996635, -11105.44188087486, -16042.830472329912, 0.0035, 0.23575000000000002, 0.9460000000000001, 192.0, 0.0, 0.0, 0.0, 0.0, 0.0, 0.0, 0.0, 0.0, 0.0, 1.64458774472478E9, 0.0, 2022-02-12 00:55:44.724
82.0, -10301.94137119548, -10108.934057823904, -5854.257149011749, -12529.382113144651, -8527.794006799937, -5061.8431045822035, -8399.785566304394, -6097.242962985392, -9902.113366378948, -12951.22658624966, -7291.831945399278, -6231.040505294861, -6244.965642090517, -9248.59306199468, -11106.447709375348, -16014.220239427119, 0.0035, 0.23575000000000002, 0.9460000000000001, 192.0, 0.0, 0.0, 0.0, 0.0, 0.0, 0.0, 0.0, 0.0, 0.0, 1.644587744731216E9, 0.0, 2022-02-12 00:55:44.731
84.0, -10301.51668805083, -10107.145918267479, -5852.133733288495, -12537.24992719292, -8538.008754016013, -5061.865456326658, -8412.213136221544, -6104.6860938890095, -9908.975351926727, -12972.147819059828, -7286.266361029907, -6221.339848201257, -6248.318403758813, -9239.16062583454, -11107.7217588093, -16065.696306907692, 0.0035, 0.23575000000000002, 0.9460000000000001, 192.0, 0.0, 0.0, 0.0, 0.0, 0.0, 0.0, 0.0, 0.0, 0.0, 1.644587744738584E9, 0.0, 2022-02-12 00:55:44.738
86.0, -10311.150289911067, -10093.019615771726, -5849.809151865144, -12525.872889265167, -8524.485948620551, -5058.467991169452, -8394.018816234924, -6091.610323382655, -9892.39035754089, -12950.846606593921, -7297.688102446569, -6239.422409465601, -6244.608014179232, -9241.686372957989, -11107.028854731185, -16007.69353004617, 0.00575, 0.235875, 0.9440000000000001, 192.0, 0.0, 32.0, 3.5, 48.0, 14.5, 56.0, 0.0, 0.0, 0.0, 1.644587744746185E9, 0.0, 2022-02-12 00:55:44.746
88.0, -10301.583743284196, -10077.820429542116, -5844.82471285161, -12545.587127874747, -8534.432474903164, -5060.166723748055, -8381.568894573318, -6080.590913366189, -9898.604142499464, -12946.197443747216, -7283.740613906457, -6227.75479885993, -6245.546787446355, -9245.754390448856, -11106.537116353169, -16045.289164219996, 0.00575, 0.235875, 0.9440000000000001, 192.0, 0.0, 0.0, 0.0, 0.0, 0.0, 0.0, 0.0, 0.0, 0.0, 1.644587744754355E9, 0.0, 2022-02-12 00:55:44.754
90.0, -10306.858754975648, -10112.912668336949, -5858.615739180535, -12542.77080807338, -8521.267297418988, -5060.367889448153, -8390.889572011181, -6090.492736159889, -9901.085186134003, -12956.255728752105, -7293.73184367798, -6240.651755410642, -6236.539034430866, -9249.062448628241, -11105.665398319412, -16044.931536308712, 0.00575, 0.235875, 0.9440000000000001, 192.0, 0.0, 0.0, 0.0, 0.0, 0.0, 0.0, 0.0, 0.0, 0.0, 1.644587744761092E9, 0.0, 2022-02-12 00:55:44.761
92.0, -10324.1366534396, -10120.825185874128, -5847.193997763872, -12539.932136527555, -8521.580221841363, -5056.724555101938, -8383.826420763306, -6082.691977344987, -9902.225125101224, -12959.027345064564, -7300.30325654784, -6226.391342448157, -6241.143493788659, -9241.35109679116, -11106.984151242275, -16015.203716183152, 0.00575, 0.235875, 0.9440000000000001, 192.0, 0.0, 0.0, 0.0, 0.0, 0.0, 0.0, 0.0, 0.0, 0.0, 1.644587744769063E9, 0.0, 2022-02-12 00:55:44.769
94.0, -10322.594383072184, -10117.204203272368, -5855.01710832323, -12549.252813965419, -8529.291573678443, -5062.267787726854, -8396.388101147188, -6087.4305471695125, -9909.221221115735, -12980.686185441755, -7299.677407703091, -6223.530319157877, -6247.178464791592, -9238.311259545238, -11107.542944853658, -16068.84790287589, 0.00575, 0.235875, 0.9440000000000001, 192.0, 0.0, 0.0, 0.0, 0.0, 0.0, 0.0, 0.0, 0.0, 0.0, 1.644587744776956E9, 0.0, 2022-02-12 00:55:44.776
96.0, -10314.503051579362, -10100.663912375441, -5850.703221643355, -12532.489005623938, -8518.87566076227, -5058.579749891728, -8389.503763854953, -6087.810526825253, -9904.81792745804, -12954.556996173502, -7297.174012324097, -6243.6245374231985, -6225.698438370042, -9249.330669561705, -11110.292209421661, -16015.203716183152, 0.006875, 0.23493750000000002, 0.9440000000000001, 192.0, 0.0, 32.0, 3.5, 40.0, 14.5, 64.0, 0.0, 0.0, 0.0, 1.644587744783819E9, 0.0, 2022-02-12 00:55:44.783
98.0, -10309.809185243748, -10088.392804669476, -5839.303831971149, -12546.145921486132, -8521.513166607996, -5050.197845720988, -8383.781717274394, -6083.541343634289, -9902.560401268054, -12958.714420642189, -7281.259570271918, -6234.9967640634495, -6246.66437466912, -9234.377352521105, -11109.554601854636, -16046.362047953851, 0.006875, 0.23493750000000002, 0.9440000000000001, 192.0, 0.0, 0.0, 0.0, 0.0, 0.0, 0.0, 0.0, 0.0, 0.0, 1.644587744791805E9, 0.0, 2022-02-12 00:55:44.791
100.0, -10325.365999384643, -10104.62017114403, -5853.92187284492, -12538.211052204497, -8521.177890441168, -5057.931549302524, -8384.89930449716, -6087.96698903644, -9907.097805392481, -12967.56571144649, -7287.473355230493, -6227.955964560028, -6247.223168280503, -9238.601832223158, -11109.308732665628, -16047.770207854535, 0.006875, 0.23493750000000002, 0.9440000000000001, 192.0, 0.0, 0.0, 0.0, 0.0, 0.0, 0.0, 0.0, 0.0, 0.0, 1.64458774480669E9, 0.0, 2022-02-12 00:55:44.806
102.0, -10306.255257875355, -10111.549211925176, -5847.328108230604, -12536.400560903618, -8517.02046597248, -5051.874226555136, -8384.2287521635, -6082.6696256005325, -9903.05213964607, -12953.28294673955, -7298.425710013594, -6228.626516893687, -6240.987031577472, -9243.362753792138, -11109.800471043643, -16017.55064935096, 0.006875, 0.23493750000000002, 0.9440000000000001, 192.0, 0.0, 0.0, 0.0, 0.0, 0.0, 0.0, 0.0, 0.0, 0.0, 1.644587744813103E9, 0.0, 2022-02-12 00:55:44.813
104.0, -10323.130824939111, -10123.932078353415, -5850.814980365632, -12549.811607576801, -8528.889242278248, -5064.122982516645, -8394.845830779772, -6085.329483190713, -9911.881078705917, -12978.406307507314, -7294.782375667379, -6223.977354046983, -6231.241670994958, -9240.97111713542, -11109.286380921172, -16074.189969800707, 0.006875, 0.23493750000000002, 0.9440000000000001, 192.0, 0.0, 0.0, 0.0, 0.0, 0.0, 0.0, 0.0, 0.0, 0.0, 1.644587744821229E9, 0.0, 2022-02-12 00:55:44.821
106.0, -10321.387388871597, -10102.697921120873, -5859.934492103397, -12539.596860360725, -8512.416006614687, -5057.216293479954, -8391.157792944645, -6083.96602677894, -9901.576924512021, -12965.7105166567, -7298.8727449027, -6241.277604255391, -6240.495293199456, -9251.543492262781, -11110.001636743742, -16020.769300552523, 0.0064375000000000005, 0.23246875, 0.9430000000000001, 192.0, 0.0, 24.0, 3.5, 24.0, 14.5, 56.0, 0.0, 0.0, 0.0, 1.644587744829082E9, 0.0, 2022-02-12 00:55:44.829
108.0, -10311.865545733637, -10104.061377532647, -5844.511788429236, -12556.494779168937, -8518.585088084352, -5055.897540557092, -8379.221961405512, -6087.072919258228, -9912.86455546195, -12961.016650321086, -7302.6054862267365, -6231.755761117431, -6241.031735066383, -9237.148968833562, -11110.180450699383, -16052.307611978962, 0.0064375000000000005, 0.23246875, 0.9430000000000001, 192.0, 0.0, 0.0, 0.0, 0.0, 0.0, 0.0, 0.0, 0.0, 0.0, 1.644587744836395E9, 0.0, 2022-02-12 00:55:44.836
110.0, -10330.931583754014, -10096.70765360685, -5859.509808958746, -12559.19934024803, -8517.199279928122, -5057.7974388357925, -8387.022720220413, -6081.462631399945, -9911.501099050176, -12975.545284217034, -7317.916431178622, -6247.37963049169, -6242.305784500335, -9245.620279982124, -11111.253334433239, -16053.60401315737, 0.0064375000000000005, 0.23246875, 0.9430000000000001, 192.0, 0.0, 0.0, 0.0, 0.0, 0.0, 0.0, 0.0, 0.0, 0.0, 1.644587744843808E9, 0.0, 2022-02-12 00:55:44.843
112.0, -10330.126920953622, -10103.793156599184, -5853.899521100464, -12552.985555289455, -8517.042817716934, -5044.542854373795, -8387.335644642788, -6082.043776755783, -9903.990912913194, -12955.339307229437, -7313.803710198845, -6254.509836972933, -6226.301935470336, -9247.520178260826, -11115.030779246186, -16019.607009840849, 0.0064375000000000005, 0.23246875, 0.9430000000000001, 192.0, 0.0, 0.0, 0.0, 0.0, 0.0, 0.0, 0.0, 0.0, 0.0, 1.644587744852372E9, 0.0, 2022-02-12 00:55:44.852
114.0, -10337.838272790703, -10146.596747231097, -5857.408744979947, -12567.558892674315, -8524.77652129847, -5051.650709110583, -8379.266664894421, -6087.095271002683, -9919.838299732006, -12991.19150533575, -7288.412128497616, -6227.620688393198, -6243.266909511914, -9235.96432637743, -11116.058959491129, -16078.481504736128, 0.0064375000000000005, 0.23246875, 0.9430000000000001, 192.0, 0.0, 0.0, 0.0, 0.0, 0.0, 0.0, 0.0, 0.0, 0.0, 1.644587744858792E9, 0.0, 2022-02-12 00:55:44.858
116.0, -10326.528290096318, -10113.583220670607, -5854.860646112043, -12548.15757848711, -8507.29745713442, -5046.71097358596, -8379.937217228082, -6084.390709923591, -9915.166785140847, -12981.490848242147, -7306.919372906611, -6245.435028724079, -6238.6400984096645, -9244.905024159554, -11116.885974035977, -16022.378626153306, 0.00821875, 0.234234375, 0.9445000000000001, 192.0, 0.0, 40.0, 3.5, 48.0, 14.5, 72.0, 0.0, 0.0, 0.0, 1.644587744865988E9, 0.0, 2022-02-12 00:55:44.865
118.0, -10314.301885879266, -10107.48119443431, -5846.188169263383, -12555.95833730201, -8507.54332632343, -5040.89952002758, -8369.186028145079, -6070.934959761496, -9915.658523518863, -12976.238188295149, -7302.11374784872, -6231.934575073073, -6215.930726043073, -9233.080951342698, -11113.667322834412, -16048.999553799576, 0.00821875, 0.234234375, 0.9445000000000001, 192.0, 0.0, 0.0, 0.0, 0.0, 0.0, 0.0, 0.0, 0.0, 0.0, 1.644587744873516E9, 0.0, 2022-02-12 00:55:44.873
120.0, -10318.861641748148, -10106.296551978177, -5856.917006601931, -12556.204206491018, -8500.837802986838, -5043.157046217567, -8382.820592262817, -6075.20414295246, -9911.00936067216, -12984.597740721434, -7310.54035550837, -6243.401019978645, -6233.923880329595, -9239.562957234735, -11108.369959398504, -16051.212376500653, 0.00821875, 0.234234375, 0.9445000000000001, 192.0, 0.0, 0.0, 0.0, 0.0, 0.0, 0.0, 0.0, 0.0, 0.0, 1.644587744881557E9, 0.0, 2022-02-12 00:55:44.881
122.0, -10343.716781582449, -10116.600706172074, -5839.3708872045145, -12552.560872144804, -8501.06132043139, -5034.5516246022735, -8369.253083378444, -6072.544285362278, -9899.408805299856, -12957.932109586252, -7310.272134574907, -6252.699345672053, -6231.688705884065, -9239.205329323451, -11110.783947799677, -16016.768338295024, 0.00821875, 0.234234375, 0.9445000000000001, 192.0, 0.0, 0.0, 0.0, 0.0, 0.0, 0.0, 0.0, 0.0, 0.0, 1.644587744890022E9, 0.0, 2022-02-12 00:55:44.890
124.0, -10340.498130380885, -10135.487930236808, -5846.63520415249, -12559.758133859414, -8515.344085138331, -5042.866473539648, -8371.108278168234, -6079.719195332432, -9919.81594798755, -12990.163325090805, -7303.186631582575, -6228.782979104874, -6221.451606923533, -9230.152872819051, -11110.783947799677, -16071.016022088055, 0.00821875, 0.234234375, 0.9445000000000001, 192.0, 0.0, 0.0, 0.0, 0.0, 0.0, 0.0, 0.0, 0.0, 0.0, 1.644587744896416E9, 0.0, 2022-02-12 00:55:44.896
126.0, -10331.445673876486, -10115.550174182676, -5853.184265277894, -12554.19254949004, -8505.464614089085, -5037.636165337106, -8375.824496248306, -6081.484983144401, -9901.375758811922, -12977.847513895931, -7309.266306074418, -6244.719772901509, -6224.759665102919, -9235.696105443967, -11115.120186224007, -16020.478727874606, 0.01, 0.228, 0.9480000000000001, 192.0, 0.0, 40.0, 3.5, 16.0, 14.5, 80.0, 0.0, 0.0, 0.0, 1.644587744904094E9, 0.0, 2022-02-12 00:55:44.904
128.0, -10316.447653346975, -10101.580333898108, -5846.63520415249, -12566.910692085112, -8509.756149024504, -5035.624508336128, -8380.18308641709, -6076.791116808787, -9917.446663075289, -12985.402403521824, -7310.361541552728, -6244.786828134875, -6231.800464606341, -9233.840910654177, -11120.283439193183, -16054.431027702216, 0.01, 0.228, 0.9480000000000001, 192.0, 0.0, 0.0, 0.0, 0.0, 0.0, 0.0, 0.0, 0.0, 0.0, 1.644587744912233E9, 0.0, 2022-02-12 00:55:44.912
130.0, -10344.52144438284, -10125.80962488766, -5851.038497810185, -12564.139075772653, -8504.503489077508, -5042.911177028558, -8382.909999240637, -6079.294512187781, -9909.914125193849, -12995.95242690473, -7308.349884551751, -6243.199854278548, -6225.586679647766, -9234.377352521105, -11118.29413393666, -16061.293013249997, 0.01, 0.228, 0.9480000000000001, 192.0, 0.0, 0.0, 0.0, 0.0, 0.0, 0.0, 0.0, 0.0, 0.0, 1.644587744918715E9, 0.0, 2022-02-12 00:55:44.918
132.0, -10318.749883025872, -10113.04677880368, -5844.645898895968, -12557.433552436061, -8500.68134077565, -5030.818883278237, -8373.097583424758, -6071.896084773074, -9903.543878024087, -12983.815429665498, -7300.571477481303, -6241.881101355684, -6210.789824818352, -9235.405532766048, -11117.333008925081, -16024.50204187656, 0.01, 0.228, 0.9480000000000001, 192.0, 0.0, 0.0, 0.0, 0.0, 0.0, 0.0, 0.0, 0.0, 0.0, 1.644587744933778E9, 0.0, 2022-02-12 00:55:44.933
134.0, -10322.169699927534, -10111.370397969533, -5850.6361664099895, -12566.10602928472, -8508.593858312828, -5034.685735069005, -8372.449382835553, -6078.981587765406, -9908.260096104157, -12991.213857080205, -7300.68323620358, -6231.979278561983, -6210.119272484693, -9228.029457095798, -11115.097834479551, -16080.269644292552, 0.01, 0.228, 0.9480000000000001, 192.0, 0.0, 0.0, 0.0, 0.0, 0.0, 0.0, 0.0, 0.0, 0.0, 1.644587744941814E9, 0.0, 2022-02-12 00:55:44.941
136.0, -10326.081255207213, -10098.76401409674, -5848.021012308719, -12550.236290721452, -8500.30136111991, -5028.024915221324, -8371.242388634968, -6072.320767917725, -9895.318436064534, -12982.496676742636, -7310.249782830451, -6231.934575073073, -6216.780092332375, -9233.237413553883, -11115.544869368658, -16027.050140744466, 0.004, 0.234, 0.9460000000000001, 192.0, 0.0, 16.0, 3.5, 40.0, 14.5, 72.0, 0.0, 0.0, 0.0, 1.644587744948261E9, 0.0, 2022-02-12 00:55:44.948
138.0, -10320.09098769319, -10101.982665298303, -5842.455427939347, -12569.056459552821, -8508.616210057284, -5032.4952641123855, -8367.353185099744, -6067.559846348745, -9902.448642545778, -12976.819333650987, -7327.125349894208, -6239.176540276592, -6217.003609776928, -9231.583384464191, -11117.556526369635, -16058.74491438209, 0.004, 0.234, 0.9460000000000001, 192.0, 0.0, 0.0, 0.0, 0.0, 0.0, 0.0, 0.0, 0.0, 0.0, 1.644587744956563E9, 0.0, 2022-02-12 00:55:44.956
140.0, -10346.533101383819, -10125.161424298456, -5847.931605330898, -12561.233348993463, -8509.823204257871, -5035.378639147119, -8380.94304572857, -6073.661872585043, -9905.309665836057, -12983.167229076294, -7291.004930854432, -6248.094886314259, -6207.906449783618, -9229.236451296383, -11119.232907203783, -16068.13264705332, 0.004, 0.234, 0.9460000000000001, 192.0, 0.0, 0.0, 0.0, 0.0, 0.0, 0.0, 0.0, 0.0, 0.0, 1.644587744964752E9, 0.0, 2022-02-12 00:55:44.964
142.0, -10342.465083892952, -10118.612363173052, -5837.895672070465, -12558.037049536355, -8497.507393062997, -5027.823749521226, -8370.393022345665, -6070.778497550309, -9903.879154190918, -12984.687147699255, -7298.358654780228, -6234.214453007514, -6211.102749240727, -9228.007105351342, -11117.936506025375, -16029.620591356826, 0.004, 0.234, 0.9460000000000001, 192.0, 0.0, 0.0, 0.0, 0.0, 0.0, 0.0, 0.0, 0.0, 0.0, 1.644587744971606E9, 0.0, 2022-02-12 00:55:44.971
144.0, -10322.37086562763, -10106.81064210065, -5846.63520415249, -12570.710488642513, -8507.29745713442, -5028.293136154787, -8374.393984603164, -6078.109869731649, -9911.635209516908, -12995.505392015624, -7303.097224604753, -6235.108522785727, -6208.979333517473, -9221.346285503661, -11121.848061305054, -16090.260874064074, 0.004, 0.234, 0.9460000000000001, 192.0, 0.0, 0.0, 0.0, 0.0, 0.0, 0.0, 0.0, 0.0, 0.0, 1.644587744978928E9, 0.0, 2022-02-12 00:55:44.978
146.0, -10318.682827792505, -10102.675569376419, -5856.805247879654, -12556.204206491018, -8495.696901762116, -5023.956897730458, -8371.08592642378, -6072.946616762473, -9903.320360579535, -12991.415022780302, -7321.157434124641, -6247.022002580405, -6209.247554450936, -9227.247146039861, -11123.524442139202, -16039.12008275033, 0.004, 0.234, 0.9460000000000001, 192.0, 0.0, 0.0, 3.5, 48.0, 14.5, 72.0, 0.0, 0.0, 0.0, 1.644587744986084E9, 0.0, 2022-02-12 00:55:44.986
148.0, -10322.61673481664, -10113.873793348526, -5841.717820372322, -12566.597767662737, -8505.039930944435, -5029.343668144187, -8367.643757777663, -6062.86598001313, -9902.806270457062, -12977.556941218012, -7306.248820572951, -6228.782979104874, -6201.290333424847, -9223.961439604931, -11125.223174717805, -16067.842074375401, 0.004, 0.234, 0.9460000000000001, 192.0, 0.0, 0.0, 0.0, 0.0, 0.0, 0.0, 0.0, 0.0, 0.0, 1.644587744993996E9, 0.0, 2022-02-12 00:55:44.993
150.0, -10337.123016968133, -10109.179927012912, -5857.185227535395, -12564.764924617402, -8499.876677975259, -5029.90246175557, -8375.019833447914, -6071.4043463950575, -9898.24651458818, -12980.753240675122, -7300.660884459125, -6246.060877568827, -6208.375836417179, -9226.956573361942, -11119.948163026353, -16073.027679089033, 0.004, 0.234, 0.9460000000000001, 192.0, 0.0, 0.0, 0.0, 0.0, 0.0, 0.0, 0.0, 0.0, 0.0, 1.644587745000644E9, 0.0, 2022-02-12 00:55:45.000
152.0, -10331.557432598762, -10121.71925565234, -5860.940320603886, -12564.474351939483, -8503.609419299295, -5033.121112957134, -8383.446441107564, -6081.6190936111325, -9894.290255819591, -12978.205141807217, -7321.78328296939, -6249.391287492667, -6202.050292736327, -9224.833157638688, -11128.35241894155, -16039.544765894982, 0.004, 0.234, 0.9460000000000001, 192.0, 0.0, 0.0, 0.0, 0.0, 0.0, 0.0, 0.0, 0.0, 0.0, 1.644587745008612E9, 0.0, 2022-02-12 00:55:45.008
154.0, -10338.106493724168, -10122.1886422859, -5859.845085125576, -12576.38783173416, -8519.501509607018, -5039.536063615807, -8381.591246317774, -6088.235209969904, -9912.4398723173, -13008.514107288613, -7296.235239056974, -6238.66245015412, -6221.161034245615, -9228.632954196091, -11135.81790158962, -16098.978054401643, 0.004, 0.234, 0.9460000000000001, 192.0, 0.0, 0.0, 0.0, 0.0, 0.0, 0.0, 0.0, 0.0, 0.0, 1.644587745016769E9, 0.0, 2022-02-12 00:55:45.016
156.0, -10342.912118782058, -10136.270241292745, -5862.974329349319, -12566.284843240363, -8509.823204257871, -5033.6128513351505, -8381.725356784505, -6074.913570274541, -9918.787767742608, -13000.713348473711, -7321.559765524837, -6255.403906751145, -6221.9656970460055, -9237.417189767026, -11139.371828958016, -16051.36883871184, 0.002, 0.23600000000000002, 0.9460000000000001, 192.0, 0.0, 8.0, 3.5, 48.0, 14.5, 72.0, 0.0, 0.0, 0.0, 1.644587745023575E9, 0.0, 2022-02-12 00:55:45.023
158.0, -10333.926717511025, -10126.301363265678, -5846.746962874766, -12579.49472421345, -8516.059340960901, -5026.929679743013, -8380.160734672634, -6070.130296961105, -9918.228974131223, -12999.081671128473, -7303.812480427323, -6235.801426863841, -6208.867574795196, -9226.64364893957, -11135.504977167247, -16075.776943657034, 0.002, 0.23600000000000002, 0.9460000000000001, 192.0, 0.0, 0.0, 0.0, 0.0, 0.0, 0.0, 0.0, 0.0, 0.0, 1.644587745031444E9, 0.0, 2022-02-12 00:55:45.031
160.0, -10336.206595445467, -10110.744549124784, -5864.11426831654, -12583.518038215405, -8518.383922384253, -5030.170682689033, -8385.972188231015, -6079.920361032529, -9907.433081559311, -12988.531647745569, -7307.679332218091, -6248.85484562574, -6209.359313173212, -9224.54258496077, -11134.38738994448, -16089.143286841309, 0.002, 0.23600000000000002, 0.9460000000000001, 192.0, 0.0, 0.0, 0.0, 0.0, 0.0, 0.0, 0.0, 0.0, 0.0, 1.644587745039255E9, 0.0, 2022-02-12 00:55:45.039
162.0, -10328.718761052938, -10106.363607211544, -5850.546759432168, -12578.734764901968, -8509.107948435301, -5029.366019888642, -8368.694289767061, -6072.700747573465, -9906.539011781098, -12970.717307414689, -7305.064178116821, -6259.606034708743, -6199.546897357332, -9234.645573454569, -11134.63325913349, -16054.609841657859, 0.002, 0.23600000000000002, 0.9460000000000001, 192.0, 0.0, 0.0, 0.0, 0.0, 0.0, 0.0, 0.0, 0.0, 0.0, 1.644587745053254E9, 0.0, 2022-02-12 00:55:45.053
164.0, -10343.359153671165, -10138.125436082535, -5855.464143212336, -12580.321738758295, -8522.11666370829, -5031.400028634075, -8378.551409071852, -6074.913570274541, -9917.15609039737, -12993.13610710336, -7311.7026462200465, -6237.455455953534, -6208.062911994804, -9224.8778611276, -11136.644916134468, -16108.119917883865, 0.002, 0.23600000000000002, 0.9460000000000001, 192.0, 0.0, 0.0, 0.0, 0.0, 0.0, 0.0, 0.0, 0.0, 0.0, 1.644587745061065E9, 0.0, 2022-02-12 00:55:45.061
166.0, -10356.09964801069, -10135.57733721463, -5865.276559028216, -12569.972881075488, -8515.366436882787, -5039.938395016003, -8396.030473235902, -6097.846460085686, -9912.372817083933, -13002.300322330037, -7305.868840917211, -6235.667316397109, -6224.08911276926, -9232.723323431412, -11141.808169103644, -16059.41546671575, 0.004, 0.24, 0.9540000000000001, 192.0, 0.0, 16.0, 3.5, 64.0, 14.5, 104.0, 0.0, 0.0, 0.0, 1.6445877450689E9, 0.0, 2022-02-12 00:55:45.068
168.0, -10324.22606041742, -10117.695941650385, -5857.006413579752, -12579.628834680181, -8525.044742231936, -5037.390296148097, -8387.402699876155, -6079.160401721049, -9918.698360764785, -12999.819278695499, -7303.499556004948, -6240.316479243813, -6220.155205745126, -9230.82342515271, -11144.535081927192, -16086.684594951224, 0.004, 0.24, 0.9540000000000001, 192.0, 0.0, 0.0, 0.0, 0.0, 0.0, 0.0, 0.0, 0.0, 0.0, 1.644587745076953E9, 0.0, 2022-02-12 00:55:45.076
170.0, -10351.942223542002, -10124.557927198164, -5868.226989296316, -12582.668671926103, -8519.926192751669, -5036.496226369885, -8386.262760908934, -6082.177887222515, -9923.302820122579, -13010.749281734143, -7310.048617130354, -6240.785865877374, -6220.915165056606, -9226.911869873033, -11140.645878391968, -16097.681653223235, 0.004, 0.24, 0.9540000000000001, 192.0, 0.0, 0.0, 0.0, 0.0, 0.0, 0.0, 0.0, 0.0, 0.0, 1.644587745083398E9, 0.0, 2022-02-12 00:55:45.083
172.0, -10348.90238629608, -10125.407293487466, -5854.614776923034, -12574.398526477638, -8511.812509514393, -5033.836368779704, -8380.56306607283, -6078.221628453926, -9914.987971185205, -12981.133220330861, -7306.248820572951, -6252.162903805126, -6222.926822057584, -9236.947803133466, -11137.807206846144, -16059.303707993473, 0.004, 0.24, 0.9540000000000001, 192.0, 0.0, 0.0, 0.0, 0.0, 0.0, 0.0, 0.0, 0.0, 0.0, 1.644587745091556E9, 0.0, 2022-02-12 00:55:45.091
174.0, -10323.622563317129, -10140.315907039156, -5864.561303205646, -12582.914541115111, -8519.903841007213, -5038.172607204033, -8382.977054474004, -6077.081689486706, -9923.861613733961, -13007.485927043668, -7304.527736249893, -6236.226110008492, -6213.494385897445, -9230.599907708158, -11138.276593479704, -16114.445461564716, 0.004, 0.24, 0.9540000000000001, 192.0, 0.0, 0.0, 0.0, 0.0, 0.0, 0.0, 0.0, 0.0, 0.0, 1.644587745099503E9, 0.0, 2022-02-12 00:55:45.099
176.0, -10339.872281536136, -10125.00496208727, -5866.1929805508835, -12571.448096209539, -8510.314942635887, -5042.307679928265, -8391.694234811574, -6081.149706977571, -9913.468052562244, -12998.18760135026, -7322.92322193661, -6243.289261256369, -6212.265039952403, -9234.39970426556, -11144.848006349564, -16068.467923220149, 0.008, 0.23600000000000002, 0.9520000000000001, 192.0, 0.0, 32.0, 3.5, 48.0, 14.5, 96.0, 0.0, 0.0, 0.0, 1.644587745105754E9, 0.0, 2022-02-12 00:55:45.105
178.0, -10347.114246739657, -10121.04870331868, -5853.653651911456, -12585.663805683114, -8520.417931129687, -5043.782895062315, -8388.833211521294, -6081.127355233116, -9924.196889900792, -12990.006862879618, -7310.4733002750045, -6246.530264202388, -6197.669350823087, -9236.523119988815, -11146.770256372722, -16092.674862465246, 0.008, 0.23600000000000002, 0.9520000000000001, 192.0, 0.0, 0.0, 0.0, 0.0, 0.0, 0.0, 0.0, 0.0, 0.0, 1.644587745113161E9, 0.0, 2022-02-12 00:55:45.113
180.0, -10373.221084263454, -10142.014639617759, -5868.919893374431, -12585.35088126074, -8522.384884641753, -5042.441790394997, -8396.589266847286, -6088.592837881189, -9928.622535302942, -13008.827031710987, -7305.44415777256, -6248.4972177144555, -6221.876290068185, -9234.176186821007, -11142.813997604133, -16105.482412038138, 0.008, 0.23600000000000002, 0.9520000000000001, 192.0, 0.0, 0.0, 0.0, 0.0, 0.0, 0.0, 0.0, 0.0, 0.0, 1.644587745121153E9, 0.0, 2022-02-12 00:55:45.121
182.0, -10352.277499708833, -10125.340238254099, -5855.799419379166, -12585.909674872122, -8509.040893201935, -5030.7965315337815, -8386.083946953291, -6074.555942363256, -9922.609916044465, -12985.961197133209, -7305.198288583552, -6251.022964837905, -6221.0269237788825, -9238.333611289694, -11141.986983059285, -16060.8906818498, 0.008, 0.23600000000000002, 0.9520000000000001, 192.0, 0.0, 0.0, 0.0, 0.0, 0.0, 0.0, 0.0, 0.0, 0.0, 1.644587745129138E9, 0.0, 2022-02-12 00:55:45.129
184.0, -10337.167720457044, -10136.873738393038, -5851.351422232559, -12584.993253349454, -8517.758073539504, -5040.519540371841, -8389.548467343864, -6081.373224422125, -9925.001552701182, -12996.265351327105, -7299.073910602798, -6230.548766916843, -6212.645019608142, -9225.704875672445, -11139.975326058307, -16117.194726132719, 0.008, 0.23600000000000002, 0.9520000000000001, 192.0, 0.0, 0.0, 0.0, 0.0, 0.0, 0.0, 0.0, 0.0, 0.0, 1.64458774513574E9, 0.0, 2022-02-12 00:55:45.135
186.0, -10338.061790235257, -10141.00881111727, -5859.934492103397, -12573.929139844078, -8504.369378610776, -5034.32810715772, -8387.51445859843, -6076.165267964037, -9915.122081651936, -13002.52383977459, -7304.259515316429, -6230.548766916843, -6211.996819018939, -9231.806901908743, -11141.450541192358, -16070.9936703436, 0.01, 0.242, 0.9460000000000001, 192.0, 0.0, 40.0, 3.5, 72.0, 14.5, 72.0, 0.0, 0.0, 0.0, 1.644587745143783E9, 0.0, 2022-02-12 00:55:45.143
188.0, -10327.33295289671, -10116.488947449798, -5856.246454268272, -12586.334358016773, -8511.164308925188, -5031.914118756547, -8373.745784013961, -6063.380070135602, -9919.63713403191, -12992.934941403264, -7312.283791575885, -6239.310650743324, -6208.197022461537, -9227.135387317585, -11138.991849302274, -16089.18799033022, 0.01, 0.242, 0.9460000000000001, 192.0, 0.0, 0.0, 0.0, 0.0, 0.0, 0.0, 0.0, 0.0, 0.0, 1.644587745152112E9, 0.0, 2022-02-12 00:55:45.152
190.0, -10352.836293320215, -10119.2382120178, -5857.744021146777, -12588.524828973394, -8510.136128680246, -5034.305755413265, -8383.446441107564, -6072.074898728717, -9910.67408450533, -12995.751261204632, -7316.016532899921, -6244.272738012402, -6208.264077694903, -9229.035285596286, -11138.857738835542, -16101.906132925289, 0.01, 0.242, 0.9460000000000001, 192.0, 0.0, 0.0, 0.0, 0.0, 0.0, 0.0, 0.0, 0.0, 0.0, 1.644587745158884E9, 0.0, 2022-02-12 00:55:45.158
192.0, -10351.919871797547, -10135.57733721463, -5850.502055943258, -12580.947587603045, -8501.39659659822, -5023.800435519271, -8378.864333494226, -6065.682299814499, -9905.980218169716, -12977.109906328906, -7313.557841009837, -6238.818912365307, -6199.412786890601, -9230.666962941523, -11141.472892936814, -16057.448513203683, 0.01, 0.242, 0.9460000000000001, 192.0, 0.0, 0.0, 0.0, 0.0, 0.0, 0.0, 0.0, 0.0, 0.0, 1.644587745166418E9, 0.0, 2022-02-12 00:55:45.166
194.0, -10346.33193568372, -10135.778502914727, -5853.832465867098, -12593.576323220292, -8517.199279928122, -5030.014220477846, -8382.977054474004, -6083.898971545574, -9925.023904445638, -13005.943656676252, -7280.454907471527, -6222.94917380204, -6211.438025407556, -9219.893422114066, -11146.814959861633, -16116.702987754703, 0.01, 0.243, 0.9490000000000001, 192.0, 0.0, 40.0, 3.5, 80.0, 14.5, 96.0, 0.0, 0.0, 0.0, 1.644587745181465E9, 0.0, 2022-02-12 00:55:45.181
196.0, -10339.402894902576, -10121.38397948551, -5866.841181140087, -12586.960206861522, -8513.48889034854, -5030.528310600318, -8391.336606900288, -6072.3431196621805, -9919.078340420525, -12997.606455994423, -7307.902849662644, -6240.450589710545, -6208.241725950447, -9228.96823036292, -11153.900462853964, -16074.145266311798, 0.01, 0.243, 0.9490000000000001, 192.0, 0.0, 0.0, 0.0, 0.0, 0.0, 0.0, 0.0, 0.0, 0.0, 1.644587745188578E9, 0.0, 2022-02-12 00:55:45.188
198.0, -10335.111359967155, -10109.291685735188, -5854.257149011749, -12596.280884299385, -8512.863041503793, -5024.47098785293, -8381.390080617677, -6066.554017848256, -9920.128872409925, -12992.733775703166, -7308.796919440856, -6238.505987942933, -6212.957944030517, -9228.521195473813, -11155.196864032372, -16095.737051455624, 0.01, 0.243, 0.9490000000000001, 192.0, 0.0, 0.0, 0.0, 0.0, 0.0, 0.0, 0.0, 0.0, 0.0, 1.644587745197839E9, 0.0, 2022-02-12 00:55:45.197
200.0, -10354.445618920996, -10143.266337307256, -5862.169666548928, -12584.143887060152, -8512.773634525971, -5027.779046032316, -8389.548467343864, -6071.96314000644, -9914.29506710709, -12988.866923912397, -7293.933009378077, -6231.264022739413, -6212.153281230126, -9218.507613957836, -11149.519520940725, -16107.449365550205, 0.01, 0.243, 0.9490000000000001, 192.0, 0.0, 0.0, 0.0, 0.0, 0.0, 0.0, 0.0, 0.0, 0.0, 1.644587745203933E9, 0.0, 2022-02-12 00:55:45.203
202.0, -10342.95682227097, -10136.940793626403, -5860.82856188161, -12569.39173571965, -8503.564715810386, -5016.714932526938, -8370.41537409012, -6066.509314359345, -9915.256192118668, -12978.361604018404, -7304.9524193945435, -6224.558499402821, -6207.772339316886, -9225.794282650266, -11155.107457054552, -16063.572891184438, 0.01, 0.243, 0.9490000000000001, 192.0, 0.0, 0.0, 0.0, 0.0, 0.0, 0.0, 0.0, 0.0, 0.0, 1.644587745212379E9, 0.0, 2022-02-12 00:55:45.212
204.0, -10342.219214703944, -10117.360665483555, -5851.440829210381, -12580.612311436214, -8510.180832169155, -5020.224156406422, -8368.157847900135, -6072.432526640002, -9919.43596833181, -12995.818316437999, -7294.178878567086, -6217.607106877221, -6196.350597900224, -9216.473605212404, -11155.420381476926, -16121.463909323682, 0.01, 0.2405, 0.9485000000000001, 192.0, 0.0, 40.0, 3.5, 56.0, 14.5, 80.0, 0.0, 0.0, 0.0, 1.644587745218689E9, 0.0, 2022-02-12 00:55:45.218
206.0, -10333.837310533203, -10096.819412329127, -5852.558416433146, -12563.982613561466, -8491.092442404324, -5009.56237430124, -8371.04122293487, -6057.926244488507, -9905.019093158138, -12977.869865640387, -7307.075835117797, -6231.308726228324, -6205.090129982249, -9217.010047079331, -11152.06761980863, -16072.22301628864, 0.01, 0.2405, 0.9485000000000001, 192.0, 0.0, 0.0, 0.0, 0.0, 0.0, 0.0, 0.0, 0.0, 0.0, 1.64458774522686E9, 0.0, 2022-02-12 00:55:45.226
208.0, -10324.22606041742, -10118.3888457285, -5852.267843755227, -12580.612311436214, -8504.190564655133, -5014.859737737148, -8377.769098015917, -6063.782401535797, -9909.914125193849, -12977.892217384842, -7282.421860983594, -6217.13772024366, -6195.680045566564, -9213.903154600042, -11154.146332042972, -16088.673900207747, 0.01, 0.2405, 0.9485000000000001, 192.0, 0.0, 0.0, 0.0, 0.0, 0.0, 0.0, 0.0, 0.0, 0.0, 1.644587745233714E9, 0.0, 2022-02-12 00:55:45.233
210.0, -10346.063714750257, -10150.173026343946, -5861.812038637643, -12588.591884206759, -8504.458785588597, -5028.047266965779, -8379.825458505806, -6073.4607068849455, -9918.251325875679, -12993.963121648208, -7297.6210472132025, -6220.758702845419, -6209.918106784596, -9211.91384934352, -11160.360117001548, -16113.014949919576, 0.01, 0.2405, 0.9485000000000001, 192.0, 0.0, 0.0, 0.0, 0.0, 0.0, 0.0, 0.0, 0.0, 0.0, 1.644587745240809E9, 0.0, 2022-02-12 00:55:45.240
212.0, -10355.38439218812, -10138.617174460553, -5858.593387436079, -12586.937855117067, -8504.905820477703, -5023.018124463335, -8375.489220081476, -6070.5773318502115, -9922.63226778892, -12991.012691380107, -7311.121500864208, -6241.992860077961, -6208.711112584008, -9220.16164304753, -11164.249320536772, -16070.390173243306, 0.01, 0.2405, 0.9485000000000001, 192.0, 0.0, 0.0, 0.0, 0.0, 0.0, 0.0, 0.0, 0.0, 0.0, 1.644587745248378E9, 0.0, 2022-02-12 00:55:45.248
214.0, -10353.663307865061, -10116.198374771879, -5868.718727674333, -12601.332378546284, -8519.16623344019, -5027.890804754592, -8386.888609753682, -6079.294512187781, -9929.941288225806, -13006.10011888744, -7305.086529861275, -6234.572080918799, -6213.762606830908, -9221.659209926034, -11172.653576451967, -16131.52219432857, 0.011, 0.23825000000000002, 0.9472500000000001, 192.0, 0.0, 48.0, 3.5, 48.0, 14.5, 72.0, 0.0, 0.0, 0.0, 1.644587745256813E9, 0.0, 2022-02-12 00:55:45.256
216.0, -10356.501979410885, -10130.592898201097, -5866.505904973257, -12585.641453938659, -8507.565678067886, -5025.56622333124, -8389.079080710302, -6086.581180880211, -9913.289238606601, -12991.236208824661, -7313.7590067099345, -6239.154188532137, -6200.060987479805, -9214.081968555685, -11172.02772760722, -16090.394984530805, 0.011, 0.23825000000000002, 0.9472500000000001, 192.0, 0.0, 0.0, 0.0, 0.0, 0.0, 0.0, 0.0, 0.0, 0.0, 1.644587745264256E9, 0.0, 2022-02-12 00:55:45.264
218.0, -10345.52727288333, -10142.215805317855, -5854.234797267294, -12589.642416196159, -8507.051587945412, -5022.816958763237, -8378.596112560763, -6076.075860986217, -9925.046256190093, -12985.581217477467, -7304.505384505437, -6228.693572127053, -6196.037673477849, -9217.837061624177, -11172.273596796227, -16104.56599051547, 0.011, 0.23825000000000002, 0.9472500000000001, 192.0, 0.0, 0.0, 0.0, 0.0, 0.0, 0.0, 0.0, 0.0, 0.0, 1.644587745271634E9, 0.0, 2022-02-12 00:55:45.271
220.0, -10349.014145018356, -10139.53359598322, -5867.467029984836, -12594.984483120978, -8511.365474625287, -5030.1483309445775, -8382.306502140344, -6078.556904620756, -9928.689590536307, -13001.115679873907, -7312.01557064242, -6223.619726135698, -6214.053179508827, -9223.268535526817, -11172.45241075187, -16124.928429714255, 0.011, 0.23825000000000002, 0.9472500000000001, 192.0, 0.0, 0.0, 0.0, 0.0, 0.0, 0.0, 0.0, 0.0, 0.0, 1.644587745278979E9, 0.0, 2022-02-12 00:55:45.278
222.0, -10360.055906779278, -10138.594822716097, -5857.654614168956, -12594.358634276228, -8506.82807050086, -5025.521519842329, -8376.98678695998, -6069.415041138535, -9918.787767742608, -12993.314921059004, -7311.479128775493, -6240.852921110741, -6215.215470220503, -9226.084855328185, -11175.02286136423, -16078.146228569298, 0.011, 0.23825000000000002, 0.9472500000000001, 192.0, 0.0, 0.0, 0.0, 0.0, 0.0, 0.0, 0.0, 0.0, 0.0, 1.644587745287182E9, 0.0, 2022-02-12 00:55:45.287
224.0, -10365.286214981821, -10148.92132865445, -5855.285329256693, -12606.965018149021, -8522.11666370829, -5034.0822379687115, -8379.333720127788, -6070.979663250407, -9930.29891613709, -13003.172040363794, -7289.999102353943, -6228.827682593785, -6214.790787075853, -9219.938125602976, -11174.59817821958, -16139.255897910107, 0.0095, 0.23712500000000003, 0.9476250000000002, 192.0, 0.0, 32.0, 3.5, 48.0, 14.5, 80.0, 0.0, 0.0, 0.0, 1.644587745300687E9, 0.0, 2022-02-12 00:55:45.300
226.0, -10372.48347669643, -10137.544290726697, -5869.076355585618, -12600.326550045795, -8510.180832169155, -5029.142502444089, -8375.600978803752, -6074.846515041175, -9934.076360950037, -13004.647255497845, -7313.244916587462, -6260.187180064581, -6215.953077787528, -9224.25201228285, -11176.676890453922, -16096.8993421673, 0.0095, 0.23712500000000003, 0.9476250000000002, 192.0, 0.0, 0.0, 0.0, 0.0, 0.0, 0.0, 0.0, 0.0, 0.0, 1.644587745308587E9, 0.0, 2022-02-12 00:55:45.308
228.0, -10353.976232287436, -10142.908709395972, -5862.750811904766, -12608.641398983169, -8509.130300179757, -5022.593441318684, -8369.588359545274, -6069.370337649624, -9935.618631317453, -12998.925208917286, -7312.373198553705, -6238.61774666521, -6207.9958567614385, -9210.706855142935, -11173.033556107708, -16112.836135963935, 0.0095, 0.23712500000000003, 0.9476250000000002, 192.0, 0.0, 0.0, 0.0, 0.0, 0.0, 0.0, 0.0, 0.0, 0.0, 1.6445877453168E9, 0.0, 2022-02-12 00:55:45.316
230.0, -10359.363002701164, -10151.111799611068, -5859.710974658844, -12605.445099526061, -8514.762939782493, -5036.317412414242, -8378.707871283039, -6082.311997689248, -9922.431102088822, -13004.28962758656, -7308.349884551751, -6237.120179786704, -6192.550801342822, -9220.854547125644, -11169.859608395054, -16136.081950197453, 0.0095, 0.23712500000000003, 0.9476250000000002, 192.0, 0.0, 0.0, 0.0, 0.0, 0.0, 0.0, 0.0, 0.0, 0.0, 1.644587745323223E9, 0.0, 2022-02-12 00:55:45.323
232.0, -10352.702182853483, -10156.319756069155, -5854.905349600953, -12594.40333776514, -8509.286762390944, -5032.450560623474, -8381.501839339953, -6078.467497642934, -9926.365009112957, -13003.149688619338, -7308.282829318385, -6242.216377522514, -6220.669295867598, -9232.186881564485, -11174.26290205275, -16093.121897354353, 0.0095, 0.23712500000000003, 0.9476250000000002, 192.0, 0.0, 0.0, 0.0, 0.0, 0.0, 0.0, 0.0, 0.0, 0.0, 1.644587745331468E9, 0.0, 2022-02-12 00:55:45.331
234.0, -10345.28140369432, -10155.380982802031, -5854.2795007562045, -12610.764814706423, -8518.652143317717, -5029.298964655276, -8380.94304572857, -6078.668663343033, -9934.612802816964, -13009.229363111182, -7305.77943393939, -6232.247499495447, -6216.42246442109, -9223.804977393744, -11177.928588143419, -16149.649459081826, 0.00975, 0.2375625, 0.9448125, 192.0, 0.0, 40.0, 3.5, 56.0, 14.5, 56.0, 0.0, 0.0, 0.0, 1.644587745339226E9, 0.0, 2022-02-12 00:55:45.339
236.0, -10370.516523184362, -10131.285802279212, -5862.884922371498, -12601.44413726856, -8506.40338735621, -5025.94620298698, -8380.741880028472, -6084.68128260151, -9927.907279480372, -13010.257543356127, -7323.437312059083, -6256.633252696187, -6214.99195277595, -9218.977000591398, -11176.967463131841, -16105.32594982695, 0.00975, 0.2375625, 0.9448125, 192.0, 0.0, 0.0, 0.0, 0.0, 0.0, 0.0, 0.0, 0.0, 0.0, 1.644587745346489E9, 0.0, 2022-02-12 00:55:45.346
238.0, -10362.693412625005, -10144.450979763387, -5849.093896042574, -12607.099128615753, -8511.276067647466, -5020.80530176226, -8374.75161251445, -6072.745451062376, -9939.910166252872, -12997.606455994423, -7320.39747481316, -6250.173598548603, -6208.577002117277, -9215.668942412012, -11176.92275964293, -16116.61358077688, 0.00975, 0.2375625, 0.9448125, 192.0, 0.0, 0.0, 0.0, 0.0, 0.0, 0.0, 0.0, 0.0, 0.0, 1.644587745352984E9, 0.0, 2022-02-12 00:55:45.352
240.0, -10378.876075610648, -10177.509209812786, -5858.883960113998, -12609.848393183756, -8517.713370050595, -5030.863586767147, -8382.194743418067, -6078.579256365211, -9935.506872595177, -13010.235191611671, -7305.44415777256, -6241.076438555293, -6207.459414894512, -9213.500823199847, -11178.867361410543, -16138.250069409618, 0.00975, 0.2375625, 0.9448125, 192.0, 0.0, 0.0, 0.0, 0.0, 0.0, 0.0, 0.0, 0.0, 0.0, 1.644587745361383E9, 0.0, 2022-02-12 00:55:45.361
242.0, -10352.85864506467, -10154.285747323722, -5853.4524862113585, -12596.772622677401, -8507.11864317878, -5024.8062640197595, -8383.245275407467, -6077.551076120267, -9934.590451072509, -13008.223534610694, -7310.965038653021, -6232.023982050894, -6205.067778237793, -9221.413340737026, -11183.360062046058, -16091.065536864466, 0.00975, 0.2375625, 0.9448125, 192.0, 0.0, 0.0, 0.0, 0.0, 0.0, 0.0, 0.0, 0.0, 0.0, 1.64458774536887E9, 0.0, 2022-02-12 00:55:45.368
