%OpenBCI Raw EEG Data
%Number of channels = 16
%Sample Rate = 125 Hz
%Board = OpenBCI_GUI$BoardCytonSerialDaisy
Sample Index, EXG Channel 0, EXG Channel 1, EXG Channel 2, EXG Channel 3, EXG Channel 4, EXG Channel 5, EXG Channel 6, EXG Channel 7, EXG Channel 8, EXG Channel 9, EXG Channel 10, EXG Channel 11, EXG Channel 12, EXG Channel 13, EXG Channel 14, EXG Channel 15, Accel Channel 0, Accel Channel 1, Accel Channel 2, Other, Other, Other, Other, Other, Other, Other, Analog Channel 0, Analog Channel 1, Analog Channel 2, Timestamp, Other, Timestamp (Formatted)
0.0, -4603.565288015043, -3124.215081240545, -4136.235014943482, -8274.794611310317, -1601.860118134036, 29.280785236452253, -3469.437774352762, -2338.059525258485, 0.0, 0.0, 0.0, 0.0, 0.0, 0.0, 0.0, 0.0, 0.0, 0.0, 0.0, 192.0, 0.0, 0.0, 0.0, 0.0, 0.0, 0.0, 0.0, 0.0, 0.0, 1.6444917125291317E9, 0.0, 2022-02-10 22:15:12.529
226.0, -4596.412729789345, -3121.3764096947207, -4156.351584953259, -8292.877172574661, -1610.5772984716057, 29.23608174754164, -3475.673911055793, -2360.1206970358726, -13465.048487788259, -4637.562291331565, -3670.7822884061684, -3535.2636617736416, 562.7945736401765, -2387.635694460356, -3114.04503751338, -3652.029174808166, 0.0, 0.0, 0.0, 192.0, 0.0, 0.0, 0.0, 0.0, 0.0, 0.0, 0.0, 0.0, 0.0, 1.64449171252914E9, 0.0, 2022-02-10 22:15:12.529
228.0, -4592.121194853926, -3120.907023061159, -4138.179616711094, -8284.517620148375, -1591.9359435958795, 50.09025932434313, -3460.631187037371, -2342.731039849644, -13460.66754587502, -4635.3941721194, -3662.3333290020623, -3529.049876815066, 574.7974604126764, -2366.2450750166267, -3109.194708966578, -3647.089439283543, 0.0, 0.0, 0.0, 192.0, 0.0, 0.0, 0.0, 0.0, 0.0, 0.0, 0.0, 0.0, 0.0, 1.6444917125291471E9, 0.0, 2022-02-10 22:15:12.529
230.0, -4601.844203691984, -3126.9196423196368, -4147.120314493217, -8299.515640677886, -1595.825147131103, 36.20982601759744, -3474.9139517443123, -2354.242188244127, -13461.606319142142, -4627.34754411549, -3653.8173143645904, -3529.3628012374406, 584.6545797174668, -2365.798040127521, -3104.299676930866, -3645.9942038052327, 0.004, 0.07200000000000001, 0.978, 192.0, 0.0, 16.0, 1.0, 32.0, 15.0, 72.0, 0.0, 0.0, 0.0, 1.6444917125291538E9, 0.0, 2022-02-10 22:15:12.529
232.0, -4604.10172988197, -3126.6290696417177, -4143.052297002351, -8292.318378963279, -1587.2197255158098, 50.80551514691295, -3474.73513778867, -2352.208179498694, -13474.972662326416, -4644.11135245697, -3663.2497505247297, -3518.41044645434, 574.7304051793105, -2379.522011223079, -3119.431807927109, -3666.691919170847, 0.004, 0.07200000000000001, 0.978, 192.0, 0.0, 0.0, 0.0, 0.0, 0.0, 0.0, 0.0, 0.0, 0.0, 1.6444917125291624E9, 0.0, 2022-02-10 22:15:12.529
234.0, -4608.035636906104, -3116.9060608036593, -4131.585852096779, -8284.003530025904, -1566.3878996834637, 58.248646050530205, -3449.477666554173, -2342.976909038652, -13466.501351177854, -4628.845110993995, -3647.2682532391855, -3518.3880947098846, 598.0656263906511, -2354.1304295218506, -3104.970229264525, -3650.665718396392, 0.004, 0.07200000000000001, 0.978, 192.0, 0.0, 0.0, 0.0, 0.0, 0.0, 0.0, 0.0, 0.0, 0.0, 1.6444917125292044E9, 0.0, 2022-02-10 22:15:12.529
236.0, -4597.709130967753, -3120.325877705321, -4147.433238915592, -8299.090957533235, -1568.2207427287988, 54.739422171046996, -3481.9323995032787, -2358.2207987571715, -13476.04554606027, -4642.524378600643, -3662.0651080685984, -3530.703905904759, 588.9237629084305, -2363.3840517263475, -3121.175243994623, -3669.1059075720204, 0.004, 0.07200000000000001, 0.978, 192.0, 0.0, 0.0, 0.0, 0.0, 0.0, 0.0, 0.0, 0.0, 0.0, 1.6444917125292113E9, 0.0, 2022-02-10 22:15:12.529
238.0, -4589.684854708297, -3104.9031740311593, -4129.015401484418, -8289.569114395275, -1544.1032104615224, 75.75006195903563, -3447.6224717643827, -2329.1411792208173, -13471.150514024559, -4636.198834919791, -3651.090401541043, -3520.511510433139, 603.2065276153717, -2347.983699796641, -3114.112092746746, -3662.9591778468107, 0.004, 0.07200000000000001, 0.978, 192.0, 0.0, 0.0, 0.0, 0.0, 0.0, 0.0, 0.0, 0.0, 0.0, 1.6444917125292304E9, 0.0, 2022-02-10 22:15:12.529
240.0, -4621.692552768297, -3121.5105201614524, -4144.9745470255075, -8308.277524504367, -1558.4306786573743, 57.04165184994363, -3453.8586084674134, -2337.6795456027444, -13480.225322273413, -4634.835378508017, -3655.4489917098276, -3522.41140871184, 605.7993299721874, -2345.5473596510124, -3109.9546682780588, -3660.500485956727, 0.002, 0.07, 0.978, 192.0, 0.0, 8.0, 1.0, 24.0, 15.0, 72.0, 0.0, 0.0, 0.0, 1.6444917125292375E9, 0.0, 2022-02-10 22:15:12.529
242.0, -4617.132796899414, -3117.2636887149442, -4143.409924913636, -8306.623495414675, -1545.310204662109, 76.39826254823954, -3457.278425369075, -2346.0838015179397, -13498.419642260033, -4651.643890338408, -3662.15451504642, -3534.6825164178035, 594.4446437888913, -2354.7115748776882, -3132.909909833659, -3683.7463001902465, 0.002, 0.07, 0.978, 192.0, 0.0, 0.0, 0.0, 0.0, 0.0, 0.0, 0.0, 0.0, 0.0, 1.644491712529244E9, 0.0, 2022-02-10 22:15:12.529
244.0, -4622.452512079777, -3127.3443254642875, -4136.324421921304, -8306.623495414675, -1538.4929226032405, 82.20971610661938, -3438.2347390931536, -2317.048885470496, -13487.780211899306, -4637.875215753939, -3649.2352067512525, -3515.7729406086137, 615.1870626434163, -2323.8661675293647, -3114.6485346136733, -3669.687052927858, 0.002, 0.07, 0.978, 192.0, 0.0, 0.0, 0.0, 0.0, 0.0, 0.0, 0.0, 0.0, 0.0, 1.6444917125292509E9, 0.0, 2022-02-10 22:15:12.529
246.0, -4622.094884168492, -3133.312241233855, -4147.120314493217, -8320.950963610527, -1546.0031087402235, 80.19805910564175, -3448.091858397944, -2341.6805078602442, -13504.946351640983, -4656.091887485014, -3663.9426546028444, -3527.664068658837, 609.6661817629555, -2351.2917579760265, -3123.812749840349, -3687.6802072143805, 0.002, 0.07, 0.978, 192.0, 0.0, 0.0, 0.0, 0.0, 0.0, 0.0, 0.0, 0.0, 0.0, 1.6444917125292573E9, 0.0, 2022-02-10 22:15:12.529
248.0, -4591.71886345373, -3110.75933107845, -4127.875462517198, -8306.087053547746, -1519.7845124941484, 107.35542861883982, -3427.5953087324274, -2300.5085945735686, -13496.3856335146, -4653.342622917012, -3659.204084778319, -3525.5183011911276, 615.2988213656928, -2335.109094990384, -3116.391970681187, -3682.963989134311, 0.002, 0.07, 0.978, 192.0, 0.0, 0.0, 0.0, 0.0, 0.0, 0.0, 0.0, 0.0, 0.0, 1.644491712529264E9, 0.0, 2022-02-10 22:15:12.529
250.0, -4607.3427328279895, -3115.5426043918856, -4138.91722427812, -8313.396073984632, -1518.9127944603915, 96.91716395821142, -3437.810055948503, -2322.212138439672, -13494.418680002533, -4635.01419246366, -3649.6375381514476, -3518.7233708767144, 626.2511761487933, -2320.6698680722557, -3113.150967735168, -3675.3867477639615, 0.002, 0.07, 0.98, 192.0, 0.0, 8.0, 1.0, 24.0, 15.0, 80.0, 0.0, 0.0, 0.0, 1.6444917125292706E9, 0.0, 2022-02-10 22:15:12.529
252.0, -4633.20370116278, -3120.281174216411, -4135.162131209628, -8311.049140816825, -1519.024553182668, 113.65862055523641, -3436.2454338366315, -2316.959478492675, -13511.271895321834, -4646.480637369232, -3658.8017533781235, -3526.8370541139907, 621.4008476019917, -2331.0634292439736, -3130.0935900322906, -3692.8434601835565, 0.002, 0.07, 0.98, 192.0, 0.0, 0.0, 0.0, 0.0, 0.0, 0.0, 0.0, 0.0, 0.0, 1.644491712529277E9, 0.0, 2022-02-10 22:15:12.529
254.0, -4617.803349233073, -3105.886650787193, -4122.645154314656, -8306.64584715913, -1505.0100094091904, 121.57113809241511, -3416.575898715961, -2302.4308445967254, -13501.370072528134, -4645.54186410211, -3649.3469654735286, -3511.347295206463, 639.2151879328713, -2303.6825422862225, -3116.436674170098, -3675.520858230693, 0.002, 0.07, 0.98, 192.0, 0.0, 0.0, 0.0, 0.0, 0.0, 0.0, 0.0, 0.0, 0.0, 1.6444917125292835E9, 0.0, 2022-02-10 22:15:12.529
0.0, -4614.96467768725, -3116.883709059204, -4134.044543986863, -8324.482539234465, -1506.8428524545257, 113.16688217721966, -3427.5506052435167, -2315.730132547633, -13511.450709277477, -4655.689556084819, -3657.281834755163, -3528.7146006482367, 632.8002372741983, -2312.667943557256, -3129.847720843282, -3692.3293700610843, 0.002, 0.07, 0.98, 192.0, 0.0, 0.0, 0.0, 0.0, 0.0, 0.0, 0.0, 0.0, 0.0, 1.644491712529294E9, 0.0, 2022-02-10 22:15:12.529
2.0, -4602.872383936928, -3099.270534428422, -4119.985296724474, -8315.385379241156, -1478.2996747850984, 135.7644958215351, -3407.0764073224555, -2299.4804143286246, -13509.841383676694, -4650.615710093464, -3645.569520660582, -3512.956620807245, 645.3619176580809, -2294.9430102041974, -3124.595060896285, -3694.341027062062, 0.002, 0.07, 0.98, 192.0, 0.0, 0.0, 0.0, 0.0, 0.0, 0.0, 0.0, 0.0, 0.0, 1.6444917125293007E9, 0.0, 2022-02-10 22:15:12.529
4.0, -4626.989916204205, -3110.9604967785476, -4134.223357942505, -8324.549594467831, -1489.6990644573052, 132.3223271754178, -3420.2639365510868, -2304.509556831069, -13504.991055129893, -4640.289204155112, -3644.116657270987, -3508.6427341273707, 657.677728852955, -2301.2014986516833, -3121.890499817193, -3692.150556105442, 0.006, 0.07, 0.978, 192.0, 0.0, 24.0, 1.0, 24.0, 15.0, 72.0, 0.0, 0.0, 0.0, 1.6444917125293074E9, 0.0, 2022-02-10 22:15:12.529
6.0, -4617.669238766342, -3115.207328225056, -4135.765628309921, -8327.07534159128, -1484.0440731101123, 144.8840075593004, -3405.3776747438524, -2298.2957718724933, -13528.505090296876, -4660.897512542905, -3657.572407433082, -3516.890527831379, 640.1092577110836, -2309.0693126999513, -3142.2752907604327, -3708.333219091084, 0.006, 0.07, 0.978, 192.0, 0.0, 0.0, 0.0, 0.0, 0.0, 0.0, 0.0, 0.0, 0.0, 1.644491712529314E9, 0.0, 2022-02-10 22:15:12.529
8.0, -4616.752817243674, -3109.4182264111314, -4129.730657306988, -8332.305649793821, -1470.5212677146517, 140.99480402407696, -3392.2795524930425, -2288.863335712354, -13521.732511726917, -4645.273643168645, -3644.4295816933613, -3513.4260074408066, 664.4726591673683, -2286.4493473111806, -3129.043058042891, -3692.6422944834585, 0.006, 0.07, 0.978, 192.0, 0.0, 0.0, 0.0, 0.0, 0.0, 0.0, 0.0, 0.0, 0.0, 1.6444917125293207E9, 0.0, 2022-02-10 22:15:12.529
10.0, -4638.5681198320535, -3110.5134618894413, -4140.615956856723, -8352.802199459338, -1481.3842155199309, 140.74893483506858, -3416.8217679049694, -2309.851623755887, -13539.859776480173, -4660.271663698157, -3668.72592791628, -3535.487179218195, 640.7574583002876, -2296.6193910383454, -3144.6445756726953, -3708.2438121132627, 0.006, 0.07, 0.978, 192.0, 0.0, 0.0, 0.0, 0.0, 0.0, 0.0, 0.0, 0.0, 0.0, 1.6444917125293272E9, 0.0, 2022-02-10 22:15:12.529
12.0, -4620.083227167514, -3103.2491449414665, -4124.321535148804, -8337.357144040721, -1460.4182792208528, 157.37863270981703, -3406.6517241778047, -2269.1714488472285, -13530.941430442504, -4650.459247882277, -3647.6482328949255, -3523.8419203569797, 655.1519817295053, -2288.4833560566135, -3146.3209565068432, -3710.702504003347, 0.006, 0.07, 0.978, 192.0, 0.0, 0.0, 0.0, 0.0, 0.0, 0.0, 0.0, 0.0, 0.0, 1.644491712529334E9, 0.0, 2022-02-10 22:15:12.529
14.0, -4648.20172169229, -3122.337534706299, -4136.704401577044, -8352.332812825778, -1471.7282619152381, 141.75476333555739, -3393.6877123937265, -2295.0100654375633, -13538.652782279585, -4651.085096727025, -3647.6258811504704, -3520.1985860107648, 660.5611038876896, -2283.9012484432756, -3141.3141657488545, -3706.768596979213, 0.004, 0.07200000000000001, 0.984, 192.0, 0.0, 16.0, 1.0, 32.0, 15.0, 96.0, 0.0, 0.0, 0.0, 1.6444917125293407E9, 0.0, 2022-02-10 22:15:12.529
16.0, -4644.0890007125145, -3127.9478225645807, -4136.257366687938, -8354.79150471586, -1466.9673403462577, 144.36991743682833, -3396.459328706185, -2299.9050974732754, -13558.747000544907, -4676.2531609837015, -3661.2827970126627, -3543.6902694332925, 645.7866008027316, -2300.59800155139, -3158.5697124683516, -3737.345783394073, 0.004, 0.07200000000000001, 0.984, 192.0, 0.0, 0.0, 0.0, 0.0, 0.0, 0.0, 0.0, 0.0, 0.0, 1.6444917125293472E9, 0.0, 2022-02-10 22:15:12.529
18.0, -4628.308669127067, -3113.083912501802, -4124.612107826723, -8349.918824424603, -1452.2375407502104, 159.4796966886159, -3406.964648600179, -2271.406623292759, -13550.745076029907, -4649.855750781983, -3652.2526922527186, -3527.9769930812113, 664.0703277671728, -2273.887666927298, -3140.844779115293, -3715.0610941721316, 0.004, 0.07200000000000001, 0.984, 192.0, 0.0, 0.0, 0.0, 0.0, 0.0, 0.0, 0.0, 0.0, 0.0, 1.644491712529354E9, 0.0, 2022-02-10 22:15:12.529
20.0, -4644.0890007125145, -3122.0022585394695, -4138.157264966639, -8366.593225788263, -1458.1384012864116, 151.9471588071774, -3417.872299894369, -2299.2345451396163, -13561.58567209073, -4665.25610271169, -3660.0087475787104, -3531.0838855604993, 655.8448858076198, -2293.2219258811388, -3156.2898345339104, -3733.4789316033048, 0.004, 0.07200000000000001, 0.984, 192.0, 0.0, 0.0, 0.0, 0.0, 0.0, 0.0, 0.0, 0.0, 0.0, 1.6444917125293608E9, 0.0, 2022-02-10 22:15:12.529
22.0, -4633.471922096243, -3114.76029333595, -4121.304049647338, -8353.964490171014, -1438.3124039545542, 167.52632469252643, -3389.7538053695926, -2281.174335619728, -13560.803361034796, -4671.603998136998, -3654.979605076266, -3533.766094895136, 668.2948074692258, -2284.92942868822, -3153.6076251992736, -3737.1669694384304, 0.004, 0.07200000000000001, 0.984, 192.0, 0.0, 0.0, 0.0, 0.0, 0.0, 0.0, 0.0, 0.0, 0.0, 1.6444917125293677E9, 0.0, 2022-02-10 22:15:12.529
24.0, -4642.144398944903, -3126.2490899859777, -4126.7802270388875, -8369.297786867355, -1447.0966395254898, 154.67407163072488, -3402.4719479646624, -2287.0304926670187, -13560.557491845786, -4660.4057741648885, -3648.2964334841295, -3531.0391820715886, 667.6689586244772, -2276.860448939854, -3146.9244536071365, -3731.6684403024246, 0.004, 0.068, 0.982, 192.0, 0.0, 16.0, 1.0, 16.0, 15.0, 88.0, 0.0, 0.0, 0.0, 1.6444917125293741E9, 0.0, 2022-02-10 22:15:12.529
26.0, -4635.327116886034, -3117.174281737123, -4130.289450918371, -8372.98582470248, -1436.6136713759508, 171.75080439457946, -3389.932619325235, -2293.020760181041, -13575.220236208468, -4674.956759805294, -3658.0417940666434, -3544.830208400513, 658.8847230535416, -2277.9780361626194, -3165.878732905237, -3753.304928935162, 0.004, 0.068, 0.982, 192.0, 0.0, 0.0, 0.0, 0.0, 0.0, 0.0, 0.0, 0.0, 0.0, 1.6444917125293808E9, 0.0, 2022-02-10 22:15:12.529
28.0, -4638.121084942947, -3112.435711912598, -4118.823006012798, -8356.825513461294, -1417.0782467220124, 181.87614463283356, -3400.057959563489, -2284.5494490324795, -13563.709087813984, -4656.583625863031, -3643.6472706374257, -3527.0382198140887, 683.8963250990302, -2276.793393706488, -3152.4453344875974, -3739.5809578396033, 0.004, 0.068, 0.982, 192.0, 0.0, 0.0, 0.0, 0.0, 0.0, 0.0, 0.0, 0.0, 0.0, 1.6444917125293877E9, 0.0, 2022-02-10 22:15:12.529
30.0, -4670.262893469679, -3132.0605435443576, -4146.6285761152, -8376.56210381533, -1423.873177036426, 176.2435050300962, -3390.938447825724, -2295.412396837759, -13580.696413600019, -4665.814896323072, -3665.06024182561, -3536.2247867852197, 671.6475691375219, -2279.8779344413206, -3170.81846842986, -3752.5002661347708, 0.004, 0.068, 0.982, 192.0, 0.0, 0.0, 0.0, 0.0, 0.0, 0.0, 0.0, 0.0, 0.0, 1.6444917125293944E9, 0.0, 2022-02-10 22:15:12.529
32.0, -4650.526303115643, -3109.7311508335056, -4126.713171805522, -8366.883798466182, -1405.1647669273339, 189.36397902536143, -3376.6556831187827, -2283.1636408762506, -13582.395146178622, -4669.122954502458, -3652.409154463906, -3530.7262576492144, 679.0907000411391, -2272.323044815427, -3162.9953578705026, -3753.1484667239747, 0.004, 0.069, 0.98, 192.0, 0.0, 16.0, 1.0, 24.0, 15.0, 72.0, 0.0, 0.0, 0.0, 1.6444917125294032E9, 0.0, 2022-02-10 22:15:12.529
34.0, -4656.628329351942, -3127.210214997556, -4140.995936512463, -8387.045071964869, -1415.1336449544008, 185.8324034014229, -3399.5662211854724, -2278.156850118262, -13583.646843868119, -4657.455343896788, -3650.106924785009, -3541.410391498851, 685.773871633276, -2265.0363761229964, -3163.263578803966, -3749.527484122215, 0.004, 0.069, 0.98, 192.0, 0.0, 0.0, 0.0, 0.0, 0.0, 0.0, 0.0, 0.0, 0.0, 1.64449171252941E9, 0.0, 2022-02-10 22:15:12.529
36.0, -4646.234768180224, -3134.206311012067, -4140.615956856723, -8389.459060366042, -1402.3931506148758, 197.70117970719096, -3369.0784417484338, -2276.54752451748, -13601.304721987812, -4663.378556177444, -3655.650157409925, -3543.533807222105, 674.0168540497845, -2264.3881755337925, -3174.037119631424, -3771.2533797327737, 0.004, 0.069, 0.98, 192.0, 0.0, 0.0, 0.0, 0.0, 0.0, 0.0, 0.0, 0.0, 0.0, 1.6444917125294168E9, 0.0, 2022-02-10 22:15:12.529
38.0, -4663.959701533282, -3127.8584155867597, -4135.72092482101, -8384.742842285972, -1408.9869152291913, 196.36007503987256, -3384.6576076337824, -2271.7866029484994, -13594.040405039837, -4664.697309100307, -3653.8173143645904, -3534.928385606812, 693.7534444038206, -2269.014986636041, -3158.010918856969, -3759.7198795938352, 0.004, 0.069, 0.98, 192.0, 0.0, 0.0, 0.0, 0.0, 0.0, 0.0, 0.0, 0.0, 0.0, 1.6444917125294237E9, 0.0, 2022-02-10 22:15:12.529
40.0, -4675.917884816871, -3141.2918140043994, -4149.48959940548, -8402.959514017048, -1414.4854443651968, 189.00635111407652, -3382.6906541217154, -2303.861356241865, -13610.64775117013, -4669.324120202556, -3666.960140104311, -3555.246121316686, 672.0946040266281, -2283.6106757653565, -3183.8271837028487, -3783.010397316265, 0.004, 0.069, 0.98, 192.0, 0.0, 0.0, 0.0, 0.0, 0.0, 0.0, 0.0, 0.0, 0.0, 1.644491712529431E9, 0.0, 2022-02-10 22:15:12.529
42.0, -4669.279416713645, -3106.914831032137, -4130.0659334738175, -8391.649531322662, -1388.4903655636747, 212.6321450033361, -3376.230999974132, -2260.3872132762926, -13605.55155343432, -4681.908152330894, -3661.6404249239476, -3546.931272379312, 684.7009878994213, -2269.663187225245, -3179.625055745251, -3780.685815892913, 0.003, 0.0655, 0.981, 192.0, 0.0, 8.0, 0.5, 120.0, 15.0, 88.0, 0.0, 0.0, 0.0, 1.6444917125294375E9, 0.0, 2022-02-10 22:15:12.529
44.0, -4681.662283141885, -3127.14315976419, -4141.599433612756, -8401.171374460624, -1397.9898569571803, 213.0344764035316, -3408.2386980341316, -2270.333739558904, -13592.967521305982, -4651.889759527417, -3649.6822416403584, -3528.4910832036835, 690.1995170354268, -2241.5446927004687, -3177.8369161888263, -3773.6673681339466, 0.003, 0.0655, 0.981, 192.0, 0.0, 0.0, 0.0, 0.0, 0.0, 0.0, 0.0, 0.0, 0.0, 1.6444917125294442E9, 0.0, 2022-02-10 22:15:12.529
46.0, -4676.364919705978, -3149.0702210748464, -4147.254424959949, -8404.322970428822, -1388.9374004527808, 215.15789212678578, -3359.288377677009, -2286.471699055636, -13619.230821040968, -4669.860562069483, -3663.853247625023, -3536.7835803966022, 682.3764064760693, -2265.2598935675496, -3200.8592129777926, -3792.8004613876897, 0.003, 0.0655, 0.981, 192.0, 0.0, 0.0, 0.0, 0.0, 0.0, 0.0, 0.0, 0.0, 0.0, 1.644491712529451E9, 0.0, 2022-02-10 22:15:12.529
48.0, -4678.6000941515085, -3138.6319564142177, -4137.017325999418, -8399.85262153776, -1377.6497695028509, 227.33959285492813, -3386.1328227678327, -2256.92269288572, -13616.705073917517, -4681.4164139528775, -3649.0116893066993, -3544.9419671227897, 703.4764532418792, -2254.0393178509853, -3181.9496371686027, -3784.1056327945753, 0.003, 0.0655, 0.981, 192.0, 0.0, 0.0, 0.0, 0.0, 0.0, 0.0, 0.0, 0.0, 0.0, 1.6444917125294583E9, 0.0, 2022-02-10 22:15:12.529
50.0, -4698.135518805447, -3140.151875037179, -4157.580930898301, -8420.99737179248, -1395.2852958780882, 224.54562479801476, -3414.363076014886, -2274.3570535608596, -13626.517489733398, -4674.219152238268, -3669.083555827565, -3559.470601018739, 699.1625665620049, -2255.8498091518654, -3208.5705648148737, -3793.113385810064, 0.003, 0.0655, 0.981, 192.0, 0.0, 0.0, 0.0, 0.0, 0.0, 0.0, 0.0, 0.0, 0.0, 1.6444917125294647E9, 0.0, 2022-02-10 22:15:12.529
52.0, -4686.110280288492, -3126.3161452193435, -4136.525587621401, -8412.302543199366, -1365.1327926078789, 239.8565697499001, -3351.6664328177494, -2279.0956233853844, -13620.88485013066, -4690.714739646285, -3659.1370295449533, -3554.8437899164906, 699.7660636622982, -2244.5845299463904, -3201.909744967192, -3798.008417845776, 0.0035, 0.06375, 0.9815, 192.0, 0.0, 16.0, 0.5, 120.0, 15.0, 88.0, 0.0, 0.0, 0.0, 1.6444917125294714E9, 0.0, 2022-02-10 22:15:12.529
54.0, -4695.408605981899, -3149.0255175859356, -4150.003689527952, -8421.489110170498, -1378.6332462588844, 224.0091829310874, -3395.967590328168, -2274.6476262387787, -13623.723521676484, -4677.773079606662, -3664.6132069365035, -3540.7174874207367, 708.99733412234, -2241.2094165336393, -3201.01567518898, -3795.326208511139, 0.0035, 0.06375, 0.9815, 192.0, 0.0, 0.0, 0.0, 0.0, 0.0, 0.0, 0.0, 0.0, 0.0, 1.6444917125294783E9, 0.0, 2022-02-10 22:15:12.529
56.0, -4713.535870735153, -3162.5036194924855, -4155.479866919502, -8424.707761372061, -1377.3591968249318, 230.31237486748398, -3406.8528898779023, -2250.597149204868, -13658.27931860439, -4698.157870549902, -3690.8094514381232, -3563.248045831686, 696.5921159496446, -2267.3162540574376, -3220.1040649538118, -3816.0462756212087, 0.0035, 0.06375, 0.9815, 192.0, 0.0, 0.0, 0.0, 0.0, 0.0, 0.0, 0.0, 0.0, 0.0, 1.6444917125294852E9, 0.0, 2022-02-10 22:15:12.529
58.0, -4704.081082830558, -3143.661098916662, -4142.694669091066, -8416.079988012312, -1369.5360862655743, 251.0100902330983, -3364.3398719239085, -2273.284169827005, -13636.374609038188, -4687.920771589372, -3659.7405266452465, -3542.058592088055, 721.2013865949377, -2225.674954137201, -3207.3412188698317, -3797.583734701125, 0.0035, 0.06375, 0.9815, 192.0, 0.0, 0.0, 0.0, 0.0, 0.0, 0.0, 0.0, 0.0, 0.0, 1.644491712529492E9, 0.0, 2022-02-10 22:15:12.529
60.0, -4760.139257924468, -3207.9223642256698, -4176.423451474125, -8448.020630838946, -1379.7955369705603, 229.5077120670929, -3369.9501597821904, -2285.0635391549517, -13654.70303949154, -4687.78666112264, -3678.381881520973, -3558.8224004295353, 710.5843079786669, -2230.0782477948965, -3214.091445695334, -3818.9296506559435, 0.0035, 0.06375, 0.9815, 192.0, 0.0, 0.0, 0.0, 0.0, 0.0, 0.0, 0.0, 0.0, 0.0, 1.6444917125294993E9, 0.0, 2022-02-10 22:15:12.529
62.0, -4773.170324941912, -3214.002038717513, -4159.614939643734, -8442.119770302746, -1353.3310715354767, 261.82833454946694, -3333.315650619942, -2256.4533062521587, -13681.458077604542, -4735.798208212639, -3697.3808643079838, -3578.894266950401, 714.1605870915159, -2235.241500764072, -3214.091445695334, -3822.2824123242394, 0.0035, 0.06375, 0.9815, 192.0, 0.0, 0.0, 1.0, 16.0, 15.0, 104.0, 0.0, 0.0, 0.0, 1.6444917125295062E9, 0.0, 2022-02-10 22:15:12.529
64.0, -4825.026372078225, -3265.0757747978896, -4171.081384549307, -8455.709630931573, -1362.450583273242, 249.9595582436989, -3362.61878760085, -2262.532980744002, -13676.18306591309, -4734.054772145125, -3697.2020503523413, -3592.2606101346746, 721.5813662506779, -2224.4903116810697, -3206.4695008360745, -3814.0569703646865, 0.0035, 0.06375, 0.9815, 192.0, 0.0, 0.0, 0.0, 0.0, 0.0, 0.0, 0.0, 0.0, 0.0, 1.6444917125295143E9, 0.0, 2022-02-10 22:15:12.529
66.0, -4856.3411660601105, -3286.399339008253, -4172.556599683357, -8470.707651461084, -1351.095897089946, 269.986721275654, -3369.704290593182, -2266.243370323583, -13698.646569090673, -4747.287004862667, -3719.0620564296314, -3605.850470763501, 707.4550637549238, -2237.141399042773, -3227.9271755131695, -3833.7041537409013, 0.0035, 0.06375, 0.9815, 192.0, 0.0, 0.0, 0.0, 0.0, 0.0, 0.0, 0.0, 0.0, 0.0, 1.6444917125295355E9, 0.0, 2022-02-10 22:15:12.529
68.0, -4917.204966211912, -3349.52066535004, -4163.101811778762, -8459.397668766698, -1335.1814550377674, 275.7758230895785, -3364.0716509904446, -2235.1297420417955, -13686.509571851442, -4745.70003100634, -3713.3176581046177, -3593.2217351462527, 734.9477094349515, -2212.420369675204, -3208.7940822594264, -3816.6944762104126, 0.0035, 0.06375, 0.9815, 192.0, 0.0, 0.0, 0.0, 0.0, 0.0, 0.0, 0.0, 0.0, 0.0, 1.6444917125295424E9, 0.0, 2022-02-10 22:15:12.529
70.0, -4966.736431924872, -3414.2289655481536, -4186.660550434655, -8474.172171851656, -1339.9647283512031, 261.2695409380843, -3403.589535187428, -2258.7331841866, -13726.161566515157, -4772.700938308351, -3735.177664181908, -3632.560805387593, 730.0079739103287, -2247.3337945143935, -3225.803759789915, -3831.2454618508177, 0.0035, 0.06375, 0.9815, 192.0, 0.0, 0.0, 0.0, 0.0, 0.0, 0.0, 0.0, 0.0, 0.0, 1.6444917125295491E9, 0.0, 2022-02-10 22:15:12.529
72.0, -4974.291321550765, -3402.896631109313, -4165.15817226865, -8466.505523503485, -1316.2718792285775, 278.8603638244109, -3346.0784967039226, -2227.2619279935275, -13720.48422342351, -4788.503621638253, -3729.2544519012517, -3642.4626281812943, 741.2061978824376, -2237.700192654156, -3229.111817969301, -3829.837301950133, 7.5E-4, 0.063875, 0.98175, 192.0, 127.5, 120.0, 1.0, 0.0, 15.0, 88.0, 0.0, 0.0, 0.0, 1.64449171252964E9, 0.0, 2022-02-10 22:15:12.529
74.0, -4986.115394367623, -3423.6614017082934, -4181.676111421122, -8493.618189527773, -1323.3350304764547, 270.2996456980283, -3319.591679524384, -2260.8118964209434, -13729.022589805436, -4786.514316381731, -3743.2242921858183, -3638.394610690428, 752.3373666211804, -2214.1861574871727, -3205.9554107136028, -3828.943232171921, 7.5E-4, 0.063875, 0.98175, 192.0, 0.0, 0.0, 0.0, 0.0, 0.0, 0.0, 0.0, 0.0, 0.0, 1.6444917125296476E9, 0.0, 2022-02-10 22:15:12.529
76.0, -4976.41473727402, -3407.2328695336428, -4183.1289748107165, -8491.114794148778, -1315.3778094503652, 274.16649748879644, -3450.6846607547595, -2293.601905536879, -13729.134348527712, -4804.060435779147, -3759.4069551714606, -3640.361564202495, 734.9700611794068, -2237.409619976237, -3233.1127802268006, -3864.393098878038, 7.5E-4, 0.063875, 0.98175, 192.0, 0.0, 0.0, 0.0, 0.0, 0.0, 0.0, 0.0, 0.0, 0.0, 1.6444917125296545E9, 0.0, 2022-02-10 22:15:12.529
78.0, -5019.844176750681, -3439.8887681828464, -4164.9346548240965, -8493.953465694603, -1302.9725912776698, 278.59214289094723, -3310.5615747644397, -2216.667201121712, -13695.562028355842, -4778.579447100097, -3725.7675797662237, -3622.9495552718113, 764.3179016492251, -2213.2250324755946, -3234.4538848941193, -3849.5515405597143, 7.5E-4, 0.063875, 0.98175, 192.0, 0.0, 0.0, 0.0, 0.0, 0.0, 0.0, 0.0, 0.0, 0.0, 1.6444917125296614E9, 0.0, 2022-02-10 22:15:12.529
80.0, -5017.609002305151, -3468.253131896631, -4181.7208149100325, -8505.15168966671, -1305.028951767558, 281.72138711469023, -3290.93674313268, -2242.5281694565024, -13747.48513072552, -4815.3704184735325, -3745.3253561646175, -3653.727907386769, 761.2333609143926, -2241.5223409560135, -3213.77852127296, -3856.6593952965018, 7.5E-4, 0.063875, 0.98175, 192.0, 0.0, 0.0, 0.0, 0.0, 0.0, 0.0, 0.0, 0.0, 0.0, 1.644491712529668E9, 0.0, 2022-02-10 22:15:12.529
82.0, -5023.733380285905, -3471.896466242846, -4163.146515267672, -8488.611398769785, -1286.454652125198, 307.6494106828464, -3311.6568102427495, -2228.8489018498544, -13743.461816723564, -4820.757188887262, -3734.3506496370615, -3645.8377415940454, 767.8941807620741, -2208.821738817899, -3223.7250475555716, -3854.580683062158, 0.001375, 0.06293750000000001, 0.979875, 192.0, 0.0, 8.0, 0.5, 120.0, 15.0, 72.0, 0.0, 0.0, 0.0, 1.644491712529675E9, 0.0, 2022-02-10 22:15:12.529
84.0, -4998.475909051408, -3451.77989623307, -4175.372919484726, -8501.217782642578, -1291.975533005659, 300.0274658235867, -3355.5779880974283, -2231.732276884589, -13737.493900953998, -4825.808683134161, -3732.495454847271, -3678.0242536096875, 780.478212890412, -2212.509776653025, -3221.646335321228, -3843.0248311787645, 0.001375, 0.06293750000000001, 0.979875, 192.0, 0.0, 0.0, 0.0, 0.0, 0.0, 0.0, 0.0, 0.0, 0.0, 1.644491712529708E9, 0.0, 2022-02-10 22:15:12.529
86.0, -4971.31853953821, -3438.3688495598853, -4187.77813765742, -8509.152651924212, -1299.7986435650164, 290.99736106364264, -3344.4468193586854, -2248.0043468480526, -13734.1411392857, -4799.94771479937, -3743.0007747412656, -3663.3838609914615, 767.8718290176188, -2215.1472824987513, -3248.9601670456136, -3870.2492559253287, 0.001375, 0.06293750000000001, 0.979875, 192.0, 0.0, 0.0, 0.0, 0.0, 0.0, 0.0, 0.0, 0.0, 0.0, 1.6444917125297148E9, 0.0, 2022-02-10 22:15:12.529
88.0, -4983.969626899913, -3436.3348408144525, -4176.579913685312, -8501.486003576041, -1284.2865329130332, 301.8603088689219, -3335.4390663431964, -2237.454323465148, -13733.247069507488, -4790.269409450222, -3735.1553124374527, -3639.087514768543, 785.8426315596857, -2204.373741671293, -3233.4480563936304, -3865.8683140120884, 0.001375, 0.06293750000000001, 0.979875, 192.0, 0.0, 0.0, 0.0, 0.0, 0.0, 0.0, 0.0, 0.0, 0.0, 1.644491712529722E9, 0.0, 2022-02-10 22:15:12.529
0.0, -3562.7116039647585, -2800.2041936164137, -2973.854896289694, -5544.394915627828, -1033.0082217464712, -275.3511399449277, -1903.876889214145, -1967.0205673003875, -6869.674547871894, -2414.7036569957327, -1871.2880457983074, -1828.9091383110451, 385.142908709396, -1108.8253389388728, -1627.8104934466473, -1944.557064122804, 0.0046875, 0.06446875, 0.9819375, 192.0, 0.0, 32.0, 1.0, 8.0, 15.0, 96.0, 0.0, 0.0, 0.0, 1.6444917126106396E9, 0.0, 2022-02-10 22:15:12.610
2.0, -7142.388181971095, -5612.724198427702, -5965.501781165813, -11107.610000087023, -2086.5353449029144, -571.0423673441849, -3831.9830694178427, -3967.7252134949226, -16746.41868429407, -6562.762744756073, -6431.17802514768, -5968.586321900645, -1599.4237779884074, -3373.19116272821, -5313.7249128490585, -6566.741355269117, 0.0046875, 0.06446875, 0.9819375, 192.0, 0.0, 0.0, 0.0, 0.0, 0.0, 0.0, 0.0, 0.0, 0.0, 1.644491713089007E9, 0.0, 2022-02-10 22:15:13.089
4.0, -7137.090818535187, -5605.951619857743, -5959.019775273773, -11104.43605237437, -2081.6626646116574, -566.0579283306514, -3831.3348688286387, -3963.612492515146, -16754.957050675996, -6574.832686761938, -6440.074019440892, -5982.869086607586, -1614.6229642180163, -3386.579857656939, -5328.946450823123, -6584.600399088908, 0.0046875, 0.06446875, 0.9819375, 192.0, 0.0, 0.0, 0.0, 0.0, 0.0, 0.0, 0.0, 0.0, 0.0, 1.6444917130890155E9, 0.0, 2022-02-10 22:15:13.089
6.0, -7136.21910050143, -5604.185832045774, -5955.197626971916, -11102.871430262498, -2079.248676210484, -563.8227538851206, -3833.100656640608, -3948.122733607618, -16743.088274370228, -6565.467305835165, -6429.8145687359065, -5966.775830599765, -1602.7094844233377, -3363.155229467777, -5315.401293683207, -6570.1611721707795, 0.0046875, 0.06446875, 0.9819375, 192.0, 0.0, 0.0, 0.0, 0.0, 0.0, 0.0, 0.0, 0.0, 0.0, 1.6444917130890281E9, 0.0, 2022-02-10 22:15:13.089
8.0, -7139.08012379171, -5628.146902101863, -5969.033356789751, -11112.326218167093, -2097.085368285819, -578.8654779035423, -3846.33288935815, -3973.648425775579, -16756.231100109948, -6580.286512409033, -6447.137170688769, -5978.331682483159, -1621.3284875546085, -3392.212497259676, -5330.354610723807, -6586.142669456323, 0.004, 0.066, 0.984, 192.0, 0.0, 16.0, 1.0, 8.0, 15.0, 96.0, 0.0, 0.0, 0.0, 1.6444917130890348E9, 0.0, 2022-02-10 22:15:13.089
10.0, -7113.666190346025, -5609.9749338596985, -5950.056725747196, -11097.439956359858, -2073.347815674283, -566.5049632197575, -3837.302784598206, -3964.7300797379116, -16745.12228311566, -6574.363300128377, -6432.899109470739, -5970.933255068452, -1612.3207345391197, -3390.7819856145366, -5324.543157165427, -6582.409928132288, 0.004, 0.066, 0.984, 192.0, 0.0, 0.0, 0.0, 0.0, 0.0, 0.0, 0.0, 0.0, 0.0, 1.6444917130890417E9, 0.0, 2022-02-10 22:15:13.089
12.0, -7143.79634187178, -5618.982686875187, -5966.485257921846, -11108.43701463187, -2095.0737112848415, -585.5262977512239, -3856.011194707298, -3972.5978937861796, -16740.517823757866, -6572.463401849676, -6428.7640367465065, -5963.557179398201, -1609.1020833375555, -3391.7654623705703, -5323.7608461094915, -6578.9677594861705, 0.004, 0.066, 0.984, 192.0, 0.0, 0.0, 0.0, 0.0, 0.0, 0.0, 0.0, 0.0, 0.0, 1.6444917130890484E9, 0.0, 2022-02-10 22:15:13.089
14.0, -7140.756504625858, -5616.032256607086, -5962.394888686525, -11101.619732573, -2093.9561240620765, -570.7964981551764, -3852.1890464054404, -3977.9623124554532, -16754.5547192758, -6584.0192537330695, -6441.6162898083085, -5981.28211275126, -1628.3916388024854, -3403.902459609802, -5333.752075881013, -6587.72964331265, 0.004, 0.066, 0.984, 192.0, 0.0, 0.0, 0.0, 0.0, 0.0, 0.0, 0.0, 0.0, 0.0, 1.644491713089055E9, 0.0, 2022-02-10 22:15:13.089
16.0, -7136.733190623902, -5623.810663677534, -5957.633967117545, -11100.05511046113, -2095.0066560514756, -572.2717132892267, -3853.910130728499, -3972.9331699530094, -16745.524614515856, -6578.923055997259, -6427.758208246018, -5967.178161999961, -1615.6734962074156, -3388.1444797688105, -5323.202052498109, -6575.6820530512405, 0.004, 0.066, 0.984, 192.0, 0.0, 0.0, 0.0, 0.0, 0.0, 0.0, 0.0, 0.0, 0.0, 1.6444917130890615E9, 0.0, 2022-02-10 22:15:13.089
18.0, -7146.187978528497, -5631.745532959168, -5972.341414969136, -11113.264991434216, -2102.8744700997436, -583.4028820279697, -3852.725488272368, -3979.2363618894055, -16756.32050708777, -6594.725739327162, -6442.51035958652, -5980.879781351064, -1638.5616825296502, -3400.3038287524973, -5339.943509095134, -6586.120317711869, 0.004, 0.07, 0.984, 192.0, 0.0, 16.0, 1.0, 24.0, 15.0, 96.0, 0.0, 0.0, 0.0, 1.644491713089068E9, 0.0, 2022-02-10 22:15:13.089
20.0, -7132.151083010564, -5609.997285604154, -5950.526112380757, -11100.256276161228, -2093.3302752173277, -573.3669487675368, -3847.3834213475493, -3980.3986526010817, -16744.809358693285, -6588.467250879676, -6430.954507703127, -5976.342377226637, -1630.0680196366334, -3396.3699217283634, -5328.834692100846, -6582.029948476547, 0.004, 0.07, 0.984, 192.0, 0.0, 0.0, 0.0, 0.0, 0.0, 0.0, 0.0, 0.0, 0.0, 1.6444917130890749E9, 0.0, 2022-02-10 22:15:13.089
22.0, -7152.312356509252, -5634.4500940382595, -5967.401679444513, -11112.840308289566, -2114.2962115164055, -588.6331902305114, -3873.803183293722, -3984.8913532365987, -16744.652896482097, -6577.939579241226, -6435.044876938448, -5969.413336445491, -1630.0680196366334, -3396.191107772721, -5328.789988611936, -6581.538210098531, 0.004, 0.07, 0.984, 192.0, 0.0, 0.0, 0.0, 0.0, 0.0, 0.0, 0.0, 0.0, 0.0, 1.6444917130890813E9, 0.0, 2022-02-10 22:15:13.089
24.0, -7150.099533808177, -5633.936003915787, -5968.474563178368, -11110.538078610669, -2118.27482202945, -578.0608151031513, -3859.6768807979684, -3954.6717947330235, -16762.534292046344, -6596.491527139131, -6452.076906213392, -5984.009025574806, -1657.2477408942868, -3394.6041339163944, -5342.782180640957, -6588.668416579773, 0.004, 0.07, 0.984, 192.0, 0.0, 0.0, 0.0, 0.0, 0.0, 0.0, 0.0, 0.0, 0.0, 1.644491713089088E9, 0.0, 2022-02-10 22:15:13.089
26.0, -7149.049001818777, -5638.11578012893, -5957.5892636286335, -11103.430223873882, -2113.022162082453, -574.909219134953, -3845.170598646474, -3966.4064605720596, -16749.637335495634, -6594.2340009491445, -6438.688211284663, -5969.882723079053, -1648.3070431121641, -3392.1007385374, -5324.364343209785, -6573.066898949969, 0.003, 0.07200000000000001, 0.983, 192.0, 0.0, 8.0, 1.0, 40.0, 15.0, 88.0, 0.0, 0.0, 0.0, 1.6444917130890944E9, 0.0, 2022-02-10 22:15:13.089
28.0, -7169.366737528651, -5659.59580655048, -5975.627121404067, -11121.624543860502, -2141.9229676631653, -596.0092659007628, -3860.8615232540997, -3986.7241962819335, -16764.188321136036, -6607.0862540109465, -6451.540464346464, -5989.552258199723, -1667.9765782328343, -3416.195919060221, -5338.088314305343, -6586.723814812161, 0.003, 0.07200000000000001, 0.983, 192.0, 0.0, 0.0, 0.0, 0.0, 0.0, 0.0, 0.0, 0.0, 0.0, 1.6444917130891013E9, 0.0, 2022-02-10 22:15:13.089
30.0, -7152.625280931626, -5641.580300519503, -5958.684499106944, -11108.772290798699, -2132.512883247481, -589.326094308626, -3857.1287819300633, -3986.7912515152993, -16760.723800745465, -6607.2650679665885, -6451.451057368643, -5985.126612797572, -1667.8424677661023, -3417.0676370939777, -5334.132055536754, -6585.762689800584, 0.003, 0.07200000000000001, 0.983, 192.0, 0.0, 0.0, 0.0, 0.0, 0.0, 0.0, 0.0, 0.0, 0.0, 1.644491713089108E9, 0.0, 2022-02-10 22:15:13.089
32.0, -7175.982853887422, -5658.098239671975, -5978.42108946098, -11123.367979928014, -2157.9491684376203, -603.6535625044778, -3884.934352032465, -4003.756225556878, -16759.337992589237, -6604.895783054327, -6452.143961446758, -5981.840906362642, -1673.117479457555, -3417.1123405828885, -5332.075695046866, -6587.260256679089, 0.003, 0.07200000000000001, 0.983, 192.0, 0.0, 0.0, 0.0, 0.0, 0.0, 0.0, 0.0, 0.0, 0.0, 1.6444917130891147E9, 0.0, 2022-02-10 22:15:13.089
34.0, -7164.22583630393, -5662.143905418385, -5974.978920814863, -11120.417549659915, -2147.5332555214472, -587.649713474478, -3858.6263488085688, -3985.494850336892, -16775.543007319335, -6621.346666973433, -6466.627891853797, -5991.6309704340665, -1691.2223924663535, -3430.411628533796, -5346.470218476084, -6596.133899227846, 0.003, 0.07200000000000001, 0.983, 192.0, 0.0, 0.0, 0.0, 0.0, 0.0, 0.0, 0.0, 0.0, 0.0, 1.644491713089121E9, 0.0, 2022-02-10 22:15:13.089
36.0, -7158.168513556542, -5669.184704921807, -5965.971167799374, -11116.640104846967, -2153.992909669031, -605.195832871894, -3867.745860546334, -3989.0487777052854, -16757.862777455186, -6609.612001134396, -6455.7649440485175, -5973.101374280617, -1685.9920842638116, -3422.029724363056, -5327.203014755609, -6584.600399088908, 0.0035, 0.07400000000000001, 0.9844999999999999, 192.0, 0.0, 16.0, 1.0, 48.0, 15.0, 104.0, 0.0, 0.0, 0.0, 1.6444917130891275E9, 0.0, 2022-02-10 22:15:13.089
38.0, -7192.500793039893, -5684.205077195773, -5985.171316286483, -11129.604116631046, -2179.3621396258045, -621.3784958575363, -3889.2258869678844, -4012.6969233390005, -16770.558568305798, -6631.9190421007925, -6471.589979122875, -5995.363711758103, -1707.986200807834, -3446.281367097064, -5343.586843441349, -6598.9278672847595, 0.0035, 0.07400000000000001, 0.9844999999999999, 192.0, 0.0, 0.0, 0.0, 0.0, 0.0, 0.0, 0.0, 0.0, 0.0, 1.644491713089136E9, 0.0, 2022-02-10 22:15:13.089
40.0, -7183.962426657967, -5672.4257078678265, -5969.055708534206, -11115.47781413529, -2164.632340029757, -605.844033461098, -3876.843020539644, -4000.4705191219473, -16771.430286339557, -6632.567242689996, -6471.969958778615, -5996.28013328077, -1714.9599450778896, -3440.358154816408, -5339.518825950483, -6595.820974805471, 0.0035, 0.07400000000000001, 0.9844999999999999, 192.0, 0.0, 0.0, 0.0, 0.0, 0.0, 0.0, 0.0, 0.0, 0.0, 1.6444917130891423E9, 0.0, 2022-02-10 22:15:13.089
42.0, -7195.808851219279, -5682.036957983609, -5980.030415061762, -11127.30188695215, -2178.959808225609, -625.4018098594917, -3896.6690178715016, -4015.1779669735397, -16769.977422949964, -6630.175606033279, -6473.333415190389, -5989.239333777348, -1720.4137707249847, -3434.7255152136704, -5336.948375338123, -6592.892896281826, 0.0035, 0.07400000000000001, 0.9844999999999999, 192.0, 0.0, 0.0, 0.0, 0.0, 0.0, 0.0, 0.0, 0.0, 0.0, 1.644491713089149E9, 0.0, 2022-02-10 22:15:13.089
44.0, -7191.7855372173235, -5687.580190608524, -5976.476487693369, -11126.6760381074, -2189.4874798640585, -609.0850364071175, -3883.9955787653425, -3996.26839116435, -16777.062925942293, -6647.7664289196055, -6483.749328106562, -6003.857374651119, -1733.7354104203475, -3448.9412246872457, -5347.72191616558, -6601.721835341673, 0.0035, 0.07400000000000001, 0.9844999999999999, 192.0, 0.0, 0.0, 0.0, 0.0, 0.0, 0.0, 0.0, 0.0, 0.0, 1.6444917130891557E9, 0.0, 2022-02-10 22:15:13.089
46.0, -7189.505659282882, -5677.767774792645, -5969.145115512028, -11119.478776392792, -2194.5613258554135, -623.0548766916844, -3891.371654435594, -3999.487042365914, -16766.5576060483, -6638.803379393027, -6474.920389046716, -5996.548354214234, -1726.5381487057386, -3447.4660095531954, -5333.081523547355, -6585.449765378209, 0.00375, 0.07400000000000001, 0.98325, 192.0, 0.0, 16.0, 1.0, 40.0, 15.0, 88.0, 0.0, 0.0, 0.0, 1.644491713089162E9, 0.0, 2022-02-10 22:15:13.089
48.0, -7200.189793132519, -5706.869746073455, -5985.774813386776, -11130.408779431436, -2217.1142360108183, -630.2521384062933, -3906.079102287186, -4012.853385550188, -16779.52161783238, -6650.538045232063, -6491.0359967989925, -6004.125595584584, -1743.0560878582107, -3465.548570817539, -5348.504227221516, -6599.441957407232, 0.00375, 0.07400000000000001, 0.98325, 192.0, 0.0, 0.0, 0.0, 0.0, 0.0, 0.0, 0.0, 0.0, 0.0, 1.6444917130891707E9, 0.0, 2022-02-10 22:15:13.089
50.0, -7185.214124347463, -5692.430519155326, -5966.328795710659, -11113.980247256786, -2199.9480962691423, -619.7691702567543, -3880.687520585957, -4000.9846092444195, -16772.346707862223, -6650.135713831868, -6482.430575183699, -5987.048862820729, -1753.047317629733, -3458.5971782919382, -5340.0105643285, -6595.262181194089, 0.00375, 0.07400000000000001, 0.98325, 192.0, 0.0, 0.0, 0.0, 0.0, 0.0, 0.0, 0.0, 0.0, 0.0, 1.644491713089192E9, 0.0, 2022-02-10 22:15:13.089
52.0, -7193.931304685034, -5692.3858156664155, -5978.242275505338, -11124.932602039886, -2223.2833174804828, -630.0733244506508, -3900.0888347731634, -4010.2158797044613, -16763.763637991386, -6640.278594527077, -6478.250798970556, -5987.85352562112, -1753.2261315853755, -3455.222064879187, -5335.6743259041705, -6589.942466013726, 0.00375, 0.07400000000000001, 0.98325, 192.0, 0.0, 0.0, 0.0, 0.0, 0.0, 0.0, 0.0, 0.0, 0.0, 1.644491713089199E9, 0.0, 2022-02-10 22:15:13.089
54.0, -7208.974028703455, -5702.488804160214, -5983.9419703414405, -11121.24456420476, -2238.5272071990025, -625.9158999819637, -3885.29197994375, -3999.0847109657184, -16777.375850364668, -6652.9296818887815, -6495.483993945599, -6000.6163717051, -1777.6789400194814, -3469.1919051637537, -5348.459523732606, -6601.319503941478, 0.00375, 0.07400000000000001, 0.98325, 192.0, 0.0, 0.0, 0.0, 0.0, 0.0, 0.0, 0.0, 0.0, 0.0, 1.644491713089206E9, 0.0, 2022-02-10 22:15:13.089
56.0, -7208.325828114251, -5699.471318658748, -5977.214095260393, -11114.24846819025, -2233.4086577187372, -629.4251238614469, -3889.0917765011523, -3997.900068509587, -16776.37002186418, -6643.139617817356, -6489.672540387219, -5984.679577908466, -1775.4437655739507, -3451.8916549553464, -5331.472197946572, -6579.995939731114, 0.002875, 0.07200000000000001, 0.981625, 192.0, 0.0, 8.0, 1.0, 24.0, 15.0, 80.0, 0.0, 0.0, 0.0, 1.644491713089213E9, 0.0, 2022-02-10 22:15:13.089
58.0, -7232.7562848039015, -5732.082513819041, -5994.961380357908, -11131.839291076576, -2264.3434720448818, -652.1344962280389, -3924.7204571629118, -4021.995249032408, -16785.355423135214, -6654.69546970075, -6509.43148248571, -5996.28013328077, -1793.9733617274, -3471.2706173980973, -5342.91629110769, -6595.999788761114, 0.002875, 0.07200000000000001, 0.981625, 192.0, 0.0, 0.0, 0.0, 0.0, 0.0, 0.0, 0.0, 0.0, 0.0, 1.6444917130892196E9, 0.0, 2022-02-10 22:15:13.089
60.0, -7236.8019505503125, -5735.524682465159, -5981.863258107097, -11122.876241549999, -2256.274492296516, -644.1549234574942, -3902.3016574742387, -3996.6930743090006, -16788.730536547966, -6665.580769250485, -6515.24293604409, -6004.572630473689, -1804.210460687931, -3478.177306434787, -5339.161198039198, -6594.278704438056, 0.002875, 0.07200000000000001, 0.981625, 192.0, 0.0, 0.0, 0.0, 0.0, 0.0, 0.0, 0.0, 0.0, 0.0, 1.6444917130892265E9, 0.0, 2022-02-10 22:15:13.089
62.0, -7241.473465141472, -5759.217531587784, -5994.1567175575165, -11134.342686455571, -2281.1296321308178, -657.3648044305808, -3920.004239082842, -4019.3130396977713, -16788.55172259232, -6668.50884777413, -6524.988296626604, -6006.76310143031, -1811.9441642694671, -3475.9868354781674, -5334.869663103779, -6589.897762524815, 0.002875, 0.07200000000000001, 0.981625, 192.0, 0.0, 0.0, 0.0, 0.0, 0.0, 0.0, 0.0, 0.0, 0.0, 1.644491713089233E9, 0.0, 2022-02-10 22:15:13.089
64.0, -7237.964241261989, -5745.51591223668, -5991.876839623075, -11128.173604985906, -2293.2219258811388, -651.3968886610137, -3927.134445564085, -4021.257641465383, -16796.307777918315, -6679.37179557941, -6531.939689152204, -6018.229546335882, -1837.1122285261429, -3488.995550751156, -5349.48770397755, -6600.917172541282, 0.002875, 0.07200000000000001, 0.981625, 192.0, 0.0, 0.0, 0.0, 0.0, 0.0, 0.0, 0.0, 0.0, 0.0, 1.6444917130892398E9, 0.0, 2022-02-10 22:15:13.089
66.0, -7246.882587299656, -5743.951290124809, -5984.456060463913, -11123.457386905837, -2302.0732166854405, -665.0091010342958, -3939.651422459057, -4030.712429369978, -16780.974481221972, -6660.819847681505, -6519.869747146338, -6002.404511261525, -1826.4504464209613, -3491.3648356634185, -5336.546043937927, -6587.103794467902, 0.002875, 0.07200000000000001, 0.981625, 192.0, 0.0, 0.0, 1.0, 40.0, 15.0, 88.0, 0.0, 0.0, 0.0, 1.644491713089259E9, 0.0, 2022-02-10 22:15:13.089
68.0, -7264.786334608357, -5775.802525973621, -6003.52209848429, -11131.883994565487, -2337.500731647102, -688.5231362012787, -3964.3724518266267, -4058.674461683567, -16798.140620963648, -6671.526333275597, -6541.975622412637, -6014.966191645407, -1864.426060250528, -3509.670914372315, -5354.785067413458, -6603.3311609424545, 0.002875, 0.07200000000000001, 0.981625, 192.0, 0.0, 0.0, 0.0, 0.0, 0.0, 0.0, 0.0, 0.0, 0.0, 1.644491713089266E9, 0.0, 2022-02-10 22:15:13.089
70.0, -7248.491912900438, -5767.442973547337, -5991.250990778326, -11119.881107792988, -2332.7845135670323, -679.7836041192537, -3951.7660679538335, -4027.6502403796007, -16797.715937818997, -6680.198810124256, -6545.931881181226, -6012.261630566315, -1878.9323424020224, -3513.448359185262, -5356.841427903346, -6604.2699342095775, 0.002875, 0.07200000000000001, 0.981625, 192.0, 0.0, 0.0, 0.0, 0.0, 0.0, 0.0, 0.0, 0.0, 0.0, 1.644491713089274E9, 0.0, 2022-02-10 22:15:13.089
72.0, -7259.980709550466, -5781.2563516207165, -6006.517232241301, -11133.649782377457, -2364.4122319712915, -701.9565346189183, -3963.456030303959, -4030.064228780774, -16795.99485349594, -6687.485478816686, -6557.174808642246, -6017.670752724499, -1889.7952902073016, -3518.1645772653314, -5352.527541223471, -6596.8715067948715, 0.002875, 0.07200000000000001, 0.981625, 192.0, 0.0, 0.0, 0.0, 0.0, 0.0, 0.0, 0.0, 0.0, 0.0, 1.644491713089281E9, 0.0, 2022-02-10 22:15:13.089
74.0, -7274.442288213049, -5790.085290680563, -6007.724226441887, -11129.335895697583, -2376.213953043694, -702.0459415967396, -3966.652329761068, -4048.4597144674917, -16812.4680891595, -6696.627342298907, -6572.999843716603, -6029.830101708187, -1916.4832730869382, -3536.381248996407, -5369.20194258713, -6608.047379022525, 0.002875, 0.07200000000000001, 0.981625, 192.0, 0.0, 0.0, 0.0, 0.0, 0.0, 0.0, 0.0, 0.0, 0.0, 1.6444917130892875E9, 0.0, 2022-02-10 22:15:13.089
76.0, -7277.817401625801, -5793.974494215786, -6005.936086885463, -11125.24552646226, -2386.8980868933304, -702.8953078860412, -3979.4822310784143, -4048.2361970229385, -16803.594446610743, -6684.311531104033, -6564.036794190025, -6010.629953221078, -1922.0265057118543, -3527.2393855141863, -5360.194189571642, -6597.206782961701, 4.3749999999999995E-4, 0.07300000000000001, 0.9828125, 192.0, 127.5, 120.0, 1.0, 40.0, 15.0, 96.0, 0.0, 0.0, 0.0, 1.6444917130892942E9, 0.0, 2022-02-10 22:15:13.089
78.0, -7288.725052919991, -5810.112453712518, -6023.593965005156, -11138.902442324454, -2420.112779153917, -726.9681366644069, -4000.515222610858, -4069.3809472776593, -16815.798499083343, -6702.125871434912, -6587.170849701268, -6031.417075564513, -1950.457924659005, -3549.0099846136554, -5378.656730491725, -6612.875355824871, 4.3749999999999995E-4, 0.07300000000000001, 0.9828125, 192.0, 0.0, 0.0, 0.0, 0.0, 0.0, 0.0, 0.0, 0.0, 0.0, 1.6444917130893009E9, 0.0, 2022-02-10 22:15:13.089
80.0, -7286.936913363566, -5803.406930375926, -6010.294677054248, -11126.519575896213, -2422.079732665984, -721.1343313615718, -3992.289780651305, -4062.7871826633436, -16817.407824684124, -6700.315380134032, -6591.305922425499, -6026.7902644622645, -1963.6901573765467, -3549.211150313753, -5375.371024056795, -6606.97449528867, 4.3749999999999995E-4, 0.07300000000000001, 0.9828125, 192.0, 0.0, 0.0, 0.0, 0.0, 0.0, 0.0, 0.0, 0.0, 0.0, 1.6444917130893073E9, 0.0, 2022-02-10 22:15:13.089
82.0, -7302.069044359809, -5814.560450859124, -6026.343229573158, -11136.980192301296, -2460.815305807031, -743.7990002392531, -4038.0214498068635, -4092.671465000089, -16818.637170629165, -6693.743967264172, -6597.832631806449, -6025.136235372572, -1969.6357214016584, -3540.9186531208343, -5382.478878793583, -6607.510937155597, 4.3749999999999995E-4, 0.07300000000000001, 0.9828125, 192.0, 0.0, 0.0, 0.0, 0.0, 0.0, 0.0, 0.0, 0.0, 0.0, 1.6444917130893137E9, 0.0, 2022-02-10 22:15:13.089
84.0, -7297.866916402211, -5825.088122497574, -6032.691124998466, -11136.376695201005, -2478.406128693358, -750.415116598024, -4025.0127345338747, -4075.058290369307, -16836.205641771037, -6714.173461696322, -6624.632373408363, -6037.809674478731, -2011.321724810806, -3579.475412306239, -5402.148413914253, -6621.525480929075, 4.3749999999999995E-4, 0.07300000000000001, 0.9828125, 192.0, 0.0, 0.0, 0.0, 0.0, 0.0, 0.0, 0.0, 0.0, 0.0, 1.6444917130893204E9, 0.0, 2022-02-10 22:15:13.089
86.0, -7304.103053105242, -5827.323296943105, -6024.108055127627, -11127.570107885613, -2483.9046578293633, -762.7532795373535, -4035.450999194503, -4091.5091742884133, -16825.454452688035, -6701.924705734815, -6617.368056460387, -6024.868014439108, -2013.3557335562389, -3575.2285808597308, -5383.484707294072, -6608.248544722623, 0.0022187500000000002, 0.07050000000000001, 0.98340625, 192.0, 0.0, 16.0, 1.0, 16.0, 15.0, 96.0, 0.0, 0.0, 0.0, 1.6444917130893269E9, 0.0, 2022-02-10 22:15:13.089
88.0, -7324.890175448678, -5854.614776923034, -6046.973889705407, -11140.668230136424, -2514.1018645884833, -771.2692941748255, -4051.633662180145, -4104.495537816946, -16840.675990662097, -6722.085979233501, -6643.452542239731, -6042.212968136427, -2043.5082368264482, -3592.417072345862, -5401.254344136041, -6617.233945993656, 0.0022187500000000002, 0.07050000000000001, 0.98340625, 192.0, 0.0, 0.0, 0.0, 0.0, 0.0, 0.0, 0.0, 0.0, 0.0, 1.6444917130893333E9, 0.0, 2022-02-10 22:15:13.089
90.0, -7320.017495157421, -5848.2892332421825, -6036.960308189429, -11129.58176488659, -2526.752951950187, -775.9631605104399, -4068.6656914550895, -4101.47805231548, -16840.743045895462, -6725.684610090806, -6649.196940564745, -6043.15174140355, -2059.735603301001, -3597.2003456592975, -5401.857841236334, -6612.942411058237, 0.0022187500000000002, 0.07050000000000001, 0.98340625, 192.0, 0.0, 0.0, 0.0, 0.0, 0.0, 0.0, 0.0, 0.0, 0.0, 1.64449171308934E9, 0.0, 2022-02-10 22:15:13.089
92.0, -7342.324536123817, -5876.318320789137, -6056.071049698717, -11149.430113962902, -2565.5555803245998, -804.3051724797693, -4072.644301968134, -4107.71418901851, -16846.979182598494, -6726.757493824661, -6659.635205225373, -6045.05163968225, -2080.768594833445, -3612.958325500289, -5404.651809293247, -6614.216460492189, 0.0022187500000000002, 0.07050000000000001, 0.98340625, 192.0, 0.0, 0.0, 0.0, 0.0, 0.0, 0.0, 0.0, 0.0, 0.0, 1.6444917130893464E9, 0.0, 2022-02-10 22:15:13.089
94.0, -7342.771571012923, -5876.743003933788, -6054.417020609024, -11144.982116816296, -2583.973417755773, -808.3284864817247, -4090.2798283433713, -4121.795788025354, -16865.128799096205, -6751.3667644699535, -6686.345539849465, -6061.122543945617, -2116.2408132840173, -3632.0243635206657, -5418.554594344449, -6627.783969376561, 0.0022187500000000002, 0.07050000000000001, 0.98340625, 192.0, 0.0, 0.0, 0.0, 0.0, 0.0, 0.0, 0.0, 0.0, 0.0, 1.644491713089353E9, 0.0, 2022-02-10 22:15:13.089
96.0, -7348.828893760311, -5884.92374240443, -6051.243072896371, -11142.92575632641, -2592.802356815619, -812.8882423506072, -4089.4304620540697, -4124.589756082268, -16849.39317099967, -6735.295860206588, -6678.813001968027, -6049.119657173116, -2116.9784208510423, -3620.0661802370764, -5408.764530273024, -6615.311695970499, 0.004, 0.068, 0.984, 192.0, 0.0, 16.0, 1.0, 16.0, 15.0, 96.0, 0.0, 0.0, 0.0, 1.6444917130893595E9, 0.0, 2022-02-10 22:15:13.089
98.0, -7365.279777679418, -5904.727387991833, -6071.292587672781, -11156.806189633155, -2626.3970287319457, -834.5694344722551, -4120.991125224963, -4147.992032526974, -16868.10158110876, -6749.355107468976, -6701.522374334619, -6064.072974213716, -2146.7956479544223, -3649.81635210709, -5425.21541419213, -6629.616812421896, 0.004, 0.068, 0.984, 192.0, 0.0, 0.0, 0.0, 0.0, 0.0, 0.0, 0.0, 0.0, 0.0, 1.6444917130893662E9, 0.0, 2022-02-10 22:15:13.089
100.0, -7361.122353210731, -5896.054911143174, -6061.971910234918, -11140.958802814343, -2626.262918265214, -829.4285332475345, -4105.367255850703, -4126.690820061066, -16866.648717719167, -6751.81379935906, -6715.156938452356, -6054.48407584239, -2165.9957964415307, -3659.494657456238, -5422.6673153242255, -6621.145501273335, 0.004, 0.068, 0.984, 192.0, 0.0, 0.0, 0.0, 0.0, 0.0, 0.0, 0.0, 0.0, 0.0, 1.6444917130893729E9, 0.0, 2022-02-10 22:15:13.089
102.0, -7382.647083121191, -5917.222013142349, -6078.512201131845, -11150.525349441214, -2655.4990000127555, -852.0037951473946, -4125.372067138203, -4157.022137286918, -16868.794485186874, -6751.746744125694, -6720.52135712163, -6054.260558397837, -2179.608008814813, -3667.273064526685, -5418.174614688709, -6616.317524470988, 0.004, 0.068, 0.984, 192.0, 0.0, 0.0, 0.0, 0.0, 0.0, 0.0, 0.0, 0.0, 0.0, 1.6444917130893807E9, 0.0, 2022-02-10 22:15:13.089
104.0, -7386.580990145325, -5930.007210970785, -6082.110831989149, -11150.994736074774, -2674.1180031440263, -866.2418563654252, -4157.625634387211, -4178.524515452924, -16881.333813826303, -6768.622311189451, -6738.916842808348, -6078.087517987195, -2216.443683677159, -3691.3011898161403, -5437.59828062037, -6633.7965886350385, 0.004, 0.068, 0.984, 192.0, 0.0, 0.0, 0.0, 0.0, 0.0, 0.0, 0.0, 0.0, 0.0, 1.6444917130893872E9, 0.0, 2022-02-10 22:15:13.089
106.0, -7395.968722816554, -5935.773961040254, -6082.043776755783, -11148.7819133737, -2692.871116742029, -871.6956820125201, -4152.529436651402, -4148.7296400939995, -16874.404773045157, -6760.061593063068, -6739.632098630917, -6070.510276616845, -2218.7906168449663, -3689.2895328151626, -5430.959812517144, -6624.364152474899, 0.002, 0.07, 0.986, 192.0, 0.0, 8.0, 1.0, 24.0, 15.0, 104.0, 0.0, 0.0, 0.0, 1.6444917130893939E9, 0.0, 2022-02-10 22:15:13.089
108.0, -7412.866641624766, -5958.997423529318, -6106.228364256426, -11167.803247905165, -2730.511454404766, -894.1591851901037, -4178.211591030549, -4178.882143364209, -16899.01404369045, -6780.066404350568, -6772.62327344695, -6092.035006527306, -2255.44747775167, -3704.3322568335843, -5447.254234225063, -6633.841292123949, 0.002, 0.07, 0.986, 192.0, 0.0, 0.0, 0.0, 0.0, 0.0, 0.0, 0.0, 0.0, 0.0, 1.6444917130894003E9, 0.0, 2022-02-10 22:15:13.089
110.0, -7394.895839082699, -5955.577606627657, -6090.2468669708815, -11149.564224429634, -2734.2665474732576, -894.3379991457462, -4163.124163523217, -4175.462326462546, -16891.68267150911, -6782.614503218473, -6776.400718259897, -6079.540381376789, -2269.663187225245, -3726.1922629108744, -5444.102638256864, -6634.534196202064, 0.002, 0.07, 0.986, 192.0, 0.0, 0.0, 0.0, 0.0, 0.0, 0.0, 0.0, 0.0, 0.0, 1.6444917130894067E9, 0.0, 2022-02-10 22:15:13.089
112.0, -7424.154272574696, -5973.079022536162, -6105.736625878409, -11155.912119854942, -2780.6240654735643, -920.2660227139024, -4203.111434353761, -4196.696483695088, -16887.39113657369, -6775.618407203961, -6779.529962483641, -6081.395576166579, -2276.636931495301, -3733.4789316033048, -5442.761533589546, -6627.873376354382, 0.002, 0.07, 0.986, 192.0, 0.0, 0.0, 0.0, 0.0, 0.0, 0.0, 0.0, 0.0, 0.0, 1.6444917130894134E9, 0.0, 2022-02-10 22:15:13.089
114.0, -7424.578955719347, -5992.122708812083, -6111.972762581439, -11158.6837361674, -2799.3101238382014, -931.3748397081899, -4207.447672778091, -4207.447672778091, -16913.7438432865, -6804.183936617844, -6814.979829189758, -6104.440224700002, -2317.6970860597, -3760.79276332769, -5463.213379766153, -6639.093952070946, 0.002, 0.07, 0.986, 192.0, 0.0, 0.0, 0.0, 0.0, 0.0, 0.0, 0.0, 0.0, 0.0, 1.64449171308942E9, 0.0, 2022-02-10 22:15:13.089
116.0, -7431.239775567028, -5993.70968266841, -6105.11077703366, -11152.40289597546, -2812.184728644458, -945.8587701152289, -4209.548736756889, -4196.025931361429, -16901.048052435883, -6794.617389990973, -6811.850584966014, -6094.963085050951, -2324.492016374113, -3757.6858708484024, -5452.171618005231, -6628.700390899228, 0.004, 0.064, 0.98, 192.0, 0.0, 16.0, 1.0, 0.0, 15.0, 80.0, 0.0, 0.0, 0.0, 1.6444917130894268E9, 0.0, 2022-02-10 22:15:13.089
118.0, -7452.228063610562, -6016.910793413019, -6128.937736623017, -11165.25514903726, -2857.4246594219994, -965.9976918694606, -4253.961652989585, -4221.462216551568, -16915.934314243117, -6809.9506866873135, -6834.694067799338, -6113.559736437766, -2357.4831911901465, -3780.752871126279, -5469.427164724728, -6636.232928780667, 0.004, 0.064, 0.98, 192.0, 0.0, 0.0, 0.0, 0.0, 0.0, 0.0, 0.0, 0.0, 0.0, 1.6444917130894334E9, 0.0, 2022-02-10 22:15:13.089
120.0, -7436.447732025115, -6008.752406686832, -6120.242908029903, -11151.01708781923, -2867.639406638075, -966.4670785030221, -4246.809094763887, -4211.560393757867, -16919.287075911412, -6812.63289602195, -6845.646422582438, -6113.470329459945, -2376.437470488247, -3790.4758799643378, -5472.534057204015, -6635.517672958097, 0.004, 0.064, 0.98, 192.0, 0.0, 0.0, 0.0, 0.0, 0.0, 0.0, 0.0, 0.0, 0.0, 1.64449171308944E9, 0.0, 2022-02-10 22:15:13.089
122.0, -7455.960804934598, -6020.799996948243, -6139.241890816915, -11159.019012334229, -2900.898802387572, -991.0092939149492, -4271.03838575344, -4245.445638352113, -16902.1879914031, -6802.909887183891, -6848.485094128263, -6103.032064799317, -2384.4170432587916, -3798.2542870347843, -5473.428126982228, -6634.824768879983, 0.004, 0.064, 0.98, 192.0, 0.0, 0.0, 0.0, 0.0, 0.0, 0.0, 0.0, 0.0, 0.0, 1.6444917135683944E9, 0.0, 2022-02-10 22:15:13.568
124.0, -7479.787764523955, -6046.973889705407, -6152.295309578813, -11161.947090857875, -2927.698543989485, -1005.113244666248, -4284.270618470981, -4248.954862231596, -16956.726247874052, -6832.995335220735, -6890.864001615525, -6129.317716278758, -2437.301270640048, -3828.6079560050916, -5490.840135912912, -6647.833484152971, 0.004, 0.064, 0.98, 192.0, 0.0, 0.0, 0.0, 0.0, 0.0, 0.0, 0.0, 0.0, 0.0, 1.6444917135685413E9, 0.0, 2022-02-10 22:15:13.568
126.0, -7474.780973765966, -6047.331517616692, -6150.17189385556, -11153.676945409412, -2938.337974350211, -1012.1540441696698, -4304.498947203034, -4255.168647190171, -16949.819558837364, -6823.607602549506, -6892.227458027299, -6126.970783110951, -2445.973747488707, -3828.6079560050916, -5481.966493364155, -6633.416608979298, 0.002, 0.064, 0.978, 192.0, 0.0, 8.0, 1.0, 0.0, 15.0, 72.0, 0.0, 0.0, 0.0, 1.644491713568549E9, 0.0, 2022-02-10 22:15:13.568
128.0, -7490.874229773788, -6061.3684131346245, -6175.295254623325, -11163.422305991926, -2995.2008122445122, -1035.466913636555, -4345.402639556246, -4280.828449824864, -16966.6057189233, -6833.151797431922, -6921.977629897312, -6138.951318138996, -2477.8696868264306, -3854.0218894507757, -5503.893554674811, -6646.537082974563, 0.002, 0.064, 0.978, 192.0, 0.0, 0.0, 0.0, 0.0, 0.0, 0.0, 0.0, 0.0, 0.0, 1.6444917135685563E9, 0.0, 2022-02-10 22:15:13.568
130.0, -7486.180363438173, -6057.188636921482, -6162.890036450629, -11148.245471506772, -2992.8985825656155, -1032.1588554571695, -4325.934270135674, -4268.646749096722, -16967.432733468144, -6824.501672327719, -6928.504339278262, -6130.167082568059, -2498.5897539365, -3856.547636574225, -5505.905211675788, -6642.513768972608, 0.002, 0.064, 0.978, 192.0, 0.0, 0.0, 0.0, 0.0, 0.0, 0.0, 0.0, 0.0, 0.0, 1.6444917135685632E9, 0.0, 2022-02-10 22:15:13.568
132.0, -7501.938343279165, -6076.031157497306, -6182.425461104568, -11158.840198378588, -3031.5894522177523, -1052.141315000214, -4358.031375173495, -4275.218161966582, -16968.863245113283, -6825.418093850386, -6944.910519708457, -6135.4420942595125, -2521.2544228141815, -3863.655491311013, -5504.251182586096, -6636.232928780667, 0.002, 0.064, 0.978, 192.0, 0.0, 0.0, 0.0, 0.0, 0.0, 0.0, 0.0, 0.0, 0.0, 1.64449171356857E9, 0.0, 2022-02-10 22:15:13.568
134.0, -7505.20169796964, -6088.145802992082, -6189.309798396802, -11160.740096657288, -3057.2269031079895, -1060.5008674264989, -4356.9361396951845, -4283.778880092965, -16979.659137685197, -6843.321841159087, -6959.908540237969, -6153.211731101481, -2550.1775801393487, -3883.9955787653425, -5523.764255495579, -6649.822789409493, 0.002, 0.064, 0.978, 192.0, 0.0, 0.0, 0.0, 0.0, 0.0, 0.0, 0.0, 0.0, 0.0, 1.6444917135685844E9, 0.0, 2022-02-10 22:15:13.568
136.0, -7510.834337572377, -6084.122488990127, -6182.917199482585, -11157.633204178, -3075.7341475169837, -1069.2180477640686, -4372.470602091623, -4280.560228891401, -16976.79811439492, -6831.743637531238, -6959.975595471335, -6141.141789095615, -2558.3359668655357, -3891.326950946683, -5510.71083673368, -6634.221271779689, 0.002, 0.064, 0.978, 192.0, 0.0, 0.0, 1.0, 16.0, 15.0, 96.0, 0.0, 0.0, 0.0, 1.644491713568592E9, 0.0, 2022-02-10 22:15:13.568
138.0, -7526.212337757628, -6111.838652114708, -6206.811214305308, -11167.825599649621, -3118.0907032597906, -1097.9847428780488, -4409.127462998326, -4313.99843859654, -16989.53860873444, -6845.914643515903, -6993.369101687563, -6161.615987016677, -2593.517612638189, -3923.714628662423, -5531.363848610384, -6648.8840161423705, 0.002, 0.064, 0.978, 192.0, 0.0, 0.0, 0.0, 0.0, 0.0, 0.0, 0.0, 0.0, 0.0, 1.6444917135685987E9, 0.0, 2022-02-10 22:15:13.568
140.0, -7523.306610978439, -6099.120509519638, -6194.7859757883525, -11155.68860241039, -3130.361810965754, -1110.1664436061913, -4405.506480396567, -4320.838072399863, -16988.97981512306, -6848.64155633945, -6994.531392399239, -6153.926986924051, -2606.9286593113734, -3927.782646153289, -5531.162682910286, -6647.654670197328, 0.002, 0.064, 0.978, 192.0, 0.0, 0.0, 0.0, 0.0, 0.0, 0.0, 0.0, 0.0, 0.0, 1.6444917135686057E9, 0.0, 2022-02-10 22:15:13.568
142.0, -7529.699209892656, -6121.159329552571, -6212.108577741215, -11164.226968792316, -3164.9846631270248, -1137.9943654530484, -4426.181844017726, -4347.123723879305, -16983.257768542502, -6846.965175505302, -6999.269962223764, -6157.726783481453, -2620.9432030848507, -3938.6902974474788, -5528.56988055347, -6648.034649853069, 0.002, 0.064, 0.978, 192.0, 0.0, 0.0, 0.0, 0.0, 0.0, 0.0, 0.0, 0.0, 0.0, 1.6444917135686126E9, 0.0, 2022-02-10 22:15:13.568
144.0, -7530.615631415324, -6135.039762859316, -6224.759665102919, -11163.69052692539, -3182.128451124245, -1139.5142840760093, -4435.860149366874, -4341.178159854193, -17004.089594374847, -6871.6415013839605, -7033.043448095733, -6176.323434868269, -2651.9227208999064, -3967.6581582615568, -5546.38422088435, -6660.439868025765, 0.002, 0.064, 0.978, 192.0, 0.0, 0.0, 0.0, 0.0, 0.0, 0.0, 0.0, 0.0, 0.0, 1.6444917135686204E9, 0.0, 2022-02-10 22:15:13.568
146.0, -7527.732256380589, -6134.726838436943, -6219.328191200279, -11156.426209977415, -3190.8903349507254, -1145.75042077904, -4435.16724528876, -4339.367668553313, -16995.819448926384, -6861.02442276769, -7030.58475620565, -6170.7802022433525, -2655.7672209462194, -3962.6290157591125, -5540.081028947953, -6643.988984106659, -0.002, 0.076, 0.98, 192.0, 127.5, 120.0, 1.0, 48.0, 15.0, 80.0, 0.0, 0.0, 0.0, 1.6444917135686278E9, 0.0, 2022-02-10 22:15:13.568
148.0, -7548.698192679667, -6154.239911346425, -6245.6808979130865, -11170.060774095151, -3241.4723326530857, -1174.1818397261907, -4465.811486936986, -4344.419162800213, -17008.626998499276, -6874.904856074436, -7060.178465864476, -6190.136812941649, -2689.4065963514563, -3989.518164338847, -5551.614529086892, -6650.694507443251, -0.002, 0.076, 0.98, 192.0, 0.0, 0.0, 0.0, 0.0, 0.0, 0.0, 0.0, 0.0, 0.0, 1.6444917135686352E9, 0.0, 2022-02-10 22:15:13.568
150.0, -7530.68268664869, -6141.410010029079, -6231.688705884065, -11156.649727421967, -3253.229350236577, -1179.2109822286347, -4481.994149922628, -4360.154790896749, -17005.83303044236, -6876.916513075414, -7059.910244931012, -6186.001740217417, -2705.969238992839, -3998.816490032255, -5561.695165836235, -6650.716859187706, -0.002, 0.076, 0.98, 192.0, 0.0, 0.0, 0.0, 0.0, 0.0, 0.0, 0.0, 0.0, 0.0, 1.6444917135686421E9, 0.0, 2022-02-10 22:15:13.568
152.0, -7552.2521200480605, -6166.823943474763, -6256.1862178070805, -11164.070506581129, -3296.144699590767, -1200.3557324833553, -4519.858005029918, -4366.927369466707, -17008.001149654527, -6871.999129295245, -7068.49331480185, -6182.112536682193, -2721.6601636004643, -4004.9185162685535, -5568.24422696164, -6649.040478353558, -0.002, 0.076, 0.98, 192.0, 0.0, 0.0, 0.0, 0.0, 0.0, 0.0, 0.0, 0.0, 0.0, 1.644491713568649E9, 0.0, 2022-02-10 22:15:13.568
154.0, -7554.509646238047, -6175.272902878869, -6267.76442143493, -11164.428134492415, -3320.999839425068, -1212.9621163561483, -4513.085426459959, -4361.67470951971, -17035.091463934357, -6893.233286527788, -7109.553469366249, -6203.5925631037435, -2756.6629954174755, -4026.6667636235675, -5587.936113826766, -6657.444734268754, -0.002, 0.076, 0.98, 192.0, 0.0, 0.0, 0.0, 0.0, 0.0, 0.0, 0.0, 0.0, 0.0, 1.6444917135686562E9, 0.0, 2022-02-10 22:15:13.568
156.0, -7571.698137724178, -6171.853085977207, -6262.981148121495, -11153.252262264761, -3335.9531564656686, -1222.4392560051986, -4534.94543253725, -4380.606637073354, -17023.71442600661, -6878.570542165106, -7100.83628902868, -6194.160126943604, -2760.507495463788, -4030.3324497142376, -5576.9167038103, -6644.883053884871, 0.002, 0.07, 0.98, 192.0, 0.0, 8.0, 1.0, 24.0, 15.0, 80.0, 0.0, 0.0, 0.0, 1.6444917135686684E9, 0.0, 2022-02-10 22:15:13.568
158.0, -7593.938123457208, -6194.070719965783, -6287.456308300056, -11167.937358371897, -3378.0191395305565, -1253.0834976534245, -4550.23402574468, -4405.864108307852, -17042.020504715503, -6887.868867858514, -7128.753617853358, -6207.9958567614385, -2793.252801090813, -4063.681252441556, -5593.792270874056, -6658.405859280331, 0.002, 0.07, 0.98, 192.0, 0.0, 0.0, 0.0, 0.0, 0.0, 0.0, 0.0, 0.0, 0.0, 1.6444917135686753E9, 0.0, 2022-02-10 22:15:13.568
160.0, -7579.7224139836335, -6203.212583448003, -6282.8965524311725, -11156.046230321674, -3382.5341919105285, -1259.2078756341787, -4545.629566386887, -4401.818442561441, -17047.60844082933, -6910.801757669659, -7139.303641236263, -6215.416635920601, -2813.279964122768, -4077.3381683037483, -5592.786442373567, -6657.243568568656, 0.002, 0.07, 0.98, 192.0, 0.0, 0.0, 0.0, 0.0, 0.0, 0.0, 0.0, 0.0, 0.0, 1.6444917135686827E9, 0.0, 2022-02-10 22:15:13.568
162.0, -7595.12276591334, -6222.27862146838, -6300.4873753175, -11168.20557930536, -3426.321259298475, -1288.421605637265, -4591.942380898283, -4428.238204507614, -17048.74837979655, -6910.712350691838, -7154.055792576765, -6219.059970266816, -2827.6968392964413, -4086.18945910805, -5595.91568659731, -6653.2202545667005, 0.002, 0.07, 0.98, 192.0, 0.0, 0.0, 0.0, 0.0, 0.0, 0.0, 0.0, 0.0, 0.0, 1.644491713568689E9, 0.0, 2022-02-10 22:15:13.568
164.0, -7598.363768859359, -6227.911261071117, -6314.323105135335, -11168.518503727735, -3457.2337218801645, -1302.7714255775722, -4612.841261963995, -4424.661925394765, -17068.10499049485, -6929.532519523206, -7187.806926704279, -6237.3436972312575, -2867.058261282237, -4117.772474023399, -5620.68141945379, -6666.765411706617, 0.003, 0.07100000000000001, 0.977, 192.0, 0.0, 16.0, 1.0, 32.0, 15.0, 56.0, 0.0, 0.0, 0.0, 1.6444917135686965E9, 0.0, 2022-02-10 22:15:13.568
166.0, -7601.001274705086, -6224.022057535894, -6312.87024174574, -11163.623471692023, -3468.320187129997, -1308.806396580505, -4612.327171841523, -4432.082704553927, -17058.627850845798, -6920.725932207815, -7190.75735697238, -6227.218356993003, -2865.4936391703654, -4119.918241491108, -5610.936058871277, -6654.002565622636, 0.003, 0.07100000000000001, 0.977, 192.0, 0.0, 0.0, 0.0, 0.0, 0.0, 0.0, 0.0, 0.0, 0.0, 1.6444917135687053E9, 0.0, 2022-02-10 22:15:13.568
168.0, -7611.46189111017, -6242.082267055782, -6335.914890279161, -11177.34744278758, -3516.1976237532645, -1337.7519056501278, -4669.458230669288, -4458.144838588815, -17071.971842285617, -6925.978592154813, -7212.483252582938, -6232.605127406732, -2902.463424499443, -4138.090209733273, -5630.180910847296, -6663.658519227329, 0.003, 0.07100000000000001, 0.977, 192.0, 0.0, 0.0, 0.0, 0.0, 0.0, 0.0, 0.0, 0.0, 0.0, 1.644491713568712E9, 0.0, 2022-02-10 22:15:13.568
170.0, -7601.6941787832, -6242.015211822416, -6328.985849498016, -11165.143390314985, -3519.4609784437394, -1336.9248911052814, -4634.991840719204, -4447.170132061259, -17072.351821941356, -6928.996077656278, -7218.719389285969, -6243.736296145475, -2922.021200897837, -4149.48959940548, -5637.221710350717, -6661.579806992985, 0.003, 0.07100000000000001, 0.977, 192.0, 0.0, 0.0, 0.0, 0.0, 0.0, 0.0, 0.0, 0.0, 0.0, 1.644491713568719E9, 0.0, 2022-02-10 22:15:13.568
172.0, -7614.993466734108, -6257.236749796481, -6345.213215972569, -11173.279425296716, -3553.5250369936275, -1368.8208304430045, -4657.388288663422, -4468.851324182907, -17068.46261840613, -6932.035914902201, -7222.385075376639, -6250.777095648897, -2927.5867852672086, -4159.123201265717, -5630.784407947589, -6654.203731322734, 0.003, 0.07100000000000001, 0.977, 192.0, 0.0, 0.0, 0.0, 0.0, 0.0, 0.0, 0.0, 0.0, 0.0, 1.6444917135687256E9, 0.0, 2022-02-10 22:15:13.568
174.0, -7622.302487170993, -6268.390270279679, -6356.187922500125, -11172.988852618797, -3574.2898075926078, -1377.2027346137447, -4680.87997208595, -4472.896989929318, -17088.467429693632, -6953.270072134742, -7250.615328623692, -6270.536037747388, -2962.7460792954066, -4189.767442913943, -5653.314966358539, -6667.927702418292, 0.0025, 0.07050000000000001, 0.9775, 192.0, 0.0, 8.0, 1.0, 24.0, 15.0, 72.0, 0.0, 0.0, 0.0, 1.6444917135687325E9, 0.0, 2022-02-10 22:15:13.568
176.0, -7619.061484224973, -6261.640043454176, -6348.476570663044, -11159.577805945613, -3589.220772888753, -1381.1813451267892, -4697.576725194064, -4477.4567457982, -17081.828961590407, -6940.417819072941, -7253.923386803078, -6258.577854463799, -2966.4117653860767, -4172.82482061682, -5646.162408132841, -6652.2814812995775, 0.0025, 0.07050000000000001, 0.9775, 192.0, 0.0, 0.0, 0.0, 0.0, 0.0, 0.0, 0.0, 0.0, 0.0, 1.6444917135687394E9, 0.0, 2022-02-10 22:15:13.568
178.0, -7635.17709197725, -6280.080232629804, -6374.181076786647, -11172.944149129886, -3637.858168823501, -1411.9820489862025, -4742.704897249329, -4500.456690842711, -17089.29444423848, -6946.56454879815, -7276.163372536108, -6268.457325513044, -2990.059911019792, -4201.680922708621, -5664.535542075103, -6662.898559915849, 0.0025, 0.07050000000000001, 0.9775, 192.0, 0.0, 0.0, 0.0, 0.0, 0.0, 0.0, 0.0, 0.0, 0.0, 1.644491713568746E9, 0.0, 2022-02-10 22:15:13.568
180.0, -7635.51236814408, -6283.38829080919, -6374.672815164664, -11162.505884469258, -3654.107887042509, -1415.0218862321242, -4738.391010569455, -4497.305094874513, -17096.603464675365, -6947.570377298639, -7288.792108153357, -6270.580741236298, -3009.148300784624, -4222.758617729976, -5674.88439975791, -6664.887865172371, 0.0025, 0.07050000000000001, 0.9775, 192.0, 0.0, 0.0, 0.0, 0.0, 0.0, 0.0, 0.0, 0.0, 0.0, 1.6444917135687532E9, 0.0, 2022-02-10 22:15:13.568
182.0, -7659.0264033110625, -6307.77404400993, -6395.50464099701, -11173.97232937483, -3692.6422944834585, -1454.1374390289116, -4771.628054574497, -4511.766673537097, -17106.70645316916, -6954.678232035427, -7307.58992524027, -6278.694424473575, -3031.2988795398333, -4236.415533592169, -5677.164277692352, -6664.686699472273, 0.0025, 0.07050000000000001, 0.9775, 192.0, 0.0, 0.0, 0.0, 0.0, 0.0, 0.0, 0.0, 0.0, 0.0, 1.64449171356876E9, 0.0, 2022-02-10 22:15:13.568
184.0, -7663.8990836023195, -6315.552451080376, -6409.69799872613, -11176.967463131841, -3719.240870385274, -1464.1733722893443, -4769.571694084608, -4520.2379846856575, -17128.588810990906, -6973.677214822437, -7336.200158143063, -6298.7439392499855, -3064.4912200559643, -4262.991757749529, -5697.146737235396, -6677.985987423181, 0.00425, 0.06725, 0.97675, 192.0, 0.0, 24.0, 1.0, 0.0, 15.0, 64.0, 0.0, 0.0, 0.0, 1.6444917135687668E9, 0.0, 2022-02-10 22:15:13.568
186.0, -7667.855342370909, -6317.564108081354, -6403.819489934384, -11170.127829328518, -3727.30985013364, -1478.2326195517326, -4781.641636090474, -4543.260281474624, -17121.279790554025, -6960.176761171432, -7338.100056421764, -6288.931523434106, -3076.6729207841067, -4261.27067342647, -5685.948513263287, -6665.245493083656, 0.00425, 0.06725, 0.97675, 192.0, 0.0, 0.0, 0.0, 0.0, 0.0, 0.0, 0.0, 0.0, 0.0, 1.6444917135687737E9, 0.0, 2022-02-10 22:15:13.568
188.0, -7689.245961814638, -6347.001355528993, -6430.194548391646, -11187.383376048014, -3778.9647315698544, -1505.278230342654, -4815.6609911514515, -4546.300118720546, -17140.703456485684, -6981.187400959421, -7369.727774826023, -6313.741959779497, -3112.502767145964, -4293.725406375576, -5702.935839049321, -6676.913103689326, 0.00425, 0.06725, 0.97675, 192.0, 0.0, 0.0, 0.0, 0.0, 0.0, 0.0, 0.0, 0.0, 0.0, 1.644491713568781E9, 0.0, 2022-02-10 22:15:13.568
190.0, -7679.522952976579, -6335.289041434413, -6420.762112231507, -11171.111306084551, -3784.1950397723963, -1505.926430931858, -4820.4219127204315, -4553.273862990602, -17140.546994274497, -6978.192267202409, -7377.908513296666, -6313.63020105722, -3126.0032207969693, -4308.254040271526, -5709.954286808287, -6675.840219955471, 0.00425, 0.06725, 0.97675, 192.0, 0.0, 0.0, 0.0, 0.0, 0.0, 0.0, 0.0, 0.0, 0.0, 1.6444917135687878E9, 0.0, 2022-02-10 22:15:13.568
192.0, -7702.14291836535, -6355.807942844384, -6439.023487451493, -11182.823620179131, -3829.747894972312, -1528.7252102762714, -4854.575378248141, -4552.558607168032, -17140.524642530043, -6974.213656689365, -7385.9551413005765, -6313.138462679203, -3138.3637354807543, -4314.646639185744, -5710.088397275019, -6666.720708217706, 0.00425, 0.06725, 0.97675, 192.0, 0.0, 0.0, 0.0, 0.0, 0.0, 0.0, 0.0, 0.0, 0.0, 1.6444917135687952E9, 0.0, 2022-02-10 22:15:13.568
194.0, -7699.147784608339, -6365.530951682443, -6450.556987590431, -11180.074355611128, -3849.395078348527, -1532.770876022682, -4874.602541280096, -4577.480802235699, -17157.15434040479, -6993.257342965287, -7410.340894501316, -6335.758428067974, -3169.0526806178905, -4337.087790618872, -5734.027115586653, -6680.958769435736, 0.004125, 0.066625, 0.977375, 192.0, 0.0, 16.0, 1.0, 8.0, 15.0, 72.0, 0.0, 0.0, 0.0, 1.644491713568802E9, 0.0, 2022-02-10 22:15:13.568
196.0, -7696.6667409738, -6362.133486525237, -6445.684307299174, -11170.910140384452, -3863.05199421072, -1546.2042744403213, -4867.829962710138, -4583.605180216454, -17144.212680365166, -6981.589732359616, -7405.401158976693, -6326.0354192299155, -3167.9350933951255, -4326.515415491512, -5723.030057314641, -6668.374737307398, 0.004125, 0.066625, 0.977375, 192.0, 0.0, 0.0, 0.0, 0.0, 0.0, 0.0, 0.0, 0.0, 0.0, 1.6444917135688088E9, 0.0, 2022-02-10 22:15:13.568
198.0, -7711.95533418123, -6383.546457713421, -6469.466563399621, -11187.629245237023, -3891.416357924504, -1577.988455055768, -4880.8163262386715, -4591.785918687096, -17162.407000351788, -6998.286485467731, -7433.832577923844, -6348.92360555215, -3195.807718730893, -4348.487180291078, -5733.222452786262, -6676.868400200415, 0.004125, 0.066625, 0.977375, 192.0, 0.0, 0.0, 0.0, 0.0, 0.0, 0.0, 0.0, 0.0, 0.0, 1.6444917135688171E9, 0.0, 2022-02-10 22:15:13.568
200.0, -7691.905819404819, -6374.114021553281, -6458.424801638699, -11168.943186872386, -3912.516404690314, -1575.3956526989523, -4897.513079346786, -4602.157128114358, -17161.57998580694, -7000.901639569001, -7443.242662339529, -6346.129637495236, -3206.715370025083, -4375.555142826455, -5734.1835777978395, -6678.410670567831, 0.004125, 0.066625, 0.977375, 192.0, 0.0, 0.0, 0.0, 0.0, 0.0, 0.0, 0.0, 0.0, 0.0, 1.6444917135688236E9, 0.0, 2022-02-10 22:15:13.568
202.0, -7716.895069705853, -6386.541591470432, -6471.165295978224, -11174.039384608197, -3940.7019544484565, -1599.244964032765, -4937.209777499411, -4606.6945322387855, -17152.21460488017, -6991.648017364504, -7445.18726410714, -6344.5873671278205, -3204.8378234908373, -4377.700910294165, -5735.435275487337, -6672.50981003163, 0.004125, 0.066625, 0.977375, 192.0, 0.0, 0.0, 0.0, 0.0, 0.0, 0.0, 0.0, 0.0, 0.0, 1.6444917135688305E9, 0.0, 2022-02-10 22:15:13.568
204.0, -7700.645351486844, -6364.994509815516, -6482.89996181726, -11169.770201417232, -3950.737887708889, -1600.8766413780024, -4923.754027337316, -4597.820889690029, -17165.379782364344, -6990.19515397491, -7465.52735156147, -6346.487265406521, -3228.418913891186, -4394.308256424458, -5753.115505351485, -6681.741080491672, 6.250000000000006E-5, 0.0653125, 0.9786874999999999, 192.0, 127.5, 112.0, 1.0, 0.0, 15.0, 80.0, 0.0, 0.0, 0.0, 1.6444917135688376E9, 0.0, 2022-02-10 22:15:13.568
206.0, -7712.000037670141, -6390.520201983476, -6479.278979215501, -11168.250282794272, -3971.1226786521293, -1625.0165253897342, -4932.40415244152, -4619.233860878213, -17150.180596134735, -6977.745232313304, -7459.04534566943, -6340.049963003393, -3238.87953029627, -4389.301465666469, -5739.078609833552, -6669.358214063432, 6.250000000000006E-5, 0.0653125, 0.9786874999999999, 192.0, 0.0, 0.0, 0.0, 0.0, 0.0, 0.0, 0.0, 0.0, 0.0, 1.6444917135688443E9, 0.0, 2022-02-10 22:15:13.568
208.0, -7723.57824129799, -6413.4977952835325, -6505.676389417218, -11183.248303323782, -4019.380094931137, -1652.7103367698596, -4977.375862285598, -4637.24936690919, -17178.50025635961, -7022.6722386684705, -7496.775090309989, -6375.388070987234, -3274.4635074691187, -4434.966079588661, -5758.815200187588, -6681.517563047119, 6.250000000000006E-5, 0.0653125, 0.9786874999999999, 192.0, 0.0, 0.0, 0.0, 0.0, 0.0, 0.0, 0.0, 0.0, 0.0, 1.6444917135688515E9, 0.0, 2022-02-10 22:15:13.568
210.0, -7709.340180079959, -6406.07701612437, -6495.416938712232, -11169.25611129476, -4023.962202544475, -1655.8395809936026, -4983.679054221994, -4627.839282493506, -17167.68201204324, -7025.6673724254815, -7494.651674586735, -6375.321015753868, -3287.4945744865627, -4446.991318105616, -5766.437145046848, -6682.054004914046, 6.250000000000006E-5, 0.0653125, 0.9786874999999999, 192.0, 0.0, 0.0, 0.0, 0.0, 0.0, 0.0, 0.0, 0.0, 0.0, 1.6444917135688581E9, 0.0, 2022-02-10 22:15:13.568
212.0, -7722.751226753143, -6422.259679110012, -6508.1797847962125, -11176.92275964293, -4052.035993580341, -1673.8103835356694, -5004.577935287707, -4647.6652798253635, -17159.3001078725, -7026.784959648247, -7496.082186231874, -6374.270483764468, -3293.6636559562276, -4453.562730975477, -5761.832685689054, -6673.649748998851, 6.250000000000006E-5, 0.0653125, 0.9786874999999999, 192.0, 0.0, 0.0, 0.0, 0.0, 0.0, 0.0, 0.0, 0.0, 0.0, 1.6444917135688653E9, 0.0, 2022-02-10 22:15:13.568
214.0, -7719.912555207319, -6424.248984366534, -6518.439235501199, -11178.219160821338, -4073.47131651298, -1686.4167674084626, -5023.308697141254, -4672.833344082039, -17169.984241722137, -7046.543901746739, -7518.433930687182, -6398.969161387582, -3320.0834179024005, -4483.536420290044, -5778.350624841527, -6687.753699750149, 6.250000000000006E-5, 0.0653125, 0.9786874999999999, 192.0, 0.0, 0.0, 1.0, 8.0, 15.0, 96.0, 0.0, 0.0, 0.0, 1.6444917135688725E9, 0.0, 2022-02-10 22:15:13.568
216.0, -7714.928116193786, -6414.213051106102, -6516.360523266855, -11167.713840927345, -4077.449927026025, -1693.9716570343564, -5022.794607018782, -4647.44176238081, -17161.177654406747, -7025.823834636669, -7516.757549853033, -6383.16647805768, -3320.3963423247747, -4481.100080144415, -5771.242770104739, -6673.783859465583, 6.250000000000006E-5, 0.0653125, 0.9786874999999999, 192.0, 0.0, 0.0, 0.0, 0.0, 0.0, 0.0, 0.0, 0.0, 0.0, 1.6444917135688794E9, 0.0, 2022-02-10 22:15:13.568
218.0, -7729.121473922905, -6430.976859447582, -6540.0533723894805, -11181.817791678643, -4121.035828713873, -1716.0998840451105, -5046.219235207944, -4682.35518722, -17173.381706879343, -7031.523529472773, -7539.623384430813, -6398.4103677762, -3345.5420548369952, -4498.065054185993, -5788.2971511241385, -6680.623493268907, 6.250000000000006E-5, 0.0653125, 0.9786874999999999, 192.0, 0.0, 0.0, 0.0, 0.0, 0.0, 0.0, 0.0, 0.0, 0.0, 1.6444917135688865E9, 0.0, 2022-02-10 22:15:13.568
220.0, -7707.95437192373, -6414.280106339468, -6532.587889741408, -11164.428134492415, -4124.299183404349, -1711.4507211984064, -5068.570979663251, -4676.16375400588, -17172.3535266344, -7030.718866672381, -7545.367782755827, -6393.761204929496, -3354.102772963378, -4505.12820543387, -5792.47692733728, -6684.535048548585, 6.250000000000006E-5, 0.0653125, 0.9786874999999999, 192.0, 0.0, 0.0, 0.0, 0.0, 0.0, 0.0, 0.0, 0.0, 0.0, 1.644491713568895E9, 0.0, 2022-02-10 22:15:13.568
222.0, -7722.170081397305, -6424.584260533365, -6547.2729858485445, -11175.82752416462, -4153.15528549615, -1736.3729162660738, -5094.163727064577, -4684.16567852088, -17161.669392784763, -7019.364180489085, -7546.842997889877, -6383.367643757778, -3360.160095710766, -4495.718121018186, -5794.913267482909, -6671.369871064409, 6.250000000000006E-5, 0.0653125, 0.9786874999999999, 192.0, 0.0, 0.0, 0.0, 0.0, 0.0, 0.0, 0.0, 0.0, 0.0, 1.6444917135689015E9, 0.0, 2022-02-10 22:15:13.568
224.0, -7727.467444833213, -6436.140112416758, -6559.0747069209465, -11177.839181165598, -4178.993902086485, -1749.3145763056966, -5082.026729825346, -4679.360053462989, -17177.963814492683, -7034.049276596222, -7571.8545999353655, -6408.111024869803, -3383.964703555668, -4542.902653563339, -5808.659590322923, -6686.591409038474, -0.00296875, 0.06565625, 0.97834375, 192.0, 127.5, 104.0, 1.0, 8.0, 15.0, 72.0, 0.0, 0.0, 0.0, 1.6444917135689087E9, 0.0, 2022-02-10 22:15:13.568
226.0, -7711.508299292123, -6428.786388490962, -6554.20202662969, -11160.11424781254, -4190.773271414432, -1750.5215705062833, -5107.708884204493, -4681.282303486145, -17169.760724277585, -7018.358351988596, -7562.9362538976975, -6393.64944620722, -3392.5030699375952, -4538.633470372376, -5798.5118983402135, -6668.665309985317, -0.00296875, 0.06565625, 0.97834375, 192.0, 0.0, 0.0, 0.0, 0.0, 0.0, 0.0, 0.0, 0.0, 0.0, 1.6444917135689158E9, 0.0, 2022-02-10 22:15:13.568
228.0, -7735.223500159204, -6448.031240466981, -6578.721890297162, -11176.45337300937, -4226.200786376094, -1776.6507597745372, -5118.415369798586, -4711.814786412095, -17178.410849381788, -7027.746084659825, -7584.483335552613, -6407.529879513965, -3412.329067269453, -4556.268996747613, -5813.91225026992, -6679.952940935247, -0.00296875, 0.06565625, 0.97834375, 192.0, 0.0, 0.0, 0.0, 0.0, 0.0, 0.0, 0.0, 0.0, 0.0, 1.6444917135689223E9, 0.0, 2022-02-10 22:15:13.568
230.0, -7731.736628024177, -6437.592975806353, -6572.485753594131, -11165.791590904188, -4233.398048090702, -1765.720756735892, -5127.691343747538, -4696.995579838226, -17182.747087806118, -7034.317497529686, -7604.286981140016, -6410.0332748929595, -3428.958765144201, -4565.90259860785, -5816.81797704911, -6679.528257790596, -0.00296875, 0.06565625, 0.97834375, 192.0, 0.0, 0.0, 0.0, 0.0, 0.0, 0.0, 0.0, 0.0, 0.0, 1.6444917135689316E9, 0.0, 2022-02-10 22:15:13.568
232.0, -7742.331354895992, -6444.745534032051, -6589.294265424522, -11169.6360909505, -4267.439754896135, -1795.2921146502633, -5171.344300668753, -4722.2754028171785, -17177.315613903476, -7022.515776457283, -7602.722359028145, -6399.349141043323, -3435.8878059253466, -4563.957996840239, -5823.00941026323, -6672.487458287175, -0.00296875, 0.06565625, 0.97834375, 192.0, 0.0, 0.0, 0.0, 0.0, 0.0, 0.0, 0.0, 0.0, 0.0, 1.6444917135689385E9, 0.0, 2022-02-10 22:15:13.568
234.0, -7743.806570030042, -6452.970975991604, -6596.692692839229, -11167.646785693978, -4283.287141714948, -1808.2114229454307, -5160.034317974368, -4722.878899917472, -17185.518704118575, -7036.083285341655, -7623.822405793954, -6417.252888352024, -3461.905236471324, -4597.798537945573, -5845.1823407628945, -6687.753699750149, -0.004, 0.068, 0.982, 192.0, 127.5, 112.0, 1.0, 16.0, 15.0, 88.0, 0.0, 0.0, 0.0, 1.6444917135689452E9, 0.0, 2022-02-10 22:15:13.568
236.0, -7731.28959313507, -6432.69794377064, -6590.098928224913, -11154.615718676534, -4291.736101119054, -1812.7935305587687, -5171.031376246378, -4726.969269152793, -17170.118352188867, -7023.678067168959, -7613.406492877781, -6413.74366447254, -3454.6856230122594, -4600.1231193689255, -5832.017163278719, -6675.192019366267, -0.004, 0.068, 0.982, 192.0, 0.0, 0.0, 0.0, 0.0, 0.0, 0.0, 0.0, 0.0, 0.0, 1.644491713568952E9, 0.0, 2022-02-10 22:15:13.568
238.0, -7749.1262852104055, -6454.289728914468, -6619.558527417008, -11168.49615198328, -4333.243290572559, -1834.2065017469529, -5203.083777795288, -4740.045039659148, -17184.334061662445, -7028.0590090822, -7634.774760577055, -6424.561908788909, -3483.0723384704997, -4610.851956707473, -5851.217311765828, -6684.89267645987, -0.004, 0.068, 0.982, 192.0, 0.0, 0.0, 0.0, 0.0, 0.0, 0.0, 0.0, 0.0, 0.0, 1.6444917135689588E9, 0.0, 2022-02-10 22:15:13.568
240.0, -7733.2788983915925, -6447.517150344509, -6610.304905212511, -11155.710954154845, -4334.785560939975, -1823.008277774844, -5203.642571406672, -4729.763237209706, -17192.671262344273, -7033.758703918303, -7648.766952606077, -6426.573565789887, -3492.9965130086557, -4609.130872384414, -5857.0958205575735, -6681.1599351358345, -0.004, 0.068, 0.982, 192.0, 0.0, 0.0, 0.0, 0.0, 0.0, 0.0, 0.0, 0.0, 0.0, 1.6444917135689657E9, 0.0, 2022-02-10 22:15:13.568
242.0, -7739.582090327989, -6452.456885869132, -6621.771350118083, -11156.426209977415, -4360.870046719318, -1845.561187930249, -5230.531719986406, -4746.2811763621785, -17180.10958196039, -7021.107616556599, -7644.162493248284, -6415.621211006786, -3494.73994907617, -4623.279526624623, -5852.178436777406, -6669.201751852245, -0.004, 0.068, 0.982, 192.0, 0.0, 0.0, 0.0, 0.0, 0.0, 0.0, 0.0, 0.0, 0.0, 1.6444917140479655E9, 0.0, 2022-02-10 22:15:14.047
244.0, -7741.683154306788, -6463.118667974314, -6634.176568290779, -11157.879073367008, -4378.1255934388155, -1856.1112113131537, -5227.8495106517685, -4744.64949901694, -17198.616826369383, -7039.614860965594, -7668.6600051713, -6436.229519394579, -3527.9769930812113, -4651.018041493659, -5866.774125906722, -6676.622531011407, -0.004, 0.068, 0.982, 192.0, 0.0, 0.0, 1.0, 0.0, 15.0, 96.0, 0.0, 0.0, 0.0, 1.6444917140479743E9, 0.0, 2022-02-10 22:15:14.047
246.0, -7736.363439126425, -6457.866008027317, -6630.577937433474, -11144.043343549174, -4395.448195391678, -1856.200618290975, -5239.1147898572435, -4744.157760638924, -17188.849114042416, -7026.494386970328, -7668.212970282194, -6425.903013456227, -3525.540652935583, -4643.574910590042, -5859.487457214291, -6664.731402961183, -0.004, 0.068, 0.982, 192.0, 0.0, 0.0, 0.0, 0.0, 0.0, 0.0, 0.0, 0.0, 0.0, 1.6444917140479815E9, 0.0, 2022-02-10 22:15:14.047
248.0, -7742.264299662626, -6466.717298831618, -6651.9909086216585, -11154.213387276339, -4421.9126608267625, -1886.8001564502904, -5270.362528605763, -4779.384109900488, -17200.69553860373, -7026.002648592312, -7686.653159457823, -6432.541481559454, -3545.545464223083, -4659.712870086774, -5870.864495142043, -6671.861609442426, -0.004, 0.068, 0.982, 192.0, 0.0, 0.0, 0.0, 0.0, 0.0, 0.0, 0.0, 0.0, 0.0, 1.6444917140479884E9, 0.0, 2022-02-10 22:15:14.047
250.0, -7737.011639715629, -6456.413144637721, -6642.513768972608, -11142.322259226115, -4412.949611300184, -1868.136449830109, -5257.80084822188, -4746.191769384357, -17194.59351236743, -7018.492462455329, -7684.887371645853, -6437.123589172792, -3550.149923580876, -4669.480582413743, -5872.16089632045, -6670.565208264018, -0.004, 0.068, 0.982, 192.0, 0.0, 0.0, 0.0, 0.0, 0.0, 0.0, 0.0, 0.0, 0.0, 1.644491714047995E9, 0.0, 2022-02-10 22:15:14.047
252.0, -7755.273014935615, -6474.8980373022605, -6649.152237075835, -11150.190073274383, -4437.894158112306, -1895.226764109941, -5270.18371465012, -4778.758261055739, -17191.039584999035, -7025.443854980928, -7684.082708845462, -6435.246042638546, -3550.731068936714, -4675.224980738757, -5862.773163649222, -6658.517618002608, -0.004, 0.068, 0.982, 192.0, 0.0, 0.0, 0.0, 0.0, 0.0, 0.0, 0.0, 0.0, 0.0, 1.6444917140480018E9, 0.0, 2022-02-10 22:15:14.048
254.0, -7756.211788202738, -6475.143906491269, -6655.813056923516, -11151.553529686158, -4458.6589287112865, -1894.9808949209328, -5286.366377635763, -4764.564903326619, -17210.373843952875, -7038.832549909658, -7712.447072559246, -6455.787295792973, -3576.212057615764, -4694.514536203687, -5880.431041768914, -6672.085126886979, -0.006, 0.068, 0.984, 192.0, 127.5, 104.0, 1.0, 16.0, 15.0, 96.0, 0.0, 0.0, 0.0, 1.6444917140480084E9, 0.0, 2022-02-10 22:15:14.048
0.0, -7750.15446545535, -6465.555008119943, -6646.8276556524825, -11138.567166157623, -4463.039870624527, -1889.7729384628462, -5290.613209082271, -4754.484266577276, -17194.30293968951, -7024.5497852027165, -7703.126395121383, -6436.2742228834895, -3571.8087639580685, -4681.505820930698, -5867.77995440721, -6653.577882477985, -0.006, 0.068, 0.984, 192.0, 0.0, 0.0, 0.0, 0.0, 0.0, 0.0, 0.0, 0.0, 0.0, 1.644491714048015E9, 0.0, 2022-02-10 22:15:14.048
2.0, -7756.949395769763, -6473.579284379397, -6672.643920498362, -11148.804265118155, -4485.83864996894, -1912.2140898959744, -5301.900840032201, -4783.809755302639, -17206.238771228644, -7028.237823037842, -7724.561718054023, -6452.7698102915065, -3586.247990876197, -4696.235620526746, -5881.079242358118, -6655.321318545499, -0.006, 0.068, 0.984, 192.0, 0.0, 0.0, 0.0, 0.0, 0.0, 0.0, 0.0, 0.0, 0.0, 1.644491714048022E9, 0.0, 2022-02-10 22:15:14.048
4.0, -7749.573320099512, -6471.522923889509, -6664.262016327622, -11133.023933532708, -4480.161306877292, -1912.6387730406254, -5281.80662176688, -4759.3122433796225, -17205.702329361717, -7031.679991683959, -7725.835767487975, -6452.970975991604, -3597.826194504046, -4710.920716633883, -5877.547666734179, -6653.130847588879, -0.006, 0.068, 0.984, 192.0, 0.0, 0.0, 0.0, 0.0, 0.0, 0.0, 0.0, 0.0, 0.0, 1.6444917140480287E9, 0.0, 2022-02-10 22:15:14.048
6.0, -7754.066020735028, -6470.539447133476, -6679.483554301686, -11135.840253334076, -4505.754054278619, -1933.872930273167, -5318.7093518625925, -4770.733984796284, -17202.617788626885, -7025.399151492018, -7728.272107633604, -6453.552121347442, -3604.799938774102, -4724.22000458479, -5874.485477743802, -6643.407838750821, -0.006, 0.068, 0.984, 192.0, 0.0, 0.0, 0.0, 0.0, 0.0, 0.0, 0.0, 0.0, 0.0, 1.644491714048041E9, 0.0, 2022-02-10 22:15:14.048
8.0, -7740.00677347264, -6471.1429442337685, -6685.809097982538, -11135.884956822987, -4531.525615635588, -1928.1732354370638, -5336.814264871391, -4776.053699976647, -17212.139631764847, -7031.277660283764, -7747.829884031998, -6451.853388768839, -3626.704648340303, -4737.675754746885, -5894.445585542391, -6654.561359234019, 0.002, 0.068, 0.98, 192.0, 0.0, 8.0, 1.0, 16.0, 15.0, 80.0, 0.0, 0.0, 0.0, 1.6444917140480475E9, 0.0, 2022-02-10 22:15:14.048
10.0, -7744.611232830433, -6466.896112787261, -6676.89075194487, -11118.472947892304, -4534.520749392599, -1931.3695348941726, -5329.505244434506, -4781.552229112653, -17197.231018213155, -7012.703360641403, -7736.430494359791, -6437.32475487289, -3619.3956279034173, -4726.455179030321, -5883.06854761464, -6639.563338704507, 0.002, 0.068, 0.98, 192.0, 0.0, 0.0, 0.0, 0.0, 0.0, 0.0, 0.0, 0.0, 0.0, 1.6444917140480545E9, 0.0, 2022-02-10 22:15:14.048
12.0, -7766.024204018618, -6482.8776100728055, -6702.036464457091, -11137.114302768028, -4567.824848631007, -1956.3364334507507, -5359.121305837787, -4798.360740943043, -17213.07840503197, -7024.7285991583585, -7761.620910360923, -6464.6832900861855, -3645.547168916127, -4754.998356699748, -5897.1277948770285, -6644.212501551212, 0.002, 0.068, 0.98, 192.0, 0.0, 0.0, 0.0, 0.0, 0.0, 0.0, 0.0, 0.0, 0.0, 1.644491714048061E9, 0.0, 2022-02-10 22:15:14.048
14.0, -7750.266224177626, -6475.523886147009, -6693.006359697147, -11123.166814227918, -4565.679081163297, -1945.9652240234882, -5349.86768363329, -4767.6494440614515, -17220.3650737244, -7032.283488784253, -7768.326433697514, -6468.3266244324, -3658.7346981447577, -4764.341385882066, -5902.626324013034, -6641.3067747720215, 0.002, 0.068, 0.98, 192.0, 0.0, 0.0, 0.0, 0.0, 0.0, 0.0, 0.0, 0.0, 0.0, 1.6444917140480676E9, 0.0, 2022-02-10 22:15:14.048
16.0, -7764.146657484372, -6482.318816461422, -6702.595258068473, -11126.899555551954, -4592.09884310947, -1967.847581845234, -5373.761698456014, -4792.437528662387, -17215.157117266313, -7024.527433458261, -7765.778334829609, -6465.264435442024, -3653.9737765757773, -4755.043060188658, -5893.707977975367, -6629.706219399717, 0.002, 0.068, 0.98, 192.0, 0.0, 0.0, 0.0, 0.0, 0.0, 0.0, 0.0, 0.0, 0.0, 1.6444917140480745E9, 0.0, 2022-02-10 22:15:14.048
18.0, -7761.240930705182, -6482.207057739146, -6710.731293050206, -11126.117244496018, -4607.029808405615, -1966.5958841557367, -5381.428346804184, -4799.500679910264, -17227.83055637247, -7031.903509128512, -7785.693739139288, -6471.657034356241, -3684.2603903127183, -4772.186848185879, -5911.924649706441, -6641.709106172217, 0.002, 0.068, 0.982, 192.0, 0.0, 8.0, 1.0, 16.0, 15.0, 88.0, 0.0, 0.0, 0.0, 1.6444917140480812E9, 0.0, 2022-02-10 22:15:14.048
20.0, -7746.600538086956, -6468.840714554873, -6705.121005191923, -11116.081311235585, -4604.928744426817, -1965.3218347217842, -5367.659672219715, -4800.327694455111, -17216.02883530007, -7019.878270611557, -7771.343919198981, -6464.057441241436, -3678.1583640764197, -4765.861304505027, -5897.328960577126, -6627.493396698642, 0.002, 0.068, 0.982, 192.0, 0.0, 0.0, 0.0, 0.0, 0.0, 0.0, 0.0, 0.0, 0.0, 1.644491714048088E9, 0.0, 2022-02-10 22:15:14.048
22.0, -7765.353651684958, -6487.415014197232, -6728.858557803459, -11125.446692162359, -4643.083172212026, -1985.1478320536414, -5405.523527327005, -4804.127491012513, -17228.746977895138, -7017.978372332856, -7792.421614220335, -6469.779487821996, -3696.531498018682, -4782.5580576131415, -5910.3376758501145, -6632.321373500989, 0.002, 0.068, 0.982, 192.0, 0.0, 0.0, 0.0, 0.0, 0.0, 0.0, 0.0, 0.0, 0.0, 1.6444917140480945E9, 0.0, 2022-02-10 22:15:14.048
24.0, -7749.081581721495, -6471.6123308673305, -6716.967429753236, -11102.223229673295, -4634.164826174358, -1976.8329831162673, -5401.366102858317, -4799.3442176990775, -17231.3174285075, -7028.997782349323, -7795.483803210713, -6464.8621040418275, -3705.2486783562517, -4801.892316566982, -5917.177309653439, -6629.907385099815, 0.002, 0.068, 0.982, 192.0, 0.0, 0.0, 0.0, 0.0, 0.0, 0.0, 0.0, 0.0, 0.0, 1.6444917140481012E9, 0.0, 2022-02-10 22:15:14.048
26.0, -7763.051422006062, -6484.6433978847745, -6729.193833970289, -11108.39231114296, -4655.287224684623, -1996.4578147480267, -5408.585716317381, -4816.733874885306, -17222.08615804746, -7020.951154345412, -7797.517811956145, -6458.603615594342, -3708.5120330467266, -4795.097386252569, -5910.047103172195, -6614.1270535143685, 0.002, 0.068, 0.982, 192.0, 0.0, 0.0, 0.0, 0.0, 0.0, 0.0, 0.0, 0.0, 0.0, 1.644491714048108E9, 0.0, 2022-02-10 22:15:14.048
28.0, -7763.25258770616, -6476.619121625319, -6736.301688707076, -11114.181412956885, -4671.514591159176, -2002.805710173334, -5421.2591554235405, -4826.747456401284, -17232.70323666373, -7032.372895762074, -7812.716998185754, -6477.021453025514, -3728.896823989967, -4815.057494051158, -5925.514510335268, -6629.058018810513, 0.002, 0.068, 0.984, 192.0, 0.0, 8.0, 1.0, 16.0, 15.0, 96.0, 0.0, 0.0, 0.0, 1.6444917140481145E9, 0.0, 2022-02-10 22:15:14.048
30.0, -7756.971747514218, -6467.432554654188, -6725.461092646253, -11098.579895327079, -4667.535980646131, -1997.5083467374263, -5426.578870603904, -4806.809700347149, -17218.152251023323, -7017.598392677116, -7799.238896279204, -6460.034127239482, -3719.844367485567, -4805.37918870201, -5914.159824151972, -6613.16592850279, 0.002, 0.068, 0.984, 192.0, 0.0, 0.0, 0.0, 0.0, 0.0, 0.0, 0.0, 0.0, 0.0, 1.6444917140481212E9, 0.0, 2022-02-10 22:15:14.048
32.0, -7770.516904654134, -6490.879534587805, -6747.2540434901775, -11112.057997233629, -4689.619504167975, -2015.099169623753, -5448.46122842565, -4807.2343834918, -17230.31160000701, -7026.874366626069, -7819.467225011257, -6475.099203002358, -3734.797684526168, -4825.786331389705, -5921.021809699751, -6615.646972137329, 0.002, 0.068, 0.984, 192.0, 0.0, 0.0, 0.0, 0.0, 0.0, 0.0, 0.0, 0.0, 0.0, 1.644491714048128E9, 0.0, 2022-02-10 22:15:14.048
34.0, -7760.2798056936035, -6480.418918182721, -6741.129665509423, -11095.808279014622, -4693.97809433676, -2010.4053032881384, -5437.55357713146, -4825.316944756144, -17234.334914008967, -7028.640154438038, -7826.709190214777, -6477.960226292637, -3739.7821235397014, -4822.567680188141, -5929.381362126036, -6615.73637911515, 0.002, 0.068, 0.984, 192.0, 0.0, 0.0, 0.0, 0.0, 0.0, 0.0, 0.0, 0.0, 0.0, 1.6444917140481348E9, 0.0, 2022-02-10 22:15:14.048
36.0, -7772.573265144023, -6490.499554932065, -6753.400773215387, -11099.026930216185, -4714.720513191284, -2021.938803427077, -5447.298937713974, -4809.670723637429, -17232.479719219176, -7020.571174689672, -7824.094036113505, -6473.75809833504, -3750.5109608782486, -4822.925308099426, -5919.479539332336, -6606.192184232734, 0.002, 0.068, 0.984, 192.0, 0.0, 0.0, 0.0, 0.0, 0.0, 0.0, 0.0, 0.0, 0.0, 1.6444917140481412E9, 0.0, 2022-02-10 22:15:14.048
38.0, -7774.003776789163, -6494.612275911842, -6761.782677386127, -11100.323331394593, -4727.013972641704, -2025.2692133509177, -5464.93446408921, -4810.564793415641, -17251.590460728465, -7034.429256251962, -7847.161036391382, -6491.192459010179, -3776.438984446405, -4847.109895600069, -5934.723429050855, -6614.082350025457, -0.002, 0.078, 0.982, 192.0, 127.5, 120.0, 1.0, 56.0, 15.0, 88.0, 0.0, 0.0, 0.0, 1.64449171404815E9, 0.0, 2022-02-10 22:15:14.048
40.0, -7781.581018159512, -6495.528697434509, -6752.238482503711, -11087.739299266255, -4716.665114958896, -2021.44706504906, -5454.764420362047, -4804.798043346173, -17239.49816697814, -7023.1416253020325, -7838.086228142528, -6479.56955189342, -3766.626568630525, -4835.688154183406, -5922.7205422783545, -6601.587724874941, -0.002, 0.078, 0.982, 192.0, 0.0, 0.0, 0.0, 0.0, 0.0, 0.0, 0.0, 0.0, 0.0, 1.6444917140481565E9, 0.0, 2022-02-10 22:15:14.048
42.0, -7802.21167829176, -6520.517947735542, -6769.359918756476, -11100.949180239342, -4746.169417639901, -2041.4071728476492, -5484.715757932157, -4830.10021806958, -17250.249356061144, -7028.3048782712085, -7859.02981269715, -6492.1535840217575, -3780.305836237173, -4851.58024449113, -5929.940155737419, -6602.459442908698, -0.002, 0.078, 0.982, 192.0, 0.0, 0.0, 0.0, 0.0, 0.0, 0.0, 0.0, 0.0, 0.0, 1.6444917140481634E9, 0.0, 2022-02-10 22:15:14.048
44.0, -7818.394341277402, -6526.396456527288, -6766.409488488375, -11085.347662609538, -4745.655327517429, -2023.324611583306, -5480.379519507828, -4810.587145160097, -17260.598213743953, -7029.1318928160545, -7869.311615146592, -6495.573400923419, -3787.1901735294073, -4852.206093335878, -5936.712734307377, -6602.459442908698, -0.002, 0.078, 0.982, 192.0, 0.0, 0.0, 0.0, 0.0, 0.0, 0.0, 0.0, 0.0, 0.0, 1.64449171404817E9, 0.0, 2022-02-10 22:15:14.048
46.0, -7871.122106447471, -6582.566390343474, -6779.86523865047, -11098.714005793812, -4752.249092131745, -2046.5927775612806, -5494.662284214769, -4828.893223868993, -17271.908196438337, -7036.664430697493, -7881.761536808198, -6505.341113250389, -3789.917086352955, -4852.67547996944, -5929.806045270687, -6589.204858446701, -0.002, 0.078, 0.982, 192.0, 0.0, 0.0, 0.0, 0.0, 0.0, 0.0, 0.0, 0.0, 0.0, 1.6444917140481768E9, 0.0, 2022-02-10 22:15:14.048
48.0, -7886.343644421536, -6603.9793615316585, -6785.855506164492, -11100.032758716674, -4773.304435408644, -2046.2798531389062, -5506.888688431823, -4831.798950648183, -17284.581635544495, -7065.006442666822, -7905.812013842108, -6536.924128165738, -3806.9044121389884, -4878.91642795997, -5948.760324568788, -6603.3311609424545, -0.002, 0.078, 0.982, 192.0, 0.0, 0.0, 1.0, 24.0, 15.0, 96.0, 0.0, 0.0, 0.0, 1.644491714048184E9, 0.0, 2022-02-10 22:15:14.048
50.0, -7915.177394768882, -6614.059998281003, -6777.719471182761, -11088.566313811101, -4768.923493495405, -2045.7210595275235, -5521.61848802787, -4831.2178052923455, -17280.759487242638, -7049.427276781474, -7901.699292862331, -6526.195290827191, -3798.4778044793375, -4863.381965563532, -5936.377458140548, -6588.579009601952, -0.002, 0.078, 0.982, 192.0, 0.0, 0.0, 0.0, 0.0, 0.0, 0.0, 0.0, 0.0, 0.0, 1.6444917140481904E9, 0.0, 2022-02-10 22:15:14.048
52.0, -7948.839121918574, -6648.168760319801, -6805.033302907146, -11108.10173846504, -4793.756281585251, -2062.3954608911827, -5529.352191609406, -4833.922366371437, -17301.054871208056, -7056.356317562619, -7930.823615887597, -6542.824988701938, -3815.4427785209155, -4866.757078976283, -5947.530978623746, -6589.8307072914495, -0.002, 0.078, 0.982, 192.0, 0.0, 0.0, 0.0, 0.0, 0.0, 0.0, 0.0, 0.0, 0.0, 1.6444917140482E9, 0.0, 2022-02-10 22:15:14.048
54.0, -7922.598173928043, -6632.008449078614, -6790.236448077732, -11090.95795046782, -4788.861249549538, -2052.73950728649, -5491.533039991026, -4808.933116070404, -17311.403728890866, -7072.203704381431, -7939.786665414174, -6552.771514984551, -3822.8412059356224, -4888.080643186646, -5948.961490268885, -6589.562486357986, -0.002, 0.078, 0.982, 192.0, 0.0, 0.0, 0.0, 0.0, 0.0, 0.0, 0.0, 0.0, 0.0, 1.6444917140482068E9, 0.0, 2022-02-10 22:15:14.048
56.0, -7930.980078098783, -6631.2708415115885, -6794.483279524241, -11085.124145164984, -4808.083749781103, -2060.8308387793113, -5519.897403704811, -4833.609441949063, -17287.330900112498, -7047.34856454713, -7921.324124494091, -6533.10197986388, -3821.343639057117, -4882.269189628267, -5936.176292440449, -6576.844343762916, -0.002, 0.078, 0.982, 192.0, 0.0, 0.0, 1.0, 40.0, 15.0, 88.0, 0.0, 0.0, 0.0, 1.6444917140482135E9, 0.0, 2022-02-10 22:15:14.048
58.0, -7927.113226308015, -6622.955992574214, -6805.793262218626, -11082.866618974998, -4825.518110456242, -2062.708385313557, -5538.091723691431, -4834.369401260544, -17310.37554864592, -7056.177503606976, -7945.955746883839, -6544.255500347078, -3848.165732403485, -4897.155451435501, -5957.209283972894, -6588.333140412944, -0.002, 0.078, 0.982, 192.0, 0.0, 0.0, 0.0, 0.0, 0.0, 0.0, 0.0, 0.0, 0.0, 1.64449171404822E9, 0.0, 2022-02-10 22:15:14.048
60.0, -7909.589458655055, -6590.098928224913, -6793.812727190581, -11069.701441490823, -4819.192566775389, -2051.0854781967973, -5517.125787392353, -4807.614363147541, -17293.18705715979, -7025.734427658847, -7937.909118879929, -6517.43340700071, -3838.4203718209715, -4878.558800048685, -5941.5630628541785, -6569.8705994928605, -0.002, 0.078, 0.982, 192.0, 0.0, 0.0, 0.0, 0.0, 0.0, 0.0, 0.0, 0.0, 0.0, 1.6444917140482268E9, 0.0, 2022-02-10 22:15:14.048
62.0, -7922.687580905865, -6608.44971042272, -6812.7670064886825, -11083.648930030935, -4842.10310484208, -2081.4614989115594, -5547.032421473554, -4824.199357533379, -17299.020862462625, -7018.96184908889, -7946.916871895418, -6520.316782035445, -3850.4456103379266, -4889.421747853965, -5950.414353658481, -6571.546980327008, -0.002, 0.078, 0.982, 192.0, 0.0, 0.0, 0.0, 0.0, 0.0, 0.0, 0.0, 0.0, 0.0, 1.6444917140482335E9, 0.0, 2022-02-10 22:15:14.048
64.0, -7894.792603825642, -6597.653817850807, -6799.646532493417, -11062.682993731856, -4831.2401570368, -2062.127239957719, -5536.638860301836, -4819.550194686674, -17303.692377053783, -7038.564328976194, -7947.542720740166, -6538.131122366324, -3861.487372098848, -4897.44602411342, -5953.208321715394, -6574.296244895011, -0.002, 0.078, 0.982, 192.0, 0.0, 0.0, 0.0, 0.0, 0.0, 0.0, 0.0, 0.0, 0.0, 1.64449171404824E9, 0.0, 2022-02-10 22:15:14.048
66.0, -7889.9422752788405, -6582.924018254759, -6802.887535439437, -11063.130028620963, -4850.440305523909, -2081.4391471671042, -5556.24134018914, -4814.878680095516, -17281.51944655412, -7014.156224030999, -7932.432941488379, -6517.254593045068, -3851.4514388384155, -4887.29833213071, -5944.446437888913, -6563.589759300919, -0.002, 0.078, 0.982, 192.0, 0.0, 0.0, 1.0, 48.0, 15.0, 80.0, 0.0, 0.0, 0.0, 1.6444917140482469E9, 0.0, 2022-02-10 22:15:14.048
68.0, -7879.504010618211, -6566.16020991328, -6807.87197445297, -11062.459476287304, -4856.117648615557, -2078.645179110191, -5573.67570086428, -4812.755264372261, -17297.769164773126, -7023.812177635691, -7955.365831299524, -6527.759912939062, -3874.496087371837, -4914.187480710445, -5961.746688097321, -6574.385651872833, -0.002, 0.078, 0.982, 192.0, 0.0, 0.0, 0.0, 0.0, 0.0, 0.0, 0.0, 0.0, 0.0, 1.6444917140482535E9, 0.0, 2022-02-10 22:15:14.048
70.0, -7850.916129459874, -6537.549977010486, -6791.443442278319, -11047.886138902442, -4850.730878201828, -2076.4323564091155, -5571.194657229741, -4815.035142306703, -17277.31731859652, -7001.86276458058, -7934.846929889552, -6506.19047953969, -3858.179313919463, -4897.7813002802495, -5950.906092036497, -6560.996956944104, -0.002, 0.078, 0.982, 192.0, 0.0, 0.0, 0.0, 0.0, 0.0, 0.0, 0.0, 0.0, 0.0, 1.6444917140482616E9, 0.0, 2022-02-10 22:15:14.048
72.0, -7843.1600741338825, -6544.814293958461, -6809.436596564841, -11062.012441398198, -4871.026262167247, -2091.542135660903, -5583.286950980062, -4821.695962154385, -17275.193902873267, -6998.95703780139, -7941.999488115251, -6509.297372018978, -3874.9207705164877, -4909.918297519481, -5958.03629851774, -6564.930863968238, -0.002, 0.078, 0.982, 192.0, 0.0, 0.0, 0.0, 0.0, 0.0, 0.0, 0.0, 0.0, 0.0, 1.6444917140482683E9, 0.0, 2022-02-10 22:15:14.048
74.0, -7831.827739695042, -6523.691895448196, -6797.009026647691, -11047.908490646898, -4861.482067284831, -2086.6918071141013, -5567.730136839168, -4817.359723730055, -17282.368812843422, -7005.461395437885, -7946.805113173141, -6503.150642293768, -3886.901305544532, -4919.395437168531, -5960.450286918913, -6565.48965757962, -0.002, 0.078, 0.982, 192.0, 0.0, 0.0, 0.0, 0.0, 0.0, 0.0, 0.0, 0.0, 0.0, 1.6444917140482752E9, 0.0, 2022-02-10 22:15:14.048
76.0, -7847.965699191774, -6524.407151270766, -6806.664980252383, -11053.697592460823, -4881.553933805697, -2103.5226706889475, -5591.355930728428, -4817.918517341437, -17269.583615014984, -6992.631494120538, -7933.774046155697, -6494.791089867484, -3879.6369885965573, -4918.434312156954, -5947.553330368201, -6559.231169132134, -0.002, 0.07400000000000001, 0.983, 192.0, 127.5, 120.0, 1.0, 24.0, 15.0, 96.0, 0.0, 0.0, 0.0, 1.644491714048282E9, 0.0, 2022-02-10 22:15:14.048
78.0, -7831.604222250488, -6516.516985478042, -6815.002180934212, -11050.52364474817, -4889.667617042973, -2099.5887636648135, -5608.522070470103, -4825.5851656896075, -17287.062679179035, -7006.199003004909, -7956.952805155851, -6511.711360420151, -3905.4085499535267, -4932.06887627469, -5966.261740477293, -6569.557675070486, -0.002, 0.07400000000000001, 0.983, 192.0, 0.0, 0.0, 0.0, 0.0, 0.0, 0.0, 0.0, 0.0, 0.0, 1.6444917140482883E9, 0.0, 2022-02-10 22:15:14.048
80.0, -7796.467279966746, -6486.655054885752, -6795.0420731356235, -11027.680161914846, -4879.207000637889, -2082.5343826454146, -5593.814622618512, -4802.406406689454, -17260.106475365934, -6983.959017271879, -7940.099589836549, -6492.399453210766, -3885.3813869215714, -4911.9299545204585, -5953.700060093411, -6554.805523729983, -0.002, 0.07400000000000001, 0.983, 192.0, 0.0, 0.0, 0.0, 0.0, 0.0, 0.0, 0.0, 0.0, 0.0, 1.6444917140482953E9, 0.0, 2022-02-10 22:15:14.048
82.0, -7800.848221879986, -6479.301330959956, -6815.695085012328, -11036.062066085586, -4896.8425270131265, -2092.0115222944646, -5605.3928262463605, -4819.281973753211, -17261.98402190018, -6976.6499968349935, -7940.166645069915, -6488.152621764258, -3898.3677504501047, -4902.87749801606, -5957.388097928536, -6551.564520783963, -0.002, 0.07400000000000001, 0.983, 192.0, 0.0, 0.0, 0.0, 0.0, 0.0, 0.0, 0.0, 0.0, 0.0, 1.644491714048302E9, 0.0, 2022-02-10 22:15:14.048
84.0, -7787.9289135848185, -6475.94856929166, -6804.675674995861, -11019.767644377667, -4898.87653575856, -2086.0436065248978, -5603.9846663456765, -4801.244115977778, -17263.146312611858, -6973.029014233233, -7941.261880548225, -6487.683235130696, -3898.166584750007, -4917.383780167554, -5959.645624118522, -6551.586872528419, -0.002, 0.07400000000000001, 0.983, 192.0, 0.0, 0.0, 0.0, 0.0, 0.0, 0.0, 0.0, 0.0, 0.0, 1.6444917140483086E9, 0.0, 2022-02-10 22:15:14.048
86.0, -7792.935704342807, -6473.378118679299, -6810.777701232159, -11021.689894400823, -4902.050483471213, -2099.0076183089755, -5609.416140248316, -4804.306304968155, -17256.239623575166, -6945.178740641921, -7937.104456079538, -6464.437420897177, -3899.7312068618785, -4915.036846999747, -5954.147094982516, -6539.226357844635, 0.001, 0.07200000000000001, 0.9804999999999999, 192.0, 0.0, 16.0, 1.0, 24.0, 15.0, 72.0, 0.0, 0.0, 0.0, 1.6444917140483153E9, 0.0, 2022-02-10 22:15:14.048
88.0, -7782.430384448813, -6464.906807530739, -6816.812672235093, -11021.8016531231, -4912.01936149828, -2101.1086822877746, -5616.099311840452, -4821.941831343393, -17269.33774582598, -6972.917255510957, -7952.013069631228, -6479.793069337973, -3919.5795559381913, -4933.544091408741, -5971.179124257461, -6554.626709774341, 0.001, 0.07200000000000001, 0.9804999999999999, 192.0, 0.0, 0.0, 0.0, 0.0, 0.0, 0.0, 0.0, 0.0, 0.0, 1.644491714048322E9, 0.0, 2022-02-10 22:15:14.048
90.0, -7759.8104190600425, -6440.27518514099, -6801.278209838654, -11003.741443603212, -4902.586925338141, -2084.8142605798557, -5614.288820539573, -4800.2829909662005, -17244.79553041405, -6949.716144766348, -7933.885804877974, -6462.962205763127, -3906.72730287639, -4913.762797565794, -5957.052821761707, -6540.321593322944, 0.001, 0.07200000000000001, 0.9804999999999999, 192.0, 0.0, 0.0, 0.0, 0.0, 0.0, 0.0, 0.0, 0.0, 0.0, 1.6444917140483289E9, 0.0, 2022-02-10 22:15:14.048
92.0, -7775.6354541344, -6451.987499235571, -6821.640649037439, -11016.548993176102, -4928.649059373029, -2103.254449755484, -5653.7843529921, -4824.691095911396, -17253.982097385182, -6951.4148773449515, -7943.787627671675, -6470.248874455557, -3916.4056082255374, -4918.3896086680425, -5966.082926521651, -6539.829854944927, 0.001, 0.07200000000000001, 0.9804999999999999, 192.0, 0.0, 0.0, 0.0, 0.0, 0.0, 0.0, 0.0, 0.0, 0.0, 1.6444917140483353E9, 0.0, 2022-02-10 22:15:14.048
94.0, -7770.852180820964, -6442.7338770310735, -6806.597925019018, -11000.634551123923, -4925.139835493545, -2093.240868239506, -5634.047762638064, -4814.677514395418, -17261.000545144147, -6953.359479112563, -7945.016973616716, -6471.008833767037, -3929.0343438427863, -4924.648097115529, -5978.018758060784, -6542.802636957484, 0.001, 0.07200000000000001, 0.9804999999999999, 192.0, 0.0, 0.0, 0.0, 0.0, 0.0, 0.0, 0.0, 0.0, 0.0, 1.644491714048342E9, 0.0, 2022-02-10 22:15:14.048
96.0, -7767.655881363855, -6435.670725783197, -6807.961381430791, -11005.32841745954, -4933.208815241911, -2102.896821844199, -5647.391754077882, -4812.688209138895, -17247.94712638225, -6929.867795690036, -7932.924679866395, -6451.585167835376, -3917.769064637311, -4918.277849945766, -5958.885664807041, -6526.955250138671, 0.0035, 0.07100000000000001, 0.98125, 192.0, 0.0, 24.0, 1.0, 24.0, 15.0, 88.0, 0.0, 0.0, 0.0, 1.644491714048349E9, 0.0, 2022-02-10 22:15:14.048
98.0, -7753.417820145824, -6432.876757726283, -6821.73005601526, -11007.65299888289, -4943.468265946897, -2106.920135846154, -5667.865951998943, -4830.010811091758, -17254.295021807557, -6942.720048751838, -7943.3629445270235, -6463.56570286342, -3934.1528933230516, -4932.806483841716, -5977.817592360687, -6541.550939267986, 0.0035, 0.07100000000000001, 0.98125, 192.0, 0.0, 0.0, 0.0, 0.0, 0.0, 0.0, 0.0, 0.0, 0.0, 1.6444917140483556E9, 0.0, 2022-02-10 22:15:14.048
100.0, -7748.992174743674, -6418.683399997163, -6810.822404721071, -10985.971806761243, -4922.524681392274, -2096.504222929981, -5633.578376004502, -4790.224705961312, -17245.2202135587, -6931.410066057452, -7942.848854404552, -6449.819380023406, -3922.39587573956, -4925.139835493545, -5965.300615465715, -6526.128235593825, 0.0035, 0.07100000000000001, 0.98125, 192.0, 0.0, 0.0, 0.0, 0.0, 0.0, 0.0, 0.0, 0.0, 0.0, 1.644491714048362E9, 0.0, 2022-02-10 22:15:14.048
102.0, -7764.72780284021, -6427.981725690571, -6832.59300382054, -11001.685083113323, -4945.5022746923305, -2113.670362671657, -5651.191550635284, -4818.6561249084625, -17256.619603230905, -6933.153502124966, -7955.4775900218, -6459.542388861464, -3932.9235473780095, -4935.086361776157, -5964.1606764984945, -6526.418808271744, 0.0035, 0.07100000000000001, 0.98125, 192.0, 0.0, 0.0, 0.0, 0.0, 0.0, 0.0, 0.0, 0.0, 0.0, 1.6444917140483704E9, 0.0, 2022-02-10 22:15:14.048
104.0, -7745.885282264386, -6399.773824187973, -6819.651343780916, -10985.010681749663, -4945.569329925696, -2093.7102548730677, -5664.043803697086, -4812.24117424979, -17258.40774278733, -6926.984420655302, -7953.28711906518, -6449.618214323308, -3944.2111783279397, -4931.845358830137, -5975.13538302605, -6530.866805418349, 0.0035, 0.07100000000000001, 0.98125, 192.0, 0.0, 0.0, 0.0, 0.0, 0.0, 0.0, 0.0, 0.0, 0.0, 1.6444917140483773E9, 0.0, 2022-02-10 22:15:14.048
106.0, -7741.526692095601, -6401.472556766576, -6823.182919404855, -10986.999987006187, -4956.856960875626, -2104.7296648895344, -5682.729862061723, -4806.832052091605, -17241.88980363486, -6911.315847792131, -7937.126807823994, -6435.402504849733, -3930.0178205988195, -4914.880384788559, -5965.457077676902, -6516.9863721116035, 0.00475, 0.07050000000000001, 0.981625, 192.0, 0.0, 24.0, 1.0, 24.0, 15.0, 88.0, 0.0, 0.0, 0.0, 1.6444917145272725E9, 0.0, 2022-02-10 22:15:14.527
108.0, -7715.039874916062, -6383.92643736916, -6824.479320583263, -10986.262379439162, -4963.607187701129, -2110.9434498481096, -5692.31876043305, -4816.555060929663, -17239.587573955963, -6917.976667639812, -7940.770142170209, -6443.739705531562, -3943.004184127353, -4943.490617691353, -5983.785508130254, -6533.213738586157, 0.00475, 0.07050000000000001, 0.981625, 192.0, 0.0, 0.0, 0.0, 0.0, 0.0, 0.0, 0.0, 0.0, 0.0, 1.644491714527376E9, 0.0, 2022-02-10 22:15:14.527
110.0, -7737.413971115825, -6391.034292105948, -6817.058541424101, -10972.247835665685, -4951.447838717441, -2102.4721386995484, -5684.339187662505, -4808.262563736745, -17231.540945952052, -6904.4538622443515, -7929.929546109384, -6435.93894671666, -3935.806922412744, -4936.360411210109, -5968.429859689458, -6519.087436090403, 0.00475, 0.07050000000000001, 0.981625, 192.0, 0.0, 0.0, 0.0, 0.0, 0.0, 0.0, 0.0, 0.0, 0.0, 1.6444917145273829E9, 0.0, 2022-02-10 22:15:14.527
112.0, -7759.586901615489, -6399.840879421339, -6837.510387600707, -10984.206018949273, -4969.88802789307, -2122.834577898333, -5685.322664418539, -4818.164386530446, -17263.459237034233, -6914.221574571321, -7959.523255768211, -6446.108990443825, -3958.225722101417, -4945.569329925696, -5970.575627157167, -6520.763816924551, 0.00475, 0.07050000000000001, 0.981625, 192.0, 0.0, 0.0, 0.0, 0.0, 0.0, 0.0, 0.0, 0.0, 0.0, 1.6444917145273895E9, 0.0, 2022-02-10 22:15:14.527
114.0, -7748.0086979876405, -6387.390957759733, -6824.948707216824, -10965.899940240377, -4957.192237042455, -2102.6286009107353, -5671.442231111793, -4797.131394998002, -17267.66136499183, -6914.333333293597, -7964.641805248476, -6445.79606602145, -3965.1100593936517, -4947.916263093503, -5972.699042880421, -6519.24389830159, 0.00475, 0.07050000000000001, 0.981625, 192.0, 0.0, 0.0, 0.0, 0.0, 0.0, 0.0, 0.0, 0.0, 0.0, 1.6444917145273962E9, 0.0, 2022-02-10 22:15:14.527
116.0, -7739.515035094623, -6375.678643665153, -6827.787378762649, -10965.810533262556, -4963.182504556478, -2105.601382923291, -5686.686120830313, -4808.709598625851, -17252.41747527331, -6883.577332923095, -7951.253110319747, -6423.220804121591, -3943.5629777387358, -4925.877443060571, -5958.282167706749, -6500.937819592693, 0.003375, 0.06925, 0.9808125, 192.0, 0.0, 8.0, 1.0, 16.0, 15.0, 80.0, 0.0, 0.0, 0.0, 1.644491714527403E9, 0.0, 2022-02-10 22:15:14.527
118.0, -7735.871700748408, -6381.132469312248, -6835.386971877453, -10973.097201954986, -4972.950216883447, -2102.740359633012, -5695.068025001053, -4812.509395183253, -17275.730344740194, -6906.398464011963, -7974.610683275543, -6444.432609609677, -3974.520143809336, -4945.077591547679, -5971.067365535184, -6517.723979678629, 0.003375, 0.06925, 0.9808125, 192.0, 0.0, 0.0, 0.0, 0.0, 0.0, 0.0, 0.0, 0.0, 0.0, 1.6444917145274098E9, 0.0, 2022-02-10 22:15:14.527
120.0, -7718.705561006733, -6352.969271298561, -6814.1751663893665, -10953.159445900852, -4953.615957929606, -2083.517859401448, -5700.790071581611, -4803.367531701032, -17248.99765837165, -6879.263446243221, -7949.308508552135, -6418.348123830334, -3951.6319574871013, -4921.563556380696, -5955.421144416469, -6501.004874826059, 0.003375, 0.06925, 0.9808125, 192.0, 0.0, 0.0, 0.0, 0.0, 0.0, 0.0, 0.0, 0.0, 0.0, 1.6444917145274165E9, 0.0, 2022-02-10 22:15:14.527
122.0, -7744.34301189697, -6368.146105783714, -6837.845663767536, -10968.671556552836, -4983.455536777441, -2107.166005035163, -5704.656923372379, -4800.61826713303, -17256.060809619525, -6880.4480886993515, -7954.583520243588, -6426.953545445627, -3959.5891785131907, -4933.231166986367, -5960.427935174458, -6500.736653892595, 0.003375, 0.06925, 0.9808125, 192.0, 0.0, 0.0, 0.0, 0.0, 0.0, 0.0, 0.0, 0.0, 0.0, 1.6444917145274231E9, 0.0, 2022-02-10 22:15:14.527
124.0, -7743.203072929749, -6354.600948643798, -6831.386009619953, -10951.728934255712, -4969.8656761486145, -2094.134938017719, -5687.088452230508, -4797.489022909287, -17272.936376683283, -6888.002978325246, -7969.603892517554, -6429.099312913337, -3977.582332799713, -4941.478960690375, -5969.3239294676705, -6505.05054057247, 0.003375, 0.06925, 0.9808125, 192.0, 0.0, 0.0, 0.0, 0.0, 0.0, 0.0, 0.0, 0.0, 0.0, 1.64449171452743E9, 0.0, 2022-02-10 22:15:14.527
126.0, -7737.369267626914, -6343.536835138421, -6835.498730599729, -10954.746419757179, -4977.8452489191595, -2099.544060175903, -5708.054388529586, -4812.24117424979, -17260.307641066032, -6868.132277504477, -7958.696241223364, -6412.0896353828475, -3966.384108827604, -4919.753065079816, -5960.919673552475, -6492.377101466311, 0.003375, 0.06925, 0.9808125, 192.0, 0.0, 0.0, 1.0, 8.0, 15.0, 96.0, 0.0, 0.0, 0.0, 1.6444917145274365E9, 0.0, 2022-02-10 22:15:14.527
128.0, -7729.747322767655, -6351.561111397876, -6842.807751036615, -10957.31687036954, -4986.98711240138, -2105.668438156657, -5715.765740366667, -4830.547252958686, -17268.980117914693, -6877.520010175706, -7972.286101852192, -6429.792216991451, -3984.8242980032323, -4954.845303874648, -5980.700967395422, -6509.722055163629, 0.003375, 0.06925, 0.9808125, 192.0, 0.0, 0.0, 0.0, 0.0, 0.0, 0.0, 0.0, 0.0, 0.0, 1.644491714527443E9, 0.0, 2022-02-10 22:15:14.527
130.0, -7716.38097958338, -6334.529082122932, -6822.557070560107, -10939.92721318331, -4966.60232145814, -2092.3020949723837, -5704.925144305843, -4801.288819466689, -17256.261975319623, -6869.428678682885, -7954.382354543491, -6409.116853370292, -3976.0847659212072, -4945.3905159700535, -5965.904112566008, -6496.132194534802, 0.003375, 0.06925, 0.9808125, 192.0, 0.0, 0.0, 0.0, 0.0, 0.0, 0.0, 0.0, 0.0, 0.0, 1.6444917145274496E9, 0.0, 2022-02-10 22:15:14.527
132.0, -7727.132168666383, -6343.894463049706, -6843.254785925721, -10949.471408065727, -4992.619752004118, -2101.6898276436123, -5731.121388807463, -4812.263525994244, -17257.871300920404, -6866.388841436964, -7959.366793557024, -6409.385074303756, -3980.7562805123666, -4943.132989780068, -5967.6251968890665, -6494.701682889662, 0.003375, 0.06925, 0.9808125, 192.0, 0.0, 0.0, 0.0, 0.0, 0.0, 0.0, 0.0, 0.0, 0.0, 1.644491714527456E9, 0.0, 2022-02-10 22:15:14.527
134.0, -7705.406273055825, -6327.287116919412, -6826.960364217802, -10937.937907926787, -4974.447783761952, -2086.5576966473695, -5716.2798304891385, -4788.593028616075, -17264.3756585569, -6874.681338629883, -7969.29096809518, -6416.090597640347, -3988.3782253716263, -4943.065934546702, -5972.117897524584, -6497.160374779746, 0.003375, 0.06925, 0.9808125, 192.0, 0.0, 0.0, 0.0, 0.0, 0.0, 0.0, 0.0, 0.0, 0.0, 1.64449171452747E9, 0.0, 2022-02-10 22:15:14.527
