%OpenBCI Raw EEG Data
%Number of channels = 16
%Sample Rate = 125 Hz
%Board = OpenBCI_GUI$BoardCytonSerialDaisy
Sample Index, EXG Channel 0, EXG Channel 1, EXG Channel 2, EXG Channel 3, EXG Channel 4, EXG Channel 5, EXG Channel 6, EXG Channel 7, EXG Channel 8, EXG Channel 9, EXG Channel 10, EXG Channel 11, EXG Channel 12, EXG Channel 13, EXG Channel 14, EXG Channel 15, Accel Channel 0, Accel Channel 1, Accel Channel 2, Other, Other, Other, Other, Other, Other, Other, Analog Channel 0, Analog Channel 1, Analog Channel 2, Timestamp, Other, Timestamp (Formatted)
0.0, -9301.320827164749, -10624.365284963285, -10943.101160895963, -17238.805262900027, -2703.130567447015, -1953.810686327301, -5809.128976956485, -6869.629844382983, 0.0, 0.0, 0.0, 0.0, 0.0, 0.0, 0.0, 0.0, 0.0, 0.0, 0.0, 192.0, 0.0, 0.0, 0.0, 0.0, 0.0, 0.0, 0.0, 0.0, 0.0, 1.6444990583522944E9, 0.0, 2022-02-11 00:17:38.352
24.0, -9295.419966628548, -10624.186471007642, -10933.847538691467, -17229.238716273157, -2705.5669075926435, -1949.3179856917843, -5797.997808217741, -6864.176018735889, -17350.832206110026, -15318.186917088857, -20241.002171159053, -12332.932631126956, -6651.02978361008, -10160.074849137647, -11998.885810242393, -12346.991878389344, 0.0, 0.0, 0.0, 192.0, 0.0, 0.0, 0.0, 0.0, 0.0, 0.0, 0.0, 0.0, 0.0, 1.6444990583523047E9, 0.0, 2022-02-11 00:17:38.352
26.0, -9288.423870614037, -10628.902689087712, -10923.16340484183, -17226.31063774951, -2698.0120179667497, -1941.9195582770776, -5791.359340114515, -6854.520065131196, -17346.026581052134, -15302.875972136972, -20219.611551715323, -12315.67708440746, -6641.597347449941, -10148.943680398903, -11989.162801404334, -12335.190157316943, 0.005, -0.003, 0.497, 192.0, 0.0, 40.0, 127.5, 104.0, 15.5, 8.0, 0.0, 0.0, 0.0, 1.644499058352312E9, 0.0, 2022-02-11 00:17:38.352
28.0, -9305.120623722152, -10628.589764665337, -10936.797968959567, -17231.94327735225, -2714.217032696847, -1958.415145685094, -5811.945296757853, -6874.748393863249, -17351.189834021312, -15312.621332719486, -20225.199487829148, -12321.890869366034, -6645.754771918628, -10154.084581623625, -11997.522353830618, -12344.510834754807, 0.005, -0.003, 0.497, 192.0, 0.0, 0.0, 0.0, 0.0, 0.0, 0.0, 0.0, 0.0, 0.0, 1.6444990583523195E9, 0.0, 2022-02-11 00:17:38.352
30.0, -9286.345158379694, -10608.920229544668, -10925.398579287361, -17227.584687183462, -2702.571773835632, -1945.875817045667, -5817.689695082867, -6861.4267541678855, -17344.976049062738, -15303.278303537167, -20228.932229153186, -12323.366084500085, -6648.436981253265, -10152.452904278387, -11999.176382920312, -12343.192081831943, 0.005, -0.003, 0.497, 192.0, 0.0, 0.0, 0.0, 0.0, 0.0, 0.0, 0.0, 0.0, 0.0, 1.644499058352326E9, 0.0, 2022-02-11 00:17:38.352
32.0, -9297.766899796356, -10628.72387513207, -10930.315963067527, -17238.715855922204, -2707.287991915702, -1959.4433259300383, -5804.904497254432, -6869.808658338626, -17354.229671267232, -15304.395890759934, -20220.304455793437, -12324.081340322655, -6646.917062630304, -10157.124418869545, -11991.979121205703, -12345.002573132822, 0.005, -0.003, 0.497, 192.0, 0.0, 0.0, 0.0, 0.0, 0.0, 0.0, 0.0, 0.0, 0.0, 1.6444990583523328E9, 0.0, 2022-02-11 00:17:38.352
34.0, -9305.053568488785, -10633.261279256498, -10939.368419571927, -17234.245507031144, -2715.9828205088165, -1962.8184393427898, -5811.610020591023, -6877.341196220064, -17356.643659668407, -15321.629085734974, -20239.214031602627, -12332.999686360323, -6654.382545278376, -10162.82411370565, -11998.774051520117, -12353.116256370098, 0.005, -0.003, 0.497, 192.0, 0.0, 0.0, 0.0, 0.0, 0.0, 0.0, 0.0, 0.0, 0.0, 1.6444990583523395E9, 0.0, 2022-02-11 00:17:38.352
36.0, -9294.324731150238, -10644.973593351078, -10931.478253779203, -17237.911193121814, -2706.036294226205, -1950.0332415143541, -5815.521575870702, -6870.926245561391, -17359.638793425416, -15317.672826966385, -20230.116871609316, -12332.485596237851, -6655.254263312133, -10156.453866535887, -11998.550534075563, -12349.15999760151, 0.006500000000000001, -0.0025, 0.7415, 192.0, 0.0, 32.0, 127.5, 120.0, 15.0, 104.0, 0.0, 0.0, 0.0, 1.6444990583523464E9, 0.0, 2022-02-11 00:17:38.352
38.0, -9315.268315704861, -10638.156311292209, -10940.26248935014, -17237.620620443897, -2717.8827187875177, -1962.192590498041, -5820.260145695227, -6880.358681721531, -17365.941985361813, -15321.830251435073, -20238.699941480154, -12333.759645671804, -6658.964652891714, -10158.264357836766, -12001.255095154655, -12351.0151923913, 0.006500000000000001, -0.0025, 0.7415, 192.0, 0.0, 0.0, 0.0, 0.0, 0.0, 0.0, 0.0, 0.0, 0.0, 1.644499058352353E9, 0.0, 2022-02-11 00:17:38.352
40.0, -9293.520068349848, -10620.945468061624, -10930.695942723269, -17231.07155931849, -2705.1422244479927, -1949.8544275587117, -5818.114378227518, -6866.478248414785, -17353.469711955753, -15316.711701954808, -20235.682455978687, -12327.232936290853, -6652.88497839987, -10159.694869481906, -12003.065586455536, -12343.706171954414, 0.006500000000000001, -0.0025, 0.7415, 192.0, 0.0, 0.0, 0.0, 0.0, 0.0, 0.0, 0.0, 0.0, 0.0, 1.6444990583523605E9, 0.0, 2022-02-11 00:17:38.352
42.0, -9299.51033586387, -10628.947392576623, -10935.300402081062, -17237.955896610725, -2713.322962918635, -1955.2188462279853, -5821.333029429082, -6871.999129295245, -17361.58339519303, -15302.227771547768, -20225.132432595783, -12322.092035066133, -6655.567187734508, -10146.44028501991, -11999.489307342687, -12342.879157409569, 0.006500000000000001, -0.0025, 0.7415, 192.0, 0.0, 0.0, 0.0, 0.0, 0.0, 0.0, 0.0, 0.0, 0.0, 1.6444990583523672E9, 0.0, 2022-02-11 00:17:38.352
44.0, -9295.88935326211, -10623.448863440617, -10932.774654957611, -17227.003541827624, -2706.9303640044172, -1952.3354711932507, -5798.444843106848, -6866.321786203598, -17352.32977298853, -15311.660207707908, -20238.163499613227, -12328.775206658269, -6657.645899968851, -10162.622948005552, -12003.870249255926, -12346.276622566775, 0.006500000000000001, -0.0025, 0.7415, 192.0, 0.0, 0.0, 0.0, 0.0, 0.0, 0.0, 0.0, 0.0, 0.0, 1.644499058352374E9, 0.0, 2022-02-11 00:17:38.352
46.0, -9284.31114963426, -10613.278819713452, -10923.096349608464, -17226.534155194066, -2691.3735498635233, -1937.6503750861139, -5812.05705548013, -6851.837855796559, -17346.607726407972, -15301.579570958564, -20219.94682788215, -12317.219354774876, -6646.335917274466, -10153.861064179071, -11994.594275306974, -12337.760607929304, 0.008, -0.012, 0.994, 192.0, 0.0, 32.0, 127.5, 80.0, 15.5, 8.0, 0.0, 0.0, 0.0, 1.6444990583523808E9, 0.0, 2022-02-11 00:17:38.352
48.0, -9304.204202199484, -10624.499395430017, -10935.12158812542, -17228.009370328113, -2693.2734481422244, -1943.0818489887536, -5777.411851574404, -6849.714440073305, -17351.05572355458, -15304.462945993298, -20220.10329009334, -12331.05508459271, -6643.74311491765, -10149.949508899392, -11992.537914817085, -12335.905413139513, 0.008, -0.012, 0.994, 192.0, 0.0, 0.0, 0.0, 0.0, 0.0, 0.0, 0.0, 0.0, 0.0, 1.6444990583523874E9, 0.0, 2022-02-11 00:17:38.352
50.0, -9279.483172831915, -10609.590781878327, -10921.956410641244, -17222.779062125574, -2677.9177997014285, -1932.4200668835722, -5794.62269480499, -6846.78636154966, -17339.969258304747, -15296.997463345226, -20222.025540116494, -12327.523508968772, -6637.55168170353, -10151.91646241146, -11989.498077571163, -12332.060913093199, 0.008, -0.012, 0.994, 192.0, 0.0, 0.0, 0.0, 0.0, 0.0, 0.0, 0.0, 0.0, 0.0, 1.6444990583523953E9, 0.0, 2022-02-11 00:17:38.352
52.0, -9287.641559558102, -10619.67141862767, -10928.63958223338, -17228.03172207257, -2688.1101951730484, -1942.6795175885582, -5798.176622173384, -6851.435524396364, -17347.501796186185, -15293.22001853228, -20214.62711270179, -12315.654732663004, -6640.099780571435, -10136.873738393038, -11986.949978703258, -12331.770340415282, 0.008, -0.012, 0.994, 192.0, 0.0, 0.0, 0.0, 0.0, 0.0, 0.0, 0.0, 0.0, 0.0, 1.6444990583524027E9, 0.0, 2022-02-11 00:17:38.352
54.0, -9283.662949045056, -10623.672380885171, -10929.511300267137, -17223.539021437053, -2687.3055323726576, -1943.0147937553877, -5793.594514560046, -6853.02249825269, -17345.75836011867, -15307.346321028033, -20231.703845465643, -12321.130910054555, -6649.308699287021, -10144.830959419127, -11997.2317811527, -12337.000648617823, 0.008, -0.012, 0.994, 192.0, 0.0, 0.0, 0.0, 0.0, 0.0, 0.0, 0.0, 0.0, 0.0, 1.6444990583524132E9, 0.0, 2022-02-11 00:17:38.352
56.0, -9286.54632407979, -10620.252563983508, -10923.364570541928, -17227.31646625, -2677.649578767965, -1931.1236657051643, -5778.417680074893, -6842.919509758892, -17343.38907520641, -15292.661224920897, -20214.42594700169, -12318.515755953284, -6643.541949217552, -10153.481084523331, -11990.481554327198, -12332.306782282209, 0.006, -0.014, 0.99, 192.0, 0.0, 24.0, 127.5, 72.0, 15.0, 120.0, 0.0, 0.0, 0.0, 1.64449905835242E9, 0.0, 2022-02-11 00:17:38.352
58.0, -9300.337350408716, -10614.798738336414, -10935.658029992346, -17228.59051568395, -2692.9158202309395, -1940.5113983763933, -5791.113470925507, -6851.122599973989, -17351.301592743588, -15306.899286138927, -20225.892391907262, -12319.834508876147, -6649.241644053655, -10155.2468723353, -11993.923722973315, -12333.111445082599, 0.006, -0.014, 0.99, 192.0, 0.0, 0.0, 0.0, 0.0, 0.0, 0.0, 0.0, 0.0, 0.0, 1.6444990583524268E9, 0.0, 2022-02-11 00:17:38.352
60.0, -9275.750431507879, -10614.508165658495, -10923.051646119553, -17227.249411016634, -2682.7904799926855, -1925.3792673801504, -5791.7616715147105, -6844.886463270958, -17338.292877470598, -15305.64758844943, -20226.451185518647, -12326.785901401747, -6646.157103318823, -10143.66866870745, -11995.018958451625, -12329.021075847279, 0.006, -0.014, 0.99, 192.0, 0.0, 0.0, 0.0, 0.0, 0.0, 0.0, 0.0, 0.0, 0.0, 1.6444990583524337E9, 0.0, 2022-02-11 00:17:38.352
62.0, -9276.376280352626, -10605.992151021022, -10928.34900955546, -17225.997713327135, -2686.6573317834536, -1930.8330930272452, -5792.543982570646, -6851.703745329827, -17343.567889162052, -15287.386213229443, -20213.889505134764, -12310.849107605114, -6639.02689683758, -10141.09821809509, -11986.36883334742, -12327.322343268675, 0.006, -0.014, 0.99, 192.0, 0.0, 0.0, 0.0, 0.0, 0.0, 0.0, 0.0, 0.0, 0.0, 1.6444990583524408E9, 0.0, 2022-02-11 00:17:38.352
64.0, -9281.718347277445, -10601.253581196497, -10922.045817619064, -17222.712006892205, -2684.220991637825, -1939.9079012761, -5800.143575685451, -6858.811600066615, -17330.0897872555, -15288.816724874583, -20221.936133138675, -12317.241706519331, -6633.953050846226, -10156.38681130252, -11991.912065972338, -12332.843224149135, 0.006, -0.014, 0.99, 192.0, 0.0, 0.0, 0.0, 0.0, 0.0, 0.0, 0.0, 0.0, 0.0, 1.6444990583524475E9, 0.0, 2022-02-11 00:17:38.352
66.0, -9270.251902371872, -10604.204011464599, -10915.317942538017, -17223.65078015933, -2674.6991484998644, -1932.2412529279297, -5802.982247231275, -6850.9214342738915, -17329.463938410754, -15288.414393474388, -20205.70876666412, -12309.776223871258, -6631.337896744954, -10139.466540749854, -11987.061737425534, -12329.91514562549, 0.01, -0.01, 0.99, 192.0, 0.0, 40.0, 127.5, 88.0, 15.0, 120.0, 0.0, 0.0, 0.0, 1.6444990583524544E9, 0.0, 2022-02-11 00:17:38.352
68.0, -9293.050681716286, -10608.026159766456, -10927.54434675507, -17225.193050526745, -2690.6359422964983, -1933.1800261950525, -5791.560505814613, -6860.1974082228435, -17338.292877470598, -15305.871105893983, -20210.961426611117, -12309.865630849079, -6637.954013103726, -10146.753209442284, -11989.073394426512, -12333.290259038242, 0.01, -0.01, 0.99, 192.0, 0.0, 0.0, 0.0, 0.0, 0.0, 0.0, 0.0, 0.0, 0.0, 1.644499058352461E9, 0.0, 2022-02-11 00:17:38.352
70.0, -9277.873847231132, -10602.170002719165, -10920.9282303963, -17224.522498193088, -2680.1976776358697, -1922.942927234522, -5794.5779913160795, -6840.4161143798965, -17329.441586666297, -15304.038262848648, -20216.325845280393, -12311.05027330521, -6639.02689683758, -10147.356706542578, -11993.90137122886, -12332.753817171315, 0.01, -0.01, 0.99, 192.0, 0.0, 0.0, 0.0, 0.0, 0.0, 0.0, 0.0, 0.0, 0.0, 1.6444990583524678E9, 0.0, 2022-02-11 00:17:38.352
72.0, -9279.147896665085, -10608.674360355659, -10926.896146165866, -17236.570088454497, -2682.097575914571, -1927.167406936575, -5812.079407224585, -6853.40247790843, -17337.085883270014, -15299.523210468677, -20211.22964754458, -12312.212564016887, -6639.943318360248, -10141.969936128848, -11985.742984502673, -12332.999686360323, 0.01, -0.01, 0.99, 192.0, 0.0, 0.0, 0.0, 0.0, 0.0, 0.0, 0.0, 0.0, 0.0, 1.6444990583524752E9, 0.0, 2022-02-11 00:17:38.352
74.0, -9299.376225397138, -10601.588857363327, -10930.87475667891, -17238.09000707746, -2686.456166083356, -1936.3763256521615, -5776.182505629362, -6855.6153006095055, -17334.649543124386, -15290.984844086748, -20229.80394718694, -12334.631363705561, -6648.481684742175, -10140.450017505887, -11995.175420662812, -12337.335924784653, 0.01, -0.01, 0.99, 192.0, 0.0, 0.0, 0.0, 0.0, 0.0, 0.0, 0.0, 0.0, 0.0, 1.6444990583524823E9, 0.0, 2022-02-11 00:17:38.352
76.0, -9289.988492725908, -10621.168985506176, -10925.085654864986, -17230.110434306913, -2686.4338143389004, -1938.2091686974966, -5786.1290319119735, -6870.300396716642, -17344.70782812927, -15301.423108747376, -20216.884638891774, -12314.648904162515, -6646.961766119214, -10165.39456431801, -11987.195847892268, -12335.458378250407, 0.008, -0.004, 0.984, 192.0, 0.0, 32.0, 127.5, 112.0, 15.0, 96.0, 0.0, 0.0, 0.0, 1.6444990583524895E9, 0.0, 2022-02-11 00:17:38.352
78.0, -9302.706635320978, -10623.828843096357, -10930.472425278715, -17226.712969149707, -2701.7894627796964, -1941.651337343614, -5802.177584430884, -6856.777591321182, -17351.279240999134, -15311.257876307713, -20224.774804684497, -12319.58863968714, -6652.952033633236, -10154.665726979461, -11989.766298504628, -12335.659543950504, 0.008, -0.004, 0.984, 192.0, 0.0, 0.0, 0.0, 0.0, 0.0, 0.0, 0.0, 0.0, 0.0, 1.6444990583524961E9, 0.0, 2022-02-11 00:17:38.352
80.0, -9294.414138128059, -10619.582011649849, -10925.01859963162, -17223.047283059037, -2695.1062911875597, -1927.9944214814213, -5813.1299392139845, -6848.462742383807, -17345.445435696296, -15308.709777439808, -20227.76993844151, -12315.408863473996, -6657.467086013208, -10152.00586938928, -11994.728385773706, -12331.882099137558, 0.008, -0.004, 0.984, 192.0, 0.0, 0.0, 0.0, 0.0, 0.0, 0.0, 0.0, 0.0, 0.0, 1.6444990583525028E9, 0.0, 2022-02-11 00:17:38.352
82.0, -9300.091481219708, -10618.598534893816, -10930.83005319, -17231.831518629973, -2702.169442435437, -1934.297613417818, -5791.2922848811495, -6853.983623264268, -17352.75445613318, -15313.671864708886, -20216.035272602472, -12312.994875072824, -6654.784876678572, -10151.402372288987, -11988.693414770773, -12332.642058449037, 0.008, -0.004, 0.984, 192.0, 0.0, 0.0, 0.0, 0.0, 0.0, 0.0, 0.0, 0.0, 0.0, 1.6444990583525095E9, 0.0, 2022-02-11 00:17:38.352
84.0, -9307.378149912138, -10615.581049392349, -10936.306230581551, -17228.501108706132, -2703.577602336121, -1930.1178372046754, -5792.007540703719, -6853.849512797537, -17350.072246798547, -15309.581495473563, -20233.29081932197, -12324.282506022753, -6659.41168778082, -10154.643375235008, -11995.600103807463, -12336.553613728716, 0.008, -0.004, 0.984, 192.0, 0.0, 0.0, 0.0, 0.0, 0.0, 0.0, 0.0, 0.0, 0.0, 1.6444990583525167E9, 0.0, 2022-02-11 00:17:38.352
86.0, -9284.69112929, -10608.026159766456, -10925.867965920921, -17232.189146541255, -2689.227782395814, -1920.3501248777063, -5790.286456380661, -6855.660004098417, -17352.977973577737, -15298.204457545813, -20224.372473284304, -12321.15326179901, -6654.606062722929, -10139.354782027576, -11986.257074625144, -12330.809215403702, 0.004, -0.006, 0.988, 192.0, 0.0, 16.0, 127.5, 104.0, 15.0, 112.0, 0.0, 0.0, 0.0, 1.6444990583525252E9, 0.0, 2022-02-11 00:17:38.352
88.0, -9302.773690554344, -10620.207860494598, -10935.12158812542, -17223.27080050359, -2699.4648813563444, -1930.0507819713096, -5785.816107489599, -6861.35969893452, -17354.140264289414, -15303.926504126372, -20224.66304596222, -12322.33790425514, -6655.142504589857, -10152.00586938928, -11989.967464204725, -12336.888889895547, 0.004, -0.006, 0.988, 192.0, 0.0, 0.0, 0.0, 0.0, 0.0, 0.0, 0.0, 0.0, 0.0, 1.644499058352532E9, 0.0, 2022-02-11 00:17:38.352
90.0, -9293.676530561033, -10614.843441825324, -10924.839785675978, -17217.660512645307, -2693.2510963977693, -1920.7971597668125, -5798.95893322932, -6850.742620318249, -17342.629115894928, -15302.093661081037, -20222.606685472332, -12319.834508876147, -6648.660498697817, -10162.846465450104, -11993.968426462225, -12333.781997416258, 0.004, -0.006, 0.988, 192.0, 0.0, 0.0, 0.0, 0.0, 0.0, 0.0, 0.0, 0.0, 0.0, 1.6444990583525388E9, 0.0, 2022-02-11 00:17:38.352
92.0, -9311.17794646954, -10624.119415774276, -10925.800910687556, -17227.048245316535, -2695.687436543398, -1931.1907209385301, -5785.167906900395, -6860.152704733933, -17355.548424190096, -15306.876934394471, -20213.241304545558, -12311.72082563887, -6649.822789409493, -10154.822189190649, -11990.749775260661, -12334.832529405658, 0.004, -0.006, 0.988, 192.0, 0.0, 0.0, 0.0, 0.0, 0.0, 0.0, 0.0, 0.0, 0.0, 1.6444990583525455E9, 0.0, 2022-02-11 00:17:38.352
94.0, -9311.870850547653, -10626.242831497531, -10932.662896235335, -17229.55164069553, -2698.1461284334814, -1935.2810901738515, -5783.826802233077, -6855.034155253667, -17357.0459910686, -15315.705873454319, -20231.39092104327, -12327.747026413326, -6654.606062722929, -10159.136075870523, -11998.684644542294, -12341.314535297697, 0.004, -0.006, 0.988, 192.0, 0.0, 0.0, 0.0, 0.0, 0.0, 0.0, 0.0, 0.0, 0.0, 1.6444990583525524E9, 0.0, 2022-02-11 00:17:38.352
96.0, -9286.300454890783, -10611.244810968019, -10922.425797274804, -17230.713931407205, -2684.0868811710934, -1926.7650755363795, -5784.631465033468, -6848.30628017262, -17353.916746844858, -15297.712719167796, -20222.852554661342, -12331.30095378172, -6649.4651614982085, -10156.34210781361, -11991.397975849864, -12333.491424738339, 0.002, -0.004, 0.986, 192.0, 0.0, 8.0, 127.5, 112.0, 15.0, 104.0, 0.0, 0.0, 0.0, 1.644499058352559E9, 0.0, 2022-02-11 00:17:38.352
98.0, -9306.148803967095, -10608.540249888927, -10934.093407880475, -17233.463195975208, -2701.0518552126714, -1938.7009070755134, -5804.0327792206745, -6865.226550725288, -17354.699057900794, -15302.786565159151, -20227.05468261894, -12323.857822878103, -6650.515693487608, -10148.92132865445, -11994.571923562518, -12337.24651780683, 0.002, -0.004, 0.986, 192.0, 0.0, 0.0, 0.0, 0.0, 0.0, 0.0, 0.0, 0.0, 0.0, 1.6444990583525665E9, 0.0, 2022-02-11 00:17:38.352
100.0, -9301.209068442473, -10623.985305307544, -10923.11870135292, -17225.72949239367, -2690.546535318677, -1927.3909243811281, -5784.00561618872, -6843.075971970078, -17350.876909598937, -15307.681597194864, -20231.81560418792, -12310.491479693828, -6647.475856241686, -10157.146770614001, -11996.315359630033, -12332.10561658211, 0.002, -0.004, 0.986, 192.0, 0.0, 0.0, 0.0, 0.0, 0.0, 0.0, 0.0, 0.0, 0.0, 1.6444990583525732E9, 0.0, 2022-02-11 00:17:38.352
102.0, -9294.07886196123, -10610.842479567824, -10921.464672263226, -17223.226097014678, -2686.0091311942497, -1931.7942180388236, -5807.273782166694, -6855.190617464855, -17347.524147930642, -15294.918751110883, -20211.386109755767, -12308.546877926217, -6641.93262361677, -10154.57632000164, -11989.98981594918, -12328.931668869456, 0.002, -0.004, 0.986, 192.0, 0.0, 0.0, 0.0, 0.0, 0.0, 0.0, 0.0, 0.0, 0.0, 1.64449905835258E9, 0.0, 2022-02-11 00:17:38.352
104.0, -9297.901010263087, -10606.685055099137, -10924.25864032014, -17219.426300457275, -2685.316227116135, -1932.0177354833766, -5783.4244708328815, -6862.432582668374, -17344.171386262344, -15291.320120253578, -20219.70095869314, -12311.05027330521, -6640.166835804801, -10161.505360782787, -11995.063661940536, -12334.474901494374, 0.002, -0.004, 0.986, 192.0, 0.0, 0.0, 0.0, 0.0, 0.0, 0.0, 0.0, 0.0, 0.0, 1.6444990583525875E9, 0.0, 2022-02-11 00:17:38.352
106.0, -9289.854382259176, -10614.709331358592, -10919.073035606509, -17224.567201681995, -2680.6000090360653, -1924.9322324910443, -5786.330197612071, -6835.498730599729, -17351.10042704349, -15282.22296026027, -20219.09746159285, -12311.944343083424, -6646.0006411076365, -10152.698773467395, -11988.380490348398, -12326.450625234918, 0.006, -0.004, 0.984, 192.0, 0.0, 24.0, 127.5, 112.0, 15.0, 96.0, 0.0, 0.0, 0.0, 1.6444990583525944E9, 0.0, 2022-02-11 00:17:38.352
108.0, -9312.02731275884, -10616.653933126205, -10930.315963067527, -17229.08225406197, -2699.420177867434, -1937.873892530667, -5801.439976863859, -6858.006937266224, -17354.833168367528, -15298.807954646107, -20220.416214515713, -12314.313627995685, -6646.537082974563, -10150.016564132759, -11991.912065972338, -12332.01620960429, 0.006, -0.004, 0.984, 192.0, 0.0, 0.0, 0.0, 0.0, 0.0, 0.0, 0.0, 0.0, 0.0, 1.6444990583526013E9, 0.0, 2022-02-11 00:17:38.352
110.0, -9295.822298028743, -10629.327372232363, -10922.179928085796, -17227.383521483367, -2689.473651584822, -1928.933194748544, -5792.208706403817, -6858.029289010678, -17348.261755497668, -15306.720472183284, -20224.081900606383, -12316.615857674582, -6646.604138207929, -10143.601613474086, -11997.500002086164, -12335.860709650602, 0.006, -0.004, 0.984, 192.0, 0.0, 0.0, 0.0, 0.0, 0.0, 0.0, 0.0, 0.0, 0.0, 1.644499058352608E9, 0.0, 2022-02-11 00:17:38.352
112.0, -9287.038062457808, -10619.91728781668, -10924.750378698156, -17234.200803542233, -2695.5980295655763, -1923.7922935238237, -5788.498316824236, -6859.88448380047, -17350.318115987553, -15302.473640736776, -20207.496906220545, -12310.670293649471, -6641.239719538656, -10139.019505860748, -11986.301778114055, -12333.893756138536, 0.006, -0.004, 0.984, 192.0, 0.0, 0.0, 0.0, 0.0, 0.0, 0.0, 0.0, 0.0, 0.0, 1.644499058352615E9, 0.0, 2022-02-11 00:17:38.352
114.0, -9292.536591593813, -10600.33715967383, -10930.628887489902, -17225.908306349316, -2705.8798320150177, -1932.6882878170359, -5798.422491362392, -6857.090515743556, -17344.28314498462, -15301.914847125394, -20225.04302561796, -12325.333038012152, -6644.480722484675, -10148.92132865445, -11992.314397372533, -12336.77713117327, 0.006, -0.003, 0.985, 192.0, 0.0, 24.0, 127.5, 120.0, 15.0, 104.0, 0.0, 0.0, 0.0, 1.644499058352622E9, 0.0, 2022-02-11 00:17:38.352
116.0, -9279.751393765378, -10602.281761441442, -10923.766901942123, -17218.465175445697, -2690.702997529864, -1928.0391249703318, -5812.325276413593, -6855.525893631684, -17341.802101350084, -15279.205474758803, -20210.514391722012, -12314.939476840435, -6642.290251528055, -10155.872721180049, -11989.878057226904, -12326.316514768187, 0.006, -0.003, 0.985, 192.0, 0.0, 0.0, 0.0, 0.0, 0.0, 0.0, 0.0, 0.0, 0.0, 1.6444990583526292E9, 0.0, 2022-02-11 00:17:38.352
118.0, -9309.859193546676, -10618.687941871636, -10928.125492110908, -17229.104605806424, -2700.6495238124758, -1942.9924420109323, -5794.62269480499, -6868.489905415762, -17351.323944488042, -15288.16852428538, -20217.264618547513, -12309.329188982152, -6646.671193441295, -10165.282805595732, -11988.000510692658, -12335.480729994862, 0.006, -0.003, 0.985, 192.0, 0.0, 0.0, 0.0, 0.0, 0.0, 0.0, 0.0, 0.0, 0.0, 1.6444990583526387E9, 0.0, 2022-02-11 00:17:38.352
120.0, -9296.582257340224, -10631.987229822544, -10922.515204252626, -17226.198879027233, -2685.5620963051438, -1927.3909243811281, -5780.071709164586, -6852.709573830316, -17345.82541535204, -15309.626198962475, -20223.299589550446, -12318.851032120114, -6646.961766119214, -10154.621023490552, -11991.04034793858, -12335.72659918387, 0.006, -0.003, 0.985, 192.0, 0.0, 0.0, 0.0, 0.0, 0.0, 0.0, 0.0, 0.0, 0.0, 1.6444990583526454E9, 0.0, 2022-02-11 00:17:38.352
122.0, -9295.844649773198, -10629.997924566022, -10924.437454275781, -17230.51276570711, -2687.126718417015, -1925.0216394688655, -5796.723758783789, -6851.837855796559, -17352.374476477442, -15306.139326827448, -20210.939074866663, -12309.57505817116, -6643.430190495275, -10131.375209257032, -11984.088955412979, -12329.44575899193, 0.006, -0.003, 0.985, 192.0, 0.0, 0.0, 0.0, 0.0, 0.0, 0.0, 0.0, 0.0, 0.0, 1.6444990583526523E9, 0.0, 2022-02-11 00:17:38.352
124.0, -9307.378149912138, -10620.856061083801, -10936.239175348184, -17227.78585288356, -2692.088805686093, -1931.2801279163514, -5788.855944735521, -6860.219759967299, -17352.732104388728, -15307.368672772489, -20225.065377362418, -12324.841299634136, -6647.7664289196055, -10145.255642563778, -11991.934417716791, -12333.53612822725, 0.005, -0.0035, 0.9864999999999999, 192.0, 0.0, 16.0, 127.5, 112.0, 15.0, 112.0, 0.0, 0.0, 0.0, 1.6444990583526592E9, 0.0, 2022-02-11 00:17:38.352
126.0, -9283.908818234066, -10605.85804055429, -10924.683323464791, -17233.060864575014, -2684.7127300158418, -1925.066342957776, -5790.3535116140265, -6856.196445965344, -17348.57467992004, -15292.50476270971, -20212.928380123187, -12319.119253053577, -6647.386449263865, -10140.002982616781, -11990.906237471849, -12332.954982871412, 0.005, -0.0035, 0.9864999999999999, 192.0, 0.0, 0.0, 0.0, 0.0, 0.0, 0.0, 0.0, 0.0, 0.0, 1.6444990583526676E9, 0.0, 2022-02-11 00:17:38.352
128.0, -9303.131318465628, -10594.481002626539, -10936.887375937387, -17234.31256226451, -2690.9935702077833, -1940.3772879096614, -5774.90845619541, -6855.794114565148, -17349.736970631715, -15287.07328880707, -20213.95656036813, -12328.886965380547, -6646.447675996742, -10148.63075597653, -11990.749775260661, -12337.49238699584, 0.005, -0.0035, 0.9864999999999999, 192.0, 0.0, 0.0, 0.0, 0.0, 0.0, 0.0, 0.0, 0.0, 0.0, 1.6444990583526745E9, 0.0, 2022-02-11 00:17:38.352
130.0, -9295.017635228352, -10625.125244274765, -10927.54434675507, -17228.41170172831, -2687.2831806282024, -1933.135322706142, -5775.489601551247, -6846.249919682732, -17342.89733682839, -15299.322044768578, -20223.14312733926, -12330.317477025686, -6653.086144099969, -10158.331413070133, -11997.723519530717, -12334.810177661202, 0.005, -0.0035, 0.9864999999999999, 192.0, 0.0, 0.0, 0.0, 0.0, 0.0, 0.0, 0.0, 0.0, 0.0, 1.6444990583526833E9, 0.0, 2022-02-11 00:17:38.352
132.0, -9296.202277684484, -10636.815206624891, -10931.21003284574, -17233.463195975208, -2692.2452678972804, -1931.3024796608067, -5805.887974010465, -6856.0846872430675, -17351.1451305324, -15303.50182098172, -20210.134412066272, -12306.691683136427, -6655.254263312133, -10153.995174645803, -11994.840144495982, -12334.050218349723, 0.005, -0.0035, 0.9864999999999999, 192.0, 0.0, 0.0, 0.0, 0.0, 0.0, 0.0, 0.0, 0.0, 0.0, 1.6444990583526907E9, 0.0, 2022-02-11 00:17:38.352
134.0, -9301.164364953562, -10636.658744413704, -10939.815454461033, -17233.530251208576, -2695.642733054487, -1935.7057733185022, -5784.385595844459, -6859.862132056014, -17351.636868910417, -15319.192745589346, -20231.368569298815, -12317.599334430615, -6656.640071468362, -10156.230349091335, -12004.85372601196, -12338.811139918702, 0.0035, -0.00475, 0.98725, 192.0, 0.0, 8.0, 127.5, 104.0, 15.0, 112.0, 0.0, 0.0, 0.0, 1.6444990583526983E9, 0.0, 2022-02-11 00:17:38.352
136.0, -9297.208106184973, -10615.826918581357, -10928.438416533281, -17243.499129235643, -2683.7292532598085, -1927.681497059047, -5789.437090091359, -6856.464666898807, -17348.66408689786, -15308.955646628816, -20223.76897618401, -12319.096901309122, -6653.756696433627, -10143.333392540622, -11998.237609653188, -12336.330096284164, 0.0035, -0.00475, 0.98725, 192.0, 0.0, 0.0, 0.0, 0.0, 0.0, 0.0, 0.0, 0.0, 0.0, 1.6444990583527064E9, 0.0, 2022-02-11 00:17:38.352
138.0, -9310.46269064697, -10620.565488405882, -10935.389809058883, -17242.068617590503, -2692.379378364012, -1949.0497647583206, -5794.24271514925, -6875.418946196908, -17352.039200310614, -15302.808916903607, -20221.24322906056, -12325.19892754542, -6651.856798154927, -10160.790104960217, -11999.75752827615, -12344.197910332432, 0.0035, -0.00475, 0.98725, 192.0, 0.0, 0.0, 0.0, 0.0, 0.0, 0.0, 0.0, 0.0, 0.0, 1.6444990583527136E9, 0.0, 2022-02-11 00:17:38.352
140.0, -9300.382053897627, -10610.462499912084, -10929.220727589218, -17234.200803542233, -2690.9265149744174, -1934.4987791179155, -5784.609113289012, -6847.613376094506, -17344.10433102898, -15310.229696062768, -20227.613476230323, -12338.699381196426, -6654.2707865561, -10167.62973876354, -12007.692397557783, -12342.499177753829, 0.0035, -0.00475, 0.98725, 192.0, 0.0, 0.0, 0.0, 0.0, 0.0, 0.0, 0.0, 0.0, 0.0, 1.644499058352722E9, 0.0, 2022-02-11 00:17:38.352
142.0, -9302.214896942962, -10629.237965254542, -10936.127416625908, -17235.497204720643, -2692.9158202309395, -1930.8330930272452, -5792.05224419263, -6861.35969893452, -17350.563985176563, -15305.781698916162, -20214.694167935155, -12314.090110551133, -6651.74503943265, -10152.452904278387, -12000.919818987826, -12337.78295967376, 0.0035, -0.00475, 0.98725, 192.0, 0.0, 0.0, 0.0, 0.0, 0.0, 0.0, 0.0, 0.0, 0.0, 1.644499058352729E9, 0.0, 2022-02-11 00:17:38.352
0.0, -4413.418997933745, -5337.685982905148, -5084.57482869325, -7989.049910193671, -1389.7420632531719, -932.0006885529386, -2752.416163970967, -3097.013008238436, -8664.296110188498, -7640.340344946426, -10108.263505490244, -6154.686946235532, -3321.3127638474425, -5072.124907031644, -6001.33162752767, -6168.142696397626, 0.006, -0.008, 0.988, 192.0, 0.0, 24.0, 127.5, 96.0, 15.0, 112.0, 0.0, 0.0, 0.0, 1.6444990589462652E9, 0.0, 2022-02-11 00:17:38.946
2.0, -8841.41133325235, -10675.148448365742, -10177.82213423516, -15987.152276891742, -2787.3966440435224, -1865.4095370065615, -5502.418339540761, -6207.258249194414, -16481.170532842938, -13677.770039769417, -19809.032357815788, -12150.810617305115, -6790.728186455749, -10186.2040384059, -11255.578548381156, -11211.41150133747, 0.006, -0.008, 0.988, 192.0, 0.0, 0.0, 0.0, 0.0, 0.0, 0.0, 0.0, 0.0, 0.0, 1.6444990589463997E9, 0.0, 2022-02-11 00:17:38.946
4.0, -8828.760245890648, -10688.246570616553, -10172.167142887967, -15980.580864021882, -2783.4627370193884, -1860.5145049708492, -5488.806127167479, -6192.4390426205455, -16480.45527702037, -13678.060612447336, -19811.49104970587, -12153.35871617302, -6788.984750388236, -10213.339056174644, -11257.634908871045, -11208.617533280556, 0.006, -0.008, 0.988, 192.0, 0.0, 0.0, 0.0, 0.0, 0.0, 0.0, 0.0, 0.0, 0.0, 1.6444990589464085E9, 0.0, 2022-02-11 00:17:38.946
6.0, -8848.698001944782, -10702.30581787894, -10182.046613937213, -15984.514771046017, -2789.0059696443045, -1863.3084730277626, -5500.026702884043, -6194.6742170660755, -16495.565056272157, -13689.23648467499, -19813.234485773384, -12153.649288850938, -6798.551297015107, -10202.632570580552, -11258.32781294916, -11205.93532394592, 0.006, -0.007, 0.991, 192.0, 0.0, 24.0, 127.5, 104.0, 15.5, 8.0, 0.0, 0.0, 0.0, 1.6444990589464412E9, 0.0, 2022-02-11 00:17:38.946
8.0, -8842.908900130857, -10694.058024174932, -10185.73465177234, -15975.372907563795, -2784.6920829644305, -1850.5679786882376, -5494.818746425956, -6193.958961243506, -16489.88771318051, -13698.75832781295, -19827.15962256904, -12162.612338377518, -6801.166451116378, -10198.497497856319, -11262.84286532913, -11209.086919914118, 0.006, -0.007, 0.991, 192.0, 0.0, 0.0, 0.0, 0.0, 0.0, 0.0, 0.0, 0.0, 0.0, 1.6444990589464483E9, 0.0, 2022-02-11 00:17:38.946
10.0, -8831.487158714195, -10678.814134456414, -10176.279863867745, -15984.715936746114, -2784.826193431162, -1849.9868333323996, -5503.42416804125, -6201.133871213659, -16491.36292831456, -13684.94494973957, -19807.87006710411, -12142.16049220091, -6796.092605125023, -10189.176820418455, -11259.780676338754, -11207.611704780067, 0.006, -0.007, 0.991, 192.0, 0.0, 0.0, 0.0, 0.0, 0.0, 0.0, 0.0, 0.0, 0.0, 1.6444990589464552E9, 0.0, 2022-02-11 00:17:38.946
12.0, -8849.726182189725, -10695.309721864429, -10186.472259339364, -15990.393279837763, -2792.403434801511, -1861.5426852157934, -5499.892592417311, -6195.456528122012, -16492.815791704154, -13682.508609593942, -19815.44730847446, -12150.430637649375, -6797.612523747984, -10193.535410587241, -11266.977938053364, -11215.188946150416, 0.006, -0.007, 0.991, 192.0, 0.0, 0.0, 0.0, 0.0, 0.0, 0.0, 0.0, 0.0, 0.0, 1.644499058946462E9, 0.0, 2022-02-11 00:17:38.946
14.0, -8831.241289525185, -10683.64211125876, -10172.860046966081, -15992.740213005569, -2781.316969551679, -1858.6593101810588, -5515.449406558205, -6198.094033967738, -16486.423192789935, -13698.311292923843, -19811.178125283495, -12151.794094061148, -6789.096509110512, -10200.911486257493, -11264.27337697427, -11213.445510082902, 0.006, -0.007, 0.991, 192.0, 0.0, 0.0, 0.0, 0.0, 0.0, 0.0, 0.0, 0.0, 0.0, 1.6444990589464688E9, 0.0, 2022-02-11 00:17:38.946
16.0, -8845.613461209949, -10698.841297488369, -10184.728823271851, -15999.155163664242, -2789.0730248776704, -1878.0159208793548, -5508.430958799238, -6208.778167817374, -16491.228817847827, -13688.454173619053, -19802.505648434835, -12151.369410916497, -6787.688349209828, -10206.16414620449, -11264.876874074564, -11223.526146832246, 0.007, -0.0095, 0.9915, 192.0, 0.0, 32.0, 127.5, 80.0, 15.5, 0.0, 0.0, 0.0, 0.0, 1.6444990589464762E9, 0.0, 2022-02-11 00:17:38.946
18.0, -8844.428818753817, -10701.724672523103, -10185.600541305606, -15988.895712959256, -2783.954475397405, -1872.293874298796, -5486.123917832842, -6201.55855435831, -16498.291969095706, -13712.415243675143, -19828.97011386992, -12165.249844223243, -6798.573648759562, -10215.64128585354, -11267.916711320486, -11228.488234101324, 0.007, -0.0095, 0.9915, 192.0, 0.0, 0.0, 0.0, 0.0, 0.0, 0.0, 0.0, 0.0, 0.0, 1.6444990589464836E9, 0.0, 2022-02-11 00:17:38.946
20.0, -8837.142150061387, -10678.277692589485, -10183.007738948792, -15995.467125829116, -2770.521076979766, -1851.0150135773438, -5494.684635959225, -6198.853993279218, -16496.392070817004, -13692.633949832196, -19809.837020616178, -12151.347059172042, -6790.77288994466, -10200.218582179377, -11255.489141403335, -11219.860460741576, 0.007, -0.0095, 0.9915, 192.0, 0.0, 0.0, 0.0, 0.0, 0.0, 0.0, 0.0, 0.0, 0.0, 1.6444990589465027E9, 0.0, 2022-02-11 00:17:38.946
22.0, -8839.623193695927, -10690.325282850896, -10187.858067495594, -15991.35440484934, -2780.668768962475, -1855.0830310682097, -5505.0781971309425, -6194.316589154791, -16493.106364382074, -13663.062591917826, -19821.035244588285, -12167.954405302335, -6786.481355009241, -10201.067948468679, -11264.809818841199, -11221.805062509187, 0.007, -0.0095, 0.9915, 192.0, 0.0, 0.0, 0.0, 0.0, 0.0, 0.0, 0.0, 0.0, 0.0, 1.6444990589465096E9, 0.0, 2022-02-11 00:17:38.946
24.0, -8834.169368048832, -10694.035672430477, -10179.319701113665, -15984.715936746114, -2769.895228135017, -1835.9052343255562, -5499.378502294839, -6184.325359383269, -16488.300739324182, -13693.215095188034, -19814.9779218409, -12143.032210234667, -6787.777756187649, -10183.410070348988, -11258.260757715792, -11211.567963548656, 0.007, -0.0095, 0.9915, 192.0, 0.0, 0.0, 0.0, 0.0, 0.0, 0.0, 0.0, 0.0, 0.0, 1.644499058946516E9, 0.0, 2022-02-11 00:17:38.946
26.0, -8847.535711233106, -10691.755794496035, -10191.076718697157, -15989.566265292915, -2782.4345567744444, -1838.2074640044527, -5497.299790060496, -6195.054196721816, -16498.426079562436, -13706.737900583496, -19803.466773446416, -12143.63570733496, -6786.704872453794, -10180.169067402967, -11257.009060026296, -11210.539783303713, 0.0085, -0.00875, 0.99075, 192.0, 0.0, 40.0, 127.5, 96.0, 15.0, 120.0, 0.0, 0.0, 0.0, 1.6444990589465227E9, 0.0, 2022-02-11 00:17:38.946
28.0, -8848.742705433691, -10694.370948597307, -10195.949398988414, -15991.041480426966, -2783.350978297112, -1841.202597761464, -5498.305618560984, -6192.483746109456, -16498.850762707087, -13703.161621470646, -19825.192669056974, -12158.700783097838, -6796.472584780763, -10178.626797035551, -11269.32487122117, -11214.674856027945, 0.0085, -0.00875, 0.99075, 192.0, 0.0, 0.0, 0.0, 0.0, 0.0, 0.0, 0.0, 0.0, 0.0, 1.6444990589465292E9, 0.0, 2022-02-11 00:17:38.946
30.0, -8836.717466916736, -10695.957922453634, -10191.16612567498, -15993.477820572594, -2784.803841686707, -1848.4222112205282, -5510.017932655565, -6196.216487433492, -16502.02471041974, -13691.426955631609, -19815.64847417456, -12155.839759807559, -6792.739843456727, -10189.154468674002, -11266.910882819997, -11215.79244325071, 0.0085, -0.00875, 0.99075, 192.0, 0.0, 0.0, 0.0, 0.0, 0.0, 0.0, 0.0, 0.0, 0.0, 1.644499058946536E9, 0.0, 2022-02-11 00:17:38.946
32.0, -8847.334545533007, -10695.287370119973, -10203.59369559213, -15998.238742141575, -2790.391777800534, -1863.5543422167711, -5515.784682725034, -6211.125100985182, -16498.806059218176, -13701.66405459214, -19821.415224244025, -12162.768800588705, -6798.618352248473, -10188.036881451235, -11278.04205155874, -11233.383266137036, 0.0085, -0.00875, 0.99075, 192.0, 0.0, 0.0, 0.0, 0.0, 0.0, 0.0, 0.0, 0.0, 0.0, 1.6444990589465427E9, 0.0, 2022-02-11 00:17:38.946
34.0, -8836.896280872379, -10699.556553310938, -10188.618026807073, -15993.768393250513, -2779.372367784067, -1854.2560165233633, -5514.130653635341, -6195.478879866467, -16491.899370181487, -13692.18691494309, -19819.716491665422, -12157.78436157517, -6791.935180656336, -10194.273018154267, -11278.08675504765, -11228.17530967895, 0.0085, -0.00875, 0.99075, 192.0, 0.0, 0.0, 0.0, 0.0, 0.0, 0.0, 0.0, 0.0, 0.0, 1.64449905894655E9, 0.0, 2022-02-11 00:17:38.946
36.0, -8847.558062977561, -10701.59056205637, -10197.894000756027, -16000.049233442454, -2785.1391178535364, -1862.4144032495503, -5507.112205876375, -6196.864688022696, -16500.88477145252, -13700.434708647099, -19810.50757294984, -12151.280003938677, -6791.3987387894085, -10195.59177107713, -11271.336528222148, -11228.84586201261, 0.009250000000000001, -0.009375000000000001, 0.987375, 192.0, 0.0, 40.0, 127.5, 88.0, 15.0, 96.0, 0.0, 0.0, 0.0, 1.6444990589465563E9, 0.0, 2022-02-11 00:17:38.946
38.0, -8841.813664652547, -10687.576018282893, -10194.742404787828, -15996.584713051881, -2776.220771815869, -1852.266711266841, -5507.156909365286, -6192.550801342822, -16493.709861482366, -13698.28894117939, -19820.58820969918, -12166.970928546301, -6790.303503311098, -10190.652035552506, -11275.002214312819, -11231.013981224774, 0.009250000000000001, -0.009375000000000001, 0.987375, 192.0, 0.0, 0.0, 0.0, 0.0, 0.0, 0.0, 0.0, 0.0, 0.0, 1.644499058946565E9, 0.0, 2022-02-11 00:17:38.946
40.0, -8840.204339051765, -10691.040538673466, -10193.580114076152, -16001.323282876407, -2769.291731034724, -1846.7905338752907, -5490.28134230153, -6186.672292551076, -16497.621416762046, -13689.415298630633, -19808.227695015394, -12163.081725011078, -6786.168430586867, -10184.125326171557, -11265.23450198585, -11224.733141032833, 0.009250000000000001, -0.009375000000000001, 0.987375, 192.0, 0.0, 0.0, 0.0, 0.0, 0.0, 0.0, 0.0, 0.0, 0.0, 1.644499058946571E9, 0.0, 2022-02-11 00:17:38.946
42.0, -8843.937080375801, -10684.424422314694, -10204.465413625887, -16005.83833525638, -2774.11970783707, -1839.5485686717714, -5488.51555448956, -6188.326321640769, -16502.471745308845, -13700.56881911383, -19823.6280469451, -12165.898044812448, -6786.101375353501, -10173.888227211026, -11269.302519476714, -11228.309420145682, 0.009250000000000001, -0.009375000000000001, 0.987375, 192.0, 0.0, 0.0, 0.0, 0.0, 0.0, 0.0, 0.0, 0.0, 0.0, 1.644499058946578E9, 0.0, 2022-02-11 00:17:38.946
44.0, -8839.220862295731, -10696.382605598284, -10196.508192599797, -15996.651768285248, -2760.216922785869, -1829.8926150670786, -5488.582609722926, -6179.519734325378, -16496.5932365171, -13685.101411950758, -19823.091605078174, -12169.31786171411, -6775.81957290406, -10176.72689875685, -11269.414278198992, -11219.547536319202, 0.009250000000000001, -0.009375000000000001, 0.987375, 192.0, 0.0, 0.0, 0.0, 0.0, 0.0, 0.0, 0.0, 0.0, 0.0, 1.6444990589465845E9, 0.0, 2022-02-11 00:17:38.946
46.0, -8845.613461209949, -10704.093957435365, -10207.527602616263, -16004.184306166686, -2773.0244723587602, -1837.7604291153466, -5499.9149441617665, -6185.487650094945, -16502.002358675287, -13703.698063337573, -19814.64264567407, -12155.504483640729, -6777.741822927216, -10169.999023675802, -11269.950720065919, -11223.034408454228, 0.008625, -0.005687500000000001, 0.9826874999999999, 192.0, 0.0, 32.0, 127.5, 120.0, 15.0, 72.0, 0.0, 0.0, 0.0, 1.644499058946591E9, 0.0, 2022-02-11 00:17:38.946
48.0, -8848.675650200326, -10706.932628981189, -10213.651980597018, -16007.291198645975, -2771.772774669263, -1845.7623536303465, -5503.290057574518, -6188.102804196215, -16502.98583543132, -13711.923505297125, -19827.29373303577, -12168.803771591636, -6789.387081788431, -10175.72107025636, -11280.120763793084, -11235.014943482274, 0.008625, -0.005687500000000001, 0.9826874999999999, 192.0, 0.0, 0.0, 0.0, 0.0, 0.0, 0.0, 0.0, 0.0, 0.0, 1.644499058946598E9, 0.0, 2022-02-11 00:17:38.946
50.0, -8840.427856496317, -10700.808251000435, -10198.609256578597, -16013.974370238111, -2773.4268037589554, -1850.5009234548718, -5521.417322327772, -6209.918106784596, -16502.82937322013, -13700.635874347196, -19806.10427929214, -12156.130332485478, -6785.341416042021, -10179.029128435746, -11280.098412048628, -11240.13349296254, 0.008625, -0.005687500000000001, 0.9826874999999999, 192.0, 0.0, 0.0, 0.0, 0.0, 0.0, 0.0, 0.0, 0.0, 0.0, 1.6444990589466047E9, 0.0, 2022-02-11 00:17:38.946
52.0, -8854.688269458804, -10704.451585346651, -10215.194250964434, -16017.818870284424, -2787.575457999165, -1855.0159758348439, -5526.178243896752, -6198.138737456648, -16511.03246343523, -13710.358883185254, -19821.906962622044, -12163.26053896672, -6792.650436478906, -10191.859029753094, -11290.447269731436, -11252.359897179593, 0.008625, -0.005687500000000001, 0.9826874999999999, 192.0, 0.0, 0.0, 0.0, 0.0, 0.0, 0.0, 0.0, 0.0, 0.0, 1.6444990589466114E9, 0.0, 2022-02-11 00:17:38.946
54.0, -8848.094504844488, -10698.01428294352, -10207.281733427255, -16017.952980751155, -2767.1012600781037, -1842.4095919620506, -5502.552450007493, -6181.799612259819, -16514.586390803623, -13708.61544711774, -19830.758253426346, -12173.140010015966, -6788.537715499129, -10183.208904648889, -11287.094508063139, -11243.240385441826, 0.008625, -0.005687500000000001, 0.9826874999999999, 192.0, 0.0, 0.0, 0.0, 0.0, 0.0, 0.0, 0.0, 0.0, 0.0, 1.644499058946618E9, 0.0, 2022-02-11 00:17:38.946
56.0, -8864.724202719237, -10708.07256794841, -10214.680160841961, -16023.36210290934, -2775.192591570925, -1842.3872402175953, -5516.410531569783, -6189.466260607989, -16517.916800727464, -13711.498822152475, -19823.359826011638, -12177.386841462476, -6784.1791253303445, -10172.949453943904, -11279.539618437246, -11239.977030751352, 0.009312500000000001, -0.006843750000000001, 0.98334375, 192.0, 0.0, 40.0, 127.5, 96.0, 15.0, 96.0, 0.0, 0.0, 0.0, 1.6444990589466245E9, 0.0, 2022-02-11 00:17:38.946
58.0, -8857.28107181562, -10710.59831507186, -10216.065968998191, -16019.472899374117, -2778.031263116749, -1841.5602256727489, -5523.898365962311, -6195.992969988939, -16513.580562303134, -13708.973075029025, -19841.12946285361, -12181.231341508788, -6788.358901543486, -10174.849352222605, -11294.537638966756, -11244.045048242218, 0.009312500000000001, -0.006843750000000001, 0.98334375, 192.0, 0.0, 0.0, 0.0, 0.0, 0.0, 0.0, 0.0, 0.0, 0.0, 1.6444990589466307E9, 0.0, 2022-02-11 00:17:38.946
60.0, -8840.405504751861, -10708.49725109306, -10208.689893327939, -16021.730425564103, -2777.74069043883, -1843.616586162637, -5531.654421288303, -6204.911316026606, -16508.77493724524, -13703.563952870842, -19815.96139859693, -12160.667736609905, -6783.4191660188635, -10170.82603822065, -11289.843772631142, -11245.386152909536, 0.009312500000000001, -0.006843750000000001, 0.98334375, 192.0, 0.0, 0.0, 0.0, 0.0, 0.0, 0.0, 0.0, 0.0, 0.0, 1.6444990589466374E9, 0.0, 2022-02-11 00:17:38.946
62.0, -8855.090600859, -10708.944285982167, -10215.171899219979, -16022.512736620038, -2790.995274900827, -1857.9217026140336, -5515.896441447311, -6211.102749240727, -16513.13352741403, -13708.190763973089, -19817.570724197714, -12165.383954689974, -6789.789413188626, -10185.198209905411, -11293.218886043893, -11258.439571671435, 0.009312500000000001, -0.006843750000000001, 0.98334375, 192.0, 0.0, 0.0, 0.0, 0.0, 0.0, 0.0, 0.0, 0.0, 0.0, 1.644499058946644E9, 0.0, 2022-02-11 00:17:38.946
64.0, -8852.095467101988, -10714.286352906985, -10210.25451543981, -16019.919934263222, -2772.3762717695563, -1854.74775490138, -5506.665170987269, -6197.5128886119, -16514.474632081346, -13710.09066225179, -19820.834078888187, -12162.433524421875, -6793.589209746028, -10191.747271030818, -11292.503630221323, -11255.84676931462, 0.009312500000000001, -0.006843750000000001, 0.98334375, 192.0, 0.0, 0.0, 0.0, 0.0, 0.0, 0.0, 0.0, 0.0, 0.0, 1.6444990589466505E9, 0.0, 2022-02-11 00:17:38.946
66.0, -8864.053650385576, -10724.210527445142, -10213.719035830383, -16029.55353612346, -2776.9360276384386, -1868.0246911078325, -5518.489243804127, -6207.034731749861, -16525.04700720871, -13718.80784258936, -19816.296674763762, -12161.78532383267, -6790.951703900302, -10189.355634374098, -11286.043976073739, -11260.026545527762, 0.007656250000000001, -0.0044218750000000005, 0.981671875, 192.0, 0.0, 24.0, 127.5, 120.0, 15.0, 80.0, 0.0, 0.0, 0.0, 1.644499058946657E9, 0.0, 2022-02-11 00:17:38.946
68.0, -8866.758211464668, -10708.340788881873, -10214.389588164042, -16031.229916957607, -2771.7280711803523, -1847.6622519090477, -5519.316258348973, -6198.2504961789255, -16516.687454782423, -13719.545450156385, -19833.12753833861, -12180.247864752755, -6786.749575942705, -10196.172916432968, -11294.09060407765, -11259.870083316575, 0.007656250000000001, -0.0044218750000000005, 0.981671875, 192.0, 0.0, 0.0, 0.0, 0.0, 0.0, 0.0, 0.0, 0.0, 0.0, 1.6444990589466636E9, 0.0, 2022-02-11 00:17:38.946
70.0, -8854.285938058609, -10713.034655217489, -10210.276867184266, -16038.047199016477, -2766.609521700087, -1848.3775077316175, -5507.872165187856, -6191.366158886691, -16515.79338500421, -13717.220868733033, -19823.359826011638, -12183.086536298579, -6776.780697915638, -10174.82700047815, -11285.261665017804, -11253.186911724439, 0.007656250000000001, -0.0044218750000000005, 0.981671875, 192.0, 0.0, 0.0, 0.0, 0.0, 0.0, 0.0, 0.0, 0.0, 0.0, 1.6444990589466715E9, 0.0, 2022-02-11 00:17:38.946
72.0, -8867.9428539208, -10718.197908186665, -10224.537280146753, -16030.425254157217, -2780.981693384849, -1862.682624183014, -5509.347380321906, -6200.08333922426, -16520.822527506654, -13716.036226276903, -19828.903058636555, -12179.152629274444, -6782.726261940749, -10202.140832202535, -11289.553199953223, -11261.367650195081, 0.007656250000000001, -0.0044218750000000005, 0.981671875, 192.0, 0.0, 0.0, 0.0, 0.0, 0.0, 0.0, 0.0, 0.0, 0.0, 1.6444990589466782E9, 0.0, 2022-02-11 00:17:38.946
74.0, -8867.652281242881, -10724.210527445142, -10220.469262655886, -16032.436911158195, -2780.221734073369, -1850.009185076855, -5515.9411449362215, -6200.75389155792, -16522.633018807534, -13712.102319252768, -19827.29373303577, -12171.843608837558, -6788.090680610023, -10197.089337955635, -11296.214019800904, -11259.691269360932, 0.007656250000000001, -0.0044218750000000005, 0.981671875, 192.0, 0.0, 0.0, 0.0, 0.0, 0.0, 0.0, 0.0, 0.0, 0.0, 1.644499058946685E9, 0.0, 2022-02-11 00:17:38.946
76.0, -8877.397641825395, -10745.467036422138, -10233.969716306892, -16042.60695488536, -2792.31402782369, -1865.5436474732933, -5542.2938516490285, -6218.523528399888, -16538.23453643734, -13727.435615949109, -19825.036206845787, -12170.524855914695, -6798.908924926392, -10195.010625721292, -11297.778641912777, -11272.498818933824, 0.006828125000000001, -0.0072109375, 0.9818359375, 192.0, 0.0, 24.0, 127.5, 88.0, 15.0, 88.0, 0.0, 0.0, 0.0, 1.6444990589466915E9, 0.0, 2022-02-11 00:17:38.946
78.0, -8875.14011563541, -10738.828568318911, -10227.532413903764, -16037.466053660639, -2792.358731312601, -1870.8857143981118, -5539.388124869839, -6215.930726043073, -16530.389074133524, -13736.488072453509, -19833.97690462791, -12180.985472319779, -6798.707759226294, -10202.498460113819, -11309.289790307259, -11279.830191115165, 0.006828125000000001, -0.0072109375, 0.9818359375, 192.0, 0.0, 0.0, 0.0, 0.0, 0.0, 0.0, 0.0, 0.0, 0.0, 1.6444990589466982E9, 0.0, 2022-02-11 00:17:38.946
80.0, -8861.930234662323, -10727.049198990966, -10226.817158081194, -16047.591393898892, -2780.4228997734667, -1862.3473480161845, -5511.314333833973, -6213.427330664079, -16532.624248579057, -13720.037188534403, -19826.578477213203, -12181.588969420072, -6793.700968468305, -10199.816250779182, -11296.57164771219, -11276.052746302217, 0.006828125000000001, -0.0072109375, 0.9818359375, 192.0, 0.0, 0.0, 0.0, 0.0, 0.0, 0.0, 0.0, 0.0, 0.0, 1.6444990589467049E9, 0.0, 2022-02-11 00:17:38.946
82.0, -8885.444269829306, -10738.336829940896, -10240.228204754378, -16045.311515964451, -2792.1128621235925, -1868.4046707635728, -5524.278345618051, -6219.4399499225565, -16538.100425970606, -13719.746615856484, -19846.73975071189, -12188.786231134682, -6792.315160312076, -10205.270076426277, -11304.417110016002, -11280.65720566001, 0.006828125000000001, -0.0072109375, 0.9818359375, 192.0, 0.0, 0.0, 0.0, 0.0, 0.0, 0.0, 0.0, 0.0, 0.0, 1.6444990589467113E9, 0.0, 2022-02-11 00:17:38.946
84.0, -8875.028356913133, -10733.218280460631, -10227.97944879287, -16045.26681247554, -2777.9865596278382, -1857.944054358489, -5528.726342764658, -6212.309743441313, -16530.724350300356, -13727.592078160296, -19845.085721622196, -12186.305187500142, -6783.933256141336, -10188.3051023847, -11306.786394928266, -11276.499781191324, 0.006828125000000001, -0.0072109375, 0.9818359375, 192.0, 0.0, 0.0, 0.0, 0.0, 0.0, 0.0, 0.0, 0.0, 0.0, 1.6444990589467177E9, 0.0, 2022-02-11 00:17:38.946
86.0, -8885.019586684655, -10732.190100215686, -10228.337076704154, -16049.044257288488, -2785.6308562315535, -1867.6670631965476, -5548.440581374238, -6217.808272577318, -16540.335600416136, -13729.089645038803, -19833.373407527615, -12179.197332763355, -6780.736956684227, -10202.140832202535, -11302.114880337105, -11279.80783937071, 0.004, -0.004, 0.984, 192.0, 0.0, 16.0, 127.5, 112.0, 15.0, 96.0, 0.0, 0.0, 0.0, 1.6444990589467244E9, 0.0, 2022-02-11 00:17:38.946
88.0, -8884.438441328817, -10739.700286352669, -10230.527547660775, -16043.8363008304, -2789.3635975555894, -1861.9897201048996, -5551.592177342436, -6214.030827764372, -16541.117911472073, -13729.268458994444, -19848.192614101485, -12199.85034464006, -6782.279227051643, -10203.191364191935, -11312.28492406427, -11284.009967328308, 0.004, -0.004, 0.984, 192.0, 0.0, 0.0, 0.0, 0.0, 0.0, 0.0, 0.0, 0.0, 0.0, 1.644499058946731E9, 0.0, 2022-02-11 00:17:38.946
90.0, -8868.65810974337, -10750.831455091413, -10221.475091156375, -16051.100617778377, -2780.4676032623775, -1859.039289836799, -5524.546566551515, -6213.516737641899, -16533.719484057365, -13716.706778610562, -19826.48907023538, -12176.135143772977, -6779.708776439283, -10196.68700655544, -11304.081833849172, -11279.271397503782, 0.004, -0.004, 0.984, 192.0, 0.0, 0.0, 0.0, 0.0, 0.0, 0.0, 0.0, 0.0, 0.0, 1.6444990589467375E9, 0.0, 2022-02-11 00:17:38.946
92.0, -8889.847563487001, -10756.262928994052, -10238.618879153595, -16056.375629469829, -2794.549202269221, -1874.3055312997737, -5528.413418342283, -6241.367011233212, -16541.07320798316, -13729.134348527712, -19834.02160811682, -12191.982530591791, -6789.364730043975, -10206.097090971123, -11305.37823502758, -11289.597903442134, 0.004, -0.004, 0.984, 192.0, 0.0, 0.0, 0.0, 0.0, 0.0, 0.0, 0.0, 0.0, 0.0, 1.644499058946744E9, 0.0, 2022-02-11 00:17:38.946
94.0, -8883.410261083873, -10750.429123691216, -10244.899719345536, -16054.051048046476, -2787.1060713656034, -1859.3298625147181, -5518.958630437688, -6211.996819018939, -16541.363780661082, -13735.884575353215, -19846.337419311694, -12197.70457717235, -6790.012930633179, -10200.06211996819, -11317.314066566714, -11290.5143249648, 0.004, -0.004, 0.984, 192.0, 0.0, 0.0, 0.0, 0.0, 0.0, 0.0, 0.0, 0.0, 0.0, 1.6444990589467506E9, 0.0, 2022-02-11 00:17:38.946
96.0, -8893.915580977868, -10754.385382459806, -10246.26317575731, -16060.287184749508, -2794.415091802489, -1859.4416212369945, -5524.56891829597, -6211.505080640922, -16557.837016324644, -13739.237337021512, -19848.460835034948, -12189.322673001609, -6788.828288177048, -10197.245800166822, -11313.290752564759, -11288.346205752636, -0.002, -0.01, 0.984, 192.0, 127.5, 120.0, 127.5, 88.0, 15.0, 96.0, 0.0, 0.0, 0.0, 1.6444990589467573E9, 0.0, 2022-02-11 00:17:38.946
98.0, -8893.155621666387, -10744.103580010365, -10250.778228137282, -16054.475731191127, -2791.4870132788437, -1853.361946745151, -5534.493092834126, -6211.683894596565, -16550.259774954295, -13736.152796286678, -19864.665849765046, -12196.050548082656, -6791.130517855945, -10202.699625813917, -11321.851470691141, -11289.866124375598, -0.002, -0.01, 0.984, 192.0, 0.0, 0.0, 0.0, 0.0, 0.0, 0.0, 0.0, 0.0, 0.0, 1.644499058946764E9, 0.0, 2022-02-11 00:17:38.946
100.0, -8883.924351206346, -10736.258117706551, -10242.396323966543, -16062.008269072567, -2780.735824195841, -1851.0820688107096, -5527.496996819616, -6213.22616496398, -16547.71167608639, -13719.47839492302, -19845.59981174467, -12186.260484011233, -6782.3015787960985, -10189.02035820727, -11318.275191578292, -11287.586246441157, -0.002, -0.01, 0.984, 192.0, 0.0, 0.0, 0.0, 0.0, 0.0, 0.0, 0.0, 0.0, 0.0, 1.6444990589467707E9, 0.0, 2022-02-11 00:17:38.946
102.0, -8890.361653609474, -10744.416504432738, -10253.259271771822, -16062.74587663959, -2795.1303476250587, -1867.4211940075393, -5542.204444671207, -6224.84907208074, -16548.04695225322, -13731.86126135126, -19849.086683879697, -12199.827992895604, -6781.943950884814, -10203.928971758958, -11323.729017225387, -11294.5152872223, -0.002, -0.01, 0.984, 192.0, 0.0, 0.0, 0.0, 0.0, 0.0, 0.0, 0.0, 0.0, 0.0, 1.6444990589467788E9, 0.0, 2022-02-11 00:17:38.946
104.0, -8884.974883195744, -10755.771190616035, -10248.163074036012, -16064.8916441073, -2784.4238620309666, -1851.5738071887265, -5536.080066690453, -6216.556574887822, -16536.066417225175, -13720.506575167963, -19846.82915768971, -12191.826068380604, -6781.474564251253, -10192.35076813111, -11329.428712061492, -11293.934141866463, -0.002, -0.01, 0.984, 192.0, 0.0, 0.0, 0.0, 0.0, 0.0, 0.0, 0.0, 0.0, 0.0, 1.6444990589467854E9, 0.0, 2022-02-11 00:17:38.946
106.0, -8904.107976449488, -10765.22597852063, -10255.025059583792, -16073.295900022496, -2789.385949300045, -1860.4698014819387, -5537.912909735788, -6224.402037191634, -16566.844769340132, -13750.010877848968, -19851.97005891443, -12207.807565666148, -6793.589209746028, -10196.284675155244, -11319.325723567692, -11292.95066511043, 0.002, -0.008, 0.982, 192.0, 0.0, 8.0, 127.5, 96.0, 15.0, 88.0, 0.0, 0.0, 0.0, 1.644499058946792E9, 0.0, 2022-02-11 00:17:38.946
108.0, -8913.898040520911, -10768.42227797774, -10259.651870686039, -16068.110295308865, -2789.0506731332152, -1864.0237288503324, -5530.693296276724, -6226.480749425978, -16559.60280413661, -13746.278136524932, -19864.330573598218, -12201.70553942985, -6794.170355101866, -10207.728768316361, -11324.936011425974, -11302.76308092631, 0.002, -0.008, 0.982, 192.0, 0.0, 0.0, 0.0, 0.0, 0.0, 0.0, 0.0, 0.0, 0.0, 1.6444990589467983E9, 0.0, 2022-02-11 00:17:38.946
110.0, -8909.897078263411, -10768.534036700015, -10256.299109017744, -16071.440705232706, -2785.7873184427403, -1857.1170398136426, -5540.081028947953, -6215.841319065252, -16566.777714106764, -13738.633839921218, -19857.11096013915, -12193.36833874802, -6798.350131315009, -10199.905657757005, -11324.511328281324, -11298.203325057428, 0.002, -0.008, 0.982, 192.0, 0.0, 0.0, 0.0, 0.0, 0.0, 0.0, 0.0, 0.0, 0.0, 1.644499058946805E9, 0.0, 2022-02-11 00:17:38.946
112.0, -8928.247860461219, -10771.663280923758, -10257.327289262688, -16071.440705232706, -2797.7902052152403, -1862.8837898831118, -5546.898311006822, -6222.703304613031, -16570.957490319906, -13733.023552062936, -19860.329611340716, -12195.827030638104, -6796.360826058487, -10205.001855492814, -11326.05359864874, -11300.639665203056, 0.002, -0.008, 0.982, 192.0, 0.0, 0.0, 0.0, 0.0, 0.0, 0.0, 0.0, 0.0, 0.0, 1.6444990589468117E9, 0.0, 2022-02-11 00:17:38.946
114.0, -8911.841680031024, -10776.55831295947, -10252.767533393804, -16074.547597711993, -2789.0506731332152, -1859.620435192637, -5537.465874846683, -6224.044409280349, -16561.502702415313, -13747.48513072552, -19863.30239335327, -12211.115623845533, -6794.840907435526, -10193.557762331697, -11330.90392719554, -11301.399624514535, 0.002, -0.008, 0.982, 192.0, 0.0, 0.0, 0.0, 0.0, 0.0, 0.0, 0.0, 0.0, 0.0, 1.644499058946818E9, 0.0, 2022-02-11 00:17:38.946
116.0, -8915.417959143873, -10783.465001996161, -10256.07559157319, -16081.834266404423, -2799.3101238382014, -1874.1714208330418, -5561.091668735942, -6239.936499588072, -16567.3588594626, -13748.580366203829, -19849.511367024348, -12200.587952207085, -6791.175221344855, -10204.107785714601, -11327.417055060514, -11307.546354239745, 0.002, -0.008, 0.982, 192.0, 0.0, 0.0, 127.5, 88.0, 15.0, 120.0, 0.0, 0.0, 0.0, 1.6444990589468248E9, 0.0, 2022-02-11 00:17:38.946
118.0, -8916.423787644362, -10770.031603578522, -10259.36129800812, -16071.41835348825, -2803.0428651622374, -1878.9993976353883, -5565.29379669354, -6244.540958945866, -16565.481312928358, -13759.890348898214, -19869.49382656739, -12211.249734312265, -6797.701930725805, -10222.480919656864, -11340.515177311323, -11318.409302045024, 0.002, -0.008, 0.982, 192.0, 0.0, 0.0, 0.0, 0.0, 0.0, 0.0, 0.0, 0.0, 0.0, 1.6444990589468315E9, 0.0, 2022-02-11 00:17:38.946
120.0, -8911.52875560865, -10761.761458130057, -10256.768495651306, -16076.715716924158, -2796.2032313589134, -1869.8575341531675, -5550.8098662865, -6223.887947069162, -16565.12368501707, -13743.283002767921, -19851.634782747602, -12202.89018188598, -6795.3326458135425, -10228.02415228178, -11333.854357463642, -11313.178993842483, 0.002, -0.008, 0.982, 192.0, 0.0, 0.0, 0.0, 0.0, 0.0, 0.0, 0.0, 0.0, 0.0, 1.64449905942707E9, 0.0, 2022-02-11 00:17:39.427
122.0, -8922.659924347392, -10776.84888563739, -10265.217455055412, -16076.872179135346, -2802.417016317489, -1871.7350806874135, -5542.964403982688, -6231.308726228324, -16569.23640599685, -13742.76891264545, -19853.40057055957, -12208.36635927753, -6800.808823205093, -10217.54118413224, -11337.05065692075, -11313.33545605367, 0.002, -0.008, 0.982, 192.0, 0.0, 0.0, 0.0, 0.0, 0.0, 0.0, 0.0, 0.0, 0.0, 1.6444990594272454E9, 0.0, 2022-02-11 00:17:39.427
124.0, -8904.66677006087, -10769.048126822487, -10253.326327005188, -16073.050030833487, -2792.9845801573492, -1863.6884526835029, -5540.550415581514, -6227.75479885993, -16557.255870968806, -13757.141084330213, -19852.46179729245, -12206.84644065457, -6799.735939471238, -10199.749195545817, -11335.53073829779, -11310.072101363196, 0.002, -0.008, 0.982, 192.0, 0.0, 0.0, 0.0, 0.0, 0.0, 0.0, 0.0, 0.0, 0.0, 1.6444990594272528E9, 0.0, 2022-02-11 00:17:39.427
126.0, -8910.43352013034, -10771.395059990295, -10266.111524833623, -16077.766248913558, -2800.0477314052264, -1865.6107027066594, -5546.831255773456, -6236.248461752947, -16565.57071990618, -13749.362677259765, -19844.012837888342, -12201.146745818467, -6801.278209838654, -10202.498460113819, -11331.261555106827, -11309.379197285081, 0.006, -0.006, 0.99, 192.0, 0.0, 24.0, 127.5, 104.0, 15.0, 120.0, 0.0, 0.0, 0.0, 1.64449905942726E9, 0.0, 2022-02-11 00:17:39.427
128.0, -8919.597735357016, -10781.22982755063, -10262.490542231864, -16071.775981399534, -2801.210022116902, -1869.0305196083214, -5532.727305022157, -6231.889871584162, -16568.409391452, -13758.638651208717, -19868.84562597819, -12211.89793490147, -6802.0828726390455, -10206.208849693401, -11338.861148221631, -11314.989485143362, 0.006, -0.006, 0.99, 192.0, 0.0, 0.0, 0.0, 0.0, 0.0, 0.0, 0.0, 0.0, 0.0, 1.6444990594272673E9, 0.0, 2022-02-11 00:17:39.427
130.0, -8903.99621772721, -10768.51168495556, -10252.812236882715, -16081.208417559674, -2792.1128621235925, -1858.1228683141314, -5544.3502121389165, -6235.37674371919, -16560.899205315018, -13742.791264389905, -19845.510404766846, -12194.195353292866, -6795.220887091266, -10191.859029753094, -11334.077874908195, -11314.43069153198, 0.006, -0.006, 0.99, 192.0, 0.0, 0.0, 0.0, 0.0, 0.0, 0.0, 0.0, 0.0, 0.0, 1.644499059427274E9, 0.0, 2022-02-11 00:17:39.427
132.0, -8915.552069610605, -10772.46794372415, -10262.60230095414, -16079.308519280974, -2803.378141329067, -1876.3171883007515, -5563.81858155949, -6252.185255549581, -16559.200472736415, -13749.206215048578, -19843.54345125478, -12204.164231319934, -6793.812727190581, -10199.458622867898, -11338.458816821434, -11321.806767202232, 0.006, -0.006, 0.99, 192.0, 0.0, 0.0, 0.0, 0.0, 0.0, 0.0, 0.0, 0.0, 0.0, 1.644499059427281E9, 0.0, 2022-02-11 00:17:39.427
134.0, -8903.772700282658, -10767.394097732795, -10256.120295062101, -16077.22980704663, -2797.5890395151428, -1869.231685308419, -5560.398764657827, -6248.51956945891, -16553.03139126675, -13751.508444727475, -19848.25966933485, -12202.152574318956, -6795.690273724827, -10206.141794460034, -11348.561805315234, -11320.577421257189, 0.006, -0.006, 0.99, 192.0, 0.0, 0.0, 0.0, 0.0, 0.0, 0.0, 0.0, 0.0, 0.0, 1.644499059427298E9, 0.0, 2022-02-11 00:17:39.427
136.0, -8918.211927200786, -10770.836266378912, -10267.452629500942, -16090.976129886643, -2805.322743096679, -1879.0217493798436, -5557.33657566745, -6248.51956945891, -16568.342336218637, -13756.448180252097, -19842.55997449875, -12202.532553974695, -6799.758291215693, -10206.745291560328, -11344.29262212427, -11324.086645136673, 0.002, -0.002, 0.992, 192.0, 0.0, 8.0, 127.5, 120.0, 15.5, 0.0, 0.0, 0.0, 0.0, 1.644499059427306E9, 0.0, 2022-02-11 00:17:39.427
138.0, -8916.423787644362, -10781.22982755063, -10275.007519126835, -16083.778868172036, -2812.3411908556454, -1881.7263104589356, -5569.831200817967, -6245.300918257346, -16570.152827519516, -13760.896177398703, -19863.034172419808, -12215.585972736595, -6808.698988997816, -10213.83079455266, -11354.216796662426, -11330.121616139606, 0.002, -0.002, 0.992, 192.0, 0.0, 0.0, 0.0, 0.0, 0.0, 0.0, 0.0, 0.0, 0.0, 1.644499059427314E9, 0.0, 2022-02-11 00:17:39.427
140.0, -8913.540412609627, -10785.56606597496, -10268.570216723707, -16088.070403107455, -2805.5909640301425, -1874.8643249111565, -5556.531912867059, -6244.764476390419, -16572.94679557643, -13752.558976716875, -19854.02641940432, -12204.857135398048, -6808.386064575442, -10207.058215982703, -11352.093380939172, -11327.081778893684, 0.002, -0.002, 0.992, 192.0, 0.0, 0.0, 0.0, 0.0, 0.0, 0.0, 0.0, 0.0, 0.0, 1.6444990594273207E9, 0.0, 2022-02-11 00:17:39.427
142.0, -8936.406247187406, -10781.341586272907, -10281.824801185705, -16093.725394454646, -2825.7075340399188, -1889.6611797405697, -5579.2189334891955, -6257.460267241034, -16580.74755439133, -13763.578386733341, -19863.190634630995, -12213.663722713438, -6814.957477445302, -10216.289486442744, -11353.054505950751, -11335.128406897595, 0.002, -0.002, 0.992, 192.0, 0.0, 0.0, 0.0, 0.0, 0.0, 0.0, 0.0, 0.0, 0.0, 1.644499059427328E9, 0.0, 2022-02-11 00:17:39.427
144.0, -8919.173052212363, -10780.693385683702, -10272.012385369824, -16098.262798579073, -2811.6929902664415, -1873.9255516440335, -5560.510523380104, -6250.106543315237, -16578.199455523427, -13762.259633810478, -19867.012782932852, -12217.955257648857, -6818.556108302607, -10214.367236419588, -11361.324651399214, -11337.29652610976, 0.002, -0.002, 0.992, 192.0, 0.0, 0.0, 0.0, 0.0, 0.0, 0.0, 0.0, 0.0, 0.0, 1.6444990594273348E9, 0.0, 2022-02-11 00:17:39.427
146.0, -8923.375180169962, -10786.102507841886, -10277.533266250286, -16099.000406146099, -2811.60358328862, -1880.4969645138938, -5557.2024652007185, -6270.737203447486, -16580.74755439133, -13763.399572777698, -19850.472492035926, -12204.834783653592, -6812.789358233137, -10202.766681047284, -11351.691049538977, -11334.971944686407, 0.002, -0.002, 0.992, 192.0, 0.0, 0.0, 0.0, 0.0, 15.5, 8.0, 0.0, 0.0, 0.0, 1.6444990594273417E9, 0.0, 2022-02-11 00:17:39.427
148.0, -8932.114712251987, -10780.715737428158, -10280.528400007297, -16092.943083398712, -2809.279001865268, -1879.6475982245922, -5537.599985313414, -6237.388400720168, -16579.51820844629, -13770.641537981217, -19868.532701555814, -12221.308019317154, -6812.096454155023, -10214.478995141864, -11354.77559027381, -11341.498654067356, 0.002, -0.002, 0.992, 192.0, 0.0, 0.0, 0.0, 0.0, 0.0, 0.0, 0.0, 0.0, 0.0, 1.6444990594273481E9, 0.0, 2022-02-11 00:17:39.427
150.0, -8914.613296343481, -10781.073365339442, -10270.2242458134, -16092.876028165345, -2802.5511267842207, -1862.03442359381, -5551.994508742632, -6230.727580872486, -16580.077002057675, -13757.319898285854, -19856.775683972322, -12216.837670426092, -6806.866145952481, -10204.778338048262, -11343.085627923683, -11328.378180072092, 0.002, -0.002, 0.992, 192.0, 0.0, 0.0, 0.0, 0.0, 0.0, 0.0, 0.0, 0.0, 0.0, 1.644499059427355E9, 0.0, 2022-02-11 00:17:39.427
152.0, -8934.260479719696, -10795.736109702124, -10285.155211109544, -16097.301673567496, -2823.338249127656, -1875.6913394560029, -5556.330747166961, -6246.776133391397, -16582.155714292017, -13768.451067024598, -19861.69306775249, -12220.41394953894, -6811.91764019938, -10213.339056174644, -11353.121561184116, -11335.687200508977, 0.002, -0.002, 0.992, 192.0, 0.0, 0.0, 0.0, 0.0, 0.0, 0.0, 0.0, 0.0, 0.0, 1.6444990594273624E9, 0.0, 2022-02-11 00:17:39.427
154.0, -8919.843604546024, -10789.455269510183, -10273.353490037143, -16097.078156122943, -2810.8212722326844, -1868.717595185947, -5539.633994058847, -6242.372839733701, -16576.27720550027, -13772.452029282098, -19862.07304740823, -12218.737568704793, -6814.82336697857, -10208.958114261402, -11358.754200786854, -11337.29652610976, 0.002, -0.002, 0.992, 192.0, 0.0, 0.0, 0.0, 0.0, 15.5, 0.0, 0.0, 0.0, 0.0, 1.644499059427369E9, 0.0, 2022-02-11 00:17:39.427
156.0, -8917.451967889307, -10784.582589218926, -10276.907417405537, -16100.117993368864, -2814.3304961121676, -1875.2443045668967, -5550.966328497688, -6249.771267148408, -16580.836961369154, -13763.310165799878, -19849.98075365791, -12215.138937847489, -6806.3073523410985, -10202.54316360273, -11352.67452629501, -11339.174072644004, 0.002, -0.002, 0.992, 192.0, 0.0, 0.0, 0.0, 0.0, 0.0, 0.0, 0.0, 0.0, 0.0, 1.644499059427376E9, 0.0, 2022-02-11 00:17:39.427
158.0, -8926.638534860436, -10788.248275309596, -10283.36707155312, -16092.56310374297, -2821.6171648045975, -1876.361891789662, -5561.382241413861, -6248.944252603562, -16576.6124816671, -13768.272253068955, -19865.962250943452, -12213.239039568787, -6811.560012288095, -10214.657809097507, -11360.989375232384, -11341.699819767455, 0.002, -0.002, 0.992, 192.0, 0.0, 0.0, 0.0, 0.0, 0.0, 0.0, 0.0, 0.0, 0.0, 1.6444990594273844E9, 0.0, 2022-02-11 00:17:39.427
160.0, -8921.05059874661, -10781.051013594988, -10274.426373770997, -16102.017891647565, -2806.7532547418186, -1862.4144032495503, -5551.256901175607, -6238.103656542738, -16581.015775324795, -13761.34321228781, -19856.194538616484, -12212.36732153503, -6812.163509388389, -10199.838602523638, -11355.222625162914, -11332.24503186286, 0.002, -0.002, 0.992, 192.0, 0.0, 0.0, 0.0, 0.0, 0.0, 0.0, 0.0, 0.0, 0.0, 1.644499059427392E9, 0.0, 2022-02-11 00:17:39.427
162.0, -8931.779436085157, -10793.411528278772, -10283.210609341933, -16101.682615480737, -2824.32172588369, -1878.105327857176, -5565.539665882548, -6251.134723560182, -16588.101278317128, -13771.423849037154, -19864.665849765046, -12219.966914649835, -6813.638724522439, -10201.962018246892, -11359.089476953683, -11338.7270377549, 0.002, -0.002, 0.992, 192.0, 0.0, 0.0, 0.0, 0.0, 0.0, 0.0, 0.0, 0.0, 0.0, 1.6444990594273996E9, 0.0, 2022-02-11 00:17:39.427
164.0, -8911.372293397462, -10787.13068808683, -10274.359318537632, -16093.18895258772, -2814.1069786676144, -1868.3376155302067, -5544.19374992773, -6237.477807697989, -16574.220845010383, -13760.940880887614, -19865.850492221176, -12214.736606447294, -6813.325800100065, -10212.3108759297, -11361.794038032776, -11336.693029009466, 0.005, -0.002, 0.988, 192.0, 0.0, 32.0, 127.5, 120.0, 15.0, 96.0, 0.0, 0.0, 0.0, 1.6444990594274063E9, 0.0, 2022-02-11 00:17:39.427
166.0, -8926.638534860436, -10776.066574581453, -10277.667376717018, -16098.32985381244, -2812.765874000296, -1867.1306213296202, -5552.150970953819, -6243.736296145475, -16579.115877046093, -13749.385029004221, -19849.13138736861, -12202.487850485784, -6811.1576808879, -10201.850259524615, -11350.81933150522, -11334.793130730764, 0.005, -0.002, 0.988, 192.0, 0.0, 0.0, 0.0, 0.0, 0.0, 0.0, 0.0, 0.0, 0.0, 1.6444990594274163E9, 0.0, 2022-02-11 00:17:39.427
168.0, -8941.34598271203, -10791.109298599875, -10283.143554108567, -16099.559199757481, -2817.057408935715, -1874.5961039776928, -5551.458066875704, -6247.37963049169, -16574.734935132856, -13764.383049533732, -19860.910756696554, -12217.0835396151, -6815.382160589953, -10204.577172348163, -11361.525817099311, -11342.370372101113, 0.005, -0.002, 0.988, 192.0, 0.0, 0.0, 0.0, 0.0, 0.0, 0.0, 0.0, 0.0, 0.0, 1.6444990594274235E9, 0.0, 2022-02-11 00:17:39.427
170.0, -8928.33726743904, -10799.55825800398, -10279.455516273441, -16105.258894593586, -2816.3421531131453, -1871.623321965137, -5564.1315059818635, -6252.185255549581, -16582.155714292017, -13765.835912923327, -19854.361695571148, -12216.27887681471, -6817.125596657467, -10209.293390428233, -11356.787247274786, -11341.4763023229, 0.005, -0.002, 0.988, 192.0, 0.0, 0.0, 0.0, 0.0, 0.0, 0.0, 0.0, 0.0, 0.0, 1.6444990594274304E9, 0.0, 2022-02-11 00:17:39.427
172.0, -8942.15064551242, -10798.887705670322, -10292.844211202171, -16108.879877195344, -2829.283813152768, -1881.905124414578, -5562.3657181698945, -6253.079325327793, -16588.36949925059, -13775.000128150003, -19864.062352664754, -12226.381865308507, -6822.311201371098, -10215.976562020369, -11361.704631054954, -11346.10311342515, 0.005, -0.002, 0.988, 192.0, 0.0, 0.0, 0.0, 0.0, 0.0, 0.0, 0.0, 0.0, 0.0, 1.6444990594274373E9, 0.0, 2022-02-11 00:17:39.427
174.0, -8924.403360414906, -10782.906208384778, -10276.281568560787, -16105.817688204968, -2819.2925833812455, -1866.3483102736843, -5549.893444763833, -6250.28535727088, -16579.22763576837, -13767.668755968662, -19865.582271287713, -12224.481967029807, -6825.686314783849, -10210.321570673177, -11366.376145646114, -11344.024401190807, 0.0035, -0.007, 0.987, 192.0, 0.0, 8.0, 127.5, 80.0, 15.0, 104.0, 0.0, 0.0, 0.0, 1.6444990594274445E9, 0.0, 2022-02-11 00:17:39.427
176.0, -8930.348924440017, -10792.875086411845, -10284.417603542519, -16109.52807778455, -2821.8183305046955, -1874.1937725774972, -5555.43667738875, -6246.865540369218, -16584.390888737547, -13762.304337299389, -19849.332553068703, -12208.27695229971, -6821.439483337341, -10189.176820418455, -11361.81638977723, -11342.392723845569, 0.0035, -0.007, 0.987, 192.0, 0.0, 0.0, 0.0, 0.0, 0.0, 0.0, 0.0, 0.0, 0.0, 1.6444990594274511E9, 0.0, 2022-02-11 00:17:39.427
178.0, -8933.522872152671, -10800.005292893087, -10290.474926289908, -16104.051900392999, -2829.9543654864274, -1879.3570255466732, -5543.769066783079, -6245.613842679721, -16585.24025502685, -13769.05456412489, -19868.39859108908, -12215.071882614122, -6827.87678574047, -10217.719998087883, -11373.126372471615, -11348.405343104047, 0.0035, -0.007, 0.987, 192.0, 0.0, 0.0, 0.0, 0.0, 0.0, 0.0, 0.0, 0.0, 0.0, 1.6444990594274583E9, 0.0, 2022-02-11 00:17:39.427
180.0, -8929.566613384082, -10811.71760698767, -10283.501182019852, -16109.036339406532, -2820.1419496705475, -1871.5786184762262, -5544.149046438819, -6245.14445604616, -16583.318005003694, -13773.234340338033, -19858.250899106373, -12213.686074457893, -6823.741713016238, -10216.222431209379, -11364.699764811965, -11344.560843057734, 0.0035, -0.007, 0.987, 192.0, 0.0, 0.0, 0.0, 0.0, 0.0, 0.0, 0.0, 0.0, 0.0, 1.6444990594274654E9, 0.0, 2022-02-11 00:17:39.427
182.0, -8943.447046690828, -10805.101490628898, -10291.36899606812, -16117.887630210833, -2832.144836443047, -1879.558191246771, -5548.127656951864, -6254.487485228477, -16590.872894629585, -13776.475343284053, -19864.040000920297, -12235.52372879073, -6827.809730507104, -10222.436216167953, -11366.554959601755, -11351.825160005708, 0.0035, -0.007, 0.987, 192.0, 0.0, 0.0, 0.0, 0.0, 0.0, 0.0, 0.0, 0.0, 0.0, 1.6444990594274724E9, 0.0, 2022-02-11 00:17:39.427
184.0, -8935.311011709096, -10794.260894568073, -10284.104679120146, -16111.115051640876, -2826.445141606944, -1872.8973713990895, -5551.659232575802, -6247.80431363634, -16586.357842249614, -13771.222683337055, -19871.349021357182, -12235.367266579542, -6831.1401404309445, -10221.765663834294, -11372.545227115777, -11351.422828605513, 0.00275, -0.0105, 0.9884999999999999, 192.0, 0.0, 8.0, 127.5, 72.0, 15.0, 120.0, 0.0, 0.0, 0.0, 1.6444990594274795E9, 0.0, 2022-02-11 00:17:39.427
186.0, -8941.122465267475, -10807.850755196901, -10286.898647177059, -16114.66897900927, -2830.222586419891, -1875.4678220114497, -5551.592177342436, -6254.040450339371, -16591.90107487453, -13780.275139841455, -19854.40639906006, -12213.820184924625, -6825.552204317118, -10213.584925363652, -11361.682279310498, -11346.639555292077, 0.00275, -0.0105, 0.9884999999999999, 192.0, 0.0, 0.0, 0.0, 0.0, 0.0, 0.0, 0.0, 0.0, 0.0, 1.6444990594274883E9, 0.0, 2022-02-11 00:17:39.427
188.0, -8943.111770523998, -10806.062615640476, -10291.32429257921, -16110.466851051671, -2835.005859733327, -1875.9148569005558, -5546.585386584447, -6252.386421249678, -16588.660071928512, -13782.622073009263, -19869.605585289668, -12217.932905904401, -6832.391838120442, -10206.946457260425, -11369.639500336589, -11351.266366394326, 0.00275, -0.0105, 0.9884999999999999, 192.0, 0.0, 0.0, 0.0, 0.0, 0.0, 0.0, 0.0, 0.0, 0.0, 1.6444990594274967E9, 0.0, 2022-02-11 00:17:39.427
190.0, -8931.377104684962, -10811.941124432222, -10281.80244944125, -16118.66994126677, -2827.898004996539, -1869.9022376420783, -5550.720459308679, -6250.6653369266205, -16582.915673603497, -13775.491866528018, -19855.92631768302, -12216.100062859066, -6825.529852572662, -10206.052387482214, -11366.219683434927, -11344.717305268921, 0.00275, -0.0105, 0.9884999999999999, 192.0, 0.0, 0.0, 0.0, 0.0, 0.0, 0.0, 0.0, 0.0, 0.0, 1.6444990594275038E9, 0.0, 2022-02-11 00:17:39.427
192.0, -8947.023325803677, -10823.407569337794, -10299.147403138568, -16121.598019790414, -2847.925168028494, -1882.6427319816032, -5561.091668735942, -6262.377651021201, -16593.264531286302, -13789.685224257139, -19865.515216054348, -12232.908574689458, -6833.576480576573, -10219.329323688666, -11373.618110849633, -11350.841683249675, 0.00275, -0.0105, 0.9884999999999999, 192.0, 0.0, 0.0, 0.0, 0.0, 0.0, 0.0, 0.0, 0.0, 0.0, 1.6444990594275117E9, 0.0, 2022-02-11 00:17:39.427
194.0, -8946.017497303188, -10815.986790178633, -10301.539039795285, -16118.513479055582, -2844.0806679821812, -1880.586371491715, -5560.130543724364, -6261.57298822081, -16594.695042931442, -13775.603625250296, -19876.08759118171, -12227.1865281089, -6840.7066870578155, -10219.530489388764, -11385.509238899856, -11355.982584474395, 0.005375, -0.01225, 0.98525, 192.0, 0.0, 32.0, 127.5, 72.0, 15.0, 88.0, 0.0, 0.0, 0.0, 1.6444990594275188E9, 0.0, 2022-02-11 00:17:39.427
196.0, -8947.738581626247, -10812.9022494438, -10305.160022397045, -16127.543583815526, -2840.951423758438, -1881.234572080919, -5559.325880923972, -6273.709985460042, -16609.603656483134, -13772.094401370812, -19871.46078007946, -12227.231231597809, -6845.601719093528, -10221.676256856474, -11377.730831829409, -11356.608433319145, 0.005375, -0.01225, 0.98525, 192.0, 0.0, 0.0, 0.0, 0.0, 0.0, 0.0, 0.0, 0.0, 0.0, 1.644499059427526E9, 0.0, 2022-02-11 00:17:39.427
198.0, -8961.015517832699, -10809.214211608674, -10304.377711341109, -16127.923563471266, -2849.668604096008, -1888.9012204290893, -5560.3093576800065, -6268.949063891061, -16606.519115748302, -13791.719233002572, -19882.23432090692, -12241.670458515939, -6846.071105727089, -10225.632515625062, -11385.06220401075, -11365.549131101267, 0.005375, -0.01225, 0.98525, 192.0, 0.0, 0.0, 0.0, 0.0, 0.0, 0.0, 0.0, 0.0, 0.0, 1.6444990594275353E9, 0.0, 2022-02-11 00:17:39.427
200.0, -8944.832854847056, -10818.780758235545, -10291.391347812576, -16124.414339591784, -2837.9115865125164, -1877.747699945891, -5559.571750112981, -6254.934520117584, -16604.57451398069, -13793.865000470281, -19868.130370155617, -12223.923173418425, -6842.1148469585005, -10232.896832573037, -11377.842590551685, -11357.748372286365, 0.005375, -0.01225, 0.98525, 192.0, 0.0, 0.0, 0.0, 0.0, 0.0, 0.0, 0.0, 0.0, 0.0, 1.644499059427542E9, 0.0, 2022-02-11 00:17:39.427
202.0, -8964.748259156735, -10836.729209033158, -10307.574010798218, -16130.806938506, -2858.4304879224883, -1885.7943279498015, -5565.964349027199, -6262.444706254567, -16606.317950048204, -13791.071032413369, -19869.136198656106, -12223.409083295952, -6846.071105727089, -10224.537280146753, -11378.021404507328, -11357.43544786399, 0.005375, -0.01225, 0.98525, 192.0, 0.0, 0.0, 0.0, 0.0, 0.0, 0.0, 0.0, 0.0, 0.0, 1.644499059427549E9, 0.0, 2022-02-11 00:17:39.427
204.0, -8953.170055528886, -10841.803055024511, -10301.293170606277, -16124.57080180297, -2851.8143715637175, -1872.4503365099833, -5545.557206339504, -6254.353374761746, -16607.591999482156, -13796.63661678274, -19881.094381939696, -12232.439188055896, -6847.54632086114, -10227.375951692577, -11388.146744745582, -11355.937880985484, 0.0066875, -0.013125000000000001, 0.985625, 192.0, 0.0, 32.0, 127.5, 72.0, 15.0, 104.0, 0.0, 0.0, 0.0, 1.6444990594275556E9, 0.0, 2022-02-11 00:17:39.427
206.0, -8957.461590464305, -10845.513444604094, -10304.444766574476, -16135.210232163696, -2853.1778279754913, -1885.302589571785, -5563.215084459196, -6272.413584281634, -16615.258647830327, -13802.001035452013, -19866.252823621373, -12228.237060098298, -6849.669736584394, -10226.437178425453, -11381.575331875722, -11359.536511842789, 0.0066875, -0.013125000000000001, 0.985625, 192.0, 0.0, 0.0, 0.0, 0.0, 0.0, 0.0, 0.0, 0.0, 0.0, 1.6444990594275627E9, 0.0, 2022-02-11 00:17:39.427
208.0, -8967.609282447014, -10834.158758420797, -10313.407816101053, -16134.070293196475, -2865.5830461481864, -1892.4327960530277, -5568.333633939461, -6265.350433033756, -16610.676540216988, -13799.721157517572, -19881.206140661972, -12241.536348049207, -6850.586158107061, -10228.27002147079, -11389.957236046463, -11370.958253259452, 0.0066875, -0.013125000000000001, 0.985625, 192.0, 0.0, 0.0, 0.0, 0.0, 0.0, 0.0, 0.0, 0.0, 0.0, 1.64449905942757E9, 0.0, 2022-02-11 00:17:39.427
210.0, -8959.674413165381, -10830.493072330126, -10304.757690996848, -16137.154833931309, -2854.7200983429075, -1882.0615866257654, -5562.924511781277, -6253.951043361551, -16616.46564203091, -13794.893180715226, -19880.245015650395, -12238.205938125366, -6858.632786110972, -10238.64123089805, -11386.15743948906, -11367.24786367987, 0.0066875, -0.013125000000000001, 0.985625, 192.0, 0.0, 0.0, 0.0, 0.0, 0.0, 0.0, 0.0, 0.0, 0.0, 1.6444990594275768E9, 0.0, 2022-02-11 00:17:39.427
212.0, -8962.15545679992, -10828.302601373507, -10312.826670745215, -16136.216060664185, -2867.5276479157983, -1890.0635111407653, -5567.953654283721, -6260.790677164874, -16606.407357026026, -13785.63955851073, -19878.054544693776, -12242.720990505337, -6852.195483707844, -10248.610108925117, -11386.805640078264, -11369.952424758963, 0.0066875, -0.013125000000000001, 0.985625, 192.0, 0.0, 0.0, 0.0, 0.0, 0.0, 0.0, 0.0, 0.0, 0.0, 1.644499059427584E9, 0.0, 2022-02-11 00:17:39.427
214.0, -8977.846381407546, -10864.512427391104, -10316.291191135788, -16136.95366823121, -2865.8736188261055, -1883.6038569931816, -5559.3705844128835, -6265.529246989399, -16612.107051862127, -13800.145840662222, -19890.5938733332, -12233.109740389555, -6856.889350043458, -10236.74133261935, -11393.891143070596, -11367.650195080067, 0.00434375, -0.009562500000000002, 0.9858125, 192.0, 0.0, 8.0, 127.5, 104.0, 15.0, 104.0, 0.0, 0.0, 0.0, 1.6444990594275908E9, 0.0, 2022-02-11 00:17:39.427
216.0, -8973.73366042777, -10855.14704646433, -10315.79945275777, -16144.016819479088, -2873.115584029625, -1891.8516506971898, -5579.464802678204, -6278.560314006843, -16640.38200859809, -13818.83189902686, -19885.967062230953, -12234.249679356775, -6867.618187382006, -10243.022172811292, -11390.516029657845, -11372.031136993306, 0.00434375, -0.009562500000000002, 0.9858125, 192.0, 0.0, 0.0, 0.0, 0.0, 0.0, 0.0, 0.0, 0.0, 0.0, 1.6444990594275975E9, 0.0, 2022-02-11 00:17:39.427
218.0, -8987.010596634222, -10861.00320351162, -10326.215365673945, -16144.530909601559, -2885.632560924597, -1900.7699967348574, -5581.275293979084, -6276.995691894972, -16639.219717886415, -13826.185622952657, -19902.060318238775, -12250.052362686678, -6874.815449096614, -10252.007574082325, -11401.513087929856, -11379.720137085931, 0.00434375, -0.009562500000000002, 0.9858125, 192.0, 0.0, 0.0, 0.0, 0.0, 0.0, 0.0, 0.0, 0.0, 0.0, 1.6444990594276052E9, 0.0, 2022-02-11 00:17:39.427
220.0, -8961.261387021708, -10845.647555070826, -10313.765444012339, -16146.676677069268, -2869.6734153835077, -1888.4318337955278, -5579.777727100579, -6284.90820943215, -16631.754235238343, -13811.344064634332, -19886.41409712006, -12239.792911981693, -6867.327614704087, -10239.200024509433, -11397.31095997226, -11376.68029984001, 0.00434375, -0.009562500000000002, 0.9858125, 192.0, 0.0, 0.0, 0.0, 0.0, 0.0, 0.0, 0.0, 0.0, 0.0, 1.6444990594276123E9, 0.0, 2022-02-11 00:17:39.427
222.0, -8974.963006372811, -10844.842892270433, -10328.271726163832, -16151.884633527356, -2885.5878574356866, -1898.5348222893265, -5589.3666254719055, -6268.882008657695, -16630.10020614865, -13798.089480172335, -19884.93888198601, -12232.975629922823, -6865.695937358849, -10238.909451831514, -11399.523782673334, -11382.357642931658, 0.00434375, -0.009562500000000002, 0.9858125, 192.0, 0.0, 0.0, 0.0, 0.0, 0.0, 0.0, 0.0, 0.0, 0.0, 1.6444990594276197E9, 0.0, 2022-02-11 00:17:39.427
224.0, -8966.804619646624, -10841.71364804669, -10322.952010983468, -16150.923508515778, -2883.9785318349045, -1902.1558048910863, -5576.849648576934, -6277.353319806257, -16622.746482222854, -13812.796928023927, -19896.874713525143, -12254.813284255659, -6870.143934505455, -10253.862768872115, -11406.63163741012, -11380.68126209751, 0.002, -0.004, 0.988, 192.0, 0.0, 8.0, 127.5, 112.0, 15.0, 112.0, 0.0, 0.0, 0.0, 1.6444990594276266E9, 0.0, 2022-02-11 00:17:39.427
226.0, -8975.67826219538, -10852.777761552068, -10328.85287151967, -16157.383162663362, -2887.823031881217, -1913.5104910743823, -5590.595971416948, -6279.454383785055, -16634.838775973174, -13815.97087573658, -19889.520989599347, -12246.029048684723, -6880.425736954897, -10261.998803853847, -11405.648160654087, -11387.163267989548, 0.002, -0.004, 0.988, 192.0, 0.0, 0.0, 0.0, 0.0, 0.0, 0.0, 0.0, 0.0, 0.0, 1.6444990594276338E9, 0.0, 2022-02-11 00:17:39.427
228.0, -8984.39544253295, -10849.492055117138, -10337.748865812882, -16156.265575440595, -2892.114566816636, -1922.4958923454158, -5575.776764843079, -6272.882970915195, -16638.325648108203, -13823.101082217823, -19908.475268897448, -12256.333202878619, -6888.338254492075, -10272.615882470118, -11411.414910723557, -11394.025253537327, 0.002, -0.004, 0.988, 192.0, 0.0, 0.0, 0.0, 0.0, 0.0, 0.0, 0.0, 0.0, 0.0, 1.6444990594276404E9, 0.0, 2022-02-11 00:17:39.427
230.0, -8975.745317428746, -10851.414305140293, -10329.545775597784, -16159.037191753054, -2881.2963225002677, -1908.23547938293, -5573.921570053288, -6282.427165797611, -16641.365485354127, -13817.848422270827, -19894.50542861288, -12254.723877277836, -6890.416966726419, -10274.739298193372, -11404.262352497859, -11386.738584844898, 0.002, -0.004, 0.988, 192.0, 0.0, 0.0, 0.0, 0.0, 0.0, 0.0, 0.0, 0.0, 0.0, 1.6444990594276497E9, 0.0, 2022-02-11 00:17:39.427
232.0, -8991.749166458747, -10865.942939036244, -10340.945165269992, -16166.994412779142, -2896.8084331522505, -1921.2218429114632, -5583.666930635802, -6294.5194595479325, -16649.948555224964, -13819.100119960323, -19895.645367580102, -12256.46731334535, -6900.654065686949, -10276.37097553861, -11407.123375788138, -11397.4897739279, 0.002, -0.004, 0.988, 192.0, 0.0, 0.0, 0.0, 0.0, 0.0, 0.0, 0.0, 0.0, 0.0, 1.644499059427657E9, 0.0, 2022-02-11 00:17:39.427
234.0, -8976.013538362211, -10863.640709357347, -10335.826615789725, -16163.932223788766, -2891.8463458831725, -1912.5493660628042, -5585.835049847967, -6279.968473907527, -16638.325648108203, -13823.771634551482, -19906.307149685283, -12266.95028149489, -6900.9893418537795, -10267.519684734307, -11416.198184036994, -11396.30513147177, 0.004, -0.006, 0.988, 192.0, 0.0, 16.0, 127.5, 104.0, 15.0, 112.0, 0.0, 0.0, 0.0, 1.644499059427664E9, 0.0, 2022-02-11 00:17:39.427
236.0, -8976.30411104013, -10862.14314247884, -10333.725551810927, -16164.692183100247, -2889.85704062665, -1913.0858079297316, -5580.492982923149, -6283.075366386815, -16646.036999945285, -13828.666666587194, -19891.912626256064, -12249.270051630743, -6901.369321509519, -10264.144571321556, -11409.269143255848, -11394.047605281783, 0.004, -0.006, 0.988, 192.0, 0.0, 0.0, 0.0, 0.0, 0.0, 0.0, 0.0, 0.0, 0.0, 1.644499059427671E9, 0.0, 2022-02-11 00:17:39.427
238.0, -8979.053375608131, -10850.72140106218, -10336.340705912198, -16165.541549389549, -2900.0270843538146, -1912.0129241958768, -5587.53378242657, -6292.217229869036, -16636.06812191822, -13824.799814796426, -19898.41698389256, -12247.772484752237, -6900.452899986852, -10259.60716719713, -11414.767672391854, -11398.942637317496, 0.004, -0.006, 0.988, 192.0, 0.0, 0.0, 0.0, 0.0, 0.0, 0.0, 0.0, 0.0, 0.0, 1.644499059427678E9, 0.0, 2022-02-11 00:17:39.427
240.0, -8973.174866816385, -10861.450238400726, -10329.836348275703, -16172.381183192872, -2894.0368168397927, -1913.8681189856673, -5587.1985062597405, -6288.640950756187, -16637.185709140984, -13818.250753671022, -19891.8455710227, -12254.813284255659, -6903.60449595505, -10261.238844542366, -11414.499451458389, -11399.926114073529, 0.004, -0.006, 0.988, 192.0, 0.0, 0.0, 0.0, 0.0, 0.0, 0.0, 0.0, 0.0, 0.0, 1.644499059906536E9, 0.0, 2022-02-11 00:17:39.906
242.0, -8986.518858256204, -10862.970157023688, -10348.611813618161, -16169.698973858236, -2908.7666164358398, -1923.0546859567985, -5600.900125610844, -6310.746826022485, -16648.58509881319, -13831.326524177377, -19899.8474955377, -12261.228234914332, -6911.3829030254965, -10287.390385555076, -11421.719064917454, -11405.82697460973, 0.004, -0.006, 0.988, 192.0, 0.0, 0.0, 0.0, 0.0, 0.0, 0.0, 0.0, 0.0, 0.0, 1.644499059906732E9, 0.0, 2022-02-11 00:17:39.906
244.0, -8980.30507329763, -10865.182979724763, -10336.005429745368, -16166.480322656671, -2899.378883764611, -1915.0304096973432, -5593.859326107422, -6303.81778524134, -16637.92331670801, -13830.655971843717, -19906.374204918648, -12258.747191279792, -6909.214783813332, -10285.714004720927, -11427.396408009101, -11403.63650365311, 0.004, -0.008, 0.988, 192.0, 0.0, 16.0, 127.5, 96.0, 15.0, 112.0, 0.0, 0.0, 0.0, 1.6444990599067392E9, 0.0, 2022-02-11 00:17:39.906
246.0, -8981.847343665046, -10875.330671707472, -10341.10162748118, -16173.901101815833, -2903.9162878890384, -1921.1547876780974, -5584.695110880746, -6294.832383970307, -16646.685200534488, -13827.705541575617, -19894.483076868426, -12249.247699886288, -6910.868812903025, -10283.255312830845, -11419.26037302737, -11400.77548036283, 0.004, -0.008, 0.988, 192.0, 0.0, 0.0, 0.0, 0.0, 0.0, 0.0, 0.0, 0.0, 0.0, 1.6444990599067464E9, 0.0, 2022-02-11 00:17:39.906
248.0, -8988.508163512726, -10865.205331469218, -10347.829502562226, -16173.118790759898, -2914.600421738675, -1918.3161161322732, -5571.284064207562, -6282.29305533088, -16644.360619111136, -13831.751207322028, -19908.341158430714, -12257.316679634652, -6914.623905971516, -10303.662455518539, -11426.010599852872, -11406.855154854675, 0.004, -0.008, 0.988, 192.0, 0.0, 0.0, 0.0, 0.0, 0.0, 0.0, 0.0, 0.0, 0.0, 1.6444990599067535E9, 0.0, 2022-02-11 00:17:39.906
250.0, -8979.612169219514, -10870.8156193275, -10335.647801834084, -16176.806828595023, -2898.7753866643175, -1905.0838834147316, -5578.2131049887075, -6277.040395383882, -16643.600659799657, -13822.877564773271, -19899.981606004432, -12264.648051815993, -6911.561716981139, -10272.615882470118, -11422.389617251112, -11399.434375695513, 0.004, -0.008, 0.988, 192.0, 0.0, 0.0, 0.0, 0.0, 0.0, 0.0, 0.0, 0.0, 0.0, 1.6444990599067607E9, 0.0, 2022-02-11 00:17:39.906
252.0, -9002.656817752937, -10885.500715434637, -10347.963613028958, -16180.450162941237, -2914.5557182497646, -1923.0546859567985, -5594.507526696626, -6294.988846181494, -16651.82610175921, -13840.781312081972, -19901.814449049765, -12259.976537224835, -6909.885336146991, -10275.163981338022, -11424.893012630107, -11405.849326354186, 0.004, -0.008, 0.988, 192.0, 0.0, 0.0, 0.0, 0.0, 0.0, 0.0, 0.0, 0.0, 0.0, 1.6444990599067671E9, 0.0, 2022-02-11 00:17:39.906
254.0, -8990.408061791428, -10880.315110721007, -10346.130769983623, -16177.67854662878, -2908.05136061327, -1911.7223515179578, -5579.57656140048, -6283.678863487108, -16647.71338077943, -13849.07380927489, -19914.13026024464, -12269.699546062893, -6910.801757669659, -10279.857847673637, -11431.30796328878, -11403.815317608753, 0.002, -0.01, 0.99, 192.0, 0.0, 8.0, 127.5, 88.0, 15.0, 120.0, 0.0, 0.0, 0.0, 1.6444990599067738E9, 0.0, 2022-02-11 00:17:39.906
0.0, -8990.698634469347, -10881.857381088423, -10338.978211757923, -16194.48705845917, -2913.3040205602674, -1924.6193080686699, -5597.323846497995, -6301.828479984818, -16656.519968094824, -13846.25748947352, -19902.887332783623, -12265.229197171831, -6915.4285687719075, -10276.348623794154, -11427.910498131574, -11408.576239177733, 0.002, -0.01, 0.99, 192.0, 0.0, 0.0, 0.0, 0.0, 0.0, 0.0, 0.0, 0.0, 0.0, 1.6444990599067805E9, 0.0, 2022-02-11 00:17:39.906
2.0, -8998.387634561972, -10872.112020505909, -10350.221139218944, -16197.504543960637, -2925.6421834995967, -1937.6280233416587, -5601.369512244405, -6309.763349266452, -16655.737657038888, -13837.652067858227, -19917.5500771463, -12279.690775834415, -6922.782292697703, -10290.363167567632, -11440.673344215555, -11420.109739316671, 0.002, -0.01, 0.99, 192.0, 0.0, 0.0, 0.0, 0.0, 0.0, 0.0, 0.0, 0.0, 0.0, 1.644499059906787E9, 0.0, 2022-02-11 00:17:39.906
4.0, -8987.547038501149, -10884.830163100978, -10343.76148507136, -16189.636729912369, -2922.088256131203, -1934.6105378401921, -5596.429776719782, -6300.822651484329, -16653.34602038217, -13842.1671202382, -19904.764879317867, -12270.705374563382, -6924.481025276306, -10304.869449719126, -11442.528539005345, -11417.628695682133, 0.002, -0.01, 0.99, 192.0, 0.0, 0.0, 0.0, 0.0, 0.0, 0.0, 0.0, 0.0, 0.0, 1.6444990599067934E9, 0.0, 2022-02-11 00:17:39.906
6.0, -9000.622809007504, -10884.472535189692, -10355.451447421485, -16188.027404311588, -2936.505131304876, -1942.6571658441028, -5607.248021036151, -6306.634105042709, -16657.458741361945, -13855.064076788913, -19901.859152538676, -12263.977499482335, -6930.158368367955, -10301.94137119548, -11444.584899495232, -11419.126262560638, 0.002, -0.01, 0.99, 192.0, 0.0, 0.0, 0.0, 0.0, 0.0, 0.0, 0.0, 0.0, 0.0, 1.6444990599068108E9, 0.0, 2022-02-11 00:17:39.906
8.0, -8990.832744936079, -10879.44339268725, -10351.204615974977, -16185.188732765762, -2930.738381235407, -1932.2412529279297, -5603.492927967659, -6297.179317138114, -16650.753218025355, -13845.765751095505, -19906.88829504112, -12266.23502567232, -6930.717161979337, -10288.127993122102, -11451.35747806519, -11416.376997992635, 0.01, -0.008, 0.988, 192.0, 0.0, 40.0, 127.5, 96.0, 15.0, 112.0, 0.0, 0.0, 0.0, 1.6444990599068203E9, 0.0, 2022-02-11 00:17:39.906
10.0, -8997.247695594751, -10885.858343345923, -10357.57486314474, -16190.10611654593, -2934.538177792809, -1929.5366918488376, -5600.743663399657, -6301.984942196005, -16662.554939097758, -13838.188509725156, -19901.389765905114, -12258.411915112963, -6931.432417801907, -10304.17654564101, -11442.461483771978, -11415.326466003236, 0.01, -0.008, 0.988, 192.0, 0.0, 0.0, 0.0, 0.0, 0.0, 0.0, 0.0, 0.0, 0.0, 1.6444990599068267E9, 0.0, 2022-02-11 00:17:39.906
12.0, -9003.72970148679, -10883.91374157831, -10367.208465004976, -16193.503581703137, -2949.402087855588, -1934.0740959732648, -5615.54051822907, -6306.4329393426115, -16665.795942043776, -13854.415876199708, -19923.294475471317, -12266.994984983801, -6941.691868506893, -10289.13382162259, -11452.139789121127, -11419.618000938655, 0.01, -0.008, 0.988, 192.0, 0.0, 0.0, 0.0, 0.0, 0.0, 0.0, 0.0, 0.0, 0.0, 1.6444990599068336E9, 0.0, 2022-02-11 00:17:39.906
14.0, -8990.676282724891, -10880.15864850982, -10360.704107368483, -16197.057509071532, -2942.3389366077113, -1930.4754651159603, -5598.39673023185, -6300.308561361857, -16657.21287217294, -13844.514053406008, -19905.45778339598, -12263.686926804416, -6938.830845216614, -10289.491449533874, -11451.513940276378, -11417.315771259759, 0.01, -0.008, 0.988, 192.0, 0.0, 0.0, 0.0, 0.0, 0.0, 0.0, 0.0, 0.0, 0.0, 1.64449905990684E9, 0.0, 2022-02-11 00:17:39.906
16.0, -9007.64125676647, -10887.19944801324, -10360.502941668385, -16206.557000465036, -2956.3311286367334, -1939.8855495316448, -5617.596878718959, -6317.541756336899, -16662.7337530534, -13858.662707646217, -19905.815411307267, -12269.364269896063, -6947.32450810963, -10292.106603635146, -11449.07760013075, -11425.205937052482, 0.01, -0.008, 0.988, 192.0, 0.0, 0.0, 0.0, 0.0, 0.0, 0.0, 0.0, 0.0, 0.0, 1.6444990599068465E9, 0.0, 2022-02-11 00:17:39.906
18.0, -8994.364320560016, -10896.67658766229, -10356.949014299991, -16201.773727151602, -2952.6877942905185, -1937.2703954303738, -5606.935096613776, -6313.741959779497, -16658.62103207362, -13856.449884945141, -19916.164268990073, -12276.069793232655, -6957.159275669966, -10304.601228785663, -11461.192245625525, -11430.100969088195, 0.01, -0.008, 0.988, 192.0, 0.0, 40.0, 127.5, 96.0, 15.0, 112.0, 0.0, 0.0, 0.0, 1.6444990599068532E9, 0.0, 2022-02-11 00:17:39.906
20.0, -9003.64029450897, -10905.840802888966, -10359.608871890172, -16205.595875453459, -2954.1406576801132, -1942.7018693330133, -5589.970122572198, -6310.523308577933, -16665.080686221205, -13854.348820966343, -19903.35671941718, -12272.627624586537, -6963.28365365072, -10315.71004577995, -11450.463408286978, -11428.223422553949, 0.01, -0.008, 0.988, 192.0, 0.0, 0.0, 0.0, 0.0, 0.0, 0.0, 0.0, 0.0, 0.0, 1.6444990599068599E9, 0.0, 2022-02-11 00:17:39.906
22.0, -9021.476986584305, -10915.16148032683, -10373.57871217474, -16204.344177763962, -2961.024994972348, -1947.5298461353598, -5595.468651708205, -6312.356151623268, -16671.115657224138, -13864.898844349247, -19923.115661515672, -12284.071717747656, -6971.129115954533, -10321.074464449222, -11460.07465840276, -11434.124283090148, 0.01, -0.008, 0.988, 192.0, 0.0, 0.0, 0.0, 0.0, 0.0, 0.0, 0.0, 0.0, 0.0, 1.6444990599068663E9, 0.0, 2022-02-11 00:17:39.906
24.0, -9004.132032886986, -10899.939942352765, -10360.078258523734, -16204.120660319408, -2952.4642768459653, -1933.515302361882, -5610.198451304252, -6313.563145823854, -16671.070953735227, -13865.189417027166, -19918.22062947996, -12273.633453087026, -6970.145639198499, -10313.251353889866, -11460.812265969786, -11430.749169677398, 0.01, -0.008, 0.988, 192.0, 0.0, 0.0, 0.0, 0.0, 0.0, 0.0, 0.0, 0.0, 0.0, 1.644499059906873E9, 0.0, 2022-02-11 00:17:39.906
26.0, -9030.350629133061, -10902.242172031662, -10376.551494187295, -16213.977779624198, -2966.6129310861747, -1945.2052647120076, -5614.937021128777, -6321.3415528943015, -16677.664718349544, -13869.100972306846, -19919.80760333629, -12275.063964732166, -6973.833677033625, -10306.858754975648, -11459.337050835735, -11433.967820878963, 0.01, -0.008, 0.988, 192.0, 0.0, 0.0, 0.0, 0.0, 0.0, 0.0, 0.0, 0.0, 0.0, 1.6444990599068797E9, 0.0, 2022-02-11 00:17:39.906
28.0, -9016.626658037503, -10903.739738910168, -10380.016014577868, -16207.406366754338, -2962.5449135953086, -1938.9244245200664, -5617.038085107575, -6316.223003414036, -16679.788134072798, -13862.41780071471, -19942.941658847532, -12289.212618972377, -6982.23793294882, -10305.22707763041, -11465.84140847223, -11434.571317979255, 0.004, -0.012, 0.988, 192.0, 0.0, 16.0, 127.5, 80.0, 15.0, 112.0, 0.0, 0.0, 0.0, 1.6444990599068863E9, 0.0, 2022-02-11 00:17:39.906
30.0, -9018.057169682643, -10913.127471581396, -10370.71768888446, -16209.887410388877, -2966.7023380639957, -1949.7650205808905, -5624.257698566639, -6319.776930782429, -16681.218645717938, -13865.07765830489, -19923.406234193593, -12282.90942703598, -6980.38273815903, -10315.307714379755, -11462.421591570568, -11432.559660978277, 0.004, -0.012, 0.988, 192.0, 0.0, 0.0, 0.0, 0.0, 0.0, 0.0, 0.0, 0.0, 0.0, 1.6444990599068928E9, 0.0, 2022-02-11 00:17:39.906
32.0, -9028.316620387628, -10921.867003663421, -10375.545665686806, -16209.194506310763, -2971.105631721691, -1949.3850409251502, -5620.547308987058, -6320.6933523050975, -16677.10592473816, -13866.441114716663, -19930.245867996917, -12289.994930028312, -6981.790898059714, -10318.459310347953, -11470.736440507942, -11438.192300581015, 0.004, -0.012, 0.988, 192.0, 0.0, 0.0, 0.0, 0.0, 0.0, 0.0, 0.0, 0.0, 0.0, 1.6444990599068997E9, 0.0, 2022-02-11 00:17:39.906
34.0, -9015.509070814738, -10920.123567595909, -10368.884845839126, -16211.943770878766, -2960.041518216314, -1943.8194565557787, -5615.987553118176, -6316.737093536508, -16671.272119435325, -13865.725858894093, -19919.740548102924, -12283.28940669172, -6977.722880568848, -10310.18916489949, -11466.087277661238, -11432.157329578082, 0.004, -0.012, 0.988, 192.0, 0.0, 0.0, 0.0, 0.0, 0.0, 0.0, 0.0, 0.0, 0.0, 1.6444990599069068E9, 0.0, 2022-02-11 00:17:39.906
36.0, -9030.395332621973, -10924.035122875586, -10381.357119245187, -16209.060395844032, -2971.01622474387, -1953.7883345828457, -5632.125512614908, -6315.843023758295, -16683.92320679703, -13879.494533478563, -19926.937809817533, -12275.958034510379, -6987.065909751166, -10315.575935313218, -11468.769486995876, -11433.610192967677, 0.006, -0.011, 0.987, 192.0, 0.0, 32.0, 127.5, 88.0, 15.0, 104.0, 0.0, 0.0, 0.0, 1.6444990599069135E9, 0.0, 2022-02-11 00:17:39.906
38.0, -9024.919155230422, -10909.864116890922, -10375.165686031067, -16205.68528243128, -2959.147448438102, -1939.8631977871894, -5604.722273912701, -6300.554430550866, -16678.759953827852, -13867.826922872893, -19938.068978556275, -12281.993005513312, -6986.19419171741, -10319.42043535953, -11470.356460852201, -11429.944506877007, 0.006, -0.011, 0.987, 192.0, 0.0, 0.0, 0.0, 0.0, 0.0, 0.0, 0.0, 0.0, 0.0, 1.6444990599069233E9, 0.0, 2022-02-11 00:17:39.906
40.0, -9022.326352873606, -10909.327675023995, -10369.845970850703, -16214.313055791028, -2959.3486141382, -1939.840846042734, -5614.400579261849, -6305.002427697472, -16685.420773675534, -13864.228292015589, -19922.51216441538, -12280.517790379261, -6985.009549261278, -10307.037568931291, -11461.952204937006, -11424.82595739674, 0.006, -0.011, 0.987, 192.0, 0.0, 0.0, 0.0, 0.0, 0.0, 0.0, 0.0, 0.0, 0.0, 1.64449905990693E9, 0.0, 2022-02-11 00:17:39.906
42.0, -9033.658687312447, -10918.022503617109, -10378.496095954908, -16209.507430733138, -2971.6420735886186, -1952.8495613157227, -5596.452128464238, -6310.210384155558, -16681.531570140312, -13869.637414173772, -19933.66568489858, -12289.793764328215, -6990.821002819658, -10323.197880172478, -11470.289405618836, -11431.129149333137, 0.006, -0.011, 0.987, 192.0, 0.0, 0.0, 0.0, 0.0, 0.0, 0.0, 0.0, 0.0, 0.0, 1.6444990599069364E9, 0.0, 2022-02-11 00:17:39.906
44.0, -9015.374960348006, -10907.226611045196, -10366.962595815969, -16218.917515148822, -2962.1872856840237, -1935.7281250629576, -5609.416140248316, -6310.210384155558, -16677.240035204894, -13855.734629122571, -19922.46746092647, -12287.737403838326, -6989.949284785901, -10301.56139153974, -11471.719917263976, -11429.318658032258, 0.006, -0.011, 0.987, 192.0, 0.0, 0.0, 0.0, 0.0, 0.0, 0.0, 0.0, 0.0, 0.0, 1.644499059906943E9, 0.0, 2022-02-11 00:17:39.906
46.0, -9025.366190119528, -10912.412215758826, -10379.993662833413, -16221.107986105442, -2970.3680241546663, -1953.0283752713651, -5637.579338262002, -6320.335724393813, -16682.179770729515, -13853.901786077236, -19924.32265571626, -12287.424479415951, -6991.7374243423255, -10325.008371473357, -11474.290367876336, -11434.817187168264, 0.008, -0.0085, 0.9875, 192.0, 0.0, 40.0, 127.5, 104.0, 15.0, 112.0, 0.0, 0.0, 0.0, 1.6444990599069495E9, 0.0, 2022-02-11 00:17:39.906
48.0, -9028.629544810003, -10933.311096824538, -10378.160819788078, -16214.670683702314, -2962.8354862732276, -1943.1936077110302, -5606.376303002394, -6310.702122533575, -16678.58113987221, -13882.310853279932, -19939.164214034583, -12289.86081956158, -6993.816136576669, -10330.484548864908, -11480.615911557188, -11434.101931345695, 0.008, -0.0085, 0.9875, 192.0, 0.0, 0.0, 0.0, 0.0, 0.0, 0.0, 0.0, 0.0, 0.0, 1.6444990599069562E9, 0.0, 2022-02-11 00:17:39.906
50.0, -9040.945356004877, -10929.131320611397, -10378.272578510354, -16224.237230329185, -2965.182419441035, -1945.9205205345775, -5586.751471370634, -6308.288134132402, -16691.72396561193, -13876.544103210463, -19927.697769129012, -12284.317586936664, -6994.95607554389, -10315.106548679656, -11468.41185908459, -11430.905631888585, 0.008, -0.0085, 0.9875, 192.0, 0.0, 0.0, 0.0, 0.0, 0.0, 0.0, 0.0, 0.0, 0.0, 1.644499059906963E9, 0.0, 2022-02-11 00:17:39.906
52.0, -9040.990059493788, -10909.64059944637, -10380.731270400438, -16220.616247727425, -2979.956922525993, -1954.5482938943262, -5603.694093667757, -6322.459140117066, -16690.516971411344, -13867.782219383982, -19937.53253668935, -12292.163049240477, -7003.785014603736, -10328.361133141654, -11477.419612100079, -11444.003754139394, 0.008, -0.0085, 0.9875, 192.0, 0.0, 0.0, 0.0, 0.0, 0.0, 0.0, 0.0, 0.0, 0.0, 1.6444990599069698E9, 0.0, 2022-02-11 00:17:39.906
54.0, -9022.460463340338, -10913.686265192779, -10367.364927216164, -16218.828108171001, -2966.344710152711, -1942.2995379328179, -5613.282992039084, -6305.4941660754885, -16684.30318645277, -13874.711260165128, -19927.18367900654, -12283.445868902907, -6998.308837212186, -10318.794586514781, -11482.18053366906, -11440.69569596001, 0.008, -0.0085, 0.9875, 192.0, 0.0, 0.0, 0.0, 0.0, 0.0, 0.0, 0.0, 0.0, 0.0, 1.6444990599069765E9, 0.0, 2022-02-11 00:17:39.906
56.0, -9040.49832111577, -10931.388846801383, -10380.910084356081, -16224.036064629086, -2976.3582916686883, -1957.163447995597, -5621.173157831808, -6320.894518005195, -16685.10784925316, -13880.2768445345, -19923.719158615968, -12286.597464871105, -6994.106709254588, -10330.842176776192, -11483.119306936182, -11444.07080937276, 0.008, -0.00625, 0.98775, 192.0, 0.0, 32.0, 127.5, 112.0, 15.0, 112.0, 0.0, 0.0, 0.0, 1.6444990599069836E9, 0.0, 2022-02-11 00:17:39.906
58.0, -9036.989097236288, -10924.236288575685, -10372.617587163162, -16224.63956172938, -2966.0094339858815, -1952.871913060178, -5600.207221532729, -6312.557317323365, -16683.029137018817, -13871.827885130393, -19939.298324501317, -12303.093052279122, -6994.084357510133, -10333.725551810927, -11483.722804036475, -11444.093161117216, 0.008, -0.00625, 0.98775, 192.0, 0.0, 0.0, 0.0, 0.0, 0.0, 0.0, 0.0, 0.0, 0.0, 1.6444990599069908E9, 0.0, 2022-02-11 00:17:39.906
60.0, -9038.531367603704, -10927.007904888142, -10375.120982542156, -16228.394654797872, -2968.848105531705, -1958.1692764960858, -5618.669762452813, -6325.811901785362, -16692.461573178956, -13874.59950144285, -19925.596705150212, -12289.458488161385, -6995.090186010621, -10327.243545918887, -11478.93953072304, -11444.674306473054, 0.008, -0.00625, 0.98775, 192.0, 0.0, 0.0, 0.0, 0.0, 0.0, 0.0, 0.0, 0.0, 0.0, 1.6444990599069977E9, 0.0, 2022-02-11 00:17:39.906
62.0, -9057.418591668438, -10945.291631852584, -10386.654482681095, -16223.790195440079, -2983.2873324498337, -1958.683366618558, -5625.419989278315, -6326.124826207737, -16699.12239302664, -13886.311815537432, -19942.65108616961, -12293.973540541356, -7004.947305315412, -10349.125903740634, -11492.060004718305, -11451.290422831826, 0.008, -0.00625, 0.98775, 192.0, 0.0, 0.0, 0.0, 0.0, 0.0, 0.0, 0.0, 0.0, 0.0, 1.644499059907004E9, 0.0, 2022-02-11 00:17:39.907
64.0, -9048.522597375226, -10948.018544676132, -10379.323110499754, -16229.176965853807, -2969.6527683320965, -1947.8651223021893, -5606.2198407912065, -6310.456253344567, -16702.184582017017, -13889.93279813919, -19939.90182160161, -12298.376834199053, -7002.712130869882, -10324.51663309534, -11488.506077349912, -11442.103855860694, 0.008, -0.00625, 0.98775, 192.0, 0.0, 0.0, 0.0, 0.0, 0.0, 0.0, 0.0, 0.0, 0.0, 1.6444990599070108E9, 0.0, 2022-02-11 00:17:39.907
66.0, -9071.544894164193, -10954.142922656885, -10394.67875894055, -16233.759073467145, -2979.7781085703505, -1956.4705439174825, -5621.35197178745, -6318.793454026396, -16707.146669286092, -13890.335129539388, -19937.241964011428, -12294.845258575113, -7006.087244282633, -10332.227984932422, -11482.336995880247, -11444.651954728599, 0.008, -0.008125, 0.9878750000000001, 192.0, 0.0, 32.0, 127.5, 88.0, 15.0, 112.0, 0.0, 0.0, 0.0, 1.6444990599070315E9, 0.0, 2022-02-11 00:17:39.907
68.0, -9081.893751847, -10973.74540254419, -10390.051947838301, -16232.283858333096, -2980.0016260149036, -1954.5035904054155, -5613.774730417101, -6318.301715648379, -16712.041701321807, -13898.1805918432, -19953.04464734133, -12299.941456310924, -7010.378779218052, -10333.792607044294, -11490.003644228416, -11447.289460574326, 0.008, -0.008125, 0.9878750000000001, 192.0, 0.0, 0.0, 0.0, 0.0, 0.0, 0.0, 0.0, 0.0, 0.0, 1.6444990599070396E9, 0.0, 2022-02-11 00:17:39.907
70.0, -9101.56328696767, -11006.870687826955, -10386.38626174763, -16239.883451447899, -2981.856820804694, -1955.9788055394658, -5631.969050403721, -6313.920773735139, -16728.447881752003, -13904.37202505732, -19944.774501892865, -12302.869534834568, -7016.547860687717, -10333.81495878875, -11487.612007571699, -11448.563510008278, 0.008, -0.008125, 0.9878750000000001, 192.0, 0.0, 0.0, 0.0, 0.0, 0.0, 0.0, 0.0, 0.0, 0.0, 1.6444990599070487E9, 0.0, 2022-02-11 00:17:39.907
72.0, -9147.00438344531, -11036.978487608254, -10399.327921787253, -16238.005904913654, -2985.723672595462, -1954.838866572245, -5605.750454157645, -6306.164718409147, -16735.756902188885, -13915.927876940714, -19965.38281028066, -12322.449662977418, -7016.369046732074, -10334.105531466668, -11489.713071550497, -11447.289460574326, 0.008, -0.008125, 0.9878750000000001, 192.0, 0.0, 0.0, 0.0, 0.0, 0.0, 0.0, 0.0, 0.0, 0.0, 1.6444990599070559E9, 0.0, 2022-02-11 00:17:39.907
74.0, -9170.38430814556, -11067.600377512024, -10394.365834518176, -16239.861099703445, -2970.524486365853, -1938.7009070755134, -5598.888468609866, -6301.381445095712, -16753.101855886205, -13915.883173451803, -19973.742362706944, -12328.462282235896, -7016.525508943261, -10329.791644786794, -11483.923969736574, -11439.421646526056, 0.008, -0.008125, 0.9878750000000001, 192.0, 0.0, 0.0, 0.0, 0.0, 0.0, 0.0, 0.0, 0.0, 0.0, 1.6444990599070623E9, 0.0, 2022-02-11 00:17:39.907
76.0, -9222.061541326231, -11111.029816988686, -10404.20060207851, -16248.153596896364, -2981.901524293605, -1948.7144885914909, -5604.811680890522, -6311.953820223072, -16771.832617739754, -13923.080435166412, -19980.760810465912, -12329.356352014107, -7015.966715331879, -10323.242583661387, -11480.191228412537, -11440.226309326448, 0.007, -0.0070625, 0.9869375, 192.0, 0.0, 24.0, 127.5, 104.0, 15.0, 104.0, 0.0, 0.0, 0.0, 1.6444990599070697E9, 0.0, 2022-02-11 00:17:39.907
78.0, -9246.44729452697, -11130.29702070916, -10408.134509102645, -16245.247870117173, -2979.1969632145124, -1943.104200733209, -5606.5104134691255, -6300.755596250963, -16784.23783591245, -13945.968621488646, -20007.068813689806, -12353.406829048017, -7019.967677589379, -10327.020028474335, -11486.628530815666, -11442.21561458297, 0.007, -0.0070625, 0.9869375, 192.0, 0.0, 0.0, 0.0, 0.0, 0.0, 0.0, 0.0, 0.0, 0.0, 1.6444990599070764E9, 0.0, 2022-02-11 00:17:39.907
80.0, -9254.046887641774, -11156.225044277317, -10401.026654365856, -16246.611326528948, -2981.901524293605, -1948.1109914911976, -5632.5725475040135, -6313.607849312765, -16794.94432150654, -13919.571211286928, -19997.9716536965, -12339.414637018996, -7022.359314246097, -10354.535025898818, -11481.13000167966, -11440.36041979318, 0.007, -0.0070625, 0.9869375, 192.0, 0.0, 0.0, 0.0, 0.0, 0.0, 0.0, 0.0, 0.0, 0.0, 1.6444990599070835E9, 0.0, 2022-02-11 00:17:39.907
82.0, -9273.202332639972, -11175.358137531059, -10410.257924825899, -16244.666724761335, -2985.790727828828, -1950.5696833812815, -5616.434588007282, -6313.674904546131, -16799.168801208594, -13954.685801826216, -20016.523601594403, -12359.598262262138, -7028.640154438038, -10339.067618735746, -11488.79665002783, -11444.74136170642, 0.007, -0.0070625, 0.9869375, 192.0, 0.0, 0.0, 0.0, 0.0, 0.0, 0.0, 0.0, 0.0, 0.0, 1.6444990599070904E9, 0.0, 2022-02-11 00:17:39.907
84.0, -9254.382163808605, -11151.933509341898, -10397.517430486374, -16243.057399160552, -2970.3680241546663, -1945.071154245276, -5595.960390086221, -6303.035474185404, -16789.13286794816, -13948.606127334373, -20000.698566520045, -12327.948192113423, -7017.15135778801, -10325.880089507114, -11481.286463890847, -11438.84050117022, 0.007, -0.0070625, 0.9869375, 192.0, 0.0, 0.0, 0.0, 0.0, 0.0, 0.0, 0.0, 0.0, 0.0, 1.644499059907097E9, 0.0, 2022-02-11 00:17:39.907
86.0, -9245.30735555975, -11140.556471414146, -10403.217125322477, -16255.97670745572, -2976.470050390965, -1950.390869425639, -5595.3568929859275, -6304.823613741829, -16784.327242890267, -13945.163958688256, -19988.740383236454, -12334.765474172293, -7014.267982753276, -10324.494281350886, -11477.55372256681, -11442.349725049702, 0.006500000000000001, -0.00753125, 0.98646875, 192.0, 0.0, 24.0, 127.5, 96.0, 15.0, 104.0, 0.0, 0.0, 0.0, 1.6444990599071045E9, 0.0, 2022-02-11 00:17:39.907
88.0, -9214.81957612271, -11112.549735611647, -10398.277389797853, -16243.8844137054, -2972.49143987792, -1949.8767793031668, -5590.461860950215, -6302.566087551843, -16768.79278049383, -13944.068723209944, -19998.15046765214, -12347.237747578352, -7015.787901376236, -10346.66721185055, -11483.991024969939, -11446.59655649621, 0.006500000000000001, -0.00753125, 0.98646875, 192.0, 0.0, 0.0, 0.0, 0.0, 0.0, 0.0, 0.0, 0.0, 0.0, 1.6444990599071112E9, 0.0, 2022-02-11 00:17:39.907
90.0, -9193.451308423437, -11103.609037829523, -10392.801212406304, -16244.17498638332, -2971.2844456773337, -1947.3510321797173, -5601.190698288763, -6304.287171874902, -16761.483760056944, -13933.116368426845, -19971.44013302805, -12328.059950835699, -7008.0541977947, -10330.596307587184, -11474.066850431784, -11440.449826771, 0.006500000000000001, -0.00753125, 0.98646875, 192.0, 0.0, 0.0, 0.0, 0.0, 0.0, 0.0, 0.0, 0.0, 0.0, 1.6444990599071183E9, 0.0, 2022-02-11 00:17:39.907
92.0, -9190.34441594415, -11087.091098677052, -10396.980988619445, -16235.726026979213, -2973.497268378409, -1945.4287821565608, -5596.139204041863, -6308.444596343589, -16758.712143744488, -13931.32822887042, -19981.967804666496, -12319.320418753674, -7013.709189141892, -10326.103606951667, -11480.571208068277, -11445.16604485107, 0.006500000000000001, -0.00753125, 0.98646875, 192.0, 0.0, 0.0, 0.0, 0.0, 0.0, 0.0, 0.0, 0.0, 0.0, 1.6444990599071376E9, 0.0, 2022-02-11 00:17:39.907
94.0, -9165.802200532222, -11066.303976333616, -10389.180229804544, -16239.190547369784, -2963.2601694178784, -1937.6056715972034, -5603.716445412212, -6302.543735807388, -16743.13297785914, -13916.866650207836, -19965.919252147585, -12310.893811094023, -7007.7636251167805, -10321.029760960313, -11477.620777800177, -11440.78510293783, 0.006500000000000001, -0.00753125, 0.98646875, 192.0, 0.0, 0.0, 0.0, 0.0, 0.0, 0.0, 0.0, 0.0, 0.0, 1.6444990599071584E9, 0.0, 2022-02-11 00:17:39.907
96.0, -9163.72348829788, -11056.849188429022, -10389.426098993552, -16246.20899512875, -2974.368986412166, -1946.4346106570497, -5600.117814554908, -6303.214288141047, -16742.842405181218, -13904.796708201971, -19956.486815987446, -12311.184383771943, -7010.267020495775, -10326.796511029783, -11479.543027823333, -11445.993059395918, 0.00625, -0.006765625, 0.986234375, 192.0, 0.0, 24.0, 127.5, 104.0, 15.0, 104.0, 0.0, 0.0, 0.0, 1.644499059907165E9, 0.0, 2022-02-11 00:17:39.907
98.0, -9144.299822366218, -11035.771493407667, -10390.811907149782, -16235.860137445945, -2972.2679224333674, -1935.7057733185022, -5611.159576315829, -6299.81682298384, -16733.4993759989, -13896.884190664792, -19966.165121336595, -12320.035674576244, -7013.239802508331, -10320.873298749126, -11485.041556959339, -11444.69665821751, 0.00625, -0.006765625, 0.986234375, 192.0, 0.0, 0.0, 0.0, 0.0, 0.0, 0.0, 0.0, 0.0, 0.0, 1.6444990599071715E9, 0.0, 2022-02-11 00:17:39.907
100.0, -9126.261964590783, -11027.456644470292, -10384.57577044675, -16236.731855479702, -2962.701375806496, -1931.9283285055553, -5592.942904584755, -6298.699235761075, -16734.773425432853, -13901.600408744862, -19947.121435060675, -12304.612970902082, -7006.57898266065, -10320.001580715369, -11480.057117945806, -11436.962954635974, 0.00625, -0.006765625, 0.986234375, 192.0, 0.0, 0.0, 0.0, 0.0, 0.0, 0.0, 0.0, 0.0, 0.0, 1.6444990599071786E9, 0.0, 2022-02-11 00:17:39.907
102.0, -9134.621517017069, -11033.357505006494, -10395.550476974306, -16235.055474645553, -2977.8782102916493, -1943.037145499843, -5601.973009344699, -6297.469889816033, -16727.464404995968, -13902.673292478716, -19951.681190929557, -12300.924933066957, -7006.713093127381, -10326.148310440578, -11482.404051113612, -11439.891033159618, 0.00625, -0.006765625, 0.986234375, 192.0, 0.0, 0.0, 0.0, 0.0, 0.0, 0.0, 0.0, 0.0, 0.0, 1.6444990599071882E9, 0.0, 2022-02-11 00:17:39.907
104.0, -9115.399016785505, -11027.523699703659, -10391.258942038887, -16239.078788647508, -2972.133811966635, -1935.8175320407788, -5615.629925206891, -6308.936334721606, -16728.55964047428, -13909.781147215504, -19950.51890021788, -12298.645055132516, -7010.937572829434, -10323.80137727277, -11487.433193616056, -11439.153425592593, 0.00625, -0.006765625, 0.986234375, 192.0, 0.0, 0.0, 0.0, 0.0, 0.0, 0.0, 0.0, 0.0, 0.0, 1.6444990603859537E9, 0.0, 2022-02-11 00:17:40.385
106.0, -9118.796481942712, -11015.409054208882, -10396.444546752518, -16243.906765449854, -2985.3883964286324, -1945.585244367748, -5608.119739069908, -6311.193860911591, -16727.710274184978, -13912.865687950336, -19944.774501892865, -12303.875363335057, -7009.507061184295, -10326.595345329684, -11486.360309882202, -11445.79189369582, 0.008125, -0.0053828125000000004, 0.9851171875, 192.0, 0.0, 40.0, 127.5, 112.0, 15.0, 96.0, 0.0, 0.0, 0.0, 1.6444990603860893E9, 0.0, 2022-02-11 00:17:40.386
108.0, -9102.680874190435, -10985.7929928056, -10394.857572896191, -16240.129320636908, -2980.046329503814, -1933.8282267842565, -5597.167384286808, -6288.260971100446, -16720.825936892743, -13895.028995875002, -19959.928984633563, -12309.351540726608, -7013.485671697339, -10331.289211665298, -11492.998777985427, -11444.048457628305, 0.008125, -0.0053828125000000004, 0.9851171875, 192.0, 0.0, 0.0, 0.0, 0.0, 0.0, 0.0, 0.0, 0.0, 0.0, 1.6444990603860967E9, 0.0, 2022-02-11 00:17:40.386
110.0, -9093.427251985939, -11004.07671977004, -10386.185096047533, -16246.477216062214, -2967.819925286761, -1937.9185960195775, -5576.2237997321845, -6293.379520580712, -16722.703483426987, -13878.22048404461, -19940.773539635367, -12297.974502798856, -7005.439043693429, -10320.605077815662, -11478.17957141156, -11439.198129081504, 0.008125, -0.0053828125000000004, 0.9851171875, 192.0, 0.0, 0.0, 0.0, 0.0, 0.0, 0.0, 0.0, 0.0, 0.0, 1.6444990603861034E9, 0.0, 2022-02-11 00:17:40.386
112.0, -9095.37185375355, -10998.958170289776, -10394.231724051444, -16240.554003781559, -2980.1133847371802, -1949.00506126941, -5601.838898877967, -6314.233698157514, -16720.78123340383, -13894.827830174903, -19950.764769406887, -12303.495383679317, -7013.53037518625, -10329.635182575606, -11484.996853470428, -11447.669440230065, 0.008125, -0.0053828125000000004, 0.9851171875, 192.0, 0.0, 0.0, 0.0, 0.0, 0.0, 0.0, 0.0, 0.0, 0.0, 1.6444990603861108E9, 0.0, 2022-02-11 00:17:40.386
114.0, -9076.685795388914, -10979.154524702373, -10379.703090155494, -16237.447111302272, -2975.6206841016633, -1940.354936165206, -5625.241175322673, -6303.236639885502, -16711.773480388343, -13881.886170135282, -19934.492699443424, -12299.762642355281, -7008.747101872815, -10323.622563317129, -11490.808307028808, -11448.429399541546, 0.008125, -0.0053828125000000004, 0.9851171875, 192.0, 0.0, 0.0, 0.0, 0.0, 0.0, 0.0, 0.0, 0.0, 0.0, 1.644499060386118E9, 0.0, 2022-02-11 00:17:40.386
116.0, -9092.577885696637, -10986.41884165035, -10390.297817027309, -16242.49860554917, -2983.3543876831995, -1954.2130177274964, -5602.1071198114305, -6311.395026611689, -16718.479003724933, -13898.024129632013, -19927.362492962184, -12281.43421190193, -7008.836508850635, -10332.406798888063, -11487.768469782886, -11452.340954821224, 0.008, -0.006, 0.986, 192.0, 0.0, 32.0, 127.5, 104.0, 15.0, 104.0, 0.0, 0.0, 0.0, 1.6444990603861248E9, 0.0, 2022-02-11 00:17:40.386
118.0, -9067.476876673327, -10963.664765794847, -10384.843991380214, -16240.710465992746, -2979.956922525993, -1948.0662880022871, -5602.911782611822, -6311.10445393377, -16709.15832628707, -13901.019263389024, -19942.8075483808, -12297.169839998465, -7007.7636251167805, -10327.467063363441, -11492.596446585232, -11460.07465840276, 0.008, -0.006, 0.986, 192.0, 0.0, 0.0, 0.0, 0.0, 0.0, 0.0, 0.0, 0.0, 0.0, 1.6444990603861313E9, 0.0, 2022-02-11 00:17:40.386
120.0, -9061.576016137125, -10961.541350071591, -10386.050985580801, -16244.35380033896, -2984.6507888616075, -1957.5210759068818, -5620.167329331319, -6320.6933523050975, -16704.106832040172, -13875.65003343225, -19920.075824269752, -12283.244703202809, -7005.439043693429, -10324.337819139699, -11484.192190670037, -11457.07952464575, 0.008, -0.006, 0.986, 192.0, 0.0, 0.0, 0.0, 0.0, 0.0, 0.0, 0.0, 0.0, 0.0, 1.644499060386138E9, 0.0, 2022-02-11 00:17:40.386
122.0, -9084.46420245936, -10977.299329912583, -10397.159802575088, -16243.92911719431, -3003.426254204065, -1978.911695350611, -5636.729971972701, -6336.294869934902, -16713.516916455857, -13881.79676315746, -19937.13020528915, -12289.972578283856, -7018.872442111068, -10346.33193568372, -11498.296141421335, -11469.03770792934, 0.008, -0.006, 0.986, 192.0, 0.0, 0.0, 0.0, 0.0, 0.0, 0.0, 0.0, 0.0, 0.0, 1.644499060386145E9, 0.0, 2022-02-11 00:17:40.386
124.0, -9068.259187729262, -10969.319757142039, -10390.074299582757, -16248.131245151908, -2996.5195651673753, -1958.8174770852897, -5627.16342534583, -6324.470797118044, -16713.002826333384, -13892.592655729373, -19932.861022098186, -12289.369081183564, -7018.894793855524, -10338.642935591095, -11499.547839110834, -11466.89194046163, 0.008, -0.006, 0.986, 192.0, 0.0, 0.0, 0.0, 0.0, 0.0, 0.0, 0.0, 0.0, 0.0, 1.6444990603861525E9, 0.0, 2022-02-11 00:17:40.386
126.0, -9082.407841969472, -10972.560760088058, -10405.318189301275, -16258.837730746, -3013.3280769977664, -1970.1498115241304, -5649.470466312226, -6339.960556025571, -16727.151480573593, -13895.945417397668, -19934.00096106541, -12293.973540541356, -7024.795654391725, -10323.600211572673, -11501.045405989338, -11469.082411418249, 0.008, -0.006, 0.988, 192.0, 0.0, 32.0, 127.5, 104.0, 15.0, 112.0, 0.0, 0.0, 0.0, 1.644499060386159E9, 0.0, 2022-02-11 00:17:40.386
128.0, -9075.456449443871, -10968.537446086102, -10402.233648566444, -16254.725009766224, -3004.923821082571, -1970.0604045463092, -5627.431646279293, -6339.692335092108, -16718.747224658397, -13892.0785656069, -19950.250679284418, -12311.184383771943, -7031.545881217227, -10342.33097342622, -11511.126042738682, -11474.670347532076, 0.008, -0.006, 0.988, 192.0, 0.0, 0.0, 0.0, 0.0, 0.0, 0.0, 0.0, 0.0, 0.0, 1.6444990603861656E9, 0.0, 2022-02-11 00:17:40.386
