%OpenBCI Raw EEG Data
%Number of channels = 16
%Sample Rate = 125 Hz
%Board = OpenBCI_GUI$BoardCytonSerialDaisy
Sample Index, EXG Channel 0, EXG Channel 1, EXG Channel 2, EXG Channel 3, EXG Channel 4, EXG Channel 5, EXG Channel 6, EXG Channel 7, EXG Channel 8, EXG Channel 9, EXG Channel 10, EXG Channel 11, EXG Channel 12, EXG Channel 13, EXG Channel 14, EXG Channel 15, Accel Channel 0, Accel Channel 1, Accel Channel 2, Other, Other, Other, Other, Other, Other, Other, Analog Channel 0, Analog Channel 1, Analog Channel 2, Timestamp, Other, Timestamp (Formatted)
0.0, -8762.241454391653, -10505.31989399432, -10707.111442936832, -17153.488654314122, -2414.301325595537, -1649.6704995239377, -5721.688952647323, -6841.6454603249385, 0.0, 0.0, 0.0, 0.0, 0.0, 0.0, 0.0, 0.0, 0.0, 0.0, 0.0, 192.0, 0.0, 0.0, 0.0, 0.0, 0.0, 0.0, 0.0, 0.0, 0.0, 1.644498903962018E9, 0.0, 2022-02-11 00:15:03.962
68.0, -8746.103494894922, -10495.216905500522, -10700.808251000435, -17154.226261881144, -2405.76295921361, -1642.7638104872478, -5702.287638460117, -6835.87871025547, -17453.560823626616, -15753.64360256715, -19802.34918622365, -12075.48523849073, -6569.937654726226, -10768.042298321998, -11520.312609709814, -12250.164121408954, 0.0, 0.0, 0.0, 192.0, 0.0, 0.0, 0.0, 0.0, 0.0, 0.0, 0.0, 0.0, 0.0, 1.644498903962026E9, 0.0, 2022-02-11 00:15:03.962
70.0, -8766.68945153826, -10511.734844652992, -10706.284428391986, -17152.616936280363, -2408.8027964595317, -1650.3857553465075, -5707.450891429293, -6848.350983661531, -17453.627878859985, -15757.130474702177, -19810.552276438746, -12077.452192002796, -6572.284587894033, -10792.360996289373, -11514.925839296084, -12251.818150498648, 0.0, 0.0, 0.0, 192.0, 0.0, 0.0, 0.0, 0.0, 0.0, 0.0, 0.0, 0.0, 0.0, 1.6444989039620328E9, 0.0, 2022-02-11 00:15:03.962
72.0, -8759.82746599048, -10503.375292226709, -10691.956960196134, -17147.25251761109, -2398.588049243456, -1635.9688801728346, -5709.84252808601, -6838.583271334562, -17453.605527115527, -15771.88262604268, -19805.411375214026, -12062.76709589566, -6568.328329125444, -10790.058766610477, -11513.85295556223, -12249.80649349767, 0.0, 0.0, 0.0, 192.0, 0.0, 0.0, 0.0, 0.0, 0.0, 0.0, 0.0, 0.0, 0.0, 1.6444989039620397E9, 0.0, 2022-02-11 00:15:03.962
74.0, -8766.465934093707, -10501.765966625926, -10697.746062010057, -17157.35550610489, -2405.472386535691, -1653.0009094477784, -5706.042731528608, -6852.217835452299, -17458.65702136243, -15768.105181229734, -19805.791354869765, -12068.310328520576, -6565.355547112888, -10785.99074911961, -11508.332074681768, -12249.873548731035, 0.012, -0.03, 0.992, 192.0, 0.0, 48.0, 127.5, 8.0, 15.5, 0.0, 0.0, 0.0, 0.0, 1.6444989039620464E9, 0.0, 2022-02-11 00:15:03.962
76.0, -8743.264823349098, -10478.967187281512, -10695.35442535334, -17156.327325859944, -2395.3470462974365, -1640.4839325528067, -5711.340094964516, -6827.452102595819, -17451.795035814648, -15749.329715887276, -19813.7262241514, -12083.308349050087, -6558.113581909369, -10788.874124154345, -11512.064816005804, -12254.23213889982, 0.012, -0.03, 0.992, 192.0, 0.0, 0.0, 0.0, 0.0, 0.0, 0.0, 0.0, 0.0, 0.0, 1.644498903962053E9, 0.0, 2022-02-11 00:15:03.962
78.0, -8748.316317595998, -10502.928257337602, -10698.058986432432, -17154.91916595926, -2390.787290428554, -1639.27693835222, -5692.832850555522, -6827.697971784827, -17440.328590909077, -15748.346239131242, -19804.33849148017, -12073.607691956484, -6558.761782498573, -10780.112240327864, -11505.113423480205, -12241.290478860197, 0.012, -0.03, 0.992, 192.0, 0.0, 0.0, 0.0, 0.0, 0.0, 0.0, 0.0, 0.0, 0.0, 1.6444989039620595E9, 0.0, 2022-02-11 00:15:03.962
80.0, -8769.68458529527, -10509.209097529543, -10708.385492370784, -17152.259308369077, -2400.6667614778, -1646.7424210002926, -5702.51115590467, -6837.041000967146, -17449.559861369118, -15758.73980030296, -19811.423994472505, -12062.029488328635, -6562.271006378056, -10794.082080612432, -11510.299028193836, -12248.286574874708, 0.012, -0.03, 0.992, 192.0, 0.0, 0.0, 0.0, 0.0, 0.0, 0.0, 0.0, 0.0, 0.0, 1.6444989039620664E9, 0.0, 2022-02-11 00:15:03.962
82.0, -8762.464971836207, -10505.968094583523, -10696.919047465211, -17154.02509618105, -2388.9320956387637, -1637.309984840153, -5696.856164557477, -6830.044904952634, -17456.31008819462, -15770.675631842094, -19809.837020616178, -12063.929386607337, -6559.901721465793, -10792.383348033829, -11512.221278216992, -12247.124284163034, 0.012, -0.03, 0.992, 192.0, 0.0, 0.0, 0.0, 0.0, 0.0, 0.0, 0.0, 0.0, 0.0, 1.6444989039620728E9, 0.0, 2022-02-11 00:15:03.962
84.0, -8759.961576457212, -10502.905905593147, -10704.272771391008, -17161.557634062487, -2404.3324475684703, -1646.2953861111864, -5708.546126907602, -6840.997259735735, -17455.416018416407, -15749.843806009747, -19806.059575803232, -12065.091677319013, -6559.253520876589, -10787.108336342375, -11513.361217184212, -12248.711258019359, 0.006, -0.03, 0.992, 192.0, 0.0, 24.0, 127.5, 8.0, 15.5, 0.0, 0.0, 0.0, 0.0, 1.6444989039620795E9, 0.0, 2022-02-11 00:15:03.962
86.0, -8749.63507051886, -10488.086699019277, -10702.149355667754, -17155.276793870544, -2400.2197265886934, -1639.5451592856837, -5695.939743034809, -6837.085704456056, -17457.65119286194, -15762.338431160264, -19818.06246257573, -12080.000290870703, -6561.175770899746, -10796.697234713702, -11515.015246273906, -12253.069848188145, 0.006, -0.03, 0.992, 192.0, 0.0, 0.0, 0.0, 0.0, 0.0, 0.0, 0.0, 0.0, 0.0, 1.644498903962086E9, 0.0, 2022-02-11 00:15:03.962
88.0, -8754.284233365564, -10505.476356205507, -10697.790765498969, -17158.003706694093, -2394.698845708233, -1631.3197173261306, -5706.892097817909, -6831.54247183114, -17450.945669525347, -15762.852521282735, -19800.672805389502, -12075.19466581281, -6558.761782498573, -10777.27356878204, -11510.746063082941, -12243.726819005826, 0.006, -0.03, 0.992, 192.0, 0.0, 0.0, 0.0, 0.0, 0.0, 0.0, 0.0, 0.0, 0.0, 1.6444989039620929E9, 0.0, 2022-02-11 00:15:03.962
90.0, -8759.291024123553, -10504.872859105213, -10702.037596945476, -17160.507102073087, -2396.7105027092102, -1640.3498220860747, -5706.154490250885, -6830.246070652732, -17451.54916662564, -15752.414256622107, -19815.223791029908, -12085.699985706806, -6557.510084809075, -10777.340624015407, -11510.343731682746, -12247.079580674123, 0.006, -0.03, 0.992, 192.0, 0.0, 0.0, 0.0, 0.0, 0.0, 0.0, 0.0, 0.0, 0.0, 1.6444989039620993E9, 0.0, 2022-02-11 00:15:03.962
92.0, -8740.336744825452, -10499.910771836136, -10690.906428206734, -17149.085360656423, -2385.266409548093, -1625.0612288786447, -5717.732693878734, -6830.179015419366, -17443.994276999747, -15747.1168931862, -19807.423032215003, -12067.371555253454, -6559.164113898768, -10788.740013687613, -11510.790766571852, -12241.84927247158, 0.006, -0.03, 0.992, 192.0, 0.0, 0.0, 0.0, 0.0, 0.0, 0.0, 0.0, 0.0, 0.0, 1.6444989039621067E9, 0.0, 2022-02-11 00:15:03.962
94.0, -8750.372678085885, -10496.960341568034, -10702.30581787894, -17158.517796816563, -2401.560831256012, -1642.8308657206137, -5728.550938195102, -6848.30628017262, -17448.911660779915, -15753.621250822694, -19802.572703668204, -12065.516360463664, -6560.371108099354, -10786.437784008716, -11513.964714284506, -12246.9901736963, 0.006, -0.03, 0.992, 192.0, 0.0, 24.0, 127.5, 8.0, 15.5, 0.0, 0.0, 0.0, 0.0, 1.6444989039621136E9, 0.0, 2022-02-11 00:15:03.962
96.0, -8751.467913564196, -10493.786393855382, -10701.858782989835, -17154.53918630352, -2396.978723642674, -1630.17977835891, -5709.08256877453, -6836.683373055861, -17446.92235552339, -15758.963317747513, -19811.69221540597, -12073.026546600646, -6564.752050012595, -10789.567028232459, -11520.402016687634, -12250.924080720435, 0.006, -0.03, 0.992, 192.0, 0.0, 0.0, 0.0, 0.0, 0.0, 0.0, 0.0, 0.0, 0.0, 1.6444989039621203E9, 0.0, 2022-02-11 00:15:03.962
98.0, -8751.043230419544, -10499.441385202574, -10699.802422499946, -17158.070761927458, -2387.076900848973, -1631.6773452374155, -5691.9164290328545, -6830.715457286294, -17452.711457337315, -15746.35693387472, -19804.897285091556, -12066.186912797322, -6562.360413355877, -10790.371691032851, -11509.740234582452, -12244.956164950869, 0.006, -0.03, 0.992, 192.0, 0.0, 0.0, 0.0, 0.0, 0.0, 0.0, 0.0, 0.0, 0.0, 1.6444989039621308E9, 0.0, 2022-02-11 00:15:03.962
100.0, -8755.848855477436, -10510.594905685772, -10708.541954581971, -17157.713134016172, -2394.47532826368, -1633.2643190937424, -5705.059254772575, -6837.488035856251, -17456.377143427988, -15758.136303202666, -19815.313198007727, -12081.430802515843, -6562.025137189047, -10792.450403267194, -11512.020112516895, -12248.197167896888, 0.006, -0.03, 0.992, 192.0, 0.0, 0.0, 0.0, 0.0, 0.0, 0.0, 0.0, 0.0, 0.0, 1.6444989039621377E9, 0.0, 2022-02-11 00:15:03.962
102.0, -8738.369791313386, -10489.830135086791, -10698.081338176888, -17152.996915936103, -2382.5171449800905, -1620.6802869654045, -5696.69970234629, -6831.296602642132, -17450.36452416951, -15742.713599528504, -19814.687349162978, -12075.373479768454, -6562.405116844788, -10777.56414145996, -11514.23293521797, -12244.151502150477, 0.006, -0.03, 0.992, 192.0, 0.0, 0.0, 0.0, 0.0, 0.0, 0.0, 0.0, 0.0, 0.0, 1.6444989039621444E9, 0.0, 2022-02-11 00:15:03.962
104.0, -8753.993660687645, -10500.827193358802, -10707.178498170197, -17159.277756128045, -2389.6697032057887, -1633.599595260572, -5683.422766139837, -6835.766951533193, -17452.286774192664, -15748.346239131242, -19800.40458445604, -12071.752497166694, -6560.39345984381, -10778.659376938269, -11507.66152234811, -12246.18551089591, 0.006, -0.03, 0.994, 192.0, 0.0, 24.0, 127.5, 8.0, 15.5, 8.0, 0.0, 0.0, 0.0, 1.6444989039621508E9, 0.0, 2022-02-11 00:15:03.962
106.0, -8756.474704322185, -10502.972960826512, -10703.602219057348, -17158.808369494483, -2384.2158775586936, -1634.1583888719547, -5684.808574296067, -6826.692143284338, -17457.204157972832, -15763.299556171842, -19818.10716606464, -12080.53673273763, -6558.359451098377, -10787.309502042473, -11512.109519494716, -12251.393467353997, 0.006, -0.03, 0.994, 192.0, 0.0, 0.0, 0.0, 0.0, 0.0, 0.0, 0.0, 0.0, 0.0, 1.644498903962172E9, 0.0, 2022-02-11 00:15:03.962
108.0, -8756.45235257773, -10504.537582938383, -10700.472974833605, -17159.054238683493, -2383.6794356917662, -1638.4946272962843, -5695.827984312533, -6830.246070652732, -17456.041867261156, -15750.82728276578, -19806.95364558144, -12070.947834366303, -6558.96294819867, -10804.386234806329, -11506.901563036628, -12247.28074637422, 0.006, -0.03, 0.994, 192.0, 0.0, 0.0, 0.0, 0.0, 0.0, 0.0, 0.0, 0.0, 0.0, 1.6444989039621787E9, 0.0, 2022-02-11 00:15:03.962
110.0, -8757.726402011682, -10512.248934775465, -10709.078396448898, -17164.418657352766, -2394.810604430509, -1637.9358336849016, -5693.749272078189, -6841.332535902565, -17461.607451630527, -15761.287899170864, -19819.560029454235, -12082.950721138803, -6563.455648834187, -10799.513554515072, -11508.756757826419, -12254.254490644276, 0.006, -0.03, 0.994, 192.0, 0.0, 0.0, 0.0, 0.0, 0.0, 0.0, 0.0, 0.0, 0.0, 1.6444989039621856E9, 0.0, 2022-02-11 00:15:03.962
112.0, -8751.49026530865, -10497.65324564615, -10700.204753900141, -17162.049372440502, -2387.881563649364, -1626.916423668435, -5705.975676295242, -6833.129445687467, -17459.059352762622, -15745.261698396409, -19815.424956730003, -12085.074136862057, -6562.91920696726, -10791.154002088786, -11507.929743281573, -12249.068885930645, 0.006, -0.03, 0.994, 192.0, 0.0, 0.0, 0.0, 0.0, 0.0, 0.0, 0.0, 0.0, 0.0, 1.6444989039621923E9, 0.0, 2022-02-11 00:15:03.962
114.0, -8761.459143335718, -10502.928257337602, -10706.9773324701, -17160.417695095264, -2391.815470673498, -1635.566548772639, -5719.118502034963, -6835.811655022104, -17463.55205339814, -15750.089675198757, -19814.64264567407, -12082.704851949795, -6569.848247748405, -10792.13747884482, -11515.439929418557, -12251.728743520825, 0.006, -0.024, 0.998, 192.0, 0.0, 24.0, 127.5, 32.0, 15.5, 24.0, 0.0, 0.0, 0.0, 1.6444989039621994E9, 0.0, 2022-02-11 00:15:03.962
116.0, -8759.872169479391, -10493.31700722182, -10712.006474972544, -17162.67522128525, -2391.3907875288473, -1632.3478975710748, -5698.689007602812, -6843.098323714534, -17456.913585294915, -15745.127587929677, -19817.526020708803, -12076.848694902505, -6564.72969826814, -10781.27453103954, -11513.13769973966, -12251.639336543005, 0.006, -0.024, 0.998, 192.0, 0.0, 0.0, 0.0, 0.0, 0.0, 0.0, 0.0, 0.0, 0.0, 1.6444989039622064E9, 0.0, 2022-02-11 00:15:03.962
118.0, -8744.248300105131, -10484.26455071742, -10702.864611490324, -17161.22235789566, -2383.053586847018, -1633.532540027206, -5712.301219976094, -6835.54343408864, -17455.639535860962, -15754.694134556548, -19809.01000607133, -12080.804953671093, -6567.411907602776, -10786.61659796436, -11513.115347995205, -12255.99792671179, 0.006, -0.024, 0.998, 192.0, 0.0, 0.0, 0.0, 0.0, 0.0, 0.0, 0.0, 0.0, 0.0, 1.6444989039622133E9, 0.0, 2022-02-11 00:15:03.962
120.0, -8768.566998072505, -10514.707626665548, -10716.767396541525, -17161.289413129023, -2396.1964125867385, -1645.7812959887144, -5697.191440724307, -6842.986564992258, -17457.517082395207, -15758.225710180488, -19820.72232016591, -12075.529941979641, -6563.925035467749, -10801.368749304862, -11514.27763870688, -12258.590729068605, 0.006, -0.024, 0.998, 192.0, 0.0, 0.0, 0.0, 0.0, 0.0, 0.0, 0.0, 0.0, 0.0, 1.6444989039622204E9, 0.0, 2022-02-11 00:15:03.962
122.0, -8760.766239257604, -10511.354864997253, -10710.955942983144, -17158.473093327655, -2389.535592739057, -1636.2594528507536, -5706.892097817909, -6839.052657968124, -17464.55788189863, -15768.954547519035, -19819.470622476416, -12078.05568910309, -6568.4624395921755, -10800.27351382655, -11516.84808931924, -12256.824941256637, 0.007, -0.025, 0.997, 192.0, 0.0, 32.0, 127.5, 24.0, 15.5, 16.0, 0.0, 0.0, 0.0, 1.6444989039622276E9, 0.0, 2022-02-11 00:15:03.962
124.0, -8765.97419571569, -10508.091510306778, -10724.478748378606, -17166.29620388701, -2407.9087266813194, -1647.8600082230578, -5725.131121293441, -6846.45108538283, -17465.898986565946, -15765.870006784202, -19819.045939331765, -12079.687366448328, -6569.423564603754, -10800.608789993381, -11519.28442946487, -12261.0941244476, 0.007, -0.025, 0.997, 192.0, 0.0, 0.0, 0.0, 0.0, 0.0, 0.0, 0.0, 0.0, 0.0, 1.6444989039622345E9, 0.0, 2022-02-11 00:15:03.962
126.0, -8752.943128698245, -10493.495821177463, -10720.075454720909, -17160.44004683972, -2403.304267323526, -1642.696755253882, -5703.382873938426, -6849.692088328849, -17465.36254469902, -15768.485160885473, -19832.993427871876, -12081.229636815744, -6571.234055904634, -10795.825516679944, -11526.839319090763, -12266.503246605784, 0.007, -0.025, 0.997, 192.0, 0.0, 0.0, 0.0, 0.0, 0.0, 0.0, 0.0, 0.0, 0.0, 1.6444989039622412E9, 0.0, 2022-02-11 00:15:03.962
128.0, -8743.935375682757, -10485.40448968464, -10712.788786028479, -17165.983279464635, -2394.564735241501, -1639.8580837080578, -5712.994124054208, -6842.248957425232, -17456.868881806004, -15749.39677112064, -19816.45313697495, -12073.831209401038, -6567.925997725249, -10789.99171137711, -11518.65858062012, -12260.177702924932, 0.007, -0.025, 0.997, 192.0, 0.0, 0.0, 0.0, 0.0, 0.0, 0.0, 0.0, 0.0, 0.0, 1.644498903962248E9, 0.0, 2022-02-11 00:15:03.962
130.0, -8768.209370161221, -10493.048786288356, -10725.037541989988, -17175.572177835962, -2413.943697684252, -1649.178761145921, -5724.304106748594, -6852.955443019324, -17461.65215511944, -15756.661088068617, -19824.745634167866, -12088.650415974906, -6571.122297182357, -10788.270627054051, -11523.128929511182, -12263.172836681942, 0.007, -0.025, 0.997, 192.0, 0.0, 0.0, 0.0, 0.0, 0.0, 0.0, 0.0, 0.0, 0.0, 1.6444989039622571E9, 0.0, 2022-02-11 00:15:03.962
132.0, -8769.394012617351, -10507.51036495094, -10713.615800573327, -17166.11738993137, -2398.8115666880094, -1646.2059791333652, -5707.22737398474, -6838.717381801293, -17462.74739059775, -15763.813646294315, -19823.292770778273, -12088.382195041442, -6574.028023961548, -10806.979037163144, -11526.5710981573, -12264.08925820461, 0.006500000000000001, -0.025500000000000002, 0.9924999999999999, 192.0, 0.0, 24.0, 127.5, 24.0, 15.0, 112.0, 0.0, 0.0, 0.0, 1.644498903962264E9, 0.0, 2022-02-11 00:15:03.962
134.0, -8771.740945785159, -10512.092472564278, -10721.97535299961, -17164.50806433059, -2406.724084225188, -1656.8007060051807, -5703.718150105256, -6848.663908083905, -17467.485960422273, -15768.462809141018, -19821.705796921946, -12081.900189149403, -6572.709271038684, -10809.728301731146, -11520.022037031895, -12260.80355176968, 0.006500000000000001, -0.025500000000000002, 0.9924999999999999, 192.0, 0.0, 0.0, 0.0, 0.0, 0.0, 0.0, 0.0, 0.0, 0.0, 1.644498903962271E9, 0.0, 2022-02-11 00:15:03.962
136.0, -8754.641861276848, -10503.621161415716, -10715.247477918563, -17158.093113671912, -2401.8737556783863, -1645.0883919105997, -5714.625801399446, -6845.467608626796, -17460.378105685486, -15768.060477740823, -19830.624142959612, -12081.520209493663, -6568.194218658712, -10806.643760996314, -11524.827662089785, -12261.697621547894, 0.006500000000000001, -0.025500000000000002, 0.9924999999999999, 192.0, 0.0, 0.0, 0.0, 0.0, 0.0, 0.0, 0.0, 0.0, 0.0, 1.644498903962278E9, 0.0, 2022-02-11 00:15:03.962
138.0, -8750.372678085885, -10484.219847228509, -10708.877230748802, -17157.646078782807, -2393.8718311633866, -1638.762848229748, -5714.022304299153, -6849.692088328849, -17453.180843970877, -15759.723277058993, -19809.032357815788, -12069.651433187895, -6561.980433700137, -10795.825516679944, -11520.04438877635, -12256.959051723368, 0.006500000000000001, -0.025500000000000002, 0.9924999999999999, 192.0, 0.0, 0.0, 0.0, 0.0, 0.0, 0.0, 0.0, 0.0, 0.0, 1.6444989039622848E9, 0.0, 2022-02-11 00:15:03.962
140.0, -8766.980024216178, -10502.145946281666, -10720.701303565658, -17165.558596319985, -2402.4101975453136, -1640.5062842972618, -5717.017438056164, -6846.607547594017, -17459.01464927371, -15761.556120104327, -19817.347206753162, -12080.782601926638, -6563.366241856366, -10784.023795607543, -11519.910278309617, -12258.702487790883, 0.006500000000000001, -0.025500000000000002, 0.9924999999999999, 192.0, 0.0, 0.0, 0.0, 0.0, 0.0, 0.0, 0.0, 0.0, 0.0, 1.6444989039622917E9, 0.0, 2022-02-11 00:15:03.962
142.0, -8753.703088009726, -10497.899114835158, -10708.31843713742, -17158.070761927458, -2383.4559182472135, -1638.628737763016, -5694.8445075565, -6831.631878808961, -17458.433503917873, -15759.209186936521, -19817.615427686625, -12072.937139622825, -6559.477038321143, -10793.299769556495, -11517.675103864087, -12256.221444156343, 0.00825, -0.02275, 0.99025, 192.0, 0.0, 40.0, 127.5, 48.0, 15.0, 112.0, 0.0, 0.0, 0.0, 1.6444989039622989E9, 0.0, 2022-02-11 00:15:03.962
144.0, -8753.658384520815, -10504.93991433858, -10713.079358706398, -17162.58581430743, -2393.134223596361, -1635.0971621390775, -5698.867821558455, -6847.859245283515, -17458.07587600659, -15763.724239316492, -19810.48522120538, -12073.361822767476, -6558.135933653824, -10798.485374270127, -11511.595429372243, -12254.098028433089, 0.00825, -0.02275, 0.99025, 192.0, 0.0, 0.0, 0.0, 0.0, 0.0, 0.0, 0.0, 0.0, 0.0, 1.644498903962306E9, 0.0, 2022-02-11 00:15:03.962
146.0, -8755.133599654866, -10492.98173105499, -10712.274695906008, -17152.1475496468, -2390.85434566192, -1635.6112522615497, -5700.231277970229, -6832.660059053906, -17451.437407903362, -15770.653280097638, -19823.762157411835, -12081.475506004752, -6555.654890019285, -10799.111223114876, -11516.624571874687, -12254.723877277836, 0.00825, -0.02275, 0.99025, 192.0, 0.0, 0.0, 0.0, 0.0, 0.0, 0.0, 0.0, 0.0, 0.0, 1.6444989039623127E9, 0.0, 2022-02-11 00:15:03.962
148.0, -8750.193864130242, -10481.001196026946, -10703.959846968633, -17152.415770580265, -2384.2829327920595, -1632.1914353598877, -5705.036903028119, -6824.278154883165, -17448.039942746156, -15751.520186843896, -19806.506610692337, -12064.622290685451, -6549.82108471645, -10786.728356686635, -11509.382606671168, -12245.13497890651, 0.00825, -0.02275, 0.99025, 192.0, 0.0, 0.0, 0.0, 0.0, 0.0, 0.0, 0.0, 0.0, 0.0, 1.6444989039623196E9, 0.0, 2022-02-11 00:15:03.962
150.0, -8762.30850962502, -10493.920504322114, -10710.374797627306, -17158.607203794385, -2393.6259619743782, -1643.367307587541, -5708.4120164408705, -6842.137198702955, -17454.589003871562, -15768.194588207554, -19818.93418060949, -12080.760250182182, -6549.217587616156, -10789.119993343353, -11512.690664850554, -12251.728743520825, 0.00825, -0.02275, 0.99025, 192.0, 0.0, 0.0, 0.0, 0.0, 0.0, 0.0, 0.0, 0.0, 0.0, 1.6444989039623263E9, 0.0, 2022-02-11 00:15:03.962
152.0, -8738.548605269028, -10477.737841336471, -10697.991931199067, -17150.985258935125, -2382.2936275355373, -1630.2021301033653, -5712.882365331932, -6836.817483522593, -17452.286774192664, -15759.186835192066, -19815.000273585352, -12080.424974015354, -6550.871616705849, -10787.75653693158, -11510.343731682746, -12252.242833643299, 0.008125, -0.024375, 0.991125, 192.0, 0.0, 32.0, 127.5, 24.0, 15.5, 0.0, 0.0, 0.0, 0.0, 1.6444989039623332E9, 0.0, 2022-02-11 00:15:03.962
154.0, -8748.852759462925, -10484.935103051079, -10711.537088338982, -17155.299145615, -2390.6084764729117, -1640.8415604640916, -5692.966961022254, -6836.213986422299, -17445.73771306726, -15757.0187159799, -19802.080965290184, -12062.610633684473, -6546.289509092511, -10783.308539784974, -11510.746063082941, -12247.146635907488, 0.008125, -0.024375, 0.991125, 192.0, 0.0, 0.0, 0.0, 0.0, 0.0, 0.0, 0.0, 0.0, 0.0, 1.64449890396234E9, 0.0, 2022-02-11 00:15:03.962
156.0, -8748.562186785006, -10477.35786168073, -10710.419501116217, -17156.595546793407, -2385.914610137297, -1643.6355285210047, -5688.407205153371, -6840.773742291181, -17450.07395149159, -15763.187797449566, -19820.96818935492, -12075.261721046178, -6550.58104402793, -10789.812897421467, -11515.730502096476, -12253.695697032894, 0.008125, -0.024375, 0.991125, 192.0, 0.0, 0.0, 0.0, 0.0, 0.0, 0.0, 0.0, 0.0, 0.0, 1.6444989039623468E9, 0.0, 2022-02-11 00:15:03.962
158.0, -8753.926605454279, -10480.330643693285, -10708.944285982167, -17158.003706694093, -2383.1206420803837, -1634.7395342277925, -5693.369292422449, -6831.184843919855, -17448.397570657442, -15755.54350084585, -19810.30640724974, -12078.14509608091, -6543.428485802232, -10786.996577620099, -11513.495327650944, -12245.939641706902, 0.008125, -0.024375, 0.991125, 192.0, 0.0, 0.0, 0.0, 0.0, 0.0, 0.0, 0.0, 0.0, 0.0, 1.6444989039623537E9, 0.0, 2022-02-11 00:15:03.962
160.0, -8768.231721905675, -10492.60175139925, -10716.052140718955, -17162.697573029705, -2399.012732388107, -1650.698679768882, -5708.970810052253, -6846.495788871741, -17459.439332418362, -15776.21886446701, -19818.643607931568, -12086.571703740563, -6551.117485894858, -10791.578685233437, -11524.04535103385, -12252.33224062112, 0.008125, -0.024375, 0.991125, 192.0, 0.0, 0.0, 0.0, 0.0, 0.0, 0.0, 0.0, 0.0, 0.0, 1.6444989039623606E9, 0.0, 2022-02-11 00:15:03.962
162.0, -8748.383372829363, -10489.897190320158, -10703.646922546259, -17151.700514757697, -2388.1050810939173, -1644.0378599212004, -5707.607353640479, -6843.21008243681, -17456.17597772789, -15770.094486486256, -19814.687349162978, -12082.526037994152, -6548.8599597048715, -10795.914923657767, -11522.927763811083, -12251.013487698256, 0.0070625, -0.0231875, 0.9905625, 192.0, 0.0, 24.0, 127.5, 40.0, 15.0, 120.0, 0.0, 0.0, 0.0, 1.644498903962382E9, 0.0, 2022-02-11 00:15:03.962
164.0, -8752.719611253693, -10492.132364765688, -10706.709111536637, -17156.997878193604, -2394.497680008135, -1651.011604191256, -5707.450891429293, -6843.54535860364, -17454.767817827204, -15755.230576423477, -19808.786488626778, -12077.72041293626, -6544.814293958461, -10789.477621254639, -11518.390359686657, -12249.560624308662, 0.0070625, -0.0231875, 0.9905625, 192.0, 0.0, 0.0, 0.0, 0.0, 0.0, 0.0, 0.0, 0.0, 0.0, 1.6444989039623885E9, 0.0, 2022-02-11 00:15:03.962
166.0, -8756.832332233469, -10477.961358781024, -10705.658579547237, -17157.556671804985, -2388.7309299386657, -1641.2662436087423, -5686.328492919028, -6823.741713016238, -17455.706591094327, -15777.98465227898, -19822.890439378076, -12094.528924766651, -6542.020325901548, -10791.824554422445, -11518.323304453292, -12250.991135953802, 0.0070625, -0.0231875, 0.9905625, 192.0, 0.0, 0.0, 0.0, 0.0, 0.0, 0.0, 0.0, 0.0, 0.0, 1.6444989039623952E9, 0.0, 2022-02-11 00:15:03.962
168.0, -8748.383372829363, -10476.776716324892, -10700.517678322516, -17154.15920664778, -2377.3538920109145, -1636.8182464621361, -5683.22160043974, -6828.793207263137, -17447.279983434677, -15759.857387525724, -19810.418165972016, -12077.943930380814, -6542.467360790653, -10780.536923472515, -11512.847127061741, -12241.335182349108, 0.0070625, -0.0231875, 0.9905625, 192.0, 0.0, 0.0, 0.0, 0.0, 0.0, 0.0, 0.0, 0.0, 0.0, 1.6444989039624016E9, 0.0, 2022-02-11 00:15:03.962
170.0, -8763.314338125509, -10486.879704818692, -10708.430195859695, -17157.69078227172, -2394.5200317525905, -1651.9280257139237, -5718.425597956848, -6851.882559285469, -17454.209024215823, -15766.741724817959, -19813.949741595956, -12085.163543839877, -6540.679221234229, -10793.9479701457, -11520.379664943179, -12250.499397575784, 0.0070625, -0.0231875, 0.9905625, 192.0, 0.0, 0.0, 0.0, 0.0, 0.0, 0.0, 0.0, 0.0, 0.0, 1.6444989039624088E9, 0.0, 2022-02-11 00:15:03.962
172.0, -8750.462085063707, -10483.035204772379, -10697.790765498969, -17143.96681117616, -2384.595857214434, -1637.9358336849016, -5705.349827450494, -6847.658079583416, -17458.388800428966, -15774.028393510389, -19816.0284538303, -12078.05568910309, -6542.757933468572, -10802.218115594163, -11529.23095574748, -12250.924080720435, 0.00753125, -0.02259375, 0.99028125, 192.0, 0.0, 32.0, 127.5, 40.0, 15.0, 120.0, 0.0, 0.0, 0.0, 1.6444989039624157E9, 0.0, 2022-02-11 00:15:03.962
174.0, -8756.675870022282, -10493.227600243998, -10705.278599891497, -17149.957078690182, -2386.361645026403, -1643.6802320099155, -5695.2021354677845, -6842.4054196364195, -17453.49376839325, -15770.653280097638, -19810.462869460927, -12074.635872201428, -6539.516930522554, -10793.433880023227, -11520.714941110009, -12247.61602254105, 0.00753125, -0.02259375, 0.99028125, 192.0, 0.0, 0.0, 0.0, 0.0, 0.0, 0.0, 0.0, 0.0, 0.0, 1.6444989039624221E9, 0.0, 2022-02-11 00:15:03.962
176.0, -8757.88286422287, -10487.438498430074, -10704.49628883556, -17147.476035055643, -2376.526877466068, -1630.1350748699995, -5679.824135282533, -6830.894271241936, -17457.472378906295, -15775.056573755333, -19831.853488904657, -12086.124668851457, -6540.790979956506, -10786.393080519805, -11521.340789954756, -12245.04557192869, 0.00753125, -0.02259375, 0.99028125, 192.0, 0.0, 0.0, 0.0, 0.0, 0.0, 0.0, 0.0, 0.0, 0.0, 1.6444989039624288E9, 0.0, 2022-02-11 00:15:03.962
178.0, -8751.333803097463, -10471.255835444432, -10699.824774244402, -17145.665543754763, -2375.2528280321158, -1637.3546883290635, -5687.110803974963, -6833.755294532215, -17450.096303236045, -15761.0196782374, -19809.50174444935, -12074.881741390436, -6536.38768629881, -10778.07823158243, -11517.093958508249, -12235.970763679834, 0.00753125, -0.02259375, 0.99028125, 192.0, 0.0, 0.0, 0.0, 0.0, 0.0, 0.0, 0.0, 0.0, 0.0, 1.644498903962436E9, 0.0, 2022-02-11 00:15:03.962
180.0, -8762.30850962502, -10489.293693219865, -10701.992893456567, -17148.23599436712, -2383.9700083696853, -1641.8697407090356, -5693.570458122547, -6839.969079490791, -17452.51029163722, -15750.134378687666, -19818.93418060949, -12081.453154260296, -6538.15347411078, -10797.747766703102, -11523.397150444645, -12246.90076671848, 0.00753125, -0.02259375, 0.99028125, 192.0, 0.0, 0.0, 0.0, 0.0, 0.0, 0.0, 0.0, 0.0, 0.0, 1.6444989039624426E9, 0.0, 2022-02-11 00:15:03.962
182.0, -8756.675870022282, -10479.414222170619, -10696.762585254024, -17147.2972211, -2373.6435024313337, -1634.2924993386864, -5686.686120830313, -6827.787378762649, -17447.995239257245, -15768.485160885473, -19816.49784046386, -12084.940026395325, -6534.085456619913, -10781.430993250728, -11524.179461500582, -12243.592708539094, 0.008765624999999999, -0.022296875, 0.989140625, 192.0, 0.0, 40.0, 127.5, 40.0, 15.0, 112.0, 0.0, 0.0, 0.0, 1.6444989039624493E9, 0.0, 2022-02-11 00:15:03.962
184.0, -8758.464009578707, -10488.444326930563, -10703.624570801803, -17150.49352055711, -2384.372339769881, -1644.797819232681, -5690.731786576723, -6836.862187011503, -17455.1701492274, -15770.474466141995, -19816.63195093059, -12082.369575782965, -6542.713229979662, -10774.591359447404, -11522.883060322174, -12243.927984705924, 0.008765624999999999, -0.022296875, 0.989140625, 192.0, 0.0, 0.0, 0.0, 0.0, 0.0, 0.0, 0.0, 0.0, 0.0, 1.6444989039624565E9, 0.0, 2022-02-11 00:15:03.962
186.0, -8756.87703572238, -10484.733937350982, -10700.674140533703, -17142.67040999775, -2381.42190950178, -1644.8872262105021, -5690.2176964542505, -6836.348096889031, -17455.661887605416, -15765.601785850738, -19825.773814412812, -12078.815648414571, -6541.126256123335, -10788.650606709793, -11525.297048723347, -12247.571319052138, 0.008765624999999999, -0.022296875, 0.989140625, 192.0, 0.0, 0.0, 0.0, 0.0, 0.0, 0.0, 0.0, 0.0, 0.0, 1.644498903962463E9, 0.0, 2022-02-11 00:15:03.962
188.0, -8740.604965758916, -10477.044937258355, -10694.661521275226, -17143.452721053687, -2380.1925635567386, -1641.825037220125, -5698.644304113902, -6841.243128924743, -17450.632745102972, -15759.991497992456, -19807.937122337476, -12068.600901198495, -6540.522759023042, -10783.174429318242, -11523.218336489002, -12244.598537039583, 0.008765624999999999, -0.022296875, 0.989140625, 192.0, 0.0, 0.0, 0.0, 0.0, 0.0, 0.0, 0.0, 0.0, 0.0, 1.64449890396247E9, 0.0, 2022-02-11 00:15:03.962
0.0, -4119.873538002198, -5015.150310415067, -5119.622363999172, -8296.811079598794, -1107.305420315912, -645.1831037024384, -2674.7215002443195, -3181.2567330904885, -8725.674000462772, -7883.03558624215, -9910.651732760874, -6041.76593324732, -3269.814344622415, -5395.040559177466, -5766.101868880019, -6124.176815054037, 0.0083828125, -0.0221484375, 0.9875703124999999, 192.0, 0.0, 32.0, 127.5, 40.0, 15.0, 104.0, 0.0, 0.0, 0.0, 1.644498904072054E9, 0.0, 2022-02-11 00:15:04.072
2.0, -8219.608154250163, -10013.3132950441, -10227.688876114951, -16574.13143803256, -2198.986971257564, -1274.9435037307148, -5338.065962560888, -6342.151026982192, -16792.41857438309, -15049.11661733587, -19274.848017078402, -11552.81204614783, -6485.3810054518, -10401.317227043775, -10971.51022809866, -11665.30837599139, 0.0083828125, -0.0221484375, 0.9875703124999999, 192.0, 0.0, 0.0, 0.0, 0.0, 0.0, 0.0, 0.0, 0.0, 0.0, 1.644498904551931E9, 0.0, 2022-02-11 00:15:04.551
4.0, -8206.778252932818, -10000.304579771111, -10215.127195731067, -16568.968185063386, -2180.837354759855, -1265.6004745483965, -5305.8570988007905, -6328.002372741982, -16785.310719646302, -15026.608410669376, -19250.462263877664, -11533.321324982802, -6477.200266981157, -10383.636997179628, -10957.763905258646, -11652.098495018303, 0.0083828125, -0.0221484375, 0.9875703124999999, 192.0, 0.0, 0.0, 0.0, 0.0, 0.0, 0.0, 0.0, 0.0, 0.0, 1.6444989045519476E9, 0.0, 2022-02-11 00:15:04.551
6.0, -8206.398273277078, -9996.035396580148, -10214.389588164042, -16556.65237386851, -2181.060872204408, -1261.9571402021816, -5294.927095762146, -6319.531061593421, -16776.638242797642, -15035.347942751401, -19253.81502554596, -11528.649810391642, -6464.102144730347, -10383.949921602001, -10951.147788899874, -11645.996468782005, 0.0083828125, -0.0221484375, 0.9875703124999999, 192.0, 0.0, 0.0, 0.0, 0.0, 0.0, 0.0, 0.0, 0.0, 0.0, 1.6444989045519545E9, 0.0, 2022-02-11 00:15:04.551
8.0, -8188.76274690184, -10004.193783306335, -10195.949398988414, -16543.88952778453, -2161.4360405726484, -1240.9688521586481, -5280.487868844017, -6302.588439296298, -16764.478893813957, -15021.311047233468, -19237.498252093585, -11517.13866199716, -6456.390792893266, -10381.602988434195, -10936.865024192934, -11627.846852284296, 0.008, -0.018000000000000002, 0.984, 192.0, 0.0, 32.0, 127.5, 56.0, 15.0, 96.0, 0.0, 0.0, 0.0, 1.6444989045519614E9, 0.0, 2022-02-11 00:15:04.551
10.0, -8201.838517408194, -10009.178222319868, -10199.279808912255, -16544.045989995717, -2169.6614825322013, -1247.7414307286062, -5292.490755616517, -6304.91302071965, -16767.004640937404, -15028.664771159265, -19233.072606691436, -11510.880173549673, -6452.859217269328, -10370.427116206542, -10930.427721789805, -11622.638895826209, 0.008, -0.018000000000000002, 0.984, 192.0, 0.0, 0.0, 0.0, 0.0, 0.0, 0.0, 0.0, 0.0, 0.0, 1.6444989045519683E9, 0.0, 2022-02-11 00:15:04.551
12.0, -8174.14470602807, -9979.383346960944, -10182.292483126223, -16530.56788808917, -2158.954996938109, -1233.6374799773073, -5303.733683077537, -6305.0247794419265, -16752.051323896805, -15015.879573330829, -19232.89379273579, -11509.561420626811, -6442.644470053252, -10359.877092823637, -10932.238213090684, -11621.767177792452, 0.008, -0.018000000000000002, 0.984, 192.0, 0.0, 0.0, 0.0, 0.0, 0.0, 0.0, 0.0, 0.0, 0.0, 1.6444989045519762E9, 0.0, 2022-02-11 00:15:04.551
14.0, -8163.505275667343, -9969.101544511503, -10173.374137088555, -16526.343408387114, -2145.0969153758188, -1227.200177574179, -5279.549095576894, -6289.400910067668, -16740.339009802225, -14995.96416902115, -19202.94245516568, -11485.265074403891, -6430.708638514118, -10353.417438676053, -10918.78246292859, -11611.15009917618, 0.008, -0.018000000000000002, 0.984, 192.0, 0.0, 0.0, 0.0, 0.0, 0.0, 0.0, 0.0, 0.0, 0.0, 1.644498904551983E9, 0.0, 2022-02-11 00:15:04.551
16.0, -8171.194275759969, -9967.358108443988, -10175.497552811808, -16518.632056550035, -2144.5381217644363, -1223.556843227964, -5262.293548857397, -6289.222096112025, -16735.35457078869, -14996.344148676892, -19212.643112259284, -11493.691682063543, -6421.410312820711, -10344.253223449377, -10911.562849469525, -11608.91492473065, 0.005, -0.023, 0.985, 192.0, 0.0, 8.0, 127.5, 16.0, 15.0, 104.0, 0.0, 0.0, 0.0, 1.6444989045519912E9, 0.0, 2022-02-11 00:15:04.551
18.0, -8156.129199997092, -9959.02090776216, -10161.170084615957, -16514.005245447785, -2125.2709180439615, -1206.971848842126, -5253.844589453291, -6277.152154106159, -16728.805509663285, -14976.942834489684, -19200.148487108767, -11489.936588995051, -6416.112949384803, -10329.99281048689, -10902.979779598687, -11599.706006015063, 0.005, -0.023, 0.985, 192.0, 0.0, 0.0, 0.0, 0.0, 0.0, 0.0, 0.0, 0.0, 0.0, 1.64449890455201E9, 0.0, 2022-02-11 00:15:04.552
20.0, -8157.939691297972, -9961.144323485414, -10161.147732871501, -16510.048986679198, -2134.3680780372715, -1209.0952645653801, -5291.775499793947, -6289.57972402331, -16728.470233496457, -14984.005985737562, -19188.682042203196, -11475.832638243752, -6413.810719705906, -10329.858700020159, -10898.040044074065, -11599.169564148136, 0.005, -0.023, 0.985, 192.0, 0.0, 0.0, 0.0, 0.0, 0.0, 0.0, 0.0, 0.0, 0.0, 1.6444989045520167E9, 0.0, 2022-02-11 00:15:04.552
22.0, -8145.735638825374, -9950.549596613599, -10155.224520590846, -16504.25988486527, -2117.5595662068804, -1190.3421509673776, -5247.496694027984, -6263.741107432975, -16718.948390358495, -14975.020584466529, -19190.3807747818, -11470.64703353012, -6405.585277746353, -10320.22509815992, -10898.241209774162, -11593.983959434505, 0.005, -0.023, 0.985, 192.0, 0.0, 0.0, 0.0, 0.0, 0.0, 0.0, 0.0, 0.0, 0.0, 1.6444989045520234E9, 0.0, 2022-02-11 00:15:04.552
24.0, -8131.497577607343, -9937.786750529618, -10142.86400590706, -16496.5932365171, -2104.215574767062, -1183.5919241418749, -5230.576423475316, -6255.269796284413, -16714.96977984545, -14958.14501740277, -19170.778294894495, -11463.31566134878, -6402.07605386687, -10310.99382769988, -10876.001224041132, -11576.52724701491, 0.005, -0.023, 0.985, 192.0, 0.0, 0.0, 0.0, 0.0, 0.0, 0.0, 0.0, 0.0, 0.0, 1.64449890455203E9, 0.0, 2022-02-11 00:15:04.552
26.0, -8144.3721824136, -9946.593337845008, -10147.2449478203, -16488.83718119111, -2108.194185280107, -1182.7872613414838, -5243.853359681769, -6249.011307836928, -16708.39836697559, -14964.582319805899, -19175.159236807733, -11454.486722288933, -6395.5940479748315, -10305.629409030606, -10872.693165861747, -11572.14630510167, 0.0035, -0.0235, 0.9875, 192.0, 0.0, 8.0, 127.5, 32.0, 15.0, 120.0, 0.0, 0.0, 0.0, 1.6444989045520368E9, 0.0, 2022-02-11 00:15:04.552
28.0, -8129.754141539829, -9936.266831906656, -10137.521938982241, -16480.723497953833, -2089.1504990041853, -1169.7561943240398, -5243.182807348109, -6244.786828134875, -16707.414890219556, -14960.24608138157, -19169.61600418282, -11449.748152464408, -6382.674739679664, -10296.778118226304, -10868.558093137515, -11563.00444161945, 0.0035, -0.0235, 0.9875, 192.0, 0.0, 0.0, 0.0, 0.0, 0.0, 0.0, 0.0, 0.0, 0.0, 1.6444989045520432E9, 0.0, 2022-02-11 00:15:04.552
30.0, -8160.644252377064, -9966.039355521127, -10143.802779174182, -16486.914931167954, -2105.7131416455677, -1174.6959298486627, -5253.151685375176, -6252.833456138785, -16708.957160586975, -14956.71450575763, -19165.592690180863, -11446.529501262845, -6382.987664102038, -10285.669301232017, -10871.642633872347, -11562.803275919352, 0.0035, -0.0235, 0.9875, 192.0, 0.0, 0.0, 0.0, 0.0, 0.0, 0.0, 0.0, 0.0, 0.0, 1.64449890455205E9, 0.0, 2022-02-11 00:15:04.552
32.0, -8162.410040189033, -9985.865352852983, -10134.772674414238, -16478.756544441767, -2084.9036675576767, -1157.172162195702, -5219.668772181127, -6237.969546076006, -16715.21564903446, -14967.91272972974, -19182.915292133726, -11461.304004347803, -6382.205353046103, -10284.1270308646, -10865.518255891593, -11559.67403169561, 0.0035, -0.0235, 0.9875, 192.0, 0.0, 0.0, 0.0, 0.0, 0.0, 0.0, 0.0, 0.0, 0.0, 1.6444989045520566E9, 0.0, 2022-02-11 00:15:04.552
34.0, -8182.19133403198, -10002.942085616838, -10127.843633633094, -16469.949957126377, -2069.413908650149, -1147.6279673132858, -5198.926353326601, -6220.222260978492, -16705.559695429765, -14956.423933079712, -19165.547986691952, -11451.066905387272, -6362.982852814538, -10276.79565868326, -10847.122770204875, -11543.826644876795, 0.0035, -0.0235, 0.9875, 192.0, 0.0, 0.0, 0.0, 0.0, 0.0, 0.0, 0.0, 0.0, 0.0, 1.6444989045520632E9, 0.0, 2022-02-11 00:15:04.552
36.0, -8231.29811660029, -10048.919623961405, -10130.928174367926, -16469.860550148554, -2070.4644406395487, -1145.2139789121127, -5205.386007474185, -6211.214507963003, -16727.531460229333, -14965.923424473218, -19185.17281832371, -11452.720934476965, -6361.261768491479, -10274.046394115257, -10845.066409714987, -11538.909261096629, 0.00475, -0.02275, 0.98975, 192.0, 0.0, 24.0, 127.5, 40.0, 15.5, 0.0, 0.0, 0.0, 0.0, 1.6444989045520737E9, 0.0, 2022-02-11 00:15:04.552
38.0, -8248.128980175135, -10075.093516718569, -10114.745511382283, -16469.637032704002, -2043.5305885709035, -1130.819455482895, -5195.327722469297, -6210.208679462515, -16728.93962013002, -14983.335433403903, -19185.441039257174, -11470.959957952495, -6350.6893933641195, -10272.302958047743, -10835.09753168792, -11532.226089504491, 0.00475, -0.02275, 0.98975, 192.0, 0.0, 0.0, 0.0, 0.0, 0.0, 0.0, 0.0, 0.0, 0.0, 1.6444989045520823E9, 0.0, 2022-02-11 00:15:04.552
40.0, -8288.675044617063, -10079.787383054183, -10125.29553476519, -16468.92177688143, -2052.73950728649, -1131.8923392167496, -5194.8583358357355, -6213.024999263883, -16730.280724797336, -14978.775677535019, -19185.150466579256, -11476.145562666126, -6342.8215793158515, -10260.098905575145, -10824.86043272739, -11529.94621157005, 0.00475, -0.02275, 0.98975, 192.0, 0.0, 0.0, 0.0, 0.0, 0.0, 0.0, 0.0, 0.0, 0.0, 1.6444989045520923E9, 0.0, 2022-02-11 00:15:04.552
42.0, -8294.240628986434, -10118.120624795036, -10117.137148039003, -16452.806169129155, -2044.379954860205, -1116.112007631303, -5189.851545077747, -6186.851106506719, -16745.41285579358, -14980.005023480062, -19208.955074424157, -11472.278710875358, -6346.151989239692, -10254.510969461318, -10825.57568854996, -11520.714941110009, 0.00475, -0.02275, 0.98975, 192.0, 0.0, 0.0, 0.0, 0.0, 0.0, 0.0, 0.0, 0.0, 0.0, 1.6444989045520992E9, 0.0, 2022-02-11 00:15:04.552
44.0, -8286.506925404898, -10109.604610157563, -10108.911706079449, -16448.20170977136, -2028.9572511860433, -1104.4220452811774, -5191.796146845359, -6195.009493232906, -16732.806471920787, -14976.5852065784, -19184.16698982322, -11453.369135066168, -6333.165625711158, -10243.536262933763, -10809.907115686789, -11506.32041768079, 0.00475, -0.02275, 0.98975, 192.0, 0.0, 0.0, 0.0, 0.0, 0.0, 0.0, 0.0, 0.0, 0.0, 1.644498904552106E9, 0.0, 2022-02-11 00:15:04.552
46.0, -8286.372814938166, -10099.836897830593, -10115.706636393863, -16449.654573160955, -2034.6569460221467, -1111.7087139736075, -5171.7913355578585, -6184.012434960894, -16724.715140427965, -14967.130418673805, -19186.51392299103, -11465.260263116392, -6324.001410484482, -10231.73454186136, -10807.80605170799, -11503.258228690414, 0.007375, -0.024375, 0.9918750000000001, 192.0, 0.0, 40.0, 127.5, 24.0, 15.5, 8.0, 0.0, 0.0, 0.0, 1.6444989045521126E9, 0.0, 2022-02-11 00:15:04.552
48.0, -8263.216407682468, -10094.003092527759, -10107.123566523023, -16441.87616609051, -2022.6317075051913, -1104.2208795810795, -5158.7602685404145, -6174.647054034121, -16721.36237875967, -14954.278165612002, -19174.108704818333, -11454.374963566657, -6325.7448465519965, -10261.93174862048, -10797.926580658745, -11498.787879799353, 0.007375, -0.024375, 0.9918750000000001, 192.0, 0.0, 0.0, 0.0, 0.0, 0.0, 0.0, 0.0, 0.0, 0.0, 1.6444989045521257E9, 0.0, 2022-02-11 00:15:04.552
50.0, -8256.734401790429, -10074.288853918179, -10112.152709025468, -16438.09872127756, -2037.1379896566857, -1105.5172807594872, -5164.504666865429, -6172.367176099679, -16718.858983380673, -14964.135284916794, -19167.581995437384, -11441.567413993766, -6330.818692543351, -10244.36327747861, -10798.060691125476, -11497.111498965205, 0.007375, -0.024375, 0.9918750000000001, 192.0, 0.0, 0.0, 0.0, 0.0, 0.0, 0.0, 0.0, 0.0, 0.0, 1.644498904552132E9, 0.0, 2022-02-11 00:15:04.552
52.0, -8232.81803522325, -10045.857434971027, -10099.836897830593, -16428.845099073067, -2019.5695185148143, -1088.9993416070154, -5167.790373300359, -6168.634434775643, -16708.35366348668, -14954.613441778833, -19167.805512881936, -11443.444960528012, -6324.649611073686, -10231.287506972254, -10798.105394614387, -11492.75290879642, 0.007375, -0.024375, 0.9918750000000001, 192.0, 0.0, 0.0, 0.0, 0.0, 0.0, 0.0, 0.0, 0.0, 0.0, 1.6444989045521388E9, 0.0, 2022-02-11 00:15:04.552
54.0, -8205.414796521043, -10032.468740042299, -10085.844705801572, -16424.754729837743, -2008.7289224539904, -1086.3171322723786, -5163.16356219811, -6170.869609221174, -16691.54515165629, -14935.010961891528, -19137.94358228965, -11413.627733424633, -6314.479567346521, -10216.758873076305, -10786.929522386734, -11482.426402858067, 0.007375, -0.024375, 0.9918750000000001, 192.0, 0.0, 0.0, 0.0, 0.0, 0.0, 0.0, 0.0, 0.0, 0.0, 1.6444989045521455E9, 0.0, 2022-02-11 00:15:04.552
56.0, -8193.993055104382, -10012.530983988165, -10089.175115725413, -16419.412662912924, -2012.2157945890183, -1085.7583386609958, -5163.7447075539485, -6167.829771975252, -16681.8891980516, -14933.20047059065, -19141.02812302448, -11422.07669282874, -6306.142366664692, -10214.635457353052, -10783.80027816299, -11484.6615773036, 0.0076875, -0.0241875, 0.9949375, 192.0, 0.0, 32.0, 127.5, 32.0, 15.5, 24.0, 0.0, 0.0, 0.0, 1.6444989045521526E9, 0.0, 2022-02-11 00:15:04.552
58.0, -8162.56650240022, -9984.457192952299, -10076.412269641432, -16413.06476748762, -1996.0554833478313, -1074.0907280553256, -5137.816683985792, -6155.737478224931, -16661.884386764097, -14913.307418025426, -19116.374148890274, -11403.994131564396, -6295.704102004064, -10202.45375662491, -10778.145286815798, -11477.821943500274, 0.0076875, -0.0241875, 0.9949375, 192.0, 0.0, 0.0, 0.0, 0.0, 0.0, 0.0, 0.0, 0.0, 0.0, 1.6444989045521593E9, 0.0, 2022-02-11 00:15:04.552
60.0, -8159.012575031827, -9963.580663631043, -10084.816525556627, -16412.99771225425, -2003.7891869293676, -1074.917742600172, -5152.747649281937, -6167.941530697529, -16662.5325873533, -14905.596066188344, -19106.427622607665, -11393.444108181491, -6296.799337482374, -10202.16318394699, -10764.577777931427, -11472.971614953472, 0.0076875, -0.0241875, 0.9949375, 192.0, 0.0, 0.0, 0.0, 0.0, 0.0, 0.0, 0.0, 0.0, 0.0, 1.6444989045521667E9, 0.0, 2022-02-11 00:15:04.552
62.0, -8140.460627133922, -9942.614727331964, -10069.952615493848, -16402.939427249363, -1985.483108220471, -1067.8322396078397, -5155.206341172021, -6159.201998615504, -16653.033095959796, -14895.04604280544, -19111.859096510303, -11395.63457913811, -6287.7692327224295, -10195.2564949103, -10763.214321519652, -11472.144600408627, 0.0076875, -0.0241875, 0.9949375, 192.0, 0.0, 0.0, 0.0, 0.0, 0.0, 0.0, 0.0, 0.0, 0.0, 1.6444989045521734E9, 0.0, 2022-02-11 00:15:04.552
64.0, -8123.897984492539, -9947.822683790051, -10062.285967145679, -16403.20764818283, -1977.5705906832923, -1073.174306532658, -5124.226823356966, -6150.954204911495, -16639.465587075425, -14882.70787986611, -19086.10988689779, -11379.429564408012, -6277.018043639427, -10200.956189746403, -10748.618632390337, -11464.232082871447, 0.0076875, -0.0241875, 0.9949375, 192.0, 0.0, 0.0, 0.0, 0.0, 0.0, 0.0, 0.0, 0.0, 0.0, 1.6444989045521808E9, 0.0, 2022-02-11 00:15:04.552
66.0, -8120.813443757706, -9928.220203902747, -10066.868074759017, -16398.133802191474, -1992.5686112128035, -1066.3123209848786, -5141.437666587552, -6143.153446096593, -16637.43157832999, -14896.722423639587, -19093.575369545862, -11398.853230339675, -6279.856715185251, -10201.984369991347, -10746.897548067278, -11461.616928770176, 0.00784375, -0.02909375, 0.99646875, 192.0, 0.0, 32.0, 127.0, 120.0, 15.5, 24.0, 0.0, 0.0, 0.0, 1.6444989045521889E9, 0.0, 2022-02-11 00:15:04.552
68.0, -8095.175992867469, -9908.953000182271, -10054.46285658632, -16387.53907531966, -1979.291675006351, -1054.3988411902, -5132.251099616421, -6139.353649539191, -16625.026360157295, -14887.267635734992, -19077.750334471504, -11371.49469512638, -6271.586569736787, -10186.315797128176, -10747.36693470084, -11452.631527499143, 0.00784375, -0.02909375, 0.99646875, 192.0, 0.0, 0.0, 0.0, 0.0, 0.0, 0.0, 0.0, 0.0, 0.0, 1.6444989045522115E9, 0.0, 2022-02-11 00:15:04.552
70.0, -8087.129364863559, -9905.890811191895, -10055.334574620078, -16388.410793353414, -1982.4432709745493, -1057.7963063474067, -5127.44547455853, -6141.07473386225, -16622.5229647783, -14884.317205466892, -19067.15560759969, -11364.275081667314, -6268.9267121466055, -10179.476163324853, -10742.784827087502, -11452.005678654396, 0.00784375, -0.02909375, 0.99646875, 192.0, 0.0, 0.0, 0.0, 0.0, 0.0, 0.0, 0.0, 0.0, 0.0, 1.6444989045522187E9, 0.0, 2022-02-11 00:15:04.552
72.0, -8068.376251265557, -9878.040537600582, -10044.98571693727, -16376.43025832537, -1969.7027766350243, -1051.3813556887337, -5120.516433777384, -6133.765713425364, -16609.08956636066, -14868.51452213699, -19066.663869221673, -11356.340212385681, -6259.538979475377, -10173.195323132912, -10741.197853231175, -11450.709277475988, 0.00784375, -0.02909375, 0.99646875, 192.0, 0.0, 0.0, 0.0, 0.0, 0.0, 0.0, 0.0, 0.0, 0.0, 1.6444989045522256E9, 0.0, 2022-02-11 00:15:04.552
74.0, -8051.54538769071, -9868.831618884995, -10033.876899942983, -16374.798580980132, -1959.9127125635998, -1035.9586520145717, -5113.9673726519795, -6128.893033134107, -16599.791240667255, -14851.057809717395, -19041.227584031534, -11334.502558052845, -6250.6653369266205, -10165.77454397375, -10730.580774614904, -11440.293364559813, 0.00784375, -0.02909375, 0.99646875, 192.0, 0.0, 0.0, 0.0, 0.0, 0.0, 0.0, 0.0, 0.0, 0.0, 1.6444989045522325E9, 0.0, 2022-02-11 00:15:04.552
76.0, -8052.97589933585, -9855.934662334283, -10039.487187801265, -16373.166903634896, -1963.265474231896, -1044.2958526964012, -5134.419218828585, -6135.665611704066, -16594.113897575608, -14855.304641163904, -19043.842738132804, -11345.410209347036, -6245.278566512891, -10164.031107906236, -10732.07834149341, -11440.874509915651, 0.008921875, -0.028546875, 0.993234375, 192.0, 0.0, 40.0, 127.5, 16.0, 15.0, 120.0, 0.0, 0.0, 0.0, 1.64449890455224E9, 0.0, 2022-02-11 00:15:04.552
78.0, -8030.78061709173, -9839.953165048739, -10025.629106238974, -16363.175673863374, -1950.681442103558, -1034.7069543250745, -5109.765244694382, -6117.113663806161, -16584.23442652636, -14838.876108989252, -19036.712531651563, -11333.630840019088, -6238.975374576495, -10172.234198121334, -10729.373780414317, -11433.811358667775, 0.008921875, -0.028546875, 0.993234375, 192.0, 0.0, 0.0, 0.0, 0.0, 0.0, 0.0, 0.0, 0.0, 0.0, 1.644498904552247E9, 0.0, 2022-02-11 00:15:04.552
80.0, -8029.417160679956, -9848.04449654156, -10026.657286483918, -16364.896758186433, -1953.3189479492842, -1038.3279369268344, -5109.273506316365, -6116.979553339428, -16584.90497886002, -14831.432978085635, -19032.845679860795, -11331.216851617915, -6236.8743105976955, -10160.208959604379, -10719.69547506517, -11428.715160931964, 0.008921875, -0.028546875, 0.993234375, 192.0, 0.0, 0.0, 0.0, 0.0, 0.0, 0.0, 0.0, 0.0, 0.0, 1.644498904552254E9, 0.0, 2022-02-11 00:15:04.552
82.0, -8012.2733726827355, -9838.94733654825, -10018.70006545783, -16356.71601971579, -1944.1100292336978, -1031.0859717233147, -5100.601029467706, -6110.631657914121, -16576.925406089475, -14835.903326976697, -19037.964229341058, -11335.128406897595, -6230.437008194567, -10158.286709581222, -10720.388379143284, -11429.206899309982, 0.008921875, -0.028546875, 0.993234375, 192.0, 0.0, 0.0, 0.0, 0.0, 0.0, 0.0, 0.0, 0.0, 0.0, 1.6444989045522609E9, 0.0, 2022-02-11 00:15:04.552
84.0, -7996.828317264119, -9814.94156300325, -10005.177260062368, -16349.161130089895, -1932.554177350304, -1021.0947419517926, -5099.952828878502, -6108.597649168689, -16566.353030962113, -14818.737187235021, -19009.398699927176, -11317.626990989089, -6221.831586579274, -10142.193453573402, -10710.128928438298, -11421.406140495079, 0.008921875, -0.028546875, 0.993234375, 192.0, 0.0, 0.0, 0.0, 0.0, 0.0, 0.0, 0.0, 0.0, 0.0, 1.64449890455228E9, 0.0, 2022-02-11 00:15:04.552
86.0, -8001.611590577554, -9808.839536766951, -10009.3123327866, -16345.249574810217, -1929.9837267379437, -1020.7818175294183, -5101.673913201561, -6109.245849757892, -16559.289879714237, -14812.188126109617, -19010.493935405488, -11307.702816450932, -6210.678066096076, -10136.985497115315, -10707.983160970589, -11422.16609980656, 0.0114609375, -0.0292734375, 0.9866171875, 192.0, 0.0, 56.0, 127.5, 8.0, 15.0, 80.0, 0.0, 0.0, 0.0, 1.6444989045522866E9, 0.0, 2022-02-11 00:15:04.552
88.0, -7979.1704391444255, -9787.247751623125, -9996.258914024702, -16340.265135796684, -1909.7330462614354, -1000.1958608860805, -5091.369759007664, -6095.96891355144, -16549.4551121539, -14809.505916774979, -19002.603769612764, -11307.747519939843, -6201.290333424847, -10124.75909289826, -10701.389396356273, -11414.87943111413, 0.0114609375, -0.0292734375, 0.9866171875, 192.0, 0.0, 0.0, 0.0, 0.0, 0.0, 0.0, 0.0, 0.0, 0.0, 1.6444989045522933E9, 0.0, 2022-02-11 00:15:04.552
90.0, -7978.72340425532, -9790.55580980251, -9994.359015746, -16335.504214227703, -1913.2869736298292, -1003.3251051098234, -5086.161802549577, -6103.099120032683, -16540.46971088287, -14802.17454459364, -18991.226731685012, -11294.023548844285, -6191.6790833090645, -10111.146880524979, -10693.476878819094, -11406.676340899032, 0.0114609375, -0.0292734375, 0.9866171875, 192.0, 0.0, 0.0, 0.0, 0.0, 0.0, 0.0, 0.0, 0.0, 0.0, 1.6444989045523012E9, 0.0, 2022-02-11 00:15:04.552
92.0, -7966.2511308492585, -9783.112678898893, -9985.507724941699, -16329.290429269127, -1908.5707555497595, -1002.9004219651725, -5067.274578484843, -6097.041797285295, -16536.289934669727, -14801.749861448987, -18999.22865620001, -11294.470583733391, -6186.60523731771, -10110.342217724588, -10691.822849729402, -11406.20695426547, 0.0114609375, -0.0292734375, 0.9866171875, 192.0, 0.0, 0.0, 0.0, 0.0, 0.0, 0.0, 0.0, 0.0, 0.0, 1.644498904552308E9, 0.0, 2022-02-11 00:15:04.552
94.0, -7955.008203388239, -9765.387745545835, -9978.668091138374, -16324.03776932213, -1896.6572757550807, -1001.8051864868626, -5086.921761861058, -6091.610323382655, -16523.571792074657, -14786.863599641752, -18973.2782808874, -11282.400641727525, -6178.200981402515, -10102.273237976222, -10681.697509491147, -11401.557791418767, 0.0114609375, -0.0292734375, 0.9866171875, 192.0, 0.0, 0.0, 0.0, 0.0, 0.0, 0.0, 0.0, 0.0, 0.0, 1.6444989045523148E9, 0.0, 2022-02-11 00:15:04.552
96.0, -7963.300700581158, -9777.480039296155, -9984.747765630218, -16310.872591837955, -1902.6251915246478, -995.9937329284827, -5072.326072731742, -6090.20216348197, -16528.846803766108, -14783.242617039994, -18985.839961271282, -11277.907941092008, -6177.731594768953, -10112.689150892396, -10685.966692682112, -11399.34496871769, 0.016, -0.024, 0.986, 192.0, 0.0, 64.0, 127.5, 32.0, 15.0, 104.0, 0.0, 0.0, 0.0, 1.6444989045523217E9, 0.0, 2022-02-11 00:15:04.552
98.0, -7937.216214801814, -9763.443143778222, -9972.476657924255, -16305.239952235217, -1889.5047175293826, -986.1366136236923, -5066.179343006533, -6079.3839191656025, -16512.239457635817, -14777.319404759337, -18968.293841873867, -11276.298615491225, -6169.103821409205, -10099.099290263568, -10680.490515290561, -11389.711366857455, 0.016, -0.024, 0.986, 192.0, 0.0, 0.0, 0.0, 0.0, 0.0, 0.0, 0.0, 0.0, 0.0, 1.6444989045523283E9, 0.0, 2022-02-11 00:15:04.552
100.0, -7953.823560932107, -9758.011669875583, -9980.299768483612, -16311.967827316264, -1896.4784617994383, -998.4747765630218, -5069.8897325861135, -6095.276009473326, -16514.92166697045, -14772.647890168178, -18960.873062714705, -11264.631004885556, -6167.740364997431, -10099.836897830593, -10679.775259467991, -11391.499506413878, 0.016, -0.024, 0.986, 192.0, 0.0, 0.0, 0.0, 0.0, 0.0, 0.0, 0.0, 0.0, 0.0, 1.6444989045523384E9, 0.0, 2022-02-11 00:15:04.552
102.0, -7944.011145116227, -9743.97477435765, -9970.532056156642, -16302.8483155785, -1881.5027930143826, -982.8062036998515, -5051.226025965932, -6060.921378245518, -16512.775899502743, -14782.169733306138, -18969.210263396533, -11272.789391611743, -6161.146600383116, -10103.368473454533, -10680.44581180165, -11390.87365756913, 0.016, -0.024, 0.986, 192.0, 0.0, 0.0, 0.0, 0.0, 0.0, 0.0, 0.0, 0.0, 0.0, 1.6444989045523448E9, 0.0, 2022-02-11 00:15:04.552
104.0, -7918.3513424815355, -9724.5958119149, -9961.010213018682, -16298.93676029882, -1869.0752230972319, -970.5797994827985, -5048.409706164563, -6061.301357901259, -16504.50575405428, -14766.031773809407, -18948.60195500874, -11258.819551327177, -6156.966824169973, -10083.743641822773, -10668.35351805133, -11375.115677728138, 0.016, -0.024, 0.986, 192.0, 0.0, 0.0, 0.0, 0.0, 0.0, 0.0, 0.0, 0.0, 0.0, 1.6444989045523517E9, 0.0, 2022-02-11 00:15:04.552
106.0, -7930.197767042848, -9718.762006612063, -9967.089887510525, -16294.444059663305, -1874.104365599676, -965.1483255801589, -5054.556435889774, -6056.24986365436, -16496.54853302819, -14762.723715630022, -18956.223899868, -11254.03627801374, -6146.975594398451, -10073.774763795705, -10665.15721859422, -11372.388764904592, 0.012, -0.036000000000000004, 0.988, 192.0, 0.0, 48.0, 127.0, 112.0, 15.0, 112.0, 0.0, 0.0, 0.0, 1.6444989045523582E9, 0.0, 2022-02-11 00:15:04.552
108.0, -7912.539888923156, -9726.540413682511, -9952.404791403389, -16289.549027627592, -1860.872132882134, -953.7489359079524, -5037.703220570472, -6045.588081549177, -16491.474687036836, -14753.403038192158, -18950.390094565166, -11246.682554087944, -6140.270071061858, -10064.074106702103, -10660.06102085841, -11363.068087466729, 0.012, -0.036000000000000004, 0.988, 192.0, 0.0, 0.0, 0.0, 0.0, 0.0, 0.0, 0.0, 0.0, 0.0, 1.6444989045523648E9, 0.0, 2022-02-11 00:15:04.552
110.0, -7914.819766857597, -9730.049637561993, -9954.68466933783, -16294.17583872984, -1865.0519090952766, -961.3932325116674, -5050.108438743167, -6053.5005990863565, -16486.22202708984, -14754.408866692647, -18932.531050745376, -11242.234556941337, -6138.861911161174, -10065.906949747437, -10656.238872556552, -11365.10209621216, 0.012, -0.036000000000000004, 0.988, 192.0, 0.0, 0.0, 0.0, 0.0, 0.0, 0.0, 0.0, 0.0, 0.0, 1.6444989045523715E9, 0.0, 2022-02-11 00:15:04.552
112.0, -7908.0248365431835, -9707.720244851142, -9952.225977447746, -16289.347861927494, -1852.6913944114917, -950.1950085395586, -5024.672153553028, -6046.213930393927, -16479.628262475522, -14737.153319973151, -18943.438702039566, -11247.241347699326, -6130.636469201621, -10058.374411866, -10653.333145777362, -11362.15166594406, 0.012, -0.036000000000000004, 0.988, 192.0, 0.0, 0.0, 0.0, 0.0, 0.0, 0.0, 0.0, 0.0, 0.0, 1.644498904552378E9, 0.0, 2022-02-11 00:15:04.552
114.0, -7901.028740528673, -9704.72511109413, -9943.799369788096, -16275.422725131837, -1842.0743157952209, -941.7460491354525, -5026.013258220346, -6035.038058166273, -16476.566073485144, -14739.991991518975, -18929.714730944008, -11230.946925991408, -6125.316754021258, -10069.840856771572, -10641.620831682781, -11350.774628016308, 0.012, -0.036000000000000004, 0.988, 192.0, 0.0, 0.0, 0.0, 0.0, 0.0, 0.0, 0.0, 0.0, 0.0, 1.644498904552385E9, 0.0, 2022-02-11 00:15:04.552
116.0, -7908.740092365753, -9708.524907651534, -9945.565157600066, -16274.148675697885, -1847.528141442316, -943.4000782251452, -5035.915081014047, -6043.017630936817, -16470.665212948945, -14749.87146256822, -18928.75360593243, -11229.851690513098, -6120.73464640792, -10057.703859532341, -10644.258337528508, -11351.892215239075, 0.006, -0.03, 0.988, 192.0, 0.0, 24.0, 127.5, 8.0, 15.0, 112.0, 0.0, 0.0, 0.0, 1.6444989045523925E9, 0.0, 2022-02-11 00:15:04.552
118.0, -7891.462193901801, -9696.812593556953, -9936.78092202913, -16275.020393731642, -1834.36296395814, -930.4137146966118, -5018.681886039006, -6027.885499940575, -16455.331916252606, -14741.601317119756, -18921.2657715399, -11227.996495723308, -6110.944582336496, -10052.473551329798, -10637.15048279172, -11344.180863401993, 0.006, -0.03, 0.988, 192.0, 0.0, 0.0, 0.0, 0.0, 0.0, 0.0, 0.0, 0.0, 0.0, 1.6444989045523992E9, 0.0, 2022-02-11 00:15:04.552
120.0, -7891.5292491351665, -9691.470526632134, -9938.72552379674, -16279.110762966964, -1836.0840482811986, -935.9345955770726, -5035.266880424843, -6046.258633882837, -16456.918890108933, -14740.48372989699, -18915.02963483687, -11224.666085799467, -6106.0942537896935, -10045.41040008192, -10635.764674635491, -11347.019534947818, 0.006, -0.03, 0.988, 192.0, 0.0, 0.0, 0.0, 0.0, 0.0, 0.0, 0.0, 0.0, 0.0, 1.6444989045524056E9, 0.0, 2022-02-11 00:15:04.552
122.0, -7890.232847956759, -9696.164392967748, -9936.57975632903, -16273.299309408583, -1836.5534349147601, -938.3709357227011, -5001.985132930891, -6030.791226719764, -16453.186148784895, -14739.701418841056, -18924.774995419382, -11239.485292373336, -6097.198259496482, -10042.929356447383, -10634.602383923815, -11348.181825659494, 0.006, -0.03, 0.988, 192.0, 0.0, 0.0, 0.0, 0.0, 0.0, 0.0, 0.0, 0.0, 0.0, 1.6444989050322857E9, 0.0, 2022-02-11 00:15:05.032
124.0, -7882.700310075321, -9684.943817251184, -9927.750817269185, -16266.727896538723, -1825.6010801316597, -934.3699734652012, -4993.670283993517, -6024.644496994555, -16451.174491783917, -14736.594526361767, -18905.21721902099, -11214.98778045032, -6099.858117086664, -10054.529911819687, -10626.220479753076, -11339.486997066379, 0.006, -0.03, 0.988, 192.0, 0.0, 0.0, 0.0, 0.0, 0.0, 0.0, 0.0, 0.0, 0.0, 1.6444989050323324E9, 0.0, 2022-02-11 00:15:05.032
126.0, -7884.46609788729, -9690.330587664914, -9932.668201049353, -16267.085524450009, -1829.7361528558915, -927.5973948952432, -5021.207633162455, -6024.7339039723765, -16450.794512128177, -14728.86082278023, -18910.581637690262, -11215.635981039522, -6095.633637384611, -10044.493978559254, -10626.935735575646, -11338.570575543712, 0.014, -0.026000000000000002, 0.99, 192.0, 0.0, 56.0, 127.5, 24.0, 15.0, 120.0, 0.0, 0.0, 0.0, 1.6444989050323393E9, 0.0, 2022-02-11 00:15:05.032
128.0, -7869.579836080055, -9689.660035331253, -9920.86647997695, -16262.235195903206, -1808.6808095789922, -909.8054063088186, -4991.0551298922455, -6011.971057888396, -16444.24545100277, -14717.528488341391, -18909.531105700866, -11215.300704872692, -6086.447070413479, -10025.517347516698, -10619.760825605492, -11329.719284739409, 0.014, -0.026000000000000002, 0.99, 192.0, 0.0, 0.0, 0.0, 0.0, 0.0, 0.0, 0.0, 0.0, 0.0, 1.6444989050323465E9, 0.0, 2022-02-11 00:15:05.032
130.0, -7877.738222806242, -9682.44042187219, -9925.225070145736, -16257.764847012146, -1815.07340849321, -923.507025659922, -4995.391368316576, -6014.496805011846, -16442.077331790606, -14731.475976881502, -18900.948035830028, -11212.350274604592, -6080.590913366189, -10036.067370899604, -10607.132089988243, -11325.561860270724, 0.014, -0.026000000000000002, 0.99, 192.0, 0.0, 0.0, 0.0, 0.0, 0.0, 0.0, 0.0, 0.0, 0.0, 1.644498905032354E9, 0.0, 2022-02-11 00:15:05.032
132.0, -7867.322309890069, -9670.035203699494, -9918.005456686671, -16249.539405052592, -1810.0219142463106, -904.217470194992, -4973.88899015057, -5996.146022814039, -16437.025837543708, -14732.839433293277, -18910.35812024571, -11210.852707726086, -6080.546209877278, -10030.144158618947, -10609.836651067335, -11319.862165434619, 0.014, -0.026000000000000002, 0.99, 192.0, 0.0, 0.0, 0.0, 0.0, 0.0, 0.0, 0.0, 0.0, 0.0, 1.644498905032367E9, 0.0, 2022-02-11 00:15:05.032
134.0, -7867.0540889566055, -9676.941892736184, -9911.702264750274, -16247.63950677389, -1797.7955100292577, -892.0804729557602, -4977.286455307777, -5992.703854167921, -16435.68473287639, -14722.848203521753, -18890.88975082514, -11190.870248183042, -6081.9096662890515, -10015.682579956363, -10600.180697462643, -11307.076967606185, 0.014, -0.026000000000000002, 0.99, 192.0, 0.0, 0.0, 0.0, 0.0, 0.0, 0.0, 0.0, 0.0, 0.0, 1.644498905032374E9, 0.0, 2022-02-11 00:15:05.032
136.0, -7869.199856424315, -9666.928311220207, -9914.38447408491, -16243.795006727578, -1803.2493356763525, -896.1037869577154, -4982.025025132301, -5995.319008269193, -16437.092892777073, -14712.834622005776, -18898.109364284202, -11200.123870387539, -6073.147782462572, -10011.659265954408, -10600.068938740365, -11308.99921762934, 0.016, -0.026000000000000002, 0.988, 192.0, 0.0, 64.0, 127.5, 24.0, 15.0, 112.0, 0.0, 0.0, 0.0, 1.6444989050323803E9, 0.0, 2022-02-11 00:15:05.032
138.0, -7854.1347806614385, -9644.554215020444, -9903.320360579535, -16242.789178227089, -1788.4748325913947, -894.2932956568355, -4958.4215829874975, -5981.058595306707, -16428.666285117422, -14708.453680092536, -18895.717727627485, -11194.111251129061, -6069.124468460616, -10003.88085888396, -10596.112679971777, -11303.590095471156, 0.016, -0.026000000000000002, 0.988, 192.0, 0.0, 0.0, 0.0, 0.0, 0.0, 0.0, 0.0, 0.0, 0.0, 1.6444989050323873E9, 0.0, 2022-02-11 00:15:05.032
140.0, -7856.101734173505, -9654.724258747608, -9905.220258858235, -16246.45486431776, -1795.0685972057101, -901.0658742267937, -4977.532324496785, -5994.603752446622, -16429.29213396217, -14701.234066633471, -18884.340689699733, -11193.105422628572, -6066.174038192516, -10010.139347331447, -10587.127278700744, -11306.898153650542, 0.016, -0.026000000000000002, 0.988, 192.0, 0.0, 0.0, 0.0, 0.0, 0.0, 0.0, 0.0, 0.0, 0.0, 1.644498905032394E9, 0.0, 2022-02-11 00:15:05.032
142.0, -7858.8957022304185, -9667.040069942483, -9904.750872224675, -16243.21386137174, -1787.8713354911013, -894.2932956568355, -4964.881237135081, -5985.461888964402, -16427.749863594756, -14704.81034574632, -18897.662329395098, -11196.97227441934, -6056.071049698717, -10011.212231065301, -10587.61901707876, -11303.94772338244, 0.016, -0.026000000000000002, 0.988, 192.0, 0.0, 0.0, 0.0, 0.0, 0.0, 0.0, 0.0, 0.0, 0.0, 1.6444989050324008E9, 0.0, 2022-02-11 00:15:05.032
144.0, -7844.03179216764, -9656.266529115026, -9894.737290708696, -16245.35962883945, -1777.008387685822, -891.991065977939, -4968.993958114857, -5992.435633234458, -16425.246468215762, -14706.419671347103, -18880.764410586886, -11181.59427423409, -6056.182808420994, -10000.93042861586, -10581.941673987112, -11299.432671002469, 0.016, -0.026000000000000002, 0.988, 192.0, 0.0, 0.0, 0.0, 0.0, 0.0, 0.0, 0.0, 0.0, 0.0, 1.6444989050324075E9, 0.0, 2022-02-11 00:15:05.032
146.0, -7852.771324249665, -9656.71356400413, -9905.15320362487, -16244.35380033896, -1789.0559779472326, -899.2553829259138, -4981.242714076366, -5989.529906455267, -16424.195936226362, -14714.309837139826, -18887.1570095011, -11194.290065084704, -6059.334404389192, -10010.74284443174, -10585.8979327557, -11306.920505394997, 0.012, -0.026000000000000002, 0.988, 192.0, 0.0, 48.0, 127.5, 24.0, 15.0, 112.0, 0.0, 0.0, 0.0, 1.6444989050324144E9, 0.0, 2022-02-11 00:15:05.032
148.0, -7833.571175762556, -9639.256851584536, -9889.484630761699, -16233.937887422788, -1779.0200446867998, -878.7811850048524, -4965.372975513098, -5967.1558102555055, -16415.456404144337, -14707.38079635868, -18880.4067826756, -11185.796402191687, -6055.422849109513, -9993.979036090259, -10587.61901707876, -11299.432671002469, 0.012, -0.026000000000000002, 0.988, 192.0, 0.0, 0.0, 0.0, 0.0, 0.0, 0.0, 0.0, 0.0, 0.0, 1.644498905032421E9, 0.0, 2022-02-11 00:15:05.032
150.0, -7848.658603269888, -9643.526034775501, -9894.759642453151, -16240.308134592551, -1785.5020505788389, -880.122289672171, -4977.822897174704, -5977.169391771483, -16419.7255873353, -14696.942531698052, -18872.49426513842, -11175.514599742246, -6053.925282231007, -9987.854658109505, -10581.204066420087, -11295.968150611896, 0.012, -0.026000000000000002, 0.988, 192.0, 0.0, 0.0, 0.0, 0.0, 0.0, 0.0, 0.0, 0.0, 0.0, 1.6444989050324287E9, 0.0, 2022-02-11 00:15:05.032
152.0, -7844.344716590013, -9631.210223580627, -9889.976369139717, -16237.268297346629, -1776.5837045411713, -875.0484436808161, -4959.963853354914, -5977.415260960492, -16419.747939079756, -14698.082470665273, -18884.988890288936, -11187.986873148307, -6046.660965283033, -9985.93240808635, -10582.276950153942, -11295.5658192117, 0.012, -0.026000000000000002, 0.988, 192.0, 0.0, 0.0, 0.0, 0.0, 0.0, 0.0, 0.0, 0.0, 0.0, 1.6444989050324364E9, 0.0, 2022-02-11 00:15:05.032
154.0, -7831.492463528212, -9626.225784567092, -9883.919046392328, -16237.201242113262, -1772.627445772582, -872.0086064348944, -4959.449763232442, -5975.694176637433, -16409.510840119226, -14686.258397848416, -18864.469988878966, -11169.144352572484, -6041.207139635938, -9975.717660870274, -10572.799810504892, -11289.732013908866, 0.012, -0.026000000000000002, 0.988, 192.0, 0.0, 0.0, 0.0, 0.0, 0.0, 0.0, 0.0, 0.0, 0.0, 1.6444989050324445E9, 0.0, 2022-02-11 00:15:05.032
156.0, -7841.2825275996365, -9630.874947413797, -9889.462279017243, -16237.69298049128, -1779.757652253825, -885.7772810193636, -4953.995937585347, -5979.85160110612, -16412.304808176137, -14670.232197073961, -18870.862587793185, -11177.235684065305, -6043.039982681273, -9978.623387649464, -10574.52089482795, -11294.470583733391, 0.01, -0.026000000000000002, 0.994, 192.0, 0.0, 40.0, 127.5, 24.0, 15.5, 8.0, 0.0, 0.0, 0.0, 1.6444989050324516E9, 0.0, 2022-02-11 00:15:05.032
158.0, -7832.051257139595, -9644.397752809256, -9881.236837057691, -16230.138090865386, -1767.106564892121, -876.8142314927854, -4948.586815427162, -5966.574664899667, -16412.34951166505, -14699.691796266055, -18872.002526760403, -11171.580692718113, -6042.8164652367195, -9989.106355799004, -10575.839647750814, -11291.363691254102, 0.01, -0.026000000000000002, 0.994, 192.0, 0.0, 0.0, 0.0, 0.0, 0.0, 0.0, 0.0, 0.0, 0.0, 1.6444989050324636E9, 0.0, 2022-02-11 00:15:05.032
160.0, -7840.544920032611, -9640.709714974131, -9887.964712138739, -16237.02242815762, -1775.9355039519673, -883.2291821514585, -4949.637347416562, -5983.696101152433, -16416.417529155915, -14697.702491009533, -18870.1026284817, -11184.902332413476, -6046.906834472041, -9988.055823809604, -10571.369298859752, -11292.525981965779, 0.01, -0.026000000000000002, 0.994, 192.0, 0.0, 0.0, 0.0, 0.0, 0.0, 0.0, 0.0, 0.0, 0.0, 1.6444989050324705E9, 0.0, 2022-02-11 00:15:05.032
162.0, -7833.638230995922, -9624.102368843838, -9882.130906835902, -16227.187660597285, -1770.816954471702, -876.5460105593218, -4958.488638220863, -5974.710699881399, -16406.091023217563, -14686.95130192653, -18871.667250593575, -11171.82656190712, -6036.6250320226, -9979.02571904966, -10574.766764016958, -11293.956493610918, 0.01, -0.026000000000000002, 0.994, 192.0, 0.0, 0.0, 0.0, 0.0, 0.0, 0.0, 0.0, 0.0, 0.0, 1.6444989050324771E9, 0.0, 2022-02-11 00:15:05.032
164.0, -7824.3175535580585, -9616.189851306659, -9875.179514310303, -16225.645390229869, -1763.463230545906, -873.2603041243916, -4941.233091501366, -5963.959510798396, -16407.074499973598, -14682.369194313193, -18858.01033473138, -11157.946128600375, -6040.693049513466, -9987.340567987034, -10570.721098270547, -11287.407432485514, 0.011, -0.023, 0.994, 192.0, 0.0, 48.0, 127.5, 48.0, 15.5, 8.0, 0.0, 0.0, 0.0, 1.6444989050324864E9, 0.0, 2022-02-11 00:15:05.032
166.0, -7830.620745494455, -9607.875002369286, -9881.326244035512, -16225.086596618487, -1770.1240503935876, -868.6111412776878, -4952.967757340402, -5969.6592056345, -16410.427261641893, -14675.395450043137, -18862.68184932254, -11165.031631592707, -6040.4695320689125, -9966.3522799435, -10570.296415125897, -11286.759231896309, 0.011, -0.023, 0.994, 192.0, 0.0, 0.0, 0.0, 0.0, 0.0, 0.0, 0.0, 0.0, 0.0, 1.644498905032493E9, 0.0, 2022-02-11 00:15:05.032
168.0, -7812.337018530014, -9612.23359253807, -9871.536179964087, -16220.817413427523, -1760.244579344342, -857.412917305579, -4930.906585563014, -5959.600920629611, -16399.05022371414, -14671.081563363263, -18858.569128342766, -11159.175474545416, -6032.333497087181, -9952.784771059129, -10568.016537191455, -11281.797144627231, 0.011, -0.023, 0.994, 192.0, 0.0, 0.0, 0.0, 0.0, 0.0, 0.0, 0.0, 0.0, 0.0, 1.6444989050325E9, 0.0, 2022-02-11 00:15:05.032
170.0, -7813.029922608129, -9620.883717642275, -9871.066793330527, -16225.01954138512, -1755.237788586353, -866.1971528765146, -4940.540187423252, -5974.621292903578, -16393.886970744967, -14657.536406223346, -18846.521538081353, -11148.379581973504, -6023.638668494066, -9948.180311701335, -10562.026269677433, -11280.768964382287, 0.011, -0.023, 0.994, 192.0, 0.0, 0.0, 0.0, 0.0, 0.0, 0.0, 0.0, 0.0, 0.0, 1.6444989050325067E9, 0.0, 2022-02-11 00:15:05.032
172.0, -7821.92591690134, -9614.4687669836, -9868.496342718166, -16216.101195347454, -1760.3339863221631, -866.7559464878973, -4956.052298075235, -5962.014909030785, -16387.96375846431, -14678.971729155986, -18853.338820140223, -11165.366907759537, -6014.921488156497, -9972.789582346628, -10564.037926678411, -11287.474487718879, 0.011, -0.023, 0.994, 192.0, 0.0, 0.0, 0.0, 0.0, 0.0, 0.0, 0.0, 0.0, 0.0, 1.6444989050325136E9, 0.0, 2022-02-11 00:15:05.032
174.0, -7807.039655094106, -9606.04215932395, -9865.009470583138, -16213.933076135289, -1755.1036781196212, -853.6578242370873, -4944.071763047191, -5951.375478670058, -16390.288339887662, -14669.941624396042, -18837.02204668785, -11156.739134399788, -6019.391837047558, -9962.038393263627, -10561.512179554962, -11279.338452737147, 0.0085, -0.0245, 0.994, 192.0, 0.0, 24.0, 127.5, 24.0, 15.5, 8.0, 0.0, 0.0, 0.0, 1.6444989050325203E9, 0.0, 2022-02-11 00:15:05.032
176.0, -7820.249536067193, -9616.122796073294, -9875.71595617723, -16214.022483113109, -1763.3961753125402, -858.6646149950761, -4921.9658877808915, -5951.710754836889, -16394.222246911795, -14669.80751392931, -18848.577898571242, -11151.642936663979, -6021.3364388151695, -9957.433933905833, -10557.958252186567, -11276.879760847063, 0.0085, -0.0245, 0.994, 192.0, 0.0, 0.0, 0.0, 0.0, 0.0, 0.0, 0.0, 0.0, 0.0, 1.6444989050325277E9, 0.0, 2022-02-11 00:15:05.032
178.0, -7812.78405341912, -9612.099482071339, -9862.439019970778, -16209.909762133333, -1746.4759047598727, -844.2700915658584, -4914.2768876882665, -5947.642737346022, -16396.59153182406, -14662.52084523688, -18850.14252068311, -11155.934471599398, -6019.2800783252815, -9952.650660592397, -10550.76099047196, -11274.577531168168, 0.0085, -0.0245, 0.994, 192.0, 0.0, 0.0, 0.0, 0.0, 0.0, 0.0, 0.0, 0.0, 0.0, 1.644498905032535E9, 0.0, 2022-02-11 00:15:05.032
180.0, -7810.25830629567, -9619.386150763768, -9863.780124638097, -16209.686244688779, -1750.8791984175682, -849.2768823238472, -4927.464416916897, -5956.918711294975, -16398.469078358303, -14664.24192955994, -18838.318447866255, -11150.25712850775, -6015.793206190254, -9960.585529874032, -10544.502502024472, -11272.14119102254, 0.0085, -0.0245, 0.994, 192.0, 0.0, 0.0, 0.0, 0.0, 0.0, 0.0, 0.0, 0.0, 0.0, 1.6444989050325425E9, 0.0, 2022-02-11 00:15:05.032
182.0, -7802.792823647598, -9602.242362766548, -9857.722801890708, -16206.02055859811, -1741.91614889099, -846.572321244755, -4925.564518638196, -5952.023679259262, -16388.164924164408, -14670.500418007425, -18843.839328746715, -11160.002489090264, -6007.143081086049, -9957.500989139198, -10544.793074702391, -11271.80591485571, 0.0085, -0.0245, 0.994, 192.0, 0.0, 0.0, 0.0, 0.0, 0.0, 0.0, 0.0, 0.0, 0.0, 1.6444989050325496E9, 0.0, 2022-02-11 00:15:05.032
184.0, -7799.8423933794975, -9594.709824885109, -9853.319508233013, -16204.724157419701, -1737.110523833099, -832.960108871473, -4917.204966211912, -5924.352219623593, -16382.95696770632, -14662.319679536782, -18824.616828515154, -11134.856776578043, -5999.297618782237, -9942.212395931769, -10539.294545566387, -11265.860350830597, 0.00525, -0.02425, 0.994, 192.0, 0.0, 8.0, 127.5, 32.0, 15.5, 8.0, 0.0, 0.0, 0.0, 1.6444989050325563E9, 0.0, 2022-02-11 00:15:05.032
186.0, -7812.292315041103, -9600.722444143586, -9862.841351370973, -16205.975855109198, -1751.1250676065765, -837.9892513739171, -4931.4206756854865, -5940.400772142502, -16388.90253173143, -14664.42074351558, -18833.803395486284, -11146.412628461436, -5998.492955981846, -9930.969468470748, -10542.155568856666, -11264.586301396645, 0.00525, -0.02425, 0.994, 192.0, 0.0, 0.0, 0.0, 0.0, 0.0, 0.0, 0.0, 0.0, 0.0, 1.6444989050325632E9, 0.0, 2022-02-11 00:15:05.032
188.0, -7795.036768321606, -9595.648598152233, -9850.436133198278, -16200.879657373389, -1731.5002359748169, -828.445056491501, -4913.986315010347, -5936.668030818467, -16386.756764263722, -14654.451865488514, -18834.898630964595, -11144.82565460511, -5992.502688467824, -9944.961660499772, -10540.814464189347, -11264.094563018629, 0.00525, -0.02425, 0.994, 192.0, 0.0, 0.0, 0.0, 0.0, 0.0, 0.0, 0.0, 0.0, 0.0, 1.64449890503257E9, 0.0, 2022-02-11 00:15:05.032
190.0, -7796.064948566551, -9590.574752160877, -9852.291327988069, -16201.237285284673, -1733.2883755312414, -834.2341583054255, -4930.16897799599, -5933.98582148383, -16385.348604363036, -14638.693885647523, -18822.80633721427, -11132.241622476771, -5986.870048865087, -9945.25223317769, -10535.740618197993, -11263.535769407246, 0.00525, -0.02425, 0.994, 192.0, 0.0, 0.0, 0.0, 0.0, 0.0, 0.0, 0.0, 0.0, 0.0, 1.6444989050325768E9, 0.0, 2022-02-11 00:15:05.032
192.0, -7795.1485270438825, -9597.593199919844, -9853.207749510735, -16192.922436347299, -1733.7354104203475, -825.6957919234982, -4919.574251124174, -5929.671934803955, -16382.979319450775, -14638.179795525051, -18835.256258875877, -11149.072486051618, -5984.254894763815, -9950.884872780427, -10538.892214166191, -11264.586301396645, 0.00525, -0.02425, 0.994, 192.0, 0.0, 0.0, 0.0, 0.0, 0.0, 0.0, 0.0, 0.0, 0.0, 1.6444989050325837E9, 0.0, 2022-02-11 00:15:05.032
194.0, -7786.274884495126, -9603.874040111785, -9843.060057528026, -16188.385032222872, -1718.4691689573729, -813.3129254952581, -4883.386776851032, -5919.5465945657015, -16384.00749969572, -14651.300269520316, -18821.912267436062, -11126.385465429481, -5986.244200020337, -9936.713866795762, -10526.151719826667, -11253.857464058097, 0.003625, -0.023125, 0.992, 192.0, 0.0, 8.0, 127.5, 40.0, 15.0, 120.0, 0.0, 0.0, 0.0, 1.6444989050325902E9, 0.0, 2022-02-11 00:15:05.032
196.0, -7796.780204389121, -9592.18407776166, -9850.346726220456, -16191.849552613445, -1721.9336893479456, -810.4071987160681, -4903.3021811607105, -5928.5990510701, -16381.14647640544, -14650.786179397845, -18823.29807559229, -11132.263974221227, -5980.410394717503, -9923.481634078222, -10526.531699482406, -11254.84094081413, 0.003625, -0.023125, 0.992, 192.0, 0.0, 0.0, 0.0, 0.0, 0.0, 0.0, 0.0, 0.0, 0.0, 1.6444989050325987E9, 0.0, 2022-02-11 00:15:05.032
198.0, -7781.759832115154, -9591.290007983447, -9834.23111846818, -16184.16055252082, -1704.9687153063674, -810.4295504605235, -4891.120480432568, -5923.547556823201, -16379.224226382285, -14651.635545687146, -18825.265029104357, -11132.174567243406, -5972.050842291217, -9926.879099235428, -10524.296525036874, -11253.745705335821, 0.003625, -0.023125, 0.992, 192.0, 0.0, 0.0, 0.0, 0.0, 0.0, 0.0, 0.0, 0.0, 0.0, 1.6444989050326056E9, 0.0, 2022-02-11 00:15:05.032
200.0, -7786.5878089175, -9590.37358646078, -9837.405066180834, -16185.233436254674, -1715.496386944817, -815.4810447074228, -4914.2768876882665, -5926.3638766245695, -16377.212569381307, -14642.47133046047, -18810.781098697316, -11118.428244403392, -5968.362804456092, -9944.58168084403, -10516.473414477518, -11251.577586123656, 0.003625, -0.023125, 0.992, 192.0, 0.0, 0.0, 0.0, 0.0, 0.0, 0.0, 0.0, 0.0, 0.0, 1.644498905032612E9, 0.0, 2022-02-11 00:15:05.032
202.0, -7781.670425137333, -9576.604911876311, -9836.131016746882, -16183.288834487063, -1715.205814266898, -807.5461754257889, -4907.5266608627635, -5927.369705125058, -16375.446781569337, -14634.447054201015, -18820.77232846884, -11127.167776485418, -5970.843848090631, -9936.557404584575, -10525.056484348355, -11253.298670446715, 0.003625, -0.023125, 0.992, 192.0, 0.0, 0.0, 0.0, 0.0, 0.0, 0.0, 0.0, 0.0, 0.0, 1.6444989050326188E9, 0.0, 2022-02-11 00:15:05.032
204.0, -7775.970730301229, -9582.639882879244, -9828.46436839871, -16176.784476850567, -1704.5216804172612, -807.0320853033168, -4900.105881703602, -5920.351257366092, -16374.597415280035, -14622.824147084255, -18805.304921305767, -11117.53417462518, -5972.7884498582425, -9926.476767835233, -10517.635705189194, -11246.302574432204, 0.0038125, -0.0235625, 0.991, 192.0, 0.0, 16.0, 127.5, 32.0, 15.0, 120.0, 0.0, 0.0, 0.0, 1.6444989050326257E9, 0.0, 2022-02-11 00:15:05.032
206.0, -7790.722881641732, -9590.865324838796, -9837.025086525093, -16184.048793798542, -1708.9026223305016, -815.3692859851463, -4897.557782835696, -5927.526167336246, -16380.677089771878, -14640.817301370776, -18814.24561908789, -11118.696465336856, -5969.636853890044, -9932.847015004994, -10516.138138310687, -11251.331716934648, 0.0038125, -0.0235625, 0.991, 192.0, 0.0, 0.0, 0.0, 0.0, 0.0, 0.0, 0.0, 0.0, 0.0, 1.6444989050326324E9, 0.0, 2022-02-11 00:15:05.032
208.0, -7778.675291380321, -9586.506734670013, -9829.604307365931, -16184.495828687648, -1692.9434767894122, -804.7522073688755, -4890.829907754649, -5922.049989944696, -16377.167865892396, -14638.76094088089, -18815.43026154402, -11128.911212552932, -5964.093621265129, -9930.63419230392, -10513.545335953873, -11249.99061226733, 0.0038125, -0.0235625, 0.991, 192.0, 0.0, 0.0, 0.0, 0.0, 0.0, 0.0, 0.0, 0.0, 0.0, 1.6444989050326393E9, 0.0, 2022-02-11 00:15:05.032
210.0, -7777.49064892419, -9584.673891624678, -9833.314696945512, -16189.614378167915, -1695.402168679496, -801.7794253563196, -4886.180744907945, -5920.977106210841, -16377.301976359127, -14643.678324661056, -18809.61880798564, -11121.691599093867, -5962.640757875533, -9916.016151430149, -10508.60560042925, -11249.051839000207, 0.0038125, -0.0235625, 0.991, 192.0, 0.0, 0.0, 0.0, 0.0, 0.0, 0.0, 0.0, 0.0, 0.0, 1.6444989050326457E9, 0.0, 2022-02-11 00:15:05.032
212.0, -7772.930893055308, -9554.722554054566, -9830.408970166323, -16179.53374141857, -1691.7141308443704, -799.7901200997973, -4885.599599552107, -5917.8478619870975, -16367.847188454532, -14622.310056961782, -18817.352511567176, -11124.954953784341, -5957.656318861999, -9928.421369602844, -10511.399568486164, -11246.660202343488, 0.0038125, -0.0235625, 0.991, 192.0, 0.0, 0.0, 0.0, 0.0, 0.0, 0.0, 0.0, 0.0, 0.0, 1.6444989050326524E9, 0.0, 2022-02-11 00:15:05.032
214.0, -7769.734593598198, -9577.521333398978, -9825.13395847487, -16174.951633805233, -1686.014436008267, -795.543288653289, -4883.789108251227, -5900.391149567503, -16365.030868653164, -14614.442242913514, -18798.733508435907, -11118.875279292499, -5958.952720040407, -9921.022942188138, -10506.593943428272, -11239.552347606701, 0.00690625, -0.02478125, 0.9904999999999999, 192.0, 0.0, 40.0, 127.5, 24.0, 15.0, 120.0, 0.0, 0.0, 0.0, 1.6444989050326593E9, 0.0, 2022-02-11 00:15:05.032
216.0, -7792.131041542416, -9591.08884228335, -9837.18154873628, -16180.517218174604, -1694.95513379039, -800.2818584778141, -4892.550992077708, -5910.047103172195, -16378.799543237632, -14650.830882886754, -18812.233962086913, -11111.834479789077, -5964.3394904541365, -9928.15314866938, -10508.739710895981, -11242.905109274998, 0.00690625, -0.02478125, 0.9904999999999999, 192.0, 0.0, 0.0, 0.0, 0.0, 0.0, 0.0, 0.0, 0.0, 0.0, 1.6444989050326664E9, 0.0, 2022-02-11 00:15:05.032
218.0, -7779.971692558729, -9585.255036980514, -9828.665534098809, -16183.288834487063, -1681.8123080506693, -787.0943292491829, -4879.63168378254, -5904.414463569458, -16378.866598470999, -14634.581164667747, -18815.273799332834, -11125.96078228483, -5961.098487508117, -9920.687666021307, -10507.51036495094, -11243.106274975094, 0.00690625, -0.02478125, 0.9904999999999999, 192.0, 0.0, 0.0, 0.0, 0.0, 0.0, 0.0, 0.0, 0.0, 0.0, 1.6444989050326731E9, 0.0, 2022-02-11 00:15:05.032
220.0, -7782.340977470992, -9581.499943912024, -9835.3710574354, -16182.01478505311, -1685.723863330348, -783.1604222250488, -4883.878515229048, -5905.6438095145, -16378.821894982088, -14621.930077306042, -18805.640197472596, -11125.58080262909, -5962.171371241971, -9917.826642731028, -10505.297542249864, -11237.250117927804, 0.00690625, -0.02478125, 0.9904999999999999, 192.0, 0.0, 0.0, 0.0, 0.0, 0.0, 0.0, 0.0, 0.0, 0.0, 1.64449890503268E9, 0.0, 2022-02-11 00:15:05.032
222.0, -7769.242855220182, -9563.953824514607, -9829.336086432468, -16170.86126456991, -1675.307950414175, -770.3752243966132, -4885.621951296563, -5899.497079789291, -16371.915205945399, -14644.550042694813, -18820.5935145132, -11122.362151427526, -5954.1247432380615, -9912.082244406014, -10510.706664408048, -11235.7525510493, 0.00690625, -0.02478125, 0.9904999999999999, 192.0, 0.0, 0.0, 0.0, 0.0, 0.0, 0.0, 0.0, 0.0, 0.0, 1.6444989050326867E9, 0.0, 2022-02-11 00:15:05.032
224.0, -7757.351727169958, -9559.79640004592, -9816.684999070763, -16167.083819756965, -1665.3837758760187, -766.7095383059428, -4870.623930767051, -5893.752681464277, -16361.476941284769, -14616.23038246994, -18791.737412421397, -11103.541982596158, -5945.586376856134, -9895.497250020177, -10497.832059601791, -11226.565984078168, 0.009453125, -0.027390625000000002, 0.99225, 192.0, 0.0, 48.0, 127.5, 8.0, 15.5, 8.0, 0.0, 0.0, 0.0, 1.6444989050326934E9, 0.0, 2022-02-11 00:15:05.032
226.0, -7781.558666415056, -9584.80800209141, -9827.883223042872, -16167.329688945973, -1678.884229527024, -777.6842448334986, -4888.572381564663, -5904.660332758467, -16368.674202999378, -14625.953391307998, -18802.935636393504, -11103.76550004071, -5951.397830414514, -9904.035616402105, -10500.849545103258, -11231.952754491896, 0.009453125, -0.027390625000000002, 0.99225, 192.0, 0.0, 0.0, 0.0, 0.0, 0.0, 0.0, 0.0, 0.0, 0.0, 1.6444989050327E9, 0.0, 2022-02-11 00:15:05.032
228.0, -7768.617006375433, -9566.837199549342, -9818.629600838376, -16166.815598823501, -1660.3769851180298, -763.7144045489317, -4872.747346490306, -5890.422271540436, -16370.95408093382, -14627.56271690878, -18810.267008574847, -11115.38840715747, -5950.123780980562, -9902.76156696815, -10499.731957880493, -11231.997457980808, 0.009453125, -0.027390625000000002, 0.99225, 192.0, 0.0, 0.0, 0.0, 0.0, 0.0, 0.0, 0.0, 0.0, 0.0, 1.6444989050327084E9, 0.0, 2022-02-11 00:15:05.032
230.0, -7791.371082230936, -9598.129641786772, -9825.223365452692, -16178.036174540064, -1664.5120578422616, -772.1186604641272, -4854.910654414971, -5890.131698862517, -16374.373897835481, -14626.109853519185, -18802.71211894895, -11110.135747210474, -5946.815722801176, -9899.922895422327, -10487.907885063636, -11227.772978278754, 0.009453125, -0.027390625000000002, 0.99225, 192.0, 0.0, 0.0, 0.0, 0.0, 0.0, 0.0, 0.0, 0.0, 0.0, 1.644498905032715E9, 0.0, 2022-02-11 00:15:05.032
232.0, -7801.8987538693855, -9609.461976225612, -9825.603345108431, -16176.851532083934, -1667.5071915992728, -769.6823203184987, -4871.8979802010035, -5893.506812275268, -16377.681956014867, -14639.722065892467, -18819.408872057065, -11130.38642768698, -5942.770057054765, -9907.567192026043, -10495.082795033788, -11234.187928937428, 0.009453125, -0.027390625000000002, 0.99225, 192.0, 0.0, 0.0, 0.0, 0.0, 0.0, 0.0, 0.0, 0.0, 0.0, 1.644498905032722E9, 0.0, 2022-02-11 00:15:05.032
234.0, -7802.614009691955, -9620.257868797526, -9816.528536859578, -16178.706726873725, -1662.500400841284, -767.0671662172277, -4866.019471409259, -5885.348425549081, -16378.553674048624, -14632.61421115568, -18805.170810839034, -11117.15419496944, -5940.22195818686, -9898.268866332635, -10493.205248499544, -11230.812815524676, 0.008, -0.026000000000000002, 0.996, 192.0, 0.0, 32.0, 127.5, 24.0, 15.5, 16.0, 0.0, 0.0, 0.0, 1.644498905032729E9, 0.0, 2022-02-11 00:15:05.032
236.0, -7852.570158549566, -9644.710677231631, -9830.94541203325, -16181.813619353012, -1665.2049619203763, -780.6346751015992, -4851.7590584467725, -5900.435853056414, -16390.33304337657, -14646.382885740148, -18819.051244145783, -11136.175529500906, -5944.6699553334665, -9908.10363389297, -10493.227600243998, -11236.110178960584, 0.008, -0.026000000000000002, 0.996, 192.0, 0.0, 0.0, 0.0, 0.0, 0.0, 0.0, 0.0, 0.0, 0.0, 1.6444989050327356E9, 0.0, 2022-02-11 00:15:05.032
238.0, -7887.617693855488, -9681.099317204871, -9830.431321910777, -16175.733944861167, -1651.145714657988, -767.447145872968, -4849.188607834412, -5871.423288753425, -16416.171659966905, -14652.842539887732, -18837.53613681032, -11130.989924787275, -5946.927481523452, -9903.029787901616, -10491.104184520744, -11232.332734147636, 0.008, -0.026000000000000002, 0.996, 192.0, 0.0, 0.0, 0.0, 0.0, 0.0, 0.0, 0.0, 0.0, 0.0, 1.6444989050327423E9, 0.0, 2022-02-11 00:15:05.032
240.0, -7942.737095682275, -9741.851358634396, -9839.66259237082, -16183.847628098445, -1658.275921139231, -775.0020354988618, -4853.05545962518, -5874.932512632909, -16443.664305646933, -14670.455714518514, -18851.081293950236, -11141.897576081465, -5952.917749037475, -9905.24261060269, -10490.053652531346, -11227.79533002321, 0.008, -0.026000000000000002, 0.996, 192.0, 0.0, 0.0, 0.0, 0.0, 0.0, 0.0, 0.0, 0.0, 0.0, 1.6444989050327504E9, 0.0, 2022-02-11 00:15:05.032
242.0, -7985.451279336367, -9770.5062950261, -9842.925947061294, -16185.211084510218, -1655.9960432047897, -777.0807477332054, -4849.702697956884, -5879.894599901986, -16458.550567454167, -14692.762755484911, -18878.775105330362, -11176.49807649828, -5949.229711202349, -9910.450567060778, -10493.227600243998, -11231.952754491896, 0.008, -0.026000000000000002, 0.996, 192.0, 0.0, 0.0, 0.0, 0.0, 0.0, 0.0, 0.0, 0.0, 0.0, 1.6444989055130055E9, 0.0, 2022-02-11 00:15:05.513
244.0, -7997.431814364411, -9769.500466525611, -9835.259298713125, -16181.523046675093, -1646.5189035557394, -763.6920528044764, -4833.855311138072, -5869.098707330073, -16465.859587891053, -14683.755002469421, -18873.41068666109, -11170.708974684356, -5943.977051255352, -9901.889848934396, -10486.633835629682, -11226.342466633614, 0.006, -0.024, 0.984, 192.0, 0.0, 24.0, 127.5, 32.0, 15.0, 96.0, 0.0, 0.0, 0.0, 1.6444989055131874E9, 0.0, 2022-02-11 00:15:05.513
246.0, -8018.531861130222, -9808.481908855667, -9848.469179686212, -16187.356851977927, -1658.4323833504181, -769.0564714737501, -4846.796971177694, -5869.165762563439, -16478.331861297116, -14680.581054756769, -18887.000547289914, -11168.429096749915, -5946.703964078899, -9903.141546623892, -10488.332568208287, -11224.733141032833, 0.006, -0.024, 0.984, 192.0, 0.0, 0.0, 0.0, 0.0, 0.0, 0.0, 0.0, 0.0, 0.0, 1.6444989055131948E9, 0.0, 2022-02-11 00:15:05.513
248.0, -8007.691265069398, -9802.46928959719, -9837.829749325485, -16176.270386728096, -1652.822095492136, -765.5472475942669, -4846.059363610669, -5866.885884628998, -16471.5369309827, -14684.582017014269, -18887.53698915684, -11169.904311883964, -5944.781714055743, -9918.050160175582, -10491.528867665395, -11221.402731108992, 0.006, -0.024, 0.984, 192.0, 0.0, 0.0, 0.0, 0.0, 0.0, 0.0, 0.0, 0.0, 0.0, 1.6444989055132024E9, 0.0, 2022-02-11 00:15:05.513
250.0, -8003.802061534174, -9792.053376681015, -9837.159196991826, -16183.19942750924, -1659.818191506647, -767.4247941285126, -4871.562704034174, -5877.97234987883, -16475.247320562285, -14689.834676961265, -18871.890768038127, -11169.92666362842, -5947.4862751348355, -9903.186250112802, -10486.633835629682, -11220.039274697217, 0.006, -0.024, 0.984, 192.0, 0.0, 0.0, 0.0, 0.0, 0.0, 0.0, 0.0, 0.0, 0.0, 1.6444989055132103E9, 0.0, 2022-02-11 00:15:05.513
252.0, -7992.290913139691, -9776.541266029033, -9837.51682490311, -16178.01382279561, -1658.208865905865, -767.7377185508869, -4847.601633978085, -5875.938341133397, -16463.490302978793, -14694.617950274702, -18875.26588145088, -11169.92666362842, -5940.870158776064, -9894.714938964242, -10493.451117688552, -11225.940135233419, 0.006, -0.024, 0.984, 192.0, 0.0, 0.0, 0.0, 0.0, 0.0, 0.0, 0.0, 0.0, 0.0, 1.6444989055132203E9, 0.0, 2022-02-11 00:15:05.513
254.0, -7954.67292722141, -9755.240053563126, -9828.509071887622, -16171.956500048222, -1646.1836273889098, -763.4685353599233, -4832.178930303923, -5875.804230666666, -16451.375657484015, -14679.6646332341, -18858.949107998505, -11144.646840649468, -5939.663164575478, -9904.72852048022, -10485.560951895828, -11221.939172975919, 0.01, -0.024, 0.988, 192.0, 0.0, 40.0, 127.5, 32.0, 15.0, 112.0, 0.0, 0.0, 0.0, 1.6444989055132396E9, 0.0, 2022-02-11 00:15:05.513
0.0, -7956.773991200208, -9742.16428305677, -9836.600403380442, -16176.113924516909, -1656.1301536715216, -771.5151633638338, -4854.217750336856, -5889.371739551037, -16439.998619556263, -14683.24091234695, -18855.462235863477, -11146.122055783517, -5933.494083105813, -9904.505003035665, -10486.0750420183, -11226.387170122525, 0.01, -0.024, 0.988, 192.0, 0.0, 0.0, 0.0, 0.0, 0.0, 0.0, 0.0, 0.0, 0.0, 1.6444989055132468E9, 0.0, 2022-02-11 00:15:05.513
2.0, -7924.676886162387, -9699.852430802874, -9823.70344682973, -16173.275252971085, -1645.3566128440634, -756.1595149230379, -4870.243951111312, -5879.246399312782, -16432.30961946364, -14671.215673829995, -18850.857776505683, -11152.961689586842, -5934.991649984318, -9901.688683234297, -10488.332568208287, -11225.627210811044, 0.01, -0.024, 0.988, 192.0, 0.0, 0.0, 0.0, 0.0, 0.0, 0.0, 0.0, 0.0, 0.0, 1.6444989055132537E9, 0.0, 2022-02-11 00:15:05.513
4.0, -7913.970400568295, -9692.051671987972, -9825.312772430512, -16177.745601862145, -1643.6131767765496, -763.222666170915, -4851.870817169049, -5881.436870269403, -16425.96172403833, -14653.647202688124, -18835.859755976173, -11144.736247627288, -5932.130626694039, -9893.843220930485, -10484.197495484053, -11219.525184574746, 0.01, -0.024, 0.988, 192.0, 0.0, 0.0, 0.0, 0.0, 0.0, 0.0, 0.0, 0.0, 0.0, 1.644498905513267E9, 0.0, 2022-02-11 00:15:05.513
6.0, -7897.005426526717, -9686.664901574242, -9824.128129974382, -16171.330651203472, -1648.217636134343, -763.4685353599233, -4855.469448026353, -5870.909198630953, -16419.859697802032, -14648.796874141322, -18845.62746830314, -11153.140503542483, -5924.978068468341, -9907.030750159116, -10482.208190227531, -11225.895431744508, 0.01, -0.024, 0.988, 192.0, 0.0, 0.0, 0.0, 0.0, 0.0, 0.0, 0.0, 0.0, 0.0, 1.6444989055132751E9, 0.0, 2022-02-11 00:15:05.513
8.0, -7888.042377000139, -9677.455982858657, -9817.13203395987, -16174.348136704939, -1640.595691275083, -760.3392911361803, -4821.740665643295, -5856.291157757182, -16411.678959331388, -14655.033010844352, -18828.10370065018, -11132.956878299341, -5925.402751612992, -9896.883058176405, -10478.341338436763, -11217.178251406938, 0.012, -0.03, 0.99, 192.0, 0.0, 48.0, 127.5, 8.0, 15.0, 120.0, 0.0, 0.0, 0.0, 1.6444989055132818E9, 0.0, 2022-02-11 00:15:05.513
10.0, -7882.566199608589, -9662.703831518154, -9827.145615475847, -16180.137238518864, -1648.217636134343, -770.576390096711, -4857.995195149803, -5888.254152328272, -16411.790718053668, -14660.397429513627, -18833.423415830544, -11138.701276624355, -5929.247251659304, -9898.090052376992, -10478.363690181219, -11224.420216610459, 0.012, -0.03, 0.99, 192.0, 0.0, 0.0, 0.0, 0.0, 0.0, 0.0, 0.0, 0.0, 0.0, 1.6444989055132885E9, 0.0, 2022-02-11 00:15:05.513
12.0, -7863.008423210195, -9643.660145242233, -9825.603345108431, -16172.7164593597, -1646.0942204110886, -756.6959567899653, -4863.873703941548, -5855.866474612531, -16407.7227005628, -14649.892109619632, -18834.988037942414, -11143.819826104622, -5926.095655691106, -9902.828622201518, -10486.83500132978, -11228.868213757065, 0.012, -0.03, 0.99, 192.0, 0.0, 0.0, 0.0, 0.0, 0.0, 0.0, 0.0, 0.0, 0.0, 1.6444989055132947E9, 0.0, 2022-02-11 00:15:05.513
14.0, -7857.9569289632955, -9645.984726665583, -9829.112568987915, -16175.309261716517, -1653.8949792259907, -763.3567766376468, -4840.9631658748585, -5859.06277406964, -16412.14834596495, -14649.668592175078, -18826.11439539366, -11130.051151520152, -5933.449379616903, -9895.72076746473, -10485.672710618104, -11221.246268897805, 0.012, -0.03, 0.99, 192.0, 0.0, 0.0, 0.0, 0.0, 0.0, 0.0, 0.0, 0.0, 0.0, 1.6444989055133016E9, 0.0, 2022-02-11 00:15:05.513
16.0, -7848.993879436717, -9622.940078132162, -9825.335124174968, -16172.180017492774, -1653.0903164255997, -762.060375459239, -4847.378116533532, -5871.311530031148, -16405.934561006376, -14636.346952479715, -18830.093005906703, -11132.845119577065, -5926.095655691106, -9901.085186134003, -10486.83500132978, -11228.64469631251, 0.012, -0.03, 0.99, 192.0, 0.0, 0.0, 0.0, 0.0, 0.0, 0.0, 0.0, 0.0, 0.0, 1.6444989055133083E9, 0.0, 2022-02-11 00:15:05.513
18.0, -7824.0269808801395, -9604.343426745347, -9811.253525168124, -16165.161569733807, -1635.566548772639, -750.7503927648536, -4842.505436242275, -5863.689585171889, -16393.797563767144, -14621.28187671684, -18809.775270196827, -11110.113395466018, -5922.318210878159, -9892.90444766336, -10482.275245460898, -11225.135472433029, 0.008, -0.024, 0.996, 192.0, 0.0, 32.0, 127.5, 32.0, 15.5, 16.0, 0.0, 0.0, 0.0, 1.6444989055133154E9, 0.0, 2022-02-11 00:15:05.513
20.0, -7826.955059403785, -9615.832223395375, -9814.740397303152, -16161.361773176406, -1645.6918890108932, -754.5054858333452, -4864.566608019663, -5870.082184086106, -16384.879217729478, -14628.881469831644, -18810.356415552666, -11116.550697869146, -5913.511623562768, -9891.429232529312, -10479.190704726065, -11224.666085799467, 0.008, -0.024, 0.996, 192.0, 0.0, 0.0, 0.0, 0.0, 0.0, 0.0, 0.0, 0.0, 0.0, 1.644498905513322E9, 0.0, 2022-02-11 00:15:05.513
22.0, -7816.852070909986, -9609.394920992247, -9808.70542630022, -16165.228624967174, -1632.0573248931557, -747.1294101630939, -4845.321756043644, -5864.82952413911, -16377.659604270411, -14630.51314717688, -18807.651854473574, -11111.34274141106, -5905.375588581037, -9887.852953416463, -10481.001196026946, -11225.448396855403, 0.008, -0.024, 0.996, 192.0, 0.0, 0.0, 0.0, 0.0, 0.0, 0.0, 0.0, 0.0, 0.0, 1.6444989055133286E9, 0.0, 2022-02-11 00:15:05.513
24.0, -7815.958001131774, -9596.60972316381, -9814.338065902957, -16171.040078525553, -1636.9076534399574, -752.6502910435547, -4858.732802716828, -5874.373719021526, -16387.024985197186, -14626.288667474828, -18803.71794744944, -11119.188203714873, -5911.745835750799, -9885.260151059647, -10475.1226872352, -11224.84489975511, 0.008, -0.024, 0.996, 192.0, 0.0, 0.0, 0.0, 0.0, 0.0, 0.0, 0.0, 0.0, 0.0, 1.6444989055133352E9, 0.0, 2022-02-11 00:15:05.513
26.0, -7805.027998093128, -9582.058737523406, -9816.774406048586, -16159.752447575624, -1638.7181447408373, -749.4986950753564, -4847.221654322345, -5873.479649243313, -16388.05316544213, -14628.903821576097, -18817.933656923014, -11124.932602039886, -5907.141376393006, -9901.755738467662, -10481.939969294068, -11222.430911353937, 0.008, -0.024, 0.996, 192.0, 0.0, 0.0, 0.0, 0.0, 0.0, 0.0, 0.0, 0.0, 0.0, 1.644498905513342E9, 0.0, 2022-02-11 00:15:05.513
28.0, -7782.385680959903, -9569.340594928337, -9800.949370974227, -16152.823406794478, -1631.1632551149435, -746.6600235295324, -4839.823226907638, -5865.611835195045, -16376.81023798111, -14617.124452248152, -18799.471116002933, -11112.840308289566, -5905.554402536679, -9892.166840096335, -10477.69313784756, -11212.976123449342, 0.01, -0.024, 0.992, 192.0, 0.0, 40.0, 127.5, 32.0, 15.5, 0.0, 0.0, 0.0, 0.0, 1.6444989055133488E9, 0.0, 2022-02-11 00:15:05.513
30.0, -7803.262210281159, -9587.691377126142, -9811.432339123767, -16154.991526006643, -1646.8988832114796, -751.4656485874234, -4862.599654507596, -5874.3513672770705, -16376.966700192297, -14620.03017902734, -18799.560522980755, -11108.951104754342, -5903.945076935897, -9892.233895329702, -10486.589132140773, -11219.83810899712, 0.01, -0.024, 0.992, 192.0, 0.0, 0.0, 0.0, 0.0, 0.0, 0.0, 0.0, 0.0, 0.0, 1.6444989055133553E9, 0.0, 2022-02-11 00:15:05.513
32.0, -7774.294349467082, -9562.433905891647, -9794.422661593278, -16143.458025867705, -1628.2351765912983, -739.0827821591834, -4853.971881147848, -5877.6370737120005, -16366.841359954044, -14616.31978944776, -18799.091136347193, -11097.8199360156, -5896.077262887628, -9880.722746935218, -10493.093489777266, -11221.98387646483, 0.01, -0.024, 0.992, 192.0, 0.0, 0.0, 0.0, 0.0, 0.0, 0.0, 0.0, 0.0, 0.0, 1.6444989055133624E9, 0.0, 2022-02-11 00:15:05.513
34.0, -7770.271035465126, -9549.358135385291, -9795.27202788258, -16153.605717850414, -1619.4509410203625, -750.6609857870324, -4844.159465331968, -5876.564189978146, -16355.196101092828, -14594.213914181462, -18776.068839558226, -11079.402098584425, -5885.013149382252, -9877.705261433752, -10477.044937258355, -11225.850728255598, 0.01, -0.024, 0.992, 192.0, 0.0, 0.0, 0.0, 0.0, 0.0, 0.0, 0.0, 0.0, 0.0, 1.644498905513369E9, 0.0, 2022-02-11 00:15:05.513
36.0, -7773.713204111244, -9546.944146984119, -9797.03781569455, -16157.24905219663, -1626.0447056346782, -753.2984916327587, -4847.869854911549, -5878.799364423677, -16360.448761039826, -14608.094347488208, -18792.475019988422, -11105.799508786144, -5885.5048877602685, -9888.210581327747, -10484.577475139795, -11232.578603336646, 0.01, -0.024, 0.992, 192.0, 0.0, 0.0, 0.0, 0.0, 0.0, 0.0, 0.0, 0.0, 0.0, 1.644498905513379E9, 0.0, 2022-02-11 00:15:05.513
38.0, -7763.699622595266, -9546.787684772931, -9793.349777859423, -16157.919604530289, -1627.341106813086, -745.0506979287503, -4858.8669131835595, -5870.1268875750175, -16362.996859907731, -14607.870830043654, -18782.90847336155, -11099.04928196064, -5886.466012771847, -9882.086203346993, -10483.50459140594, -11230.36578063557, 0.012, -0.022, 0.99, 192.0, 0.0, 48.0, 127.5, 40.0, 15.0, 120.0, 0.0, 0.0, 0.0, 1.6444989055133855E9, 0.0, 2022-02-11 00:15:05.513
40.0, -7778.474125680224, -9544.105475438295, -9802.961027975205, -16160.82533130948, -1637.667612751438, -740.5579972932336, -4856.296462571199, -5878.7546609347655, -16366.617842509491, -14612.27412370135, -18787.065897830238, -11101.977360484287, -5887.02480638323, -9870.306834019046, -10486.991463540968, -11231.058684713684, 0.012, -0.022, 0.99, 192.0, 0.0, 0.0, 0.0, 0.0, 0.0, 0.0, 0.0, 0.0, 0.0, 1.6444989055133927E9, 0.0, 2022-02-11 00:15:05.513
42.0, -7778.049442535573, -9554.566091843379, -9801.172888418781, -16151.661116082803, -1631.565586515139, -740.6697560155102, -4844.181817076423, -5872.384413765003, -16367.176636120874, -14612.31882719026, -18794.91136013405, -11108.548773354147, -5890.332864562615, -9878.822848656519, -10486.902056563147, -11226.476577100346, 0.012, -0.022, 0.99, 192.0, 0.0, 0.0, 0.0, 0.0, 0.0, 0.0, 0.0, 0.0, 0.0, 1.6444989055133991E9, 0.0, 2022-02-11 00:15:05.513
44.0, -7776.417765190336, -9554.27551916546, -9803.720987286686, -16154.633898095359, -1642.406182575963, -744.2236833839039, -4862.018509151758, -5884.476707515324, -16369.85884545551, -14613.79404232431, -18782.863769872638, -11099.00457847173, -5891.875134930031, -9875.067755588027, -10486.589132140773, -11225.291934644216, 0.012, -0.022, 0.99, 192.0, 0.0, 0.0, 0.0, 0.0, 0.0, 0.0, 0.0, 0.0, 0.0, 1.6444989055134256E9, 0.0, 2022-02-11 00:15:05.513
46.0, -7768.482895908702, -9537.981097457541, -9800.681150040764, -16150.632935837859, -1642.8308657206137, -742.8155234832196, -4865.527733031241, -5875.40189926647, -16366.081400642563, -14616.02921676984, -18792.117392077136, -11101.19504942835, -5887.985931394807, -9877.52644747811, -10494.546353166861, -11230.142263191017, 0.01, -0.026, 0.99, 192.0, 0.0, 32.0, 127.5, 8.0, 15.0, 120.0, 0.0, 0.0, 0.0, 1.6444989055134325E9, 0.0, 2022-02-11 00:15:05.513
48.0, -7758.893997537375, -9535.008315444984, -9796.657836038808, -16149.20242419272, -1634.4713132943289, -736.4452763134572, -4843.064229853658, -5866.4835532288025, -16358.705324972312, -14600.047719484297, -18777.700516903464, -11094.154249924928, -5888.92470466193, -9872.251435786657, -10488.310216463831, -11223.436739854425, 0.01, -0.026, 0.99, 192.0, 0.0, 0.0, 0.0, 0.0, 0.0, 0.0, 0.0, 0.0, 0.0, 1.64449890551344E9, 0.0, 2022-02-11 00:15:05.513
50.0, -7772.215637232738, -9533.980135200041, -9806.336141387957, -16152.063447482999, -1643.7696389877367, -746.2129886404263, -4860.208017850879, -5881.928608647419, -16366.930766931864, -14607.289684687816, -18782.99788033937, -11106.939447753364, -5891.919838418942, -9884.09786034797, -10493.920504322114, -11230.634001569033, 0.01, -0.026, 0.99, 192.0, 0.0, 0.0, 0.0, 0.0, 0.0, 0.0, 0.0, 0.0, 0.0, 1.6444989055134466E9, 0.0, 2022-02-11 00:15:05.513
52.0, -7756.859988791942, -9521.88784144972, -9791.628693536364, -16149.403589892816, -1627.2069963463541, -728.28688958727, -4842.751305431283, -5863.130791560507, -16361.09696162903, -14610.016597511363, -18782.729659405908, -11097.57406682659, -5881.660387713956, -9863.355441493446, -10495.663940389626, -11228.354123634592, 0.01, -0.026, 0.99, 192.0, 0.0, 0.0, 0.0, 0.0, 0.0, 0.0, 0.0, 0.0, 0.0, 1.6444989055134656E9, 0.0, 2022-02-11 00:15:05.513
54.0, -7773.288520966593, -9545.871263250263, -9793.863867981896, -16154.34332541744, -1631.565586515139, -745.5200845623118, -4855.4023927929875, -5877.726480689822, -16359.509987772703, -14608.541382377314, -18765.80938885324, -11094.780098769677, -5879.11228884605, -9877.19117131128, -10487.818478085814, -11226.856556756087, 0.01, -0.026, 0.99, 192.0, 0.0, 0.0, 0.0, 0.0, 0.0, 0.0, 0.0, 0.0, 0.0, 1.6444989055134723E9, 0.0, 2022-02-11 00:15:05.513
56.0, -7777.602407646466, -9554.052001720906, -9796.635484294353, -16154.477435884171, -1634.3148510831418, -744.6036630396442, -4848.607462478574, -5877.1676870784395, -16361.298127329128, -14618.912591804576, -18785.590682696187, -11106.112433208518, -5878.419384767936, -9881.326244035512, -10492.825268843802, -11236.534862105234, 0.01, -0.028999999999999998, 0.991, 192.0, 0.0, 40.0, 127.5, 0.0, 15.5, 0.0, 0.0, 0.0, 0.0, 1.6444989055134788E9, 0.0, 2022-02-11 00:15:05.513
58.0, -7768.996986031174, -9549.402838874203, -9791.405176091812, -16158.34428767494, -1622.9154614109352, -743.5084275613341, -4825.518110456242, -5871.467992242336, -16366.327269831572, -14625.03696978533, -18781.232092527403, -11107.274723920194, -5877.860591156554, -9879.180476567803, -10484.152791995144, -11231.550423091701, 0.01, -0.028999999999999998, 0.991, 192.0, 0.0, 0.0, 0.0, 0.0, 0.0, 0.0, 0.0, 0.0, 0.0, 1.6444989055134857E9, 0.0, 2022-02-11 00:15:05.513
60.0, -7786.654864150866, -9548.911100496185, -9807.587839077454, -16162.300546443528, -1639.0534209076668, -745.5424363067671, -4859.537465517219, -5886.868344172042, -16375.20091238033, -14616.453899914492, -18790.843342643184, -11112.057997233629, -5882.576809236623, -9888.076470861015, -10485.873876318203, -11237.339524905627, 0.01, -0.028999999999999998, 0.991, 192.0, 0.0, 0.0, 0.0, 0.0, 0.0, 0.0, 0.0, 0.0, 0.0, 1.644498905513492E9, 0.0, 2022-02-11 00:15:05.513
62.0, -7778.474125680224, -9540.12686492525, -9801.50816458561, -16156.9137760298, -1628.1457696134771, -737.2946426027588, -4854.731840459328, -5881.705091202866, -16377.23492112576, -14627.965048308975, -18802.645063715587, -11119.702293837345, -5881.369815036037, -9882.935569636295, -10491.685329876582, -11238.680629572944, 0.01, -0.028999999999999998, 0.991, 192.0, 0.0, 0.0, 0.0, 0.0, 0.0, 0.0, 0.0, 0.0, 0.0, 1.6444989055134988E9, 0.0, 2022-02-11 00:15:05.513
64.0, -7787.213657762249, -9555.750734299509, -9805.151498931826, -16163.775761577579, -1635.0301069057116, -733.3383838341695, -4838.348011773588, -5860.605044437057, -16376.609072281013, -14625.729873863445, -18788.027022841816, -11106.000674486242, -5878.419384767936, -9872.497304975666, -10486.231504229487, -11233.18210043694, 0.01, -0.028999999999999998, 0.991, 192.0, 0.0, 0.0, 0.0, 0.0, 0.0, 0.0, 0.0, 0.0, 0.0, 1.6444989055135055E9, 0.0, 2022-02-11 00:15:05.513
66.0, -7796.735500900209, -9556.264824421982, -9812.32640890198, -16164.826293566979, -1643.5461215431835, -741.4520670714459, -4843.555968231674, -5865.567131706135, -16387.941406719852, -14634.312943734283, -18812.05514813127, -11128.82180557511, -5884.811983682154, -9875.157162565847, -10492.802917099347, -11239.664106328977, 0.009000000000000001, -0.0295, 0.9904999999999999, 192.0, 0.0, 32.0, 127.5, 8.0, 15.0, 120.0, 0.0, 0.0, 0.0, 1.644498905513512E9, 0.0, 2022-02-11 00:15:05.513
68.0, -7782.653901893366, -9551.190978430626, -9805.687940798753, -16161.115903987398, -1633.9572231718569, -736.6240902690996, -4837.588052462108, -5867.042346840185, -16382.152304905929, -14623.427644184549, -18795.179581067514, -11113.15323271194, -5887.002454638774, -9890.490459262188, -10495.820402600813, -11238.904147017498, 0.009000000000000001, -0.0295, 0.9904999999999999, 192.0, 0.0, 0.0, 0.0, 0.0, 0.0, 0.0, 0.0, 0.0, 0.0, 1.64449890551352E9, 0.0, 2022-02-11 00:15:05.513
70.0, -7793.025111320629, -9566.837199549342, -9814.628638580876, -16159.663040597803, -1636.9970604177786, -743.3072618612364, -4838.325660029132, -5871.78091666471, -16384.23101714027, -14641.912536849088, -18799.113488091647, -11114.024950745697, -5884.230838326316, -9881.661520202342, -10495.596885156261, -11241.027562740752, 0.009000000000000001, -0.0295, 0.9904999999999999, 192.0, 0.0, 0.0, 0.0, 0.0, 0.0, 0.0, 0.0, 0.0, 0.0, 1.644498905513527E9, 0.0, 2022-02-11 00:15:05.513
72.0, -7772.640320377389, -9553.359097642791, -9804.07861519797, -16153.069275983487, -1629.7997987031697, -735.2159303684152, -4838.169197817945, -5868.942245118886, -16377.301976359127, -14635.341123979226, -18800.342834036688, -11116.01425600222, -5876.251265555771, -9876.073584088515, -10495.976864812, -11237.674801072455, 0.009000000000000001, -0.0295, 0.9904999999999999, 192.0, 0.0, 0.0, 0.0, 0.0, 0.0, 0.0, 0.0, 0.0, 0.0, 1.644498905513533E9, 0.0, 2022-02-11 00:15:05.513
74.0, -7778.474125680224, -9539.277498635949, -9808.213687922203, -16156.176168462775, -1640.081601152611, -736.4676280579124, -4860.789163206717, -5879.02288186823, -16375.536188547158, -14625.931039563542, -18787.155304808057, -11100.457441861325, -5874.552532977168, -9873.078450331504, -10496.423899701107, -11238.993553995319, 0.009000000000000001, -0.0295, 0.9904999999999999, 192.0, 0.0, 0.0, 0.0, 0.0, 0.0, 0.0, 0.0, 0.0, 0.0, 1.64449890551354E9, 0.0, 2022-02-11 00:15:05.513
76.0, -7783.369157715936, -9551.347440641814, -9810.113586200903, -16160.981793520665, -1644.3507843435748, -735.1488751350493, -4855.022413137247, -5886.890695916498, -16377.77136299269, -14627.13803376413, -18803.226209071425, -11125.401988673448, -5875.5807132221125, -9879.605159712453, -10504.068196304823, -11245.922594776464, 0.0085, -0.02775, 0.99025, 192.0, 0.0, 32.0, 127.5, 24.0, 15.0, 120.0, 0.0, 0.0, 0.0, 1.6444989055135467E9, 0.0, 2022-02-11 00:15:05.513
78.0, -7769.242855220182, -9553.582615087345, -9799.340045373447, -16164.222796466685, -1635.4771417948177, -733.9418809344627, -4858.799857950194, -5882.152126091973, -16373.680993757367, -14635.385827468137, -18792.832647899708, -11117.712988580823, -5870.283349786205, -9880.14160157938, -10499.843716602769, -11244.961469764885, 0.0085, -0.02775, 0.99025, 192.0, 0.0, 0.0, 0.0, 0.0, 0.0, 0.0, 0.0, 0.0, 0.0, 1.6444989055135536E9, 0.0, 2022-02-11 00:15:05.513
80.0, -7791.549896186579, -9556.5553970999, -9814.002789736127, -16172.984680293166, -1647.3906215894965, -751.3538898651469, -4844.472389754342, -5878.374681279026, -16376.631424025469, -14636.034028057342, -18794.397270011577, -11116.43893914687, -5871.222123053328, -9878.129944578403, -10503.151774782154, -11249.968260522874, 0.0085, -0.02775, 0.99025, 192.0, 0.0, 0.0, 0.0, 0.0, 0.0, 0.0, 0.0, 0.0, 0.0, 1.6444989055135603E9, 0.0, 2022-02-11 00:15:05.513
82.0, -7780.642244892389, -9552.621490075766, -9805.643237309843, -16162.926395288277, -1634.247795849776, -746.6823752739878, -4847.199302577889, -5875.513657988747, -16384.47688632928, -14639.23032751445, -18804.67907246102, -11126.519575896213, -5878.821716168131, -9899.118232621937, -10504.492879449474, -11251.398772168013, 0.0085, -0.02775, 0.99025, 192.0, 0.0, 0.0, 0.0, 0.0, 0.0, 0.0, 0.0, 0.0, 0.0, 1.6444989055135677E9, 0.0, 2022-02-11 00:15:05.513
84.0, -7785.827849606019, -9550.810998774887, -9812.773443791086, -16169.140180246852, -1640.8415604640916, -746.190636895971, -4841.298442041689, -5879.089937101596, -16384.029851440173, -14638.895051347621, -18792.095040332682, -11124.82084331761, -5878.642902212489, -9883.695528947776, -10500.558972425339, -11245.654373843, 0.0085, -0.02775, 0.99025, 192.0, 0.0, 0.0, 0.0, 0.0, 0.0, 0.0, 0.0, 0.0, 0.0, 1.6444989055135741E9, 0.0, 2022-02-11 00:15:05.513
86.0, -7783.145640271383, -9552.554434842401, -9808.236039666657, -16164.714534844701, -1637.7123162403484, -753.9913957108731, -4845.634680466018, -5891.271637829738, -16384.18631365136, -14643.052475816308, -18801.594531726187, -11134.566203900124, -5878.128812090017, -9885.058985359548, -10505.83398411679, -11252.069324501674, 0.00825, -0.028874999999999998, 0.989125, 192.0, 0.0, 32.0, 127.5, 8.0, 15.0, 112.0, 0.0, 0.0, 0.0, 1.6444989055135808E9, 0.0, 2022-02-11 00:15:05.513
88.0, -7773.86966632243, -9562.568016358378, -9802.55869657501, -16165.943880789744, -1635.9241766839239, -742.0555641717392, -4846.685212455418, -5871.2444747977825, -16379.961833949308, -14620.56662089427, -18790.932749621006, -11114.561392612624, -5876.094803344585, -9881.549761480066, -10506.258667261442, -11251.510530890291, 0.00825, -0.028874999999999998, 0.989125, 192.0, 0.0, 0.0, 0.0, 0.0, 0.0, 0.0, 0.0, 0.0, 0.0, 1.6444989055135875E9, 0.0, 2022-02-11 00:15:05.513
90.0, -7791.996931075684, -9552.085048208839, -9812.862850768906, -16170.704802358725, -1648.1952843898875, -746.1682851515156, -4842.572491475641, -5871.624454453523, -16388.500200331237, -14644.32652525026, -18800.365185781146, -11129.984096286786, -5879.626378968523, -9885.170744081825, -10509.522021951918, -11250.951737278907, 0.00825, -0.028874999999999998, 0.989125, 192.0, 0.0, 0.0, 0.0, 0.0, 0.0, 0.0, 0.0, 0.0, 0.0, 1.6444989055135946E9, 0.0, 2022-02-11 00:15:05.513
92.0, -7780.083451281006, -9557.672984322666, -9809.84536526744, -16167.016764523598, -1642.2944238536863, -741.0273839267951, -4848.115724100558, -5876.2289138113165, -16388.790773009154, -14639.23032751445, -18804.254389316367, -11136.242584734271, -5879.939303390897, -9882.019148113626, -10512.494803964473, -11252.672821601966, 0.00825, -0.028874999999999998, 0.989125, 192.0, 0.0, 0.0, 0.0, 0.0, 0.0, 0.0, 0.0, 0.0, 0.0, 1.6444989055136013E9, 0.0, 2022-02-11 00:15:05.513
94.0, -7789.202963018771, -9572.626301363267, -9817.08733047096, -16173.00703203762, -1643.6355285210047, -741.2956048602588, -4851.736706702317, -5884.16378309295, -16391.093002688052, -14643.94654559452, -18796.230113056914, -11116.505994380235, -5880.721614446833, -9872.542008464576, -10512.181879542099, -11252.494007646324, 0.00825, -0.028874999999999998, 0.989125, 192.0, 0.0, 0.0, 0.0, 0.0, 0.0, 0.0, 0.0, 0.0, 0.0, 1.6444989055136087E9, 0.0, 2022-02-11 00:15:05.513
96.0, -7793.606256676467, -9571.08403099585, -9820.350685161435, -16170.704802358725, -1647.077697167122, -743.061392672228, -4849.546235745697, -5883.269713314738, -16393.015252711208, -14648.32748750776, -18811.183430097513, -11131.63812537648, -5882.912085403453, -9877.459392244744, -10514.729978410003, -11254.215091969383, 0.008125, -0.0304375, 0.9895625, 192.0, 0.0, 32.0, 127.5, 0.0, 15.0, 120.0, 0.0, 0.0, 0.0, 1.6444989055136168E9, 0.0, 2022-02-11 00:15:05.513
98.0, -7780.083451281006, -9559.617586090277, -9811.65585656832, -16167.888482557355, -1635.566548772639, -733.9418809344627, -4841.38784901951, -5876.363024278048, -16390.24363639875, -14636.168138524074, -18799.82874391422, -11123.792663072665, -5881.6380359695, -9879.918084134828, -10511.488975463984, -11247.107237232594, 0.008125, -0.0304375, 0.9895625, 192.0, 0.0, 0.0, 0.0, 0.0, 0.0, 0.0, 0.0, 0.0, 0.0, 1.6444989055136237E9, 0.0, 2022-02-11 00:15:05.513
100.0, -7792.354558986969, -9550.140446441228, -9815.969743248193, -16171.978851792677, -1642.18266513141, -749.5210468198118, -4846.528750244231, -5889.6399604845, -16392.635273055468, -14641.666667660078, -18803.270912560336, -11129.000619530752, -5873.792573665688, -9878.420517256322, -10510.349036496764, -11254.03627801374, 0.008125, -0.0304375, 0.9895625, 192.0, 0.0, 0.0, 0.0, 0.0, 0.0, 0.0, 0.0, 0.0, 0.0, 1.6444989055136323E9, 0.0, 2022-02-11 00:15:05.513
102.0, -7782.497439682179, -9557.449466878114, -9809.4653856117, -16162.792284821546, -1634.6724789944267, -742.0108606828286, -4861.370308562554, -5887.78476569471, -16387.628482297478, -14627.115682019674, -18807.137764351104, -11127.748921841256, -5870.149239319473, -9888.232933072202, -10513.232411531499, -11260.138304250038, 0.008125, -0.0304375, 0.9895625, 192.0, 0.0, 0.0, 0.0, 0.0, 0.0, 0.0, 0.0, 0.0, 0.0, 1.6444989055136387E9, 0.0, 2022-02-11 00:15:05.513
104.0, -7786.20782926176, -9548.754638284998, -9813.354589146924, -16172.7164593597, -1634.7171824833374, -747.1070584186385, -4834.838787894105, -5883.470879014836, -16391.182409665875, -14640.057342059297, -18798.487639246898, -11127.793625330165, -5873.054966098663, -9879.582807967998, -10509.924353352113, -11257.545501893223, 0.008125, -0.0304375, 0.9895625, 192.0, 0.0, 0.0, 0.0, 0.0, 0.0, 0.0, 0.0, 0.0, 0.0, 1.6444989055136454E9, 0.0, 2022-02-11 00:15:05.513
106.0, -7786.185477517305, -9544.194882416115, -9817.04262698205, -16181.478343186182, -1632.9290429269129, -750.5492270647559, -4835.419933249943, -5887.8518209280755, -16395.00455796773, -14645.08648456174, -18812.47983127592, -11144.937413327387, -5878.106460345562, -9886.355386537956, -10508.247972517966, -11263.491065918335, 0.0070625, -0.03021875, 0.99078125, 192.0, 0.0, 24.0, 127.5, 8.0, 15.5, 0.0, 0.0, 0.0, 0.0, 1.644498905991799E9, 0.0, 2022-02-11 00:15:05.991
108.0, -7780.843410592486, -9556.108362210794, -9810.98530423466, -16181.701860630736, -1623.2283858333094, -746.3694508516135, -4859.5151137727635, -5898.200678610883, -16388.835476498065, -14643.678324661056, -18799.493467747387, -11125.53609914018, -5876.45243125587, -9881.549761480066, -10505.096376549767, -11266.866179331086, 0.0070625, -0.03021875, 0.99078125, 192.0, 0.0, 0.0, 0.0, 0.0, 0.0, 0.0, 0.0, 0.0, 0.0, 1.6444989059919696E9, 0.0, 2022-02-11 00:15:05.991
110.0, -7803.888059125908, -9555.41545813268, -9826.430359653277, -16191.268407257607, -1637.4217435624296, -749.1187154196163, -4845.791142677205, -5879.469916757335, -16398.267912658204, -14651.367324753683, -18810.95991265296, -11136.06377077863, -5880.028710368719, -9876.85589514445, -10509.790242885381, -11266.665013630989, 0.0070625, -0.03021875, 0.99078125, 192.0, 0.0, 0.0, 0.0, 0.0, 0.0, 0.0, 0.0, 0.0, 0.0, 1.6444989059919772E9, 0.0, 2022-02-11 00:15:05.991
112.0, -7796.579038689022, -9554.610795332288, -9822.56350786251, -16183.0206135536, -1631.9455661708791, -747.4870380743788, -4826.6356976790075, -5870.3057015306595, -16404.749918550246, -14651.434379987048, -18823.767462225853, -11148.40193371796, -5884.074376115129, -9891.742156951685, -10511.51132720844, -11264.675708374467, 0.0070625, -0.03021875, 0.99078125, 192.0, 0.0, 0.0, 0.0, 0.0, 0.0, 0.0, 0.0, 0.0, 0.0, 1.6444989059919844E9, 0.0, 2022-02-11 00:15:05.991
114.0, -7797.428404978324, -9551.615661575277, -9825.446882897244, -16172.068258770498, -1639.9921941747898, -755.9136457340295, -4839.800875163183, -5879.648730712978, -16405.666340072912, -14648.28278401885, -18805.86371491715, -11129.91704105342, -5885.124908104528, -9899.989950655694, -10512.427748731106, -11257.61255712659, 0.0070625, -0.03021875, 0.99078125, 192.0, 0.0, 0.0, 0.0, 0.0, 0.0, 0.0, 0.0, 0.0, 0.0, 1.6444989059919944E9, 0.0, 2022-02-11 00:15:05.991
116.0, -7799.238896279204, -9550.676888308155, -9831.23598471117, -16171.643575625847, -1649.3128716126528, -753.6337677995882, -4844.852369410082, -5889.014111639752, -16404.81697378361, -14643.343048494227, -18814.87146793264, -11137.941317312876, -5885.996626138285, -9895.117270364437, -10523.782434914403, -11264.586301396645, 0.01, -0.032, 0.988, 192.0, 0.0, 40.0, 127.5, 0.0, 15.0, 112.0, 0.0, 0.0, 0.0, 1.6444989059920027E9, 0.0, 2022-02-11 00:15:05.992
118.0, -7789.851163607975, -9538.763408513476, -9817.266144426601, -16177.186808250763, -1637.667612751438, -733.5395495342672, -4842.572491475641, -5876.430079511414, -16401.687729559868, -14631.876603588655, -18805.081403861215, -11131.682828865389, -5882.867381914542, -9880.365119023934, -10517.546298211373, -11256.964356537384, 0.01, -0.032, 0.988, 192.0, 0.0, 0.0, 0.0, 0.0, 0.0, 0.0, 0.0, 0.0, 0.0, 1.6444989059920104E9, 0.0, 2022-02-11 00:15:05.992
120.0, -7803.753948659176, -9553.180283687148, -9827.592650364953, -16186.01574731061, -1647.725897756326, -746.5706165517112, -4845.947604888393, -5887.02480638323, -16405.509877861725, -14648.998039841419, -18810.53522950831, -11129.045323019664, -5880.721614446833, -9886.221276071225, -10516.674580177616, -11263.580472896156, 0.01, -0.032, 0.988, 192.0, 0.0, 0.0, 0.0, 0.0, 0.0, 0.0, 0.0, 0.0, 0.0, 1.6444989059920194E9, 0.0, 2022-02-11 00:15:05.992
122.0, -7792.868649109441, -9541.579728314844, -9822.474100884689, -16185.188732765762, -1639.0310691632117, -741.4744188159012, -4848.518055500753, -5883.381472037015, -16402.53709584917, -14646.47229271797, -18814.58089525472, -11141.383485958993, -5880.945131891386, -9891.67510171832, -10519.423844745617, -11264.6086531411, 0.01, -0.032, 0.988, 192.0, 0.0, 0.0, 0.0, 0.0, 0.0, 0.0, 0.0, 0.0, 0.0, 1.6444989059920263E9, 0.0, 2022-02-11 00:15:05.992
124.0, -7793.852125865475, -9545.893614994719, -9825.13395847487, -16193.011843325121, -1647.1894558893987, -749.7445642643648, -4861.593826007107, -5880.520448746735, -16401.397156881947, -14643.857138616699, -18801.639235215098, -11139.43888419138, -5878.195867323383, -9891.518639507132, -10516.071083077322, -11264.541597907735, 0.01, -0.032, 0.988, 192.0, 0.0, 0.0, 0.0, 0.0, 0.0, 0.0, 0.0, 0.0, 0.0, 1.6444989059920464E9, 0.0, 2022-02-11 00:15:05.992
126.0, -7804.78212890412, -9546.720629539566, -9830.431321910777, -16207.004035354143, -1647.725897756326, -755.220741655915, -4836.492816983798, -5889.684663973411, -16409.376729652493, -14651.412028242592, -18819.431223801523, -11158.169646044928, -5879.246399312782, -9887.070642360526, -10519.535603467895, -11276.455077702412, 0.012, -0.026000000000000002, 0.992, 192.0, 0.0, 48.0, 127.5, 24.0, 15.5, 0.0, 0.0, 0.0, 0.0, 1.6444989059920542E9, 0.0, 2022-02-11 00:15:05.992
