%OpenBCI Raw EEG Data
%Number of channels = 16
%Sample Rate = 125 Hz
%Board = OpenBCI_GUI$BoardCytonSerialDaisy
Sample Index, EXG Channel 0, EXG Channel 1, EXG Channel 2, EXG Channel 3, EXG Channel 4, EXG Channel 5, EXG Channel 6, EXG Channel 7, EXG Channel 8, EXG Channel 9, EXG Channel 10, EXG Channel 11, EXG Channel 12, EXG Channel 13, EXG Channel 14, EXG Channel 15, Accel Channel 0, Accel Channel 1, Accel Channel 2, Other, Other, Other, Other, Other, Other, Other, Analog Channel 0, Analog Channel 1, Analog Channel 2, Timestamp, Other, Timestamp (Formatted)
0.0, -8564.674385151195, -10030.70295223033, -10491.730033365493, -16737.07565511175, -2269.059690124952, -1186.3188369654224, -5208.6493621646605, -6093.264352472348, 0.0, 0.0, 0.0, 0.0, 0.0, 0.0, 0.0, 0.0, 0.0, 0.0, 0.0, 192.0, 0.0, 0.0, 0.0, 0.0, 0.0, 0.0, 0.0, 0.0, 0.0, 1.6444989559342222E9, 0.0, 2022-02-11 00:15:55.934
128.0, -8546.860044820314, -10024.958553905315, -10477.201399469543, -16727.97849511844, -2256.2968440409713, -1172.9971972700594, -5209.811652876336, -6083.563695378744, -16869.219168331525, -14803.806221938876, -19446.196490072787, -11832.789997195006, -6213.472034152989, -9911.903430450373, -11272.588225911644, -11748.99330723206, 0.0, 0.0, 0.0, 192.0, 0.0, 0.0, 0.0, 0.0, 0.0, 0.0, 0.0, 0.0, 0.0, 1.64449895593423E9, 0.0, 2022-02-11 00:15:55.934
130.0, -8558.684117637173, -10026.299658572634, -10484.35395769524, -16741.434245280536, -2257.414431263737, -1185.201249742657, -5220.428731492607, -6100.305151975769, -16869.733258453998, -14792.630349711222, -19435.825280645524, -11830.890098916305, -6206.073606738282, -9905.399072813878, -11267.246158986827, -11749.015658976516, 0.0, 0.0, 0.0, 192.0, 0.0, 0.0, 0.0, 0.0, 0.0, 0.0, 0.0, 0.0, 0.0, 1.6444989559342368E9, 0.0, 2022-02-11 00:15:55.934
132.0, -8561.254568249533, -10037.341420333556, -10487.393794941163, -16736.025123122352, -2261.1248208433176, -1181.6920258631737, -5223.423865249618, -6101.422739198535, -16874.829456189807, -14801.973378893541, -19455.13718785491, -11848.39151482481, -6208.956981773017, -9910.405863571867, -11274.979862568363, -11757.822246291906, 0.0, 0.0, 0.0, 192.0, 0.0, 0.0, 0.0, 0.0, 0.0, 0.0, 0.0, 0.0, 0.0, 1.6444989559342437E9, 0.0, 2022-02-11 00:15:55.934
134.0, -8558.393544959254, -10046.215062882313, -10484.331605950787, -16739.087312112726, -2250.083059082396, -1184.2177729866235, -5209.856356365247, -6083.563695378744, -16873.778924200407, -14806.98016965153, -19438.127510324422, -11830.778340194029, -6209.135795728659, -9904.10267163547, -11276.432725957959, -11753.240138678568, 0.008, -0.02, 0.994, 192.0, 0.0, 32.0, 127.5, 48.0, 15.5, 8.0, 0.0, 0.0, 0.0, 1.64449895593425E9, 0.0, 2022-02-11 00:15:55.934
136.0, -8569.83763812037, -10044.002240181237, -10491.014777542923, -16742.618887736666, -2261.9965388770747, -1186.8999823212603, -5196.959399814535, -6099.187564753004, -16879.478619036512, -14809.081233630328, -19448.878699407425, -11841.77539846604, -6206.073606738282, -9913.803328729073, -11274.130496279062, -11757.643432336263, 0.008, -0.02, 0.994, 192.0, 0.0, 0.0, 0.0, 0.0, 0.0, 0.0, 0.0, 0.0, 0.0, 1.6444989559342566E9, 0.0, 2022-02-11 00:15:55.934
138.0, -8549.654012877229, -10025.964382405804, -10479.950664037546, -16740.69663771351, -2255.44747775167, -1179.1886304841794, -5202.279114994898, -6092.549096649778, -16873.264834077934, -14812.657512743177, -19446.64352496189, -11840.68016298773, -6202.184403203059, -9900.168764611337, -11278.332624236658, -11757.866949780817, 0.008, -0.02, 0.994, 192.0, 0.0, 0.0, 0.0, 0.0, 0.0, 0.0, 0.0, 0.0, 0.0, 1.6444989559342632E9, 0.0, 2022-02-11 00:15:55.934
140.0, -8562.260396750022, -10033.139292375958, -10488.153754252644, -16744.809358693285, -2267.5844749909015, -1189.202212000157, -5220.495786725973, -6099.008750797361, -16878.20456960256, -14806.041396384408, -19438.59689695798, -11838.556747264474, -6206.453586394023, -9915.367950840944, -11279.09258354814, -11759.386868403777, 0.008, -0.02, 0.994, 192.0, 0.0, 0.0, 0.0, 0.0, 0.0, 0.0, 0.0, 0.0, 0.0, 1.6444989559342704E9, 0.0, 2022-02-11 00:15:55.934
142.0, -8558.393544959254, -10040.89534770195, -10488.89136181967, -16743.580012748243, -2265.215190078639, -1189.6268951448078, -5232.31985954283, -6106.7424543788975, -16878.830418447305, -14810.511745275468, -19453.125530853933, -11849.553805536487, -6207.37000791669, -9916.239668874701, -11287.966226096896, -11766.338260929379, 0.008, -0.02, 0.994, 192.0, 0.0, 0.0, 0.0, 0.0, 0.0, 0.0, 0.0, 0.0, 0.0, 1.6444989559342773E9, 0.0, 2022-02-11 00:15:55.934
144.0, -8538.209919716111, -10017.98480963526, -10476.508495391428, -16748.162120361583, -2253.5252277285135, -1182.0273020300033, -5212.940897100079, -6092.5938001386885, -16868.95094739806, -14792.362128777759, -19434.171251555832, -11854.337078849921, -6207.079435238771, -9903.163898368348, -11278.913769592496, -11760.19153120417, 0.006, -0.028, 0.99, 192.0, 0.0, 24.0, 127.5, 16.0, 15.0, 120.0, 0.0, 0.0, 0.0, 1.644498955934284E9, 0.0, 2022-02-11 00:15:55.934
146.0, -8558.326489725887, -10039.218966867802, -10484.331605950787, -16748.050361639307, -2261.4600970101474, -1199.036979560492, -5225.994315861978, -6110.832823614219, -16873.42129628912, -14804.655588228177, -19442.664914448847, -11848.458570058176, -6202.4749758809785, -9918.541898553598, -11280.724260893378, -11764.192493461669, 0.006, -0.028, 0.99, 192.0, 0.0, 0.0, 0.0, 0.0, 0.0, 0.0, 0.0, 0.0, 0.0, 1.6444989559342904E9, 0.0, 2022-02-11 00:15:55.934
148.0, -8548.581129143373, -10032.044056897648, -10476.106163991233, -16738.93084990154, -2248.8760648818093, -1180.775604340506, -5190.7456148559595, -6086.87175355813, -16868.86154042024, -14803.649759727688, -19441.860251648457, -11832.097093116892, -6196.954095000518, -9909.668256004841, -11281.975958582874, -11760.079772481891, 0.006, -0.028, 0.99, 192.0, 0.0, 0.0, 0.0, 0.0, 0.0, 0.0, 0.0, 0.0, 0.0, 1.6444989559342973E9, 0.0, 2022-02-11 00:15:55.934
150.0, -8544.893091308248, -10026.880803928472, -10480.911789049123, -16743.892937170618, -2249.3901550042815, -1187.8834590772938, -5209.0293418204, -6094.985436795407, -16869.397982287166, -14806.60018999579, -19433.99243760019, -11837.416808297254, -6195.9035630111175, -9904.505003035665, -11270.80008635522, -11755.587071846376, 0.006, -0.028, 0.99, 192.0, 0.0, 0.0, 0.0, 0.0, 0.0, 0.0, 0.0, 0.0, 0.0, 1.6444989559343047E9, 0.0, 2022-02-11 00:15:55.934
152.0, -8554.772562357493, -10034.882728443472, -10482.476411160995, -16744.004695892894, -2248.496085226069, -1178.0486915169588, -5202.033245805889, -6084.569523879233, -16870.62732823221, -14803.448594027592, -19446.598821472984, -11847.452741557687, -6191.5002693534225, -9890.579866240008, -11280.120763793084, -11760.504455626542, 0.006, -0.028, 0.99, 192.0, 0.0, 0.0, 0.0, 0.0, 0.0, 0.0, 0.0, 0.0, 0.0, 1.6444989559343116E9, 0.0, 2022-02-11 00:15:55.934
154.0, -8539.774541827983, -10020.734074203263, -10473.200437212043, -16738.21559407897, -2236.247329264561, -1183.4131101862324, -5188.443385177063, -6093.040835027795, -16863.295956050868, -14793.83734391181, -19431.46669047674, -11839.763741465062, -6188.549839085322, -9910.562325783054, -11269.816609599187, -11754.827112534895, 0.008, -0.022, 0.986, 192.0, 0.0, 32.0, 127.5, 40.0, 15.0, 104.0, 0.0, 0.0, 0.0, 1.644498955934318E9, 0.0, 2022-02-11 00:15:55.934
156.0, -8556.068963535901, -10035.218004610302, -10479.682443104082, -16738.819091179263, -2247.4679049811252, -1190.2527439895564, -5210.772777887914, -6107.547117179289, -16864.726467696008, -14796.273684057438, -19436.965219612746, -11845.843415956906, -6184.839449505741, -9917.91604970885, -11272.834095100654, -11764.036031250482, 0.008, -0.022, 0.986, 192.0, 0.0, 0.0, 0.0, 0.0, 0.0, 0.0, 0.0, 0.0, 0.0, 1.6444989559343247E9, 0.0, 2022-02-11 00:15:55.934
158.0, -8538.54519588294, -10034.390990065454, -10473.222788956498, -16734.68401845503, -2241.075306066907, -1174.941799037671, -5212.65032442216, -6097.108852518661, -16860.323174038313, -14805.706120217577, -19433.52305096663, -11839.651982742786, -6180.74908027042, -9899.587619255499, -11278.37732772557, -11762.94079577217, 0.008, -0.022, 0.986, 192.0, 0.0, 0.0, 0.0, 0.0, 0.0, 0.0, 0.0, 0.0, 0.0, 1.6444989559343348E9, 0.0, 2022-02-11 00:15:55.934
160.0, -8555.711335624615, -10038.190786622858, -10481.738803593971, -16741.188376091526, -2249.3454515153708, -1190.2527439895564, -5185.850582820247, -6088.034044269806, -16867.520435752922, -14812.92573367664, -19428.22568753072, -11835.852186185382, -6186.024091961872, -9900.72755822272, -11273.437592200946, -11757.352859658344, 0.008, -0.022, 0.986, 192.0, 0.0, 0.0, 0.0, 0.0, 0.0, 0.0, 0.0, 0.0, 0.0, 1.6444989559343417E9, 0.0, 2022-02-11 00:15:55.934
162.0, -8556.605405402828, -10043.689315758862, -10481.001196026946, -16742.97651564795, -2250.127762571307, -1194.812499858439, -5187.526963654395, -6096.147727507082, -16870.873197421217, -14811.450518542591, -19449.32573429653, -11856.125218406347, -6188.482783851956, -9902.403939056867, -11276.298615491225, -11762.918444027717, 0.008, -0.022, 0.986, 192.0, 0.0, 0.0, 0.0, 0.0, 0.0, 0.0, 0.0, 0.0, 0.0, 1.6444989559343483E9, 0.0, 2022-02-11 00:15:55.934
164.0, -8549.654012877229, -10032.960478420315, -10470.78644881087, -16738.819091179263, -2245.188027046684, -1194.1866510136904, -5209.454024965051, -6105.580163667222, -16865.06174386284, -14814.557411021879, -19432.89720212188, -11842.781226966528, -6186.672292551076, -9910.495270549687, -11275.60571141311, -11763.074906238904, 0.004, -0.02, 0.986, 192.0, 0.0, 16.0, 127.5, 48.0, 15.0, 104.0, 0.0, 0.0, 0.0, 1.6444989559343548E9, 0.0, 2022-02-11 00:15:55.934
166.0, -8561.612196160817, -10036.469702299799, -10484.197495484053, -16747.46921628347, -2258.7555359310554, -1206.2342412751009, -5226.262536795442, -6117.091312061705, -16865.19585432957, -14820.771195980455, -19437.948696368778, -11847.028058413036, -6188.102804196215, -9916.552593297076, -11281.260702760304, -11772.127362743302, 0.004, -0.02, 0.986, 192.0, 0.0, 0.0, 0.0, 0.0, 0.0, 0.0, 0.0, 0.0, 0.0, 1.6444989559343617E9, 0.0, 2022-02-11 00:15:55.934
168.0, -8549.408143688219, -10038.950745934337, -10480.844733815758, -16747.916251172574, -2249.9489486156644, -1193.1808225132015, -5215.466644223528, -6103.009713054862, -16864.346488040268, -14815.585591266823, -19439.915649880844, -11850.134950892325, -6191.544972842333, -9914.742101996197, -11287.13921155205, -11771.166237731724, 0.004, -0.02, 0.986, 192.0, 0.0, 0.0, 0.0, 0.0, 0.0, 0.0, 0.0, 0.0, 0.0, 1.6444989559343684E9, 0.0, 2022-02-11 00:15:55.934
170.0, -8566.820152618904, -10046.706801260329, -10490.970074054012, -16758.779198977853, -2258.5320184865022, -1202.0321133175032, -5228.765932174437, -6109.268201502347, -16874.33771781179, -14815.093852888805, -19441.301458037076, -11839.875500187338, -6198.94340025704, -9917.334904353012, -11285.842810373642, -11769.154580730747, 0.004, -0.02, 0.986, 192.0, 0.0, 0.0, 0.0, 0.0, 0.0, 0.0, 0.0, 0.0, 0.0, 1.6444989559343748E9, 0.0, 2022-02-11 00:15:55.934
172.0, -8559.913463582214, -10050.528949562187, -10490.165411253622, -16752.073675641263, -2255.603939962857, -1197.2711917485228, -5239.003031134967, -6115.169062038549, -16879.702136481064, -14822.000541925496, -19453.32669655403, -11861.154360908791, -6198.138737456648, -9919.234802631712, -11294.962322111407, -11772.976729032604, 0.004, -0.02, 0.986, 192.0, 0.0, 0.0, 0.0, 0.0, 0.0, 0.0, 0.0, 0.0, 0.0, 1.6444989559343815E9, 0.0, 2022-02-11 00:15:55.934
174.0, -8546.59182388685, -10053.769952508206, -10482.185838483078, -16754.331201831246, -2241.8799688672984, -1196.0641975479361, -5189.918600311113, -6095.454823428968, -16874.91886316763, -14833.042303686418, -19438.261620791152, -11854.270023616557, -6190.293275152836, -9918.519546809142, -11287.273322018782, -11766.651185351753, 0.006, -0.022, 0.986, 192.0, 0.0, 24.0, 127.5, 40.0, 15.0, 104.0, 0.0, 0.0, 0.0, 1.644498955934388E9, 0.0, 2022-02-11 00:15:55.934
176.0, -8570.999928832047, -10054.149932163946, -10490.590094398272, -16759.516806544878, -2252.497047483569, -1212.9397646116931, -5201.228583005498, -6110.631657914121, -16879.165694614137, -14839.770178767465, -19446.554117984073, -11859.925014963748, -6189.198039674526, -9926.20854690177, -11284.188781283949, -11771.255644709545, 0.006, -0.022, 0.986, 192.0, 0.0, 0.0, 0.0, 0.0, 0.0, 0.0, 0.0, 0.0, 0.0, 1.6444989559343944E9, 0.0, 2022-02-11 00:15:55.934
178.0, -8557.924158325692, -10055.580443809085, -10478.274283203398, -16754.107684386694, -2236.806122875944, -1193.4043399577547, -5197.272324236908, -6104.529631677822, -16874.896511423172, -14836.12684442125, -19447.202318573276, -11859.366221352366, -6182.179591915559, -9922.788730000108, -11281.975958582874, -11770.76390633153, 0.006, -0.022, 0.986, 192.0, 0.0, 0.0, 0.0, 0.0, 0.0, 0.0, 0.0, 0.0, 0.0, 1.6444989559344013E9, 0.0, 2022-02-11 00:15:55.934
180.0, -8561.969824072103, -10052.22768214079, -10482.49876290545, -16757.16987337707, -2240.9411956001754, -1199.0593313049474, -5194.768928857914, -6103.479099688423, -16878.271624835925, -14827.610829783778, -19438.149862068876, -11856.661660273274, -6180.74908027042, -9919.950058454282, -11274.488124190346, -11765.399487662255, 0.006, -0.022, 0.986, 192.0, 0.0, 0.0, 0.0, 0.0, 0.0, 0.0, 0.0, 0.0, 0.0, 1.6444989559344077E9, 0.0, 2022-02-11 00:15:55.934
182.0, -8564.383812473276, -10054.328746119589, -10485.203323984542, -16756.83459721024, -2240.985899089086, -1197.3158952374333, -5206.101263296755, -6105.960143322962, -16874.158903856147, -14832.818786241865, -19447.51524299565, -11867.502256334097, -6171.808382488297, -9933.159939427369, -11276.23156025786, -11768.081696996893, 0.006, -0.022, 0.986, 192.0, 0.0, 0.0, 0.0, 0.0, 0.0, 0.0, 0.0, 0.0, 0.0, 1.6444989559344141E9, 0.0, 2022-02-11 00:15:55.934
184.0, -8552.984422801068, -10046.03624892667, -10479.593036126262, -16754.39825706461, -2226.859596593332, -1189.8057091004503, -5204.402530718152, -6106.027198556328, -16873.734220711496, -14837.713818277576, -19440.161519069854, -11852.906567204782, -6169.774373742864, -9926.566174813053, -11271.291824733236, -11763.99132776157, 0.006, -0.026000000000000002, 0.99, 192.0, 0.0, 24.0, 127.5, 24.0, 15.0, 120.0, 0.0, 0.0, 0.0, 1.6444989559344213E9, 0.0, 2022-02-11 00:15:55.934
186.0, -8571.044632320956, -10070.511409105231, -10493.36171071073, -16764.970632191973, -2238.9742420881084, -1197.8076336154502, -5191.393815445163, -6098.114681019149, -16878.517494024934, -14838.250260144505, -19452.320868053543, -11866.049392944502, -6168.768545242375, -9928.756645769674, -11270.621272399578, -11765.600653362353, 0.006, -0.026000000000000002, 0.99, 192.0, 0.0, 0.0, 0.0, 0.0, 0.0, 0.0, 0.0, 0.0, 0.0, 1.6444989559344285E9, 0.0, 2022-02-11 00:15:55.934
188.0, -8547.664707620706, -10040.56007153512, -10474.005100012435, -16755.761713476386, -2221.6739918797007, -1182.6084473858414, -5183.9953880304565, -6091.565619893744, -16873.041316633382, -14835.299829876403, -19451.38209478642, -11869.53626507953, -6162.644167261621, -9923.34752361149, -11271.358879966603, -11763.432534150188, 0.006, -0.026000000000000002, 0.99, 192.0, 0.0, 0.0, 0.0, 0.0, 0.0, 0.0, 0.0, 0.0, 0.0, 1.6444989559344351E9, 0.0, 2022-02-11 00:15:55.934
190.0, -8556.493646680552, -10051.266557129211, -10479.347166937252, -16762.22136762397, -2230.0335443059857, -1192.778491113006, -5188.421033432607, -6102.830899099219, -16867.587490986287, -14829.823652484853, -19434.528879467118, -11862.428410342744, -6155.31279508028, -9916.396131085889, -11266.732068864354, -11763.253720194545, 0.006, -0.026000000000000002, 0.99, 192.0, 0.0, 0.0, 0.0, 0.0, 0.0, 0.0, 0.0, 0.0, 0.0, 1.644498955934444E9, 0.0, 2022-02-11 00:15:55.934
192.0, -8559.64524264875, -10050.305432117633, -10484.041033272868, -16762.869568213173, -2232.8051606184436, -1192.1079387793468, -5204.402530718152, -6106.653047401077, -16872.035488132893, -14840.150158423205, -19450.17510058583, -11875.235959915633, -6159.201998615504, -9922.006418944171, -11274.912807334997, -11772.149714487758, 0.006, -0.026000000000000002, 0.99, 192.0, 0.0, 0.0, 0.0, 0.0, 0.0, 0.0, 0.0, 0.0, 0.0, 1.6444989559344506E9, 0.0, 2022-02-11 00:15:55.934
194.0, -8547.754114598527, -10040.649478512942, -10475.882646546681, -16763.09308565773, -2220.601108145846, -1179.0768717619028, -5189.382158444186, -6094.247829228381, -16870.694383465576, -14830.74007400752, -19436.38407425691, -11858.785075996528, -6159.134943382138, -9909.623552515932, -11274.488124190346, -11766.204150462647, 0.008, -0.024, 0.994, 192.0, 0.0, 32.0, 127.5, 32.0, 15.5, 8.0, 0.0, 0.0, 0.0, 1.6444989559344573E9, 0.0, 2022-02-11 00:15:55.934
196.0, -8558.035917047968, -10041.856472713527, -10482.431707672085, -16763.65187926911, -2227.9101285827314, -1190.1409852672798, -5193.718396868515, -6104.261410744359, -16873.06366837784, -14824.615696026767, -19440.56385047005, -11858.494503318609, -6157.235045103436, -9922.185232899814, -11271.068307288684, -11769.311042941934, 0.008, -0.024, 0.994, 192.0, 0.0, 0.0, 0.0, 0.0, 0.0, 0.0, 0.0, 0.0, 0.0, 1.6444989559344635E9, 0.0, 2022-02-11 00:15:55.934
198.0, -8543.887262807759, -10049.679583272886, -10475.525018635395, -16758.019239666373, -2219.1258930117956, -1181.6696741187184, -5200.736844627481, -6088.056396014261, -16869.375630542712, -14824.816861726864, -19441.03323710361, -11854.717058505663, -6153.278786334848, -9932.623497560442, -11274.555179423713, -11768.260510952534, 0.008, -0.024, 0.994, 192.0, 0.0, 0.0, 0.0, 0.0, 0.0, 0.0, 0.0, 0.0, 0.0, 1.6444989559344704E9, 0.0, 2022-02-11 00:15:55.934
200.0, -8549.02816403248, -10046.595042538052, -10479.950664037546, -16759.74032398943, -2221.2269569905948, -1188.1963834996682, -5194.0313212908895, -6098.315846719247, -16870.426162532112, -14833.087007175329, -19430.28204802061, -11849.039715414014, -6152.898806679107, -9921.067645677049, -11269.928368321463, -11766.628833607298, 0.008, -0.024, 0.994, 192.0, 0.0, 0.0, 0.0, 0.0, 0.0, 0.0, 0.0, 0.0, 0.0, 1.6444989559344769E9, 0.0, 2022-02-11 00:15:55.934
202.0, -8550.302213466432, -10046.282118115678, -10482.297597205354, -16759.4050478226, -2221.0928465238626, -1186.810575343439, -5188.242219476965, -6101.78036710982, -16871.610804988242, -14839.233736900538, -19443.111949337956, -11863.59070105442, -6148.607271743688, -9926.163843412858, -11270.46481018839, -11772.66380461023, 0.007, -0.024, 0.991, 192.0, 0.0, 24.0, 127.5, 32.0, 15.0, 112.0, 0.0, 0.0, 0.0, 1.6444989559344835E9, 0.0, 2022-02-11 00:15:55.934
204.0, -8518.160404939701, -10034.770969721196, -10467.679556331583, -16753.61594600868, -2211.794520830455, -1174.9641507821264, -5194.567763157816, -6102.696788632487, -16853.841168146275, -14821.352341336293, -19421.117832793934, -11846.82689271294, -6140.337126295224, -9913.110424650959, -11267.715545620387, -11766.2265022071, 0.007, -0.024, 0.991, 192.0, 0.0, 0.0, 0.0, 0.0, 0.0, 0.0, 0.0, 0.0, 0.0, 1.6444989559344904E9, 0.0, 2022-02-11 00:15:55.934
206.0, -8551.352745455832, -10050.283080373178, -10482.31994894981, -16758.26510885538, -2216.1531109992397, -1191.8397178458831, -5198.121690526211, -6110.698713147487, -16861.306650794348, -14820.972361680551, -19429.946771853778, -11845.128160134336, -6141.387658284624, -9912.618686272943, -11269.302519476714, -11769.84748480886, 0.007, -0.024, 0.991, 192.0, 0.0, 0.0, 0.0, 0.0, 0.0, 0.0, 0.0, 0.0, 0.0, 1.6444989559345112E9, 0.0, 2022-02-11 00:15:55.934
208.0, -8539.126341238778, -10032.535795275664, -10471.054669744333, -16758.712143744488, -2197.377645656782, -1179.7027206066514, -5182.050786262845, -6097.77940485232, -16870.023831131915, -14828.102568161794, -19438.999228358178, -11857.466323073664, -6142.684059463032, -9909.422386815833, -11268.453153187413, -11770.76390633153, 0.007, -0.024, 0.991, 192.0, 0.0, 0.0, 0.0, 0.0, 0.0, 0.0, 0.0, 0.0, 0.0, 1.644498955934518E9, 0.0, 2022-02-11 00:15:55.934
210.0, -8547.329431453876, -10046.66209777142, -10480.062422759822, -16763.89774845812, -2216.443683677159, -1189.6715986337183, -5203.866088851224, -6097.019445540839, -16868.4815607645, -14827.990809439518, -19427.152803796864, -11842.557709521976, -6144.181626341538, -9914.652695018374, -11265.614481641589, -11768.528731885997, 0.007, -0.024, 0.991, 192.0, 0.0, 0.0, 0.0, 0.0, 0.0, 0.0, 0.0, 0.0, 0.0, 1.6444989559345248E9, 0.0, 2022-02-11 00:15:55.934
212.0, -8543.373172685287, -10047.913795460916, -10487.46085017453, -16757.907480944097, -2223.1939105026618, -1186.2517817320565, -5209.632838920694, -6107.614172412655, -16875.321194567823, -14829.51072806248, -19445.347123783486, -11850.58198578143, -6148.875492677152, -9929.24838414769, -11279.18199052596, -11774.85427556685, 0.0055, -0.025, 0.9884999999999999, 192.0, 0.0, 16.0, 127.5, 24.0, 15.0, 104.0, 0.0, 0.0, 0.0, 1.6444989559345317E9, 0.0, 2022-02-11 00:15:55.934
214.0, -8542.099123251333, -10035.352115077034, -10483.236370472476, -16757.54985303281, -2214.7225993541, -1179.5462583954643, -5201.049769049856, -6095.365416451146, -16874.158903856147, -14805.840230684309, -19429.902068364867, -11847.408038068777, -6150.730687466942, -9925.873270734939, -11277.952644580919, -11768.3275661859, 0.0055, -0.025, 0.9884999999999999, 192.0, 0.0, 0.0, 0.0, 0.0, 0.0, 0.0, 0.0, 0.0, 0.0, 1.6444989559345384E9, 0.0, 2022-02-11 00:15:55.934
216.0, -8555.130190268777, -10047.377353593989, -10494.680463633593, -16759.4050478226, -2233.2968989964606, -1196.555935925953, -5220.9204698706235, -6115.414931227557, -16878.875121936217, -14816.077329644839, -19443.35781852696, -11844.524663034043, -6155.379850313646, -9926.275602135134, -11282.110069049606, -11770.965072031626, 0.0055, -0.025, 0.9884999999999999, 192.0, 0.0, 0.0, 0.0, 0.0, 0.0, 0.0, 0.0, 0.0, 0.0, 1.6444989559345474E9, 0.0, 2022-02-11 00:15:55.934
218.0, -8542.054419762424, -10042.45996981382, -10480.59886462675, -16756.11934138767, -2216.890718566265, -1191.0574067899474, -5210.973943588012, -6113.11270154866, -16875.611767245744, -14836.260954887983, -19444.81068191656, -11851.923090448749, -6154.664594491076, -9919.771244498641, -11287.653301674522, -11774.653109866753, 0.0055, -0.025, 0.9884999999999999, 192.0, 0.0, 0.0, 0.0, 0.0, 0.0, 0.0, 0.0, 0.0, 0.0, 1.6444989559345548E9, 0.0, 2022-02-11 00:15:55.934
220.0, -8547.93292855417, -10043.957536692327, -10480.911789049123, -16764.12126590267, -2218.053009277941, -1188.0846247773916, -5221.9710018600235, -6122.008695841872, -16870.850845676763, -14821.687617503121, -19427.644542174883, -11846.62572701284, -6147.109704865183, -9906.159032125359, -11276.14215328004, -11773.3790604328, 0.0055, -0.025, 0.9884999999999999, 192.0, 0.0, 0.0, 0.0, 0.0, 0.0, 0.0, 0.0, 0.0, 0.0, 1.6444989559345615E9, 0.0, 2022-02-11 00:15:55.934
222.0, -8552.35857395632, -10046.304469860133, -10489.31604496432, -16761.59551877922, -2220.578756401391, -1193.7172643801289, -5189.9856555444785, -6102.897954332585, -16874.360069556245, -14832.729379264043, -19442.843728404492, -11860.662622530774, -6143.086390863227, -9915.569116541043, -11279.226694014871, -11777.111801756835, 0.00675, -0.025500000000000002, 0.98725, 192.0, 0.0, 32.0, 127.5, 24.0, 15.0, 104.0, 0.0, 0.0, 0.0, 1.6444989559345703E9, 0.0, 2022-02-11 00:15:55.934
224.0, -8545.988326786557, -10046.12565590449, -10483.102260005744, -16758.421571066567, -2214.0073435315303, -1196.8688603483272, -5183.302483952342, -6099.165213008549, -16878.13751436919, -14830.829480985341, -19437.1887370573, -11852.660698015774, -6149.344879310713, -9922.855785233472, -11277.885589347552, -11771.18858947618, 0.00675, -0.025500000000000002, 0.98725, 192.0, 0.0, 0.0, 0.0, 0.0, 0.0, 0.0, 0.0, 0.0, 0.0, 1.6444989559345767E9, 0.0, 2022-02-11 00:15:55.934
226.0, -8556.895978080747, -10056.362754865022, -10488.98076879749, -16757.54985303281, -2224.1997390031506, -1196.4888806925871, -5214.863147123236, -6117.024256828339, -16876.70700272405, -14823.721626248554, -19436.764053912648, -11844.547014778498, -6145.075696119749, -9926.499119579688, -11281.238351015849, -11774.653109866753, 0.00675, -0.025500000000000002, 0.98725, 192.0, 0.0, 0.0, 0.0, 0.0, 0.0, 0.0, 0.0, 0.0, 0.0, 1.6444989559345837E9, 0.0, 2022-02-11 00:15:55.934
228.0, -8547.955280298625, -10047.533815805176, -10481.984672782979, -16756.186396621037, -2214.2979162094493, -1187.168203254724, -5198.635780648682, -6107.569468923744, -16877.77988645791, -14829.309562362381, -19442.061417348556, -11849.15147413629, -6141.477065262445, -9917.737235753208, -11285.261665017804, -11772.440287165677, 0.00675, -0.025500000000000002, 0.98725, 192.0, 0.0, 0.0, 0.0, 0.0, 0.0, 0.0, 0.0, 0.0, 0.0, 1.6444989559345903E9, 0.0, 2022-02-11 00:15:55.934
230.0, -8542.121474995789, -10039.621298267997, -10481.649396616149, -16760.343821089726, -2216.1084075103295, -1199.327552238411, -5202.949667328557, -6120.7122946634645, -16874.807104445354, -14823.296943103904, -19428.493908464185, -11846.938651435215, -6140.426533273046, -9917.089035164003, -11280.433688215458, -11774.09431625537, 0.00675, -0.025500000000000002, 0.98725, 192.0, 0.0, 0.0, 0.0, 0.0, 0.0, 0.0, 0.0, 0.0, 0.0, 1.6444989559345975E9, 0.0, 2022-02-11 00:15:55.934
232.0, -8549.631661132773, -10046.326821604589, -10487.147925752155, -16760.343821089726, -2219.282355222983, -1202.4120929732435, -5208.358789486741, -6123.036876086817, -16874.963566656537, -14834.048132186907, -19440.809719659057, -11860.48380857513, -6140.001850128395, -9930.567137070553, -11284.457002217414, -11780.375156447311, 0.007375, -0.02475, 0.987625, 192.0, 0.0, 32.0, 127.5, 32.0, 15.0, 112.0, 0.0, 0.0, 0.0, 1.644498955934605E9, 0.0, 2022-02-11 00:15:55.934
234.0, -8534.074846991878, -10032.2675743422, -10479.257759959431, -16756.007582665396, -2215.415503432215, -1179.94858979566, -5223.245051293976, -6119.751169651887, -16871.20847358805, -14825.822690227353, -19430.2373445317, -11844.278793845033, -6140.515940250867, -9903.789747213095, -11284.836981873153, -11777.536484901488, 0.007375, -0.02475, 0.987625, 192.0, 0.0, 0.0, 0.0, 0.0, 0.0, 0.0, 0.0, 0.0, 0.0, 1.6444989559346116E9, 0.0, 2022-02-11 00:15:55.934
236.0, -8555.823094346893, -10041.342382591056, -10483.258722216931, -16759.717972244976, -2221.9645645576197, -1200.5568981834529, -5193.897210824158, -6122.321620264247, -16869.867368920728, -14829.242507129016, -19434.283010278108, -11847.072761901947, -6138.325469294246, -9906.628418758919, -11285.395775484536, -11778.005871535048, 0.007375, -0.02475, 0.987625, 192.0, 0.0, 0.0, 0.0, 0.0, 0.0, 0.0, 0.0, 0.0, 0.0, 1.6444989559346187E9, 0.0, 2022-02-11 00:15:55.934
238.0, -8543.864911063303, -10047.08678091607, -10472.507533133929, -16748.519748272865, -2206.608916116824, -1189.1575085112463, -5198.0769870373, -6116.35370449468, -16873.24248233348, -14826.493242561013, -19437.32284752403, -11851.63251777083, -6137.878434405141, -9925.694456779296, -11285.060499317706, -11779.816362835929, 0.007375, -0.02475, 0.987625, 192.0, 0.0, 0.0, 0.0, 0.0, 0.0, 0.0, 0.0, 0.0, 0.0, 1.6444989559346263E9, 0.0, 2022-02-11 00:15:55.934
240.0, -8538.12051273829, -10037.631993011475, -10473.580416867784, -16751.13490237414, -2209.6487533627455, -1191.4373864456877, -5208.135272042188, -6112.5539079372775, -16869.91207240964, -14832.483510075035, -19422.190716527788, -11837.528567019532, -6134.704486692487, -9919.81594798755, -11277.013871313797, -11773.04378426597, 0.007375, -0.02475, 0.987625, 192.0, 0.0, 0.0, 0.0, 0.0, 0.0, 0.0, 0.0, 0.0, 0.0, 1.6444989559346335E9, 0.0, 2022-02-11 00:15:55.934
242.0, -8543.619041874295, -10040.783588979673, -10480.755326837936, -16753.995925664418, -2216.086055765874, -1182.2955229634672, -5200.60273416075, -6111.9057073480735, -16865.464075263033, -14822.067597158863, -19433.90303062237, -11849.598509025396, -6130.435303501524, -9915.569116541043, -11279.383156226058, -11774.407240677743, 0.0076875, -0.027375, 0.9868125, 192.0, 0.0, 32.0, 127.5, 8.0, 15.0, 104.0, 0.0, 0.0, 0.0, 1.6444989559346404E9, 0.0, 2022-02-11 00:15:55.934
244.0, -8533.292535935943, -10033.541623776153, -10473.043975000855, -16751.31371632978, -2203.189099215162, -1178.6968921061627, -5187.124632254199, -6101.579201409722, -16872.549578255366, -14821.844079714308, -19429.723254409226, -11843.474131044642, -6134.369210525658, -9914.183308384814, -11274.577531168168, -11767.61231036333, 0.0076875, -0.027375, 0.9868125, 192.0, 0.0, 0.0, 0.0, 0.0, 0.0, 0.0, 0.0, 0.0, 0.0, 1.644498955934647E9, 0.0, 2022-02-11 00:15:55.934
246.0, -8549.206977988122, -10053.23351064128, -10481.425879171597, -16752.923041930564, -2211.503948152536, -1186.5647061544307, -5211.085702310289, -6113.023294570839, -16873.86833117823, -14833.087007175329, -19431.533745710105, -11844.547014778498, -6129.138902323116, -9915.01032292966, -11272.923502078474, -11771.725031343107, 0.0076875, -0.027375, 0.9868125, 192.0, 0.0, 0.0, 0.0, 0.0, 0.0, 0.0, 0.0, 0.0, 0.0, 1.6444989559346545E9, 0.0, 2022-02-11 00:15:55.934
248.0, -8530.990306257047, -10034.83802495456, -10469.110067976722, -16746.575146505256, -2202.1385672257625, -1174.7629850820285, -5185.336492697775, -6096.930038563018, -16865.732296196496, -14832.662324030678, -19429.946771853778, -11844.971697923149, -6121.271088274848, -9914.049197918082, -11275.695118390933, -11771.702679598651, 0.0076875, -0.027375, 0.9868125, 192.0, 0.0, 0.0, 0.0, 0.0, 0.0, 0.0, 0.0, 0.0, 0.0, 1.6444989559346616E9, 0.0, 2022-02-11 00:15:55.934
0.0, -3191.2032593731, -4259.057850725395, -4148.886102305187, -6806.374407574464, -1407.0199617171243, -796.2361927314035, -2099.097025286797, -2335.913757790775, -8433.089665542802, -7409.446824723104, -9712.212945486659, -5920.463016088369, -3059.6185397647073, -4956.633443431073, -5630.806759692045, -5881.861553414054, 0.006, -0.018000000000000002, 0.986, 192.0, 0.0, 24.0, 127.5, 56.0, 15.0, 104.0, 0.0, 0.0, 0.0, 1.6444989565102255E9, 0.0, 2022-02-11 00:15:56.510
2.0, -6363.586349914832, -8514.762939782493, -8288.585637639242, -13606.3115127458, -2806.5297372972655, -1589.2090307723322, -4198.3281610403255, -4665.703137600796, -13767.042907123912, -11334.144930141561, -17665.03067791828, -10147.826093176138, -6155.759829969386, -9688.028357986017, -9766.79590544652, -8633.294240628988, 0.006, -0.018000000000000002, 0.986, 192.0, 0.0, 0.0, 0.0, 0.0, 0.0, 0.0, 0.0, 0.0, 0.0, 1.644498956510391E9, 0.0, 2022-02-11 00:15:56.510
4.0, -6374.672815164664, -8497.842669229825, -8293.279503974856, -13593.92864631756, -2813.883461223061, -1588.605533672039, -4209.414626290158, -4672.386309192933, -13766.797037934904, -11328.400531816547, -17660.69443949395, -10135.219709303345, -6153.45760029049, -9682.194552683182, -9764.426620534256, -8630.969659205635, 0.006, -0.018000000000000002, 0.986, 192.0, 0.0, 0.0, 0.0, 0.0, 0.0, 0.0, 0.0, 0.0, 0.0, 1.64449895651042E9, 0.0, 2022-02-11 00:15:56.510
6.0, -6353.706878865586, -8480.67652948815, -8277.990910767427, -13579.109439743692, -2797.857260448606, -1572.1322980084776, -4193.053149348873, -4635.7518000306845, -13752.491921483508, -11310.183860085472, -17665.63417501857, -10128.089502822102, -6152.652937490098, -9659.261662872037, -9760.984451888138, -8614.60818226435, 0.006, -0.018000000000000002, 0.986, 192.0, 0.0, 0.0, 0.0, 0.0, 0.0, 0.0, 0.0, 0.0, 0.0, 1.644498956510427E9, 0.0, 2022-02-11 00:15:56.510
8.0, -6340.9440327816055, -8469.947692149603, -8270.97246300846, -13569.92287277256, -2779.327664295157, -1569.472440418296, -4161.067803033328, -4617.937459699805, -13743.797092890394, -11288.189743541448, -17640.130834595067, -10112.24211600329, -6138.124303594149, -9658.188779138181, -9742.745428412609, -8598.693740212171, 0.002, -0.012, 0.996, 192.0, 0.0, 8.0, 127.5, 80.0, 15.5, 16.0, 0.0, 0.0, 0.0, 1.6444989565104337E9, 0.0, 2022-02-11 00:15:56.510
10.0, -6351.136428253225, -8464.67268045815, -8273.744079320917, -13556.601233077197, -2777.8524491611065, -1560.0847077470671, -4148.662584860634, -4618.3174393555455, -13731.05659855087, -11278.131458536562, -17643.371837541086, -10110.76690086924, -6127.97661161144, -9665.251930386059, -9737.135140554326, -8591.094147097367, 0.002, -0.012, 0.996, 192.0, 0.0, 0.0, 0.0, 0.0, 0.0, 0.0, 0.0, 0.0, 0.0, 1.64449895651044E9, 0.0, 2022-02-11 00:15:56.510
12.0, -6334.707896078575, -8468.628939226739, -8260.78006753684, -13545.850043994194, -2764.4637542323776, -1539.990489481746, -4134.91626202062, -4592.679988465308, -13722.965267058047, -11269.816609599187, -17630.787805412747, -10101.580333898108, -6114.789082382808, -9630.942002647162, -9724.908736337273, -8573.190399788666, 0.002, -0.012, 0.996, 192.0, 0.0, 0.0, 0.0, 0.0, 0.0, 0.0, 0.0, 0.0, 0.0, 1.6444989565104468E9, 0.0, 2022-02-11 00:15:56.510
14.0, -6331.757465810474, -8442.410342980666, -8264.758678049884, -13538.16104390157, -2768.576475212154, -1536.6600795579052, -4153.7811343408985, -4595.786880944595, -13716.66207512165, -11256.673783859467, -17620.86363087459, -10092.550229138164, -6107.211841012459, -9613.686455927666, -9720.483090935122, -8564.294405495453, 0.002, -0.012, 0.996, 192.0, 0.0, 0.0, 0.0, 0.0, 0.0, 0.0, 0.0, 0.0, 0.0, 1.6444989565104535E9, 0.0, 2022-02-11 00:15:56.510
16.0, -6311.573840567332, -8425.110092772256, -8252.10759068818, -13517.329218069222, -2748.8845883470285, -1522.5784805510618, -4113.346828621248, -4579.313645281034, -13695.539676611386, -11225.046065455206, -17619.54487795173, -10090.449165159365, -6097.7570531078645, -9601.32594124388, -9718.449082189689, -8549.050515776935, 0.005, -0.009000000000000001, 0.995, 192.0, 0.0, 32.0, 127.5, 104.0, 15.5, 8.0, 0.0, 0.0, 0.0, 1.64449895651046E9, 0.0, 2022-02-11 00:15:56.510
18.0, -6309.450424844078, -8421.466758426042, -8246.452599340988, -13506.443918519488, -2745.509474934277, -1512.7437129907266, -4115.805520511331, -4568.651863175853, -13688.118897452225, -11214.183117649927, -17594.756793350793, -10055.289871131166, -6082.043776755783, -9585.187981747149, -9702.333474437413, -8527.212861444099, 0.005, -0.009000000000000001, 0.995, 192.0, 0.0, 0.0, 0.0, 0.0, 0.0, 0.0, 0.0, 0.0, 0.0, 1.6444989565104666E9, 0.0, 2022-02-11 00:15:56.510
20.0, -6307.349360865279, -8413.688351355595, -8246.363192363166, -13496.407985259055, -2747.699945890897, -1510.0391519116345, -4102.170956393595, -4560.113496793926, -13677.010080457936, -11210.964466448364, -17601.1046887761, -10064.409382868933, -6079.8533057991635, -9577.655443865711, -9703.384006426813, -8516.193451427633, 0.005, -0.009000000000000001, 0.995, 192.0, 0.0, 0.0, 0.0, 0.0, 0.0, 0.0, 0.0, 0.0, 0.0, 1.6444989565104733E9, 0.0, 2022-02-11 00:15:56.510
22.0, -6282.270703586424, -8391.873048767215, -8226.15721537557, -13488.607226444154, -2723.962393279361, -1497.7233407167603, -4082.4120142951033, -4544.713144864219, -13664.269586118411, -11187.36102430356, -17584.60910136808, -10058.061487443625, -6068.386860893591, -9562.389202402735, -9689.682387075709, -8501.508355320497, 0.005, -0.009000000000000001, 0.995, 192.0, 0.0, 0.0, 0.0, 0.0, 0.0, 0.0, 0.0, 0.0, 0.0, 1.6444989565104797E9, 0.0, 2022-02-11 00:15:56.510
24.0, -6291.300808346368, -8398.399758148165, -8228.884128199117, -13476.917264094027, -2725.0129252687607, -1498.8185761950704, -4082.7249387174775, -4541.673307618297, -13658.79340872686, -11185.729346958322, -17576.920101275457, -10047.936147205372, -6057.032174710295, -9569.944092028629, -9676.852485758363, -8495.003997684002, 0.005, -0.009000000000000001, 0.995, 192.0, 0.0, 0.0, 0.0, 0.0, 0.0, 0.0, 0.0, 0.0, 0.0, 1.6444989565104864E9, 0.0, 2022-02-11 00:15:56.510
26.0, -6268.993767379972, -8376.629159048696, -8209.840441923196, -13457.292432462267, -2707.3103436601573, -1470.5659712035622, -4075.6170839806896, -4530.18451096827, -13635.949925893538, -11163.981099603308, -17573.27676692924, -10033.116940631502, -6041.095380913661, -9560.578711101856, -9670.303424632959, -8481.615302755274, 0.0075, -0.0055000000000000005, 0.9944999999999999, 192.0, 0.0, 40.0, 127.5, 120.0, 15.5, 8.0, 0.0, 0.0, 0.0, 1.6444989565104933E9, 0.0, 2022-02-11 00:15:56.510
28.0, -6261.640043454176, -8374.550446814352, -8203.090215097693, -13454.52081614981, -2701.0518552126714, -1460.865314109959, -4072.577246734768, -4518.60630734042, -13624.751701921428, -11144.579785416101, -17541.89491771399, -10018.454196268822, -6023.884537683075, -9524.771216484454, -9654.4783895586, -8464.829142669338, 0.0075, -0.0055000000000000005, 0.9944999999999999, 192.0, 0.0, 0.0, 0.0, 0.0, 0.0, 0.0, 0.0, 0.0, 0.0, 1.6444989565105E9, 0.0, 2022-02-11 00:15:56.510
30.0, -6260.902435887151, -8358.144266384157, -8203.693712197984, -13438.092283975158, -2703.443491869389, -1455.9479303297915, -4055.254644781905, -4497.550964063521, -13614.067568071792, -11136.354343456549, -17552.19907190789, -10024.310353316112, -6020.174148103493, -9518.22215535905, -9657.652337271255, -8455.575520464841, 0.0075, -0.0055000000000000005, 0.9944999999999999, 192.0, 0.0, 0.0, 0.0, 0.0, 0.0, 0.0, 0.0, 0.0, 0.0, 1.6444989565105064E9, 0.0, 2022-02-11 00:15:56.510
32.0, -6242.126970544693, -8342.073362120791, -8185.208819533446, -13431.18559493847, -2680.2200293803253, -1435.898415553381, -4029.9971735474082, -4485.637484268843, -13605.484498200954, -11127.748921841256, -17543.034856681214, -10014.78851017815, -6007.4783572528795, -9502.710044707066, -9639.525072518001, -8437.224738267034, 0.0075, -0.0055000000000000005, 0.9944999999999999, 192.0, 0.0, 0.0, 0.0, 0.0, 0.0, 0.0, 0.0, 0.0, 0.0, 1.644498956510513E9, 0.0, 2022-02-11 00:15:56.510
34.0, -6253.258139283435, -8346.610766245218, -8193.791889404285, -13417.193402909446, -2680.331788102602, -1443.5650639015514, -4034.8922055831204, -4482.17296387827, -13596.722614374474, -11116.416587402415, -17530.94256293089, -9993.464945967788, -5998.045921092739, -9491.936503879608, -9633.758322448532, -8427.837005595804, 0.0075, -0.0055000000000000005, 0.9944999999999999, 192.0, 0.0, 0.0, 0.0, 0.0, 0.0, 0.0, 0.0, 0.0, 0.0, 1.6444989565105197E9, 0.0, 2022-02-11 00:15:56.510
36.0, -6233.856825096229, -8322.64969618913, -8178.704461896952, -13400.764870734796, -2661.489267526778, -1421.3250781685208, -4021.056475765285, -4471.667643984276, -13580.539951388831, -11100.837421517066, -17529.42264430793, -9987.161754031391, -5990.267514022293, -9488.82961140032, -9632.95365964814, -8417.71166535755, 0.00875, -0.0027500000000000003, 0.99225, 192.0, 0.0, 40.0, 0.0, 0.0, 15.0, 120.0, 0.0, 0.0, 0.0, 1.6444989565105286E9, 0.0, 2022-02-11 00:15:56.510
38.0, -6217.204775477026, -8310.73621639445, -8166.634519891086, -13393.500553786822, -2652.5709214891103, -1414.1948716872778, -4019.514205397869, -4461.0058618790945, -13567.263015182378, -11080.13970615145, -17500.61124570504, -9968.095716011014, -5970.307406223704, -9464.376802966215, -9612.702979171632, -8399.13736571519, 0.00875, -0.0027500000000000003, 0.99225, 192.0, 0.0, 0.0, 0.0, 0.0, 0.0, 0.0, 0.0, 0.0, 0.0, 1.6444989565105352E9, 0.0, 2022-02-11 00:15:56.510
40.0, -6235.130874530181, -8330.450455004031, -8168.489714680877, -13385.990367649838, -2650.939244143873, -1410.3056681520545, -4001.431644133526, -4446.007841349583, -13556.467122610466, -11077.14457239444, -17510.378958032008, -9972.901341068906, -5962.305481708704, -9459.034736041396, -9610.04312158145, -8391.403662133655, 0.00875, -0.0027500000000000003, 0.99225, 192.0, 0.0, 0.0, 0.0, 0.0, 0.0, 0.0, 0.0, 0.0, 0.0, 1.6444989565105417E9, 0.0, 2022-02-11 00:15:56.510
42.0, -6219.529356900377, -8320.302763021322, -8149.557787127232, -13378.301367557213, -2625.5700141870993, -1387.4398335742753, -3980.3092456232603, -4425.555995172977, -13548.129921928636, -11067.220397856283, -17497.25848403674, -9959.445590906811, -5948.290937935226, -9441.600375366257, -9589.434813193657, -8375.243350892468, 0.00875, -0.0027500000000000003, 0.99225, 192.0, 0.0, 0.0, 0.0, 0.0, 0.0, 0.0, 0.0, 0.0, 0.0, 1.6444989565105484E9, 0.0, 2022-02-11 00:15:56.510
44.0, -6236.8743105976955, -8310.289181505344, -8148.574310371198, -13366.097315084615, -2620.876147851485, -1384.0647201615238, -3965.7806117273108, -4416.816463090952, -13551.080352196735, -11053.921109905375, -17491.871713623015, -9955.73520132723, -5937.360934896581, -9429.061046726829, -9573.587426374845, -8364.290996109366, 0.00875, -0.0027500000000000003, 0.99225, 192.0, 0.0, 0.0, 0.0, 0.0, 0.0, 0.0, 0.0, 0.0, 0.0, 1.644498956510555E9, 0.0, 2022-02-11 00:15:56.510
46.0, -6229.699400627542, -8312.904335606616, -8133.777455541785, -13349.98170733234, -2604.201746487826, -1361.802382684038, -3950.0226318863192, -4402.019608261538, -13533.690695010508, -11041.560595221592, -17493.97277760181, -9945.721619811251, -5926.229766157838, -9413.526584330391, -9568.5582838724, -8347.661298234618, 0.0063750000000000005, -0.004375, 0.9941249999999999, 192.0, 0.0, 16.0, 127.5, 104.0, 15.5, 16.0, 0.0, 0.0, 0.0, 1.6444989565105617E9, 0.0, 2022-02-11 00:15:56.510
48.0, -6228.671220382598, -8311.40676872811, -8122.51217633631, -13338.828186849141, -2596.289228950647, -1345.9773476096807, -3945.6640417175345, -4392.654227334765, -13534.115378155158, -11028.66363867088, -17470.9728325573, -9926.789692257607, -5908.191908382405, -9391.711281742011, -9550.587481330334, -8326.941231124549, 0.0063750000000000005, -0.004375, 0.9941249999999999, 192.0, 0.0, 0.0, 0.0, 0.0, 0.0, 0.0, 0.0, 0.0, 0.0, 1.6444989565105689E9, 0.0, 2022-02-11 00:15:56.510
50.0, -6252.565235205321, -8315.653600174619, -8121.618106558098, -13325.193622731404, -2594.2105167163036, -1340.83644638496, -3935.941032879476, -4378.393814372279, -13520.994904159894, -11015.9007925869, -17475.64434714846, -9926.163843412858, -5898.826527455632, -9379.149601358129, -9547.212367917582, -8318.22405078698, 0.0063750000000000005, -0.004375, 0.9941249999999999, 192.0, 0.0, 0.0, 0.0, 0.0, 0.0, 0.0, 0.0, 0.0, 0.0, 1.6444989565105755E9, 0.0, 2022-02-11 00:15:56.510
52.0, -6268.971415635517, -8355.327946582789, -8100.406301070011, -13321.796157574196, -2566.717871036276, -1325.2125770107004, -3912.6281634125908, -4362.2782066200025, -13522.715988482953, -11012.302161729594, -17469.9223005679, -9929.382494614423, -5882.286236558704, -9357.781333658855, -9526.671114763156, -8297.839259843739, 0.0063750000000000005, -0.004375, 0.9941249999999999, 192.0, 0.0, 0.0, 0.0, 0.0, 0.0, 0.0, 0.0, 0.0, 0.0, 1.6444989565105824E9, 0.0, 2022-02-11 00:15:56.510
54.0, -6306.969381209538, -8380.451307350553, -8101.456833059411, -13313.213087703358, -2564.773269268664, -1330.4875887021528, -3914.326895991194, -4364.669843276721, -13530.561450786765, -11015.99019956472, -17470.36933545701, -9932.958773727272, -5867.77995440721, -9360.32943252676, -9515.40583555768, -8291.40195744061, 0.0063750000000000005, -0.004375, 0.9941249999999999, 192.0, 0.0, 0.0, 0.0, 0.0, 0.0, 0.0, 0.0, 0.0, 0.0, 1.6444989565105891E9, 0.0, 2022-02-11 00:15:56.510
56.0, -6318.458177859567, -8388.006196976447, -8093.879591689061, -13298.215067173847, -2550.445801072812, -1301.5197278880748, -3905.073273786697, -4343.279223832992, -13519.25146809238, -11012.995065807709, -17480.561730928628, -9926.365009112957, -5857.833428124599, -9356.507284224903, -9515.942277424607, -8276.49334388892, 0.0041875, -0.0041875, 0.9920625, 192.0, 0.0, 8.0, 127.5, 112.0, 15.0, 120.0, 0.0, 0.0, 0.0, 1.6444989565105956E9, 0.0, 2022-02-11 00:15:56.510
58.0, -6330.997506498994, -8400.52317387142, -8088.98455965335, -13296.024596217227, -2538.0852863890277, -1292.8472510394158, -3899.3959306950487, -4335.120837106805, -13519.76555821485, -10998.779356334133, -17463.88732956497, -9916.083206663514, -5844.735305873788, -9331.205109501494, -9497.010349870963, -8258.366079135667, 0.0041875, -0.0041875, 0.9920625, 192.0, 0.0, 0.0, 0.0, 0.0, 0.0, 0.0, 0.0, 0.0, 0.0, 1.6444989565106025E9, 0.0, 2022-02-11 00:15:56.510
60.0, -6326.124826207737, -8391.560124344842, -8084.26834157328, -13273.941072695385, -2529.7480857071982, -1288.354550403899, -3862.0908691991413, -4315.5183572195, -13506.19804933048, -10987.111745728464, -17467.351849955543, -9919.503023565178, -5835.4369801803805, -9337.84357760472, -9495.892762648196, -8252.040535454815, 0.0041875, -0.0041875, 0.9920625, 192.0, 0.0, 0.0, 0.0, 0.0, 0.0, 0.0, 0.0, 0.0, 0.0, 1.6444989565106096E9, 0.0, 2022-02-11 00:15:56.510
62.0, -6292.351340335767, -8365.073307165303, -8066.431649497945, -13267.10143889206, -2505.0494080840836, -1259.096116911902, -3839.8732352105662, -4289.858554584808, -13487.601397943665, -10971.97961473222, -17447.570556112594, -9895.787822698096, -5819.477834639291, -9309.948600524498, -9476.312634505348, -8226.894822942593, 0.0041875, -0.0041875, 0.9920625, 192.0, 0.0, 0.0, 0.0, 0.0, 0.0, 0.0, 0.0, 0.0, 0.0, 1.644498956510616E9, 0.0, 2022-02-11 00:15:56.510
64.0, -6274.961683149539, -8344.174426099591, -8063.436515740934, -13251.298755562158, -2506.010533095662, -1256.682128510729, -3844.0306596792534, -4290.126775518272, -13472.603377414152, -10959.708507026256, -17431.32083789359, -9878.889903889883, -5806.335008899571, -9296.6940160625, -9467.327233234315, -8217.90942167156, 0.0041875, -0.0041875, 0.9920625, 192.0, 0.0, 0.0, 0.0, 0.0, 0.0, 0.0, 0.0, 0.0, 0.0, 1.6444989565106225E9, 0.0, 2022-02-11 00:15:56.510
66.0, -6244.406848479134, -8312.50200420642, -8051.321870246157, -13235.496072232256, -2493.0241695671284, -1237.8619596793603, -3838.599185776614, -4279.532048646456, -13438.494615375355, -10935.188643358784, -17416.144003408433, -9873.257264287146, -5787.33602611256, -9286.188696168507, -9464.577968666312, -8203.134918586602, 0.00409375, -0.00309375, 0.98903125, 192.0, 0.0, 16.0, 127.5, 120.0, 15.0, 104.0, 0.0, 0.0, 0.0, 1.6444989565106292E9, 0.0, 2022-02-11 00:15:56.510
68.0, -6229.90056632764, -8303.069568046281, -8044.035201553727, -13224.968400593807, -2482.7647188621427, -1228.585985730408, -3831.468979295371, -4268.691452585632, -13438.271097930801, -10921.73289319669, -17397.189724110332, -9851.039630298572, -5777.0318719186635, -9270.02838492732, -9447.277718457904, -8187.220476534424, 0.00409375, -0.00309375, 0.98903125, 192.0, 0.0, 0.0, 0.0, 0.0, 0.0, 0.0, 0.0, 0.0, 0.0, 1.6444989565106385E9, 0.0, 2022-02-11 00:15:56.510
70.0, -6207.481766638967, -8258.008451224381, -8035.943870060906, -13203.890705572452, -2480.171916505327, -1218.5947559588858, -3834.397057819016, -4264.846952539319, -13413.907696474516, -10904.25382903264, -17391.042994385123, -9827.480891642677, -5764.514895023692, -9262.562902279247, -9443.097942244762, -8177.989206074382, 0.00409375, -0.00309375, 0.98903125, 192.0, 0.0, 0.0, 0.0, 0.0, 0.0, 0.0, 0.0, 0.0, 0.0, 1.644498956510645E9, 0.0, 2022-02-11 00:15:56.510
72.0, -6166.823943474763, -8234.293250357301, -8016.721369829342, -13192.223094966781, -2462.5810936190005, -1196.3771219703106, -3823.355296058094, -4239.9471092161075, -13400.563705034698, -10870.078011760475, -17370.144113319413, -9806.939638488251, -5749.606281472002, -9229.236451296383, -9428.725770559999, -8157.515008153321, 0.00409375, -0.00309375, 0.98903125, 192.0, 0.0, 0.0, 0.0, 0.0, 0.0, 0.0, 0.0, 0.0, 0.0, 1.644498956510651E9, 0.0, 2022-02-11 00:15:56.510
74.0, -6157.145638125616, -8207.71702619994, -8020.699980342386, -13181.85188553952, -2456.5461226160674, -1204.9601918411483, -3790.051196819687, -4248.038440708929, -13390.192495607436, -10853.314203418995, -17356.28603175712, -9790.980492947161, -5741.582005212546, -9233.21506180943, -9418.019284965907, -8152.798790073251, 0.00409375, -0.00309375, 0.98903125, 192.0, 0.0, 0.0, 0.0, 0.0, 0.0, 0.0, 0.0, 0.0, 0.0, 1.6444989565106578E9, 0.0, 2022-02-11 00:15:56.510
76.0, -6131.709352935476, -8170.5237234263095, -8007.423044135934, -13163.501103341712, -2438.463561351724, -1181.42380492971, -3779.9705600703433, -4212.45446353608, -13371.998175620816, -10838.249127656118, -17356.218976523756, -9793.148612159326, -5730.227319029251, -9229.884651885588, -9410.822023251298, -8136.459664876422, 0.006046875, -0.002546875, 0.988515625, 192.0, 0.0, 32.0, 127.5, 120.0, 15.0, 112.0, 0.0, 0.0, 0.0, 1.6444989565106645E9, 0.0, 2022-02-11 00:15:56.510
78.0, -6105.960143322962, -8148.75312432684, -7999.555230087666, -13154.448646837312, -2427.354744357436, -1175.0535577599476, -3778.5624001696588, -4202.6420477202, -13358.005983591795, -10811.315275587473, -17327.541688387595, -9756.447047763711, -5710.93776356432, -9194.412433435016, -9393.007682920419, -8119.025304201282, 0.006046875, -0.002546875, 0.988515625, 192.0, 0.0, 0.0, 0.0, 0.0, 0.0, 0.0, 0.0, 0.0, 0.0, 1.6444989565106711E9, 0.0, 2022-02-11 00:15:56.510
80.0, -6091.7667855938425, -8125.641420560053, -7997.610628320054, -13145.88792871093, -2431.2886513815706, -1159.273226174501, -3782.7645281272567, -4204.050207620884, -13345.041971807716, -10803.313351072473, -17330.648580866884, -9759.419829776267, -5703.718150105256, -9180.509648383815, -9392.985331175963, -8113.482071576366, 0.006046875, -0.002546875, 0.988515625, 192.0, 0.0, 0.0, 0.0, 0.0, 0.0, 0.0, 0.0, 0.0, 0.0, 1.6444989565106778E9, 0.0, 2022-02-11 00:15:56.510
82.0, -6055.087572942683, -8105.770719739285, -7977.427003076912, -13134.89087043892, -2411.082674393973, -1144.5657783229087, -3773.5109059227593, -4187.755785912966, -13320.320942440147, -10777.60884494887, -17305.70403405476, -9745.315879024969, -5690.88824878791, -9168.774982544779, -9380.021319391886, -8099.400472569522, 0.006046875, -0.002546875, 0.988515625, 192.0, 0.0, 0.0, 0.0, 0.0, 0.0, 0.0, 0.0, 0.0, 0.0, 1.6444989565106845E9, 0.0, 2022-02-11 00:15:56.510
84.0, -6055.311090387237, -8094.6842544894525, -7979.840991478085, -13126.710131968277, -2411.820281960998, -1144.3199091339004, -3759.8092865716562, -4181.363186998748, -13315.001227259783, -10763.102562797376, -17296.42806010581, -9729.535547439522, -5680.718205060745, -9157.889682995044, -9370.208903576005, -8090.750347465319, 0.006046875, -0.002546875, 0.988515625, 192.0, 0.0, 0.0, 0.0, 0.0, 0.0, 0.0, 0.0, 0.0, 0.0, 1.6444989565106907E9, 0.0, 2022-02-11 00:15:56.510
86.0, -6033.629898265588, -8076.9593211363945, -7964.731212226297, -13113.723768439742, -2383.6794356917662, -1126.4385135696548, -3720.3808093524945, -4163.8170676013315, -13293.364738627046, -10749.915033568745, -17292.829429248504, -9724.282887492525, -5670.659920055857, -9140.969412442377, -9365.068002351285, -8079.619178726576, 0.0050234375, -0.0022734375000000003, 0.9902578125, 192.0, 0.0, 16.0, 127.5, 120.0, 15.5, 0.0, 0.0, 0.0, 0.0, 1.6444989565106974E9, 0.0, 2022-02-11 00:15:56.510
88.0, -6012.66396196651, -8053.869969114062, -7953.421229531912, -13103.620779945944, -2369.2849122625485, -1130.6629932717078, -3729.567376323626, -4175.417622973636, -13282.34532861058, -10726.26688793503, -17261.916966666813, -9702.109956992861, -5648.799913978567, -9138.890700208032, -9341.643374162124, -8066.07402158666, 0.0050234375, -0.0022734375000000003, 0.9902578125, 192.0, 0.0, 0.0, 0.0, 0.0, 0.0, 0.0, 0.0, 0.0, 0.0, 1.644498956510704E9, 0.0, 2022-02-11 00:15:56.510
90.0, -6010.294677054248, -8035.854463083085, -7957.533950511689, -13089.650939661376, -2375.1187175653836, -1114.7485512195292, -3738.4857223612935, -4165.962835069041, -13265.358002824547, -10727.205661202153, -17261.26876607761, -9696.700834834675, -5637.489931284182, -9136.253194362307, -9340.346972983716, -8065.090544830627, 0.0050234375, -0.0022734375000000003, 0.9902578125, 192.0, 0.0, 0.0, 0.0, 0.0, 0.0, 0.0, 0.0, 0.0, 0.0, 1.6444989565107112E9, 0.0, 2022-02-11 00:15:56.510
92.0, -5976.923522582474, -8016.699018084886, -7941.910081137429, -13075.569340654534, -2360.008938313596, -1082.9420188596273, -3754.5789783691143, -4140.459494645535, -13254.00331664125, -10702.171707412208, -17248.79649267155, -9679.95937823765, -5629.68917246928, -9108.894659149011, -9337.776522371356, -8041.867082341562, 0.0050234375, -0.0022734375000000003, 0.9902578125, 192.0, 0.0, 0.0, 0.0, 0.0, 0.0, 0.0, 0.0, 0.0, 0.0, 1.6444989565107183E9, 0.0, 2022-02-11 00:15:56.510
94.0, -5972.877856836064, -8002.460956866856, -7941.217177059314, -13069.467314418234, -2344.98856603963, -1077.8905246127279, -3700.8006812096455, -4126.489654360968, -13247.18603458238, -10687.531314793983, -17237.93354486627, -9670.929273477706, -5618.692114197268, -9087.951074594388, -9327.673533877556, -8029.506567657777, 0.0050234375, -0.0022734375000000003, 0.9902578125, 192.0, 0.0, 0.0, 0.0, 0.0, 0.0, 0.0, 0.0, 0.0, 0.0, 1.644498956510725E9, 0.0, 2022-02-11 00:15:56.510
96.0, -5946.391039656525, -7976.376471087512, -7925.101569307038, -13055.050439244562, -2328.9400135207193, -1067.8098878633843, -3701.471233543305, -4118.465378101513, -13223.180261037382, -10670.991023897055, -17236.1677570543, -9668.96231996564, -5604.051721579042, -9078.697452389892, -9313.45782440398, -8017.727198329831, 0.01, 0.0, 0.994, 192.0, 0.0, 40.0, 0.0, 0.0, 15.5, 8.0, 0.0, 0.0, 0.0, 1.6444989565107317E9, 0.0, 2022-02-11 00:15:56.510
98.0, -5929.850748759598, -7956.796342944664, -7920.094778549049, -13050.15540720885, -2330.6834495882335, -1066.7593558739848, -3708.02029466871, -4133.217529442016, -13214.261914999714, -10636.748151391525, -17209.233904985656, -9644.308345831436, -5593.792270874056, -9059.720821347335, -9304.181850455028, -8007.043064480194, 0.01, 0.0, 0.994, 192.0, 0.0, 0.0, 0.0, 0.0, 0.0, 0.0, 0.0, 0.0, 0.0, 1.6444989565107381E9, 0.0, 2022-02-11 00:15:56.510
100.0, -5921.938231222419, -7934.154025811437, -7921.659400660921, -13041.080598959996, -2336.2937374465155, -1069.7097861420855, -3707.752073735246, -4131.921128263608, -13200.157964248416, -10623.024180295966, -17211.513782920098, -9631.098464858349, -5589.210163260718, -9056.949205034876, -9312.407292414582, -8009.4570528813665, 0.01, 0.0, 0.994, 192.0, 0.0, 0.0, 0.0, 0.0, 0.0, 0.0, 0.0, 0.0, 0.0, 1.6444989565107477E9, 0.0, 2022-02-11 00:15:56.510
102.0, -5901.866364701554, -7928.007296086228, -7904.761481852709, -13032.452825600247, -2314.2549174135825, -1060.277349981946, -3702.9911521662657, -4108.898831474642, -13186.501048386222, -10602.438223652629, -17195.420526912276, -9626.248136311548, -5576.782593343568, -9051.69654508788, -9306.037045244819, -7998.370587631534, 0.01, 0.0, 0.994, 192.0, 0.0, 0.0, 0.0, 0.0, 0.0, 0.0, 0.0, 0.0, 0.0, 1.6444989565107543E9, 0.0, 2022-02-11 00:15:56.510
104.0, -5910.717655505855, -7934.623412444999, -7911.981095311773, -13026.395502852858, -2312.3550191348813, -1056.6340156357307, -3702.20884111033, -4105.85899422872, -13186.456344897313, -10618.531479660449, -17185.384593651845, -9615.564002461912, -5566.523142638582, -9050.064867742643, -9294.481193361426, -7993.1402794289925, 0.01, 0.0, 0.994, 192.0, 0.0, 0.0, 0.0, 0.0, 0.0, 0.0, 0.0, 0.0, 0.0, 1.6444989565107613E9, 0.0, 2022-02-11 00:15:56.510
106.0, -5891.808079696665, -7910.483528433268, -7900.5146504062, -13011.352778834436, -2290.249143868583, -1032.561186857365, -3684.01452112371, -4090.346883576737, -13174.22994068026, -10611.133052245743, -17194.12412573387, -9613.150014060739, -5558.00712800111, -9034.709219301847, -9289.7426235369, -7980.645654278476, 0.016, -0.004, 0.994, 192.0, 0.0, 64.0, 127.5, 112.0, 15.5, 8.0, 0.0, 0.0, 0.0, 1.6444989565107677E9, 0.0, 2022-02-11 00:15:56.510
108.0, -5866.617663695534, -7885.829554299064, -7891.193972968337, -13004.04375839755, -2275.5193442725354, -1028.113189710759, -3665.395517992439, -4084.289560829349, -13163.881082997452, -10580.466458853061, -17168.665488799274, -9588.071356781884, -5540.706877792702, -9014.324428358606, -9270.922454705531, -7966.497000038266, 0.016, -0.004, 0.994, 192.0, 0.0, 0.0, 0.0, 0.0, 0.0, 0.0, 0.0, 0.0, 0.0, 1.6444989565107741E9, 0.0, 2022-02-11 00:15:56.510
110.0, -5858.928663602908, -7868.395193623924, -7890.165792723393, -12992.890237914353, -2279.699120485678, -1020.9606314850607, -3661.4169074793945, -4074.2536275689163, -13144.524472299156, -10572.397479104697, -17161.95996546268, -9580.941150300641, -5532.168511410775, -9009.49645155626, -9272.800001239777, -7963.054831392149, 0.016, -0.004, 0.994, 192.0, 0.0, 0.0, 0.0, 0.0, 0.0, 0.0, 0.0, 0.0, 0.0, 1.6444989565107808E9, 0.0, 2022-02-11 00:15:56.510
112.0, -5836.263994725227, -7845.998745679706, -7872.150286692416, -12982.317862786993, -2256.6544719522562, -993.2444683604799, -3657.1030207995204, -4059.166200061584, -13128.542975013612, -10544.413095046652, -17143.385665820322, -9569.139429228238, -5517.259897859085, -8989.201067590842, -9260.97592842292, -7946.492188750767, 0.016, -0.004, 0.994, 192.0, 0.0, 0.0, 0.0, 0.0, 0.0, 0.0, 0.0, 0.0, 0.0, 1.6444989565107872E9, 0.0, 2022-02-11 00:15:56.510
114.0, -5848.333936731093, -7854.693574272821, -7880.621597840977, -12978.115734829395, -2263.0694226109295, -998.4077213296558, -3648.542302673138, -4060.5520082178127, -13133.750931471699, -10530.733827440004, -17138.423578551243, -9557.024783733463, -5513.99654316861, -8982.652006465436, -9255.253881842362, -7938.289098535669, 0.016, -0.004, 0.994, 192.0, 0.0, 0.0, 0.0, 0.0, 0.0, 0.0, 0.0, 0.0, 0.0, 1.644498956510794E9, 0.0, 2022-02-11 00:15:56.510
116.0, -5831.838349323077, -7834.30878332958, -7869.579836080055, -12970.873769625876, -2246.283262524994, -988.885878191695, -3623.9553837723, -4041.6647841530785, -13121.859803421476, -10535.003010630968, -17150.58292753493, -9559.125847712261, -5509.973229166655, -8975.007709861722, -9255.343288820182, -7930.488339720767, 0.01, -0.002, 0.99, 192.0, 0.0, 40.0, 127.5, 120.0, 15.0, 120.0, 0.0, 0.0, 0.0, 1.6444989565108008E9, 0.0, 2022-02-11 00:15:56.510
118.0, -5808.413721133915, -7812.1135010854605, -7851.541978304623, -12968.929167858263, -2236.0461635644633, -983.0520728888599, -3634.3489449440176, -4044.481103954447, -13104.40309100188, -10502.79414687087, -17119.04461610849, -9541.22210040356, -5486.168621321753, -8965.239997534753, -9233.818558909721, -7917.792548870153, 0.01, -0.002, 0.99, 192.0, 0.0, 0.0, 0.0, 0.0, 0.0, 0.0, 0.0, 0.0, 0.0, 1.6444989565108075E9, 0.0, 2022-02-11 00:15:56.510
120.0, -5807.050264722141, -7804.648018437389, -7856.235844640237, -12952.634746150345, -2240.1588845442398, -974.6925204625751, -3635.8465118225236, -4035.4957026834136, -13091.103803050972, -10498.592018913272, -17121.235087065113, -9534.360114855781, -5477.339682261906, -8965.955253357322, -9229.571727463213, -7911.198784255837, 0.01, -0.002, 0.99, 192.0, 0.0, 0.0, 0.0, 0.0, 0.0, 0.0, 0.0, 0.0, 0.0, 1.6444989569938774E9, 0.0, 2022-02-11 00:15:56.993
122.0, -5786.3078458676155, -7789.471183952235, -7842.6012805225, -12940.184824488739, -2222.9703930581086, -952.2290172849915, -3641.6803171253587, -4026.197376990006, -13077.692756377788, -10487.393794941163, -17108.695758425685, -9516.813995458364, -5467.527266446026, -8938.082628021553, -9228.16356756253, -7897.519516649189, 0.01, -0.002, 0.99, 192.0, 0.0, 0.0, 0.0, 0.0, 0.0, 0.0, 0.0, 0.0, 0.0, 1.64449895699405E9, 0.0, 2022-02-11 00:15:56.994
124.0, -5794.734453527267, -7793.15922178736, -7844.948213690307, -12934.775702330555, -2222.4563029356364, -951.6478719291536, -3604.0176277181663, -4002.45982437847, -13079.34678546748, -10478.587207625773, -17097.09520305338, -9505.660474975166, -5458.608920408359, -8929.745427339725, -9216.652419168046, -7885.494278132234, 0.01, -0.002, 0.99, 192.0, 0.0, 0.0, 0.0, 0.0, 0.0, 0.0, 0.0, 0.0, 0.0, 1.644498956994057E9, 0.0, 2022-02-11 00:15:56.994
126.0, -5790.085290680563, -7794.813250877053, -7838.22033860926, -12926.282039437538, -2201.4009596587375, -930.7489908634413, -3577.866086705457, -3982.45501309097, -13067.053326017061, -10478.095469247755, -17103.957188601158, -9514.712931479566, -5452.618652894336, -8918.256630689697, -9212.606753421636, -7872.84319077053, 0.008, -0.002, 0.99, 192.0, 0.0, 32.0, 127.5, 120.0, 15.0, 120.0, 0.0, 0.0, 0.0, 1.644498956994064E9, 0.0, 2022-02-11 00:15:56.994
128.0, -5773.902627694921, -7773.981425044707, -7826.351562303492, -12920.89526902381, -2186.4252908736817, -923.1941012375476, -3572.3228540805408, -3973.4025565865704, -13064.326413193514, -10455.319041647797, -17086.500476181565, -9504.945219152596, -5432.166806717731, -8900.777566525647, -9190.880857811077, -7857.5545975631, 0.008, -0.002, 0.99, 192.0, 0.0, 0.0, 0.0, 0.0, 0.0, 0.0, 0.0, 0.0, 0.0, 1.644498956994071E9, 0.0, 2022-02-11 00:15:56.994
130.0, -5769.275816592672, -7753.015488745629, -7826.150396603393, -12905.718434538656, -2184.8830205062654, -919.37195293569, -3566.42199354434, -3970.0497949182745, -13053.217596199227, -10443.584375808761, -17091.216694261635, -9485.007463098462, -5429.730466572102, -8897.76008102418, -9187.371633931594, -7849.329155603547, 0.008, -0.002, 0.99, 192.0, 0.0, 0.0, 0.0, 0.0, 0.0, 0.0, 0.0, 0.0, 0.0, 1.6444989569940782E9, 0.0, 2022-02-11 00:15:56.994
132.0, -5748.309880293594, -7742.443113618268, -7815.555669731578, -12901.628065303334, -2167.023976686475, -907.0337899963606, -3562.219865586742, -3959.186847112995, -13034.755055279144, -10435.78361699386, -17075.838694076385, -9471.261140258448, -5416.945268743667, -8872.234388856219, -9177.67097683799, -7836.8792339419415, 0.008, -0.002, 0.99, 192.0, 0.0, 0.0, 0.0, 0.0, 0.0, 0.0, 0.0, 0.0, 0.0, 1.6444989569940908E9, 0.0, 2022-02-11 00:15:56.994
134.0, -5757.451743775814, -7729.255584389638, -7819.824852922542, -12904.712606038167, -2166.2640173749946, -910.0736272422823, -3565.2820545771187, -3963.679547748512, -13038.130168691894, -10429.569832035284, -17069.110818995337, -9468.5342274349, -5409.54684132896, -8865.730031219726, -9171.367784901595, -7834.889928685418, 0.008, -0.002, 0.99, 192.0, 0.0, 0.0, 0.0, 0.0, 0.0, 0.0, 0.0, 0.0, 0.0, 1.6444989569940977E9, 0.0, 2022-02-11 00:15:56.994
136.0, -5735.65879293189, -7719.934906951775, -7806.033826593617, -12879.298672592482, -2152.5847497683467, -890.8734787551736, -3552.5862637265045, -3944.9264341505095, -13021.43341558378, -10416.248192339921, -17070.273109707014, -9462.611015154245, -5399.8908877242675, -8873.441383056806, -9169.087906967152, -7823.1999663352935, 0.004, -0.002, 0.992, 192.0, 0.0, 16.0, 127.5, 120.0, 15.5, 0.0, 0.0, 0.0, 0.0, 1.6444989569941044E9, 0.0, 2022-02-11 00:15:56.994
138.0, -5721.845414858511, -7716.738607494665, -7793.136870042905, -12879.41043131476, -2139.1737030951626, -875.4284233365564, -3536.738876907692, -3936.656288702046, -13011.57629627899, -10387.43679373703, -17041.975801226592, -9446.182482979595, -5386.725710240092, -8849.614423467448, -9149.999517202321, -7805.989123104707, 0.004, -0.002, 0.992, 192.0, 0.0, 0.0, 0.0, 0.0, 0.0, 0.0, 0.0, 0.0, 0.0, 1.644498956994111E9, 0.0, 2022-02-11 00:15:56.994
140.0, -5735.301165020605, -7708.177889368283, -7795.841431121998, -12869.553312009968, -2137.6984879611123, -874.1320221581486, -3542.729144421714, -3935.091666590174, -13005.80954620952, -10401.093709599223, -17050.313001908424, -9444.684916101089, -5381.182477615175, -8831.12953080291, -9145.015078188788, -7802.234030036215, 0.004, -0.002, 0.992, 192.0, 0.0, 0.0, 0.0, 0.0, 0.0, 0.0, 0.0, 0.0, 0.0, 1.6444989569941177E9, 0.0, 2022-02-11 00:15:56.994
142.0, -5703.092301260508, -7690.2517903151265, -7781.201038503771, -12859.182102582707, -2118.632449940735, -859.1116498841823, -3543.5561589665604, -3916.360904736627, -12990.945636146742, -10379.837200622225, -17034.711484278618, -9422.243764667961, -5370.051308876433, -8821.965315576233, -9141.259985120296, -7794.3215124990365, 0.004, -0.002, 0.992, 192.0, 0.0, 0.0, 0.0, 0.0, 0.0, 0.0, 0.0, 0.0, 0.0, 1.6444989569941251E9, 0.0, 2022-02-11 00:15:56.994
144.0, -5711.2283362422395, -7685.960255379708, -7786.677215895322, -12858.7350676936, -2114.2962115164055, -857.412917305579, -3503.255963713642, -3901.429939440482, -12991.079746613474, -10371.634110407127, -17021.65806551672, -9411.649037796145, -5360.931797138667, -8813.918687572323, -9127.111330880087, -7784.665558894344, 0.004, -0.002, 0.992, 192.0, 0.0, 0.0, 0.0, 0.0, 0.0, 0.0, 0.0, 0.0, 0.0, 1.6444989569941318E9, 0.0, 2022-02-11 00:15:56.994
146.0, -5700.879478559432, -7672.638615684345, -7775.210770989749, -12844.184082053194, -2096.057188040875, -835.7317251839311, -3498.5397456335722, -3884.889648543555, -12979.613301707901, -10368.258996994377, -17031.69399877715, -9410.173822662095, -5351.789933656447, -8794.36091117393, -9122.775092455757, -7774.227294233716, 0.008, -0.006, 0.988, 192.0, 0.0, 32.0, 127.5, 104.0, 15.0, 112.0, 0.0, 0.0, 0.0, 1.6444989569941385E9, 0.0, 2022-02-11 00:15:56.994
148.0, -5691.827022055033, -7655.919510831775, -7767.231198219204, -12845.502834976058, -2081.215629722551, -819.9066901095737, -3499.0985392449547, -3888.3318171896717, -12974.003013849619, -10354.087991009712, -17013.812603212908, -9401.009607435419, -5337.350706738318, -8792.349254172952, -9102.457356745883, -7757.038802747585, 0.008, -0.006, 0.988, 192.0, 0.0, 0.0, 0.0, 0.0, 0.0, 0.0, 0.0, 0.0, 0.0, 1.6444989569941452E9, 0.0, 2022-02-11 00:15:56.994
150.0, -5696.811461068566, -7656.455952698702, -7774.473163422724, -12837.053875571952, -2086.2671239694505, -816.0845418077162, -3494.40467290934, -3869.3104826582057, -12963.654156166811, -10346.689563595006, -17020.763995738507, -9413.236011652472, -5329.48289269005, -8789.778803560592, -9105.318380036162, -7751.58497710049, 0.008, -0.006, 0.988, 192.0, 0.0, 0.0, 0.0, 0.0, 0.0, 0.0, 0.0, 0.0, 0.0, 1.644498956994152E9, 0.0, 2022-02-11 00:15:56.994
152.0, -5673.45388811277, -7648.856359583898, -7754.088372479484, -12822.614648653824, -2054.7288125430123, -794.5821636417107, -3446.7954572195363, -3851.2502731383174, -12953.260594995094, -10335.625450089628, -17009.811640955406, -9394.996988176941, -5316.965915795078, -8772.992643474656, -9091.974388596343, -7732.094255935462, 0.008, -0.006, 0.988, 192.0, 0.0, 0.0, 0.0, 0.0, 0.0, 0.0, 0.0, 0.0, 0.0, 1.6444989569941592E9, 0.0, 2022-02-11 00:15:56.994
154.0, -5678.527734104126, -7650.018650295574, -7757.798762059065, -12813.159860749229, -2053.901797998166, -795.1856607420041, -3458.932454458768, -3853.1501714170186, -12948.745542615121, -10325.410702873553, -16995.12654484827, -9371.460601265502, -5303.845441799813, -8765.773030015593, -9078.205714011874, -7725.254622132137, 0.008, -0.006, 0.988, 192.0, 0.0, 0.0, 0.0, 0.0, 0.0, 0.0, 0.0, 0.0, 0.0, 1.644498956994166E9, 0.0, 2022-02-11 00:15:56.994
156.0, -5665.273149642128, -7628.650382596301, -7751.495570122668, -12802.408671666226, -2041.2060071475516, -780.7240820794204, -3459.1336201588656, -3843.4048108345046, -12930.886498795331, -10306.99286544238, -16997.138201849248, -9371.751173943421, -5298.9280580196455, -8754.150122898833, -9084.106574548076, -7719.711389507222, 0.006, -0.004, 0.982, 192.0, 0.0, 24.0, 127.5, 112.0, 15.0, 88.0, 0.0, 0.0, 0.0, 1.6444989569941728E9, 0.0, 2022-02-11 00:15:56.994
156.0, -5652.756172747157, -7622.347190659904, -7742.48781710718, -12805.649674612247, -2029.9854314309873, -776.5890093551886, -3457.189018391254, -3837.6380607650353, -12930.886498795331, -10306.99286544238, -16997.138201849248, -9371.751173943421, -5298.9280580196455, -8754.150122898833, -9084.106574548076, -7719.711389507222, 0.006, -0.004, 0.982, 192.0, 0.0, 12.0, 63.75, 56.0, 7.5, 44.0, 0.0, 0.0, 0.0, 1.644498956994176E9, 0.0, 2022-02-11 00:15:56.994
160.0, -5661.227483895717, -7607.684446297222, -7745.617061330922, -12801.559305376924, -2034.4334285775935, -776.1419744660824, -3458.284253869564, -3832.9888979183315, -12926.997295260107, -10294.900571692058, -16989.65036745672, -9362.676365694568, -5282.812450267369, -8728.713837708692, -9064.906426060967, -7711.575354525489, 0.006, -0.004, 0.982, 192.0, 0.0, 0.0, 0.0, 0.0, 0.0, 0.0, 0.0, 0.0, 0.0, 1.6444989569941828E9, 0.0, 2022-02-11 00:15:56.994
162.0, -5637.065248139531, -7586.852620464876, -7725.165215154317, -12789.33290115987, -2004.3926840296608, -750.3033578757475, -3438.033573393056, -3817.8344151776337, -12907.663036306267, -10282.897684919559, -16973.668870171176, -9348.997098087919, -5267.657967526671, -8727.015105130089, -9054.468161400338, -7699.080729374973, 0.006, -0.004, 0.982, 192.0, 0.0, 0.0, 0.0, 0.0, 0.0, 0.0, 0.0, 0.0, 0.0, 1.6444989569941895E9, 0.0, 2022-02-11 00:15:56.994
164.0, -5640.708582485746, -7601.269495638549, -7726.1710436548055, -12787.433002881171, -2006.4043410306385, -754.2596166443368, -3451.154047388321, -3822.1930053464184, -12906.79131827251, -10269.665452202016, -16960.16841652017, -9335.630754903646, -5251.072973140833, -8712.307657278498, -9046.466236885339, -7693.38103453887, 0.009000000000000001, -0.004, 0.981, 192.0, 0.0, 48.0, 127.5, 112.0, 15.0, 80.0, 0.0, 0.0, 0.0, 1.6444989569941983E9, 0.0, 2022-02-11 00:15:56.994
166.0, -5631.901995170355, -7586.40558557577, -7717.923249950797, -12771.563264317903, -1993.485032735471, -743.351965350147, -3423.549642986017, -3809.720731940357, -12888.954626197175, -10270.470115002408, -16962.805922365897, -9336.189548515029, -5242.735772459004, -8708.887840376836, -9050.221329953829, -7688.240133314149, 0.009000000000000001, -0.004, 0.981, 192.0, 0.0, 0.0, 0.0, 0.0, 0.0, 0.0, 0.0, 0.0, 0.0, 1.644498956994205E9, 0.0, 2022-02-11 00:15:56.994
168.0, -5616.926326385299, -7571.16169585725, -7711.24007835866, -12762.846083980332, -1981.8844773631665, -727.5269302757896, -3436.580710003461, -3798.1648800569633, -12883.41139357226, -10246.084361801668, -16937.704913342586, -9311.870850547653, -5230.934051386601, -8690.268837245565, -9037.905518758955, -7674.203237796216, 0.009000000000000001, -0.004, 0.981, 192.0, 0.0, 0.0, 0.0, 0.0, 0.0, 0.0, 0.0, 0.0, 0.0, 1.6444989569942117E9, 0.0, 2022-02-11 00:15:56.994
170.0, -5621.7766549321, -7566.087849865896, -7712.156499881327, -12756.900519955221, -1975.9836168269655, -715.3675812921025, -3391.1172617813663, -3778.8753245920334, -12876.92938768022, -10233.232108739867, -16945.863300068773, -9309.322751679749, -5223.848548394269, -8682.24456098611, -9033.435169867895, -7664.0108423245965, 0.009000000000000001, -0.004, 0.981, 192.0, 0.0, 0.0, 0.0, 0.0, 0.0, 0.0, 0.0, 0.0, 0.0, 1.6444989569942183E9, 0.0, 2022-02-11 00:15:56.994
172.0, -5602.5765064449915, -7546.418314745226, -7697.292589818549, -12754.128903642762, -1961.1867619975524, -698.3802555060691, -3384.411738444774, -3776.148411768486, -12867.295785819982, -10235.377876207576, -16938.82250056535, -9297.65514107408, -5211.59979243276, -8663.692613088204, -9023.779216263201, -7654.220778253171, 0.009000000000000001, -0.004, 0.981, 192.0, 0.0, 0.0, 0.0, 0.0, 0.0, 0.0, 0.0, 0.0, 0.0, 1.6444989569942253E9, 0.0, 2022-02-11 00:15:56.994
174.0, -5607.851518136445, -7547.960585112642, -7701.092386375951, -12749.18916811814, -1960.9855962974545, -697.933220616963, -3391.027854803545, -3772.505077422271, -12868.189855598195, -10225.230184224867, -16926.216116692558, -9292.491888104903, -5208.26938250892, -8652.896720516292, -9016.425492337405, -7650.957423562697, 0.009500000000000001, -0.006, 0.9835, 192.0, 0.0, 40.0, 127.5, 96.0, 15.0, 104.0, 0.0, 0.0, 0.0, 1.644498956994232E9, 0.0, 2022-02-11 00:15:56.994
176.0, -5591.467689450704, -7536.15886404024, -7692.017578127096, -12735.353438300304, -1944.3335466782507, -676.1179180285833, -3379.136726753322, -3744.855969531056, -12851.44839900117, -10218.88228879956, -16932.362846417767, -9300.672626575546, -5198.814594604325, -8665.838380555913, -9014.54794580316, -7640.0050687795965, 0.009500000000000001, -0.006, 0.9835, 192.0, 0.0, 0.0, 0.0, 0.0, 0.0, 0.0, 0.0, 0.0, 0.0, 1.6444989569942386E9, 0.0, 2022-02-11 00:15:56.994
178.0, -5595.088672052464, -7537.119989051818, -7685.624979212878, -12739.644973235723, -1927.4356278700386, -664.9643975453852, -3383.450613433196, -3749.7733533112237, -12848.654430944256, -10197.670483311473, -16911.754538029974, -9285.138164179107, -5188.041053776867, -8646.213548924154, -9000.064015396121, -7628.672734340756, 0.009500000000000001, -0.006, 0.9835, 192.0, 0.0, 0.0, 0.0, 0.0, 0.0, 0.0, 0.0, 0.0, 0.0, 1.6444989569942453E9, 0.0, 2022-02-11 00:15:56.994
180.0, -5602.5765064449915, -7535.689477406679, -7687.524877491579, -12730.883089409244, -1928.553215092804, -672.1616592599939, -3369.9054562932797, -3745.593577098081, -12851.20252981216, -10207.125271216068, -16923.042168979904, -9284.69112929, -5182.967207785512, -8639.239804654098, -8998.20882060633, -7632.003144264597, 0.009500000000000001, -0.006, 0.9835, 192.0, 0.0, 0.0, 0.0, 0.0, 0.0, 0.0, 0.0, 0.0, 0.0, 1.644498956994252E9, 0.0, 2022-02-11 00:15:56.994
182.0, -5586.863230092911, -7527.374628469304, -7670.358737749903, -12728.983191130543, -1908.5707555497595, -662.8633335665862, -3345.6985170481826, -3726.661649544436, -12840.250175029061, -10198.45279436741, -16911.39691011869, -9271.45889657246, -5177.803954816336, -8633.987144707102, -8987.412928034417, -7620.894327270309, 0.009500000000000001, -0.006, 0.9835, 192.0, 0.0, 0.0, 0.0, 0.0, 0.0, 0.0, 0.0, 0.0, 0.0, 1.6444989569942594E9, 0.0, 2022-02-11 00:15:56.994
184.0, -5594.641637163358, -7519.484462676581, -7671.811601139499, -12725.89865039571, -1906.6261537821476, -661.5669323881784, -3359.0425084880007, -3726.080504188598, -12842.35123900786, -10184.728823271851, -16903.931427470616, -9262.272329601328, -5168.058594233822, -8630.187348149699, -8977.48875349626, -7614.680542311734, 0.009750000000000002, -0.004, 0.98875, 192.0, 0.0, 40.0, 127.5, 120.0, 15.5, 8.0, 0.0, 0.0, 0.0, 1.6444989569942663E9, 0.0, 2022-02-11 00:15:56.994
186.0, -5573.563942142003, -7497.199773454639, -7660.2557492561045, -12708.911324609677, -1888.9906274069106, -630.3191936396591, -3344.7820955255147, -3714.6140592830257, -12827.330866733893, -10181.644282537018, -16908.513535083956, -9260.573597022725, -5158.201474929032, -8614.205850864155, -8976.013538362211, -7604.488146840114, 0.009750000000000002, -0.004, 0.98875, 192.0, 0.0, 0.0, 0.0, 0.0, 0.0, 0.0, 0.0, 0.0, 0.0, 1.6444989569942727E9, 0.0, 2022-02-11 00:15:56.994
188.0, -5558.565921612492, -7482.782898280967, -7651.560920662991, -12704.664493163169, -1876.6301127231256, -623.613670303067, -3341.7869617685037, -3708.4449778133608, -12813.718654360611, -10154.799837446195, -16878.316328324836, -9243.183939836495, -5139.314250864298, -8589.060138351935, -8961.283738766162, -7590.272437366538, 0.009750000000000002, -0.004, 0.98875, 192.0, 0.0, 0.0, 0.0, 0.0, 0.0, 0.0, 0.0, 0.0, 0.0, 1.6444989569942796E9, 0.0, 2022-02-11 00:15:56.994
190.0, -5562.410421658805, -7474.333938876861, -7654.578406164456, -12691.588722656814, -1884.2297058379302, -623.7254290253436, -3336.6013570548726, -3711.5518702926483, -12808.555401391435, -10153.592843245608, -16886.653529006664, -9235.360829277139, -5133.011058927901, -8596.704434955649, -8965.48586672376, -7593.31227461246, 0.009750000000000002, -0.004, 0.98875, 192.0, 0.0, 0.0, 0.0, 0.0, 0.0, 0.0, 0.0, 0.0, 0.0, 1.6444989569942873E9, 0.0, 2022-02-11 00:15:56.994
192.0, -5541.399781870817, -7469.975348708075, -7641.167359491273, -12686.313710965362, -1868.0917463411984, -608.615649773556, -3335.573176809928, -3703.9299254333887, -12797.6701018417, -10136.113779081557, -16876.036450390395, -9223.916736116022, -5124.070361145778, -8588.523696485006, -8965.82114289059, -7585.846791964387, 0.009750000000000002, -0.004, 0.98875, 192.0, 0.0, 0.0, 0.0, 0.0, 0.0, 0.0, 0.0, 0.0, 0.0, 1.6444989569942944E9, 0.0, 2022-02-11 00:15:56.994
194.0, -5558.163590212297, -7472.501095831525, -7648.364621205881, -12690.202914500585, -1872.4503365099833, -613.6671440204555, -3341.4963890905847, -3706.410969067928, -12803.593314122358, -10139.332430283122, -16869.57679624281, -9222.10624481514, -5117.320134320275, -8577.50428646854, -8956.567520686092, -7585.444460564192, 0.009875000000000002, -0.003, 0.991375, 192.0, 0.0, 40.0, 127.5, 120.0, 15.5, 8.0, 0.0, 0.0, 0.0, 1.6444989569943013E9, 0.0, 2022-02-11 00:15:56.994
196.0, -5549.2228924301735, -7462.241645126539, -7643.6484031258115, -12681.642196374201, -1858.815772392246, -602.6253822595337, -3343.396287369286, -3699.370169564506, -12797.290122185961, -10125.273183020734, -16885.15596212816, -9231.918660631021, -5117.163672109088, -8581.728766170594, -8956.813389875102, -7581.823477962432, 0.009875000000000002, -0.003, 0.991375, 192.0, 0.0, 0.0, 0.0, 0.0, 0.0, 0.0, 0.0, 0.0, 0.0, 1.6444989569943097E9, 0.0, 2022-02-11 00:15:56.994
198.0, -5543.456142360705, -7470.869418486288, -7637.255804211593, -12682.446859174594, -1848.779839131813, -588.7225972083327, -3358.640177087805, -3695.2574485847294, -12794.362043662315, -10131.174043556935, -16864.033563617893, -9212.740863888368, -5106.993628381923, -8560.36049847132, -8946.86686359249, -7571.340509812893, 0.009875000000000002, -0.003, 0.991375, 192.0, 0.0, 0.0, 0.0, 0.0, 0.0, 0.0, 0.0, 0.0, 0.0, 1.6444989569943163E9, 0.0, 2022-02-11 00:15:56.994
200.0, -5556.95659601171, -7463.359232349305, -7644.855397326398, -12681.172809740641, -1845.0247460633216, -591.6059722430673, -3298.379874036297, -3689.3789397929836, -12795.39022390726, -10139.019505860748, -16874.538883511887, -9215.49012845637, -5107.82064292677, -8562.081582794379, -8943.692915879836, -7571.519323768535, 0.009875000000000002, -0.003, 0.991375, 192.0, 0.0, 0.0, 0.0, 0.0, 0.0, 0.0, 0.0, 0.0, 0.0, 1.6444989569943233E9, 0.0, 2022-02-11 00:15:56.994
202.0, -5537.532930080049, -7440.649859982713, -7630.371466919359, -12675.897798049189, -1825.7798940873022, -573.523410978724, -3299.3409990478754, -3678.6053989655256, -12789.399956393238, -10120.445206218386, -16871.923729410617, -9215.735997645379, -5104.53493649184, -8547.508245409519, -8935.802750087112, -7561.036355618997, 0.009875000000000002, -0.003, 0.991375, 192.0, 0.0, 0.0, 0.0, 0.0, 0.0, 0.0, 0.0, 0.0, 0.0, 1.6444989569943297E9, 0.0, 2022-02-11 00:15:56.994
204.0, -5538.896386491822, -7441.789798949933, -7632.696048342711, -12673.304995692373, -1829.26676622233, -576.0491581021736, -3308.9969526525683, -3679.5218204881935, -12786.807154036422, -10105.3354269666, -16858.3785722707, -9199.285113726273, -5094.007264853391, -8530.073884734378, -8929.901889550913, -7559.181160829206, 0.0119375, -0.0035, 0.9916875, 192.0, 0.0, 56.0, 127.5, 112.0, 15.5, 0.0, 0.0, 0.0, 0.0, 1.6444989569943364E9, 0.0, 2022-02-11 00:15:56.994
206.0, -5532.280270133051, -7432.8043976789, -7631.757275075588, -12665.12425722173, -1819.2084812174419, -569.231876043305, -3301.1067868598448, -3675.6102652085146, -12774.848970752833, -10105.469537433331, -16864.52530199591, -9201.833212594178, -5084.127793804145, -8535.773579570483, -8932.606450630004, -7555.582529971902, 0.0119375, -0.0035, 0.9916875, 192.0, 0.0, 0.0, 0.0, 0.0, 0.0, 0.0, 0.0, 0.0, 0.0, 1.6444989569943433E9, 0.0, 2022-02-11 00:15:56.994
208.0, -5522.780778739546, -7424.377790019249, -7619.88849876982, -12659.961004252555, -1803.8975362655565, -553.2503787577604, -3295.161222834733, -3653.4820381977606, -12772.658499796213, -10089.08570874759, -16847.828548887795, -9186.544619386748, -5073.9353983325245, -8530.699733579127, -8921.140005724432, -7547.982936857097, 0.0119375, -0.0035, 0.9916875, 192.0, 0.0, 0.0, 0.0, 0.0, 0.0, 0.0, 0.0, 0.0, 0.0, 1.64449895699435E9, 0.0, 2022-02-11 00:15:56.994
210.0, -5531.632069543847, -7428.222290065562, -7621.564879603968, -12645.410018612149, -1798.913097252023, -547.1260007770063, -3286.8016704084484, -3644.0943055265316, -12772.434982351659, -10086.202333712858, -16859.00442111545, -9191.529058400281, -5068.839200596714, -8523.614230586796, -8914.970924254767, -7539.8692536198205, 0.0119375, -0.0035, 0.9916875, 192.0, 0.0, 0.0, 0.0, 0.0, 0.0, 0.0, 0.0, 0.0, 0.0, 1.6444989569943569E9, 0.0, 2022-02-11 00:15:56.994
212.0, -5504.497051775104, -7410.6091154347805, -7608.913792242264, -12642.414884855138, -1776.0249109297886, -528.6634598569226, -3271.5801324343843, -3640.048639780121, -12754.911214698699, -10078.80390629815, -16848.029714587894, -9181.738994328856, -5051.740116088405, -8505.196393155622, -8902.431595615339, -7523.820701100911, 0.0119375, -0.0035, 0.9916875, 192.0, 0.0, 0.0, 0.0, 0.0, 0.0, 0.0, 0.0, 0.0, 0.0, 1.6444989569943635E9, 0.0, 2022-02-11 00:15:56.994
214.0, -5521.976115939155, -7398.270952495451, -7613.607658577879, -12647.421675613126, -1781.3222743656963, -534.072582015107, -3277.9950830930575, -3647.469418939283, -12765.125961914775, -10078.71449932033, -16845.66042967563, -9173.513552369304, -5049.370831176142, -8501.933038465148, -8896.508383334683, -7525.340619723871, 0.01096875, -0.00575, 0.98784375, 192.0, 0.0, 40.0, 127.5, 96.0, 15.0, 96.0, 0.0, 0.0, 0.0, 1.6444989569943702E9, 0.0, 2022-02-11 00:15:56.994
216.0, -5516.321124591962, -7402.473080453048, -7610.165489931762, -12635.9328789631, -1774.594399284649, -523.5002068877467, -3263.555856174929, -3633.477226910261, -12754.575938531869, -10074.46766787382, -16852.254194289948, -9180.107316983618, -5042.352383417176, -8496.658026773695, -8898.47533684675, -7519.707980121134, 0.01096875, -0.00575, 0.98784375, 192.0, 0.0, 0.0, 0.0, 0.0, 0.0, 0.0, 0.0, 0.0, 0.0, 1.644498956994377E9, 0.0, 2022-02-11 00:15:56.994
218.0, -5501.7924906960125, -7390.917228569655, -7596.8662019808535, -12633.161262650641, -1759.171695610487, -505.9987909792413, -3280.0290918384903, -3634.728924599758, -12748.563319273391, -10065.795191025161, -16829.321304478803, -9156.816799261189, -5033.322278657231, -8472.58519799533, -8890.004025698188, -7512.600125384346, 0.01096875, -0.00575, 0.98784375, 192.0, 0.0, 0.0, 0.0, 0.0, 0.0, 0.0, 0.0, 0.0, 0.0, 1.6444989569943836E9, 0.0, 2022-02-11 00:15:56.994
220.0, -5511.627258256347, -7394.56056291587, -7601.805937505476, -12629.987314937987, -1758.2329223433642, -509.2621456697161, -3267.489763199063, -3623.8883285389343, -12744.249432593517, -10060.56488282262, -16835.19981327055, -9156.8615027501, -5025.298002397776, -8485.593913268318, -8890.56281930957, -7512.711884106623, 0.01096875, -0.00575, 0.98784375, 192.0, 0.0, 0.0, 0.0, 0.0, 0.0, 0.0, 0.0, 0.0, 0.0, 1.6444989569943905E9, 0.0, 2022-02-11 00:15:56.994
222.0, -5483.017025353554, -7378.646120863691, -7581.287036095505, -12621.538355533881, -1726.3593347500962, -486.396311091937, -3260.7842398624707, -3604.7775870296464, -12734.079388866352, -10052.473551329798, -16833.299914991847, -9150.804180002711, -5011.5963830466735, -8469.075974115845, -8880.124554648943, -7501.5360118789695, 0.01096875, -0.00575, 0.98784375, 192.0, 0.0, 0.0, 0.0, 0.0, 0.0, 0.0, 0.0, 0.0, 0.0, 1.644498956994397E9, 0.0, 2022-02-11 00:15:56.994
224.0, -5488.135574833819, -7355.109733952253, -7584.326873341427, -12621.895983445167, -1722.0007445813114, -486.61982853649005, -3254.078716525879, -3609.8737847654565, -12725.921002140165, -10023.46098702681, -16810.3670251807, -9137.147264140518, -4998.498260795863, -8455.977851865036, -8864.9924236527, -7494.584619353369, 0.011484375, -0.004875, 0.986921875, 192.0, 0.0, 48.0, 127.5, 112.0, 15.0, 104.0, 0.0, 0.0, 0.0, 1.6444989569944038E9, 0.0, 2022-02-11 00:15:56.994
226.0, -5496.606885982381, -7359.423620632127, -7585.958550686664, -12614.341093819272, -1712.6800671434485, -476.8297644650656, -3201.172137400167, -3592.9758659572444, -12721.405949760194, -10034.07806564308, -16821.833470086272, -9159.253139406817, -4998.408853818042, -8452.200407052089, -8863.763077707657, -7490.5613053514135, 0.011484375, -0.004875, 0.986921875, 192.0, 0.0, 0.0, 0.0, 0.0, 0.0, 0.0, 0.0, 0.0, 0.0, 1.6444989569944108E9, 0.0, 2022-02-11 00:15:56.994
228.0, -5479.1948770516965, -7359.557731098858, -7574.000367403075, -12606.093300115264, -1702.9347065609345, -462.7705172026774, -3214.49377709553, -3596.6192003034594, -12726.971534129565, -10027.50665277322, -16810.054100758327, -9112.090958606119, -4991.32335082571, -8436.554185933373, -8856.789333437602, -7481.7547180360225, 0.011484375, -0.004875, 0.986921875, 192.0, 0.0, 0.0, 0.0, 0.0, 0.0, 0.0, 0.0, 0.0, 0.0, 1.6444989569944196E9, 0.0, 2022-02-11 00:15:56.994
230.0, -5489.297865545495, -7355.60147233027, -7583.477507052125, -12603.701663458547, -1708.5449944192167, -464.5139532701914, -3207.58708805884, -3581.464717562761, -12724.691656195124, -10026.232603339267, -16820.447661930044, -9120.361104054584, -4984.08138562219, -8422.383179948709, -8854.755324692169, -7480.033633712964, 0.011484375, -0.004875, 0.986921875, 192.0, 0.0, 0.0, 0.0, 0.0, 0.0, 0.0, 0.0, 0.0, 0.0, 1.6444989569944263E9, 0.0, 2022-02-11 00:15:56.994
232.0, -5468.466039713149, -7346.303146636862, -7563.8750271648205, -12597.621988966703, -1687.623761609049, -449.58298797404626, -3217.8688905082813, -3571.048804646588, -12714.700426423602, -10016.666056712396, -16813.630379871178, -9116.963638897376, -4976.45944076293, -8426.227679995023, -8848.295670544585, -7471.651729542224, 0.011484375, -0.004875, 0.986921875, 192.0, 0.0, 0.0, 0.0, 0.0, 0.0, 0.0, 0.0, 0.0, 0.0, 1.6444989569944327E9, 0.0, 2022-02-11 00:15:56.994
234.0, -5478.32315901794, -7344.202082658063, -7567.227788833116, -12600.885343657177, -1687.9366860314235, -454.96975838777524, -3218.5394428419404, -3581.4870693072166, -12710.833574632834, -10007.635951952452, -16793.759679050407, -9109.766377182768, -4963.651891190039, -8424.081912527314, -8843.266528042142, -7470.66825278619, 0.01, -0.002, 0.986, 192.0, 0.0, 40.0, 127.5, 120.0, 15.0, 104.0, 0.0, 0.0, 0.0, 1.64449895699444E9, 0.0, 2022-02-11 00:15:56.994
236.0, -5479.284284029518, -7337.9435942105765, -7570.200570845673, -12594.090413342765, -1680.7841278057251, -448.1301245844513, -3190.331541339343, -3571.0935081354987, -12713.247563034007, -10005.713701929297, -16816.692568861552, -9114.862574918578, -4966.60232145814, -8428.976944563025, -8845.009964109655, -7473.350462120827, 0.01, -0.002, 0.986, 192.0, 0.0, 0.0, 0.0, 0.0, 0.0, 0.0, 0.0, 0.0, 0.0, 1.6444989569944465E9, 0.0, 2022-02-11 00:15:56.994
238.0, -5475.529190961027, -7339.463512833538, -7564.433820776203, -12599.857163412235, -1664.1097264420662, -435.2331680337391, -3200.8815647222477, -3570.892342435401, -12717.539097969426, -9996.750652402718, -16803.6167983552, -9098.232877043829, -4959.494466721352, -8415.655304867661, -8838.639716939893, -7467.516656817992, 0.01, -0.002, 0.986, 192.0, 0.0, 0.0, 0.0, 0.0, 0.0, 0.0, 0.0, 0.0, 0.0, 1.6444989569944532E9, 0.0, 2022-02-11 00:15:56.994
240.0, -5472.824629881934, -7323.169091125619, -7563.0480126199745, -12590.201209807541, -1660.7793165182254, -429.55582494209114, -3207.58708805884, -3570.0653278905547, -12709.984208343532, -10010.586382220554, -16803.594446610743, -9107.151223081497, -4946.284585748266, -8401.640761094184, -8834.862272126946, -7464.007432938509, 0.01, -0.002, 0.986, 192.0, 0.0, 0.0, 0.0, 0.0, 0.0, 0.0, 0.0, 0.0, 0.0, 1.64449895699446E9, 0.0, 2022-02-11 00:15:56.994
242.0, -5455.3008622289735, -7327.751198738957, -7546.306556022949, -12589.821230151802, -1633.4431330493849, -411.5179671666583, -3182.3296168243432, -3552.6309672154152, -12694.963836069564, -9994.247257023724, -16792.6644435721, -9098.590504955115, -4929.520777406786, -8388.989673732482, -8826.301554000564, -7450.439924054137, 0.01, -0.002, 0.986, 192.0, 0.0, 0.0, 0.0, 0.0, 0.0, 0.0, 0.0, 0.0, 0.0, 1.6444989574735403E9, 0.0, 2022-02-11 00:15:57.473
244.0, -5454.69736512868, -7322.342076580772, -7547.692364179178, -12591.743480174957, -1638.695792996382, -408.94751655429803, -3195.181869886145, -3559.470601018739, -12695.924961081144, -9991.542695944632, -16783.32141438978, -9091.505001962782, -4925.139835493545, -8372.225865391001, -8814.857460839447, -7449.143522875729, 0.01, -0.002, 0.988, 192.0, 0.0, 40.0, 127.5, 120.0, 15.0, 112.0, 0.0, 0.0, 0.0, 1.6444989574735513E9, 0.0, 2022-02-11 00:15:57.473
246.0, -5453.736240117102, -7300.30325654784, -7547.357088012349, -12573.929139844078, -1638.3158133406419, -401.303219950583, -3201.753282756005, -3557.1013161064766, -12686.157248754174, -9982.244370251223, -16789.5128476039, -9091.415594984961, -4923.910489548503, -8379.959568972537, -8825.742760389181, -7449.56820602038, 0.01, -0.002, 0.988, 192.0, 0.0, 0.0, 0.0, 0.0, 0.0, 0.0, 0.0, 0.0, 0.0, 1.6444989574735625E9, 0.0, 2022-02-11 00:15:57.473
248.0, -5439.1629027322415, -7293.150698322142, -7543.333774010393, -12570.15169503113, -1628.3245835691196, -393.1001297354853, -3210.850442749315, -3557.8389236735015, -12688.951216811087, -9970.040317778627, -16774.760696263398, -9065.107591761063, -4918.858995301604, -8371.979996201992, -8821.786501620592, -7443.443828039626, 0.01, -0.002, 0.988, 192.0, 0.0, 0.0, 0.0, 0.0, 0.0, 0.0, 0.0, 0.0, 0.0, 1.644498957473572E9, 0.0, 2022-02-11 00:15:57.473
250.0, -5452.819818594435, -7298.425710013594, -7550.128704324807, -12570.017584564399, -1628.5704527581279, -391.78137681262217, -3185.436509303631, -3549.769943925136, -12685.062013275865, -9973.795410847117, -16780.92977773306, -9063.31945220464, -4915.193309210934, -8361.98876643047, -8826.74858888967, -7442.0133163944865, 0.01, -0.002, 0.988, 192.0, 0.0, 0.0, 0.0, 0.0, 0.0, 0.0, 0.0, 0.0, 0.0, 1.64449895747358E9, 0.0, 2022-02-11 00:15:57.473
252.0, -5425.394228147773, -7283.740613906457, -7531.464997704626, -12570.643433409148, -1606.1963565583656, -378.5491440950804, -3183.558962769385, -3540.739839165192, -12678.825876572833, -9957.903320539393, -16779.476914343468, -9066.9404348064, -4907.325495162666, -8360.670013507606, -8817.025580051612, -7434.458426768592, 0.01, -0.002, 0.988, 192.0, 0.0, 0.0, 0.0, 0.0, 0.0, 0.0, 0.0, 0.0, 0.0, 1.6444989574735873E9, 0.0, 2022-02-11 00:15:57.473
254.0, -5436.704210842158, -7281.840715627756, -7539.9810123420975, -12576.38783173416, -1611.0466851051672, -385.5228883651362, -3173.8359539313265, -3546.7301066792143, -12667.292376433896, -9955.48933213822, -16757.192225121526, -9056.211597467853, -4894.406186867498, -8350.768190713905, -8812.64463813837, -7439.331107059849, 0.012, -0.004, 0.984, 192.0, 0.0, 48.0, 127.5, 112.0, 15.0, 96.0, 0.0, 0.0, 0.0, 1.644498957473596E9, 0.0, 2022-02-11 00:15:57.473
0.0, -5438.581757376404, -7272.654148656625, -7539.0422390749745, -12564.004965305921, -1602.9330018678907, -365.2051526552621, -3168.516238750963, -3524.6465831573705, -12686.55958015437, -9957.500989139198, -16785.02014696838, -9061.486609159305, -4904.822099783672, -8346.856635434227, -8819.059588797045, -7436.514787258481, 0.012, -0.004, 0.984, 192.0, 0.0, 0.0, 0.0, 0.0, 0.0, 0.0, 0.0, 0.0, 0.0, 1.644498957473621E9, 0.0, 2022-02-11 00:15:57.473
2.0, -5431.608013106348, -7274.956378335522, -7532.090846549374, -12565.837808351256, -1592.181812784888, -352.21878912672867, -3185.682378492639, -3550.574606725527, -12680.591664384803, -9942.68178256533, -16764.054210669306, -9051.40597240996, -4890.53933507673, -8322.850861889227, -8805.134452001388, -7424.958935375087, 0.012, -0.004, 0.984, 192.0, 0.0, 0.0, 0.0, 0.0, 0.0, 0.0, 0.0, 0.0, 0.0, 1.644498957473628E9, 0.0, 2022-02-11 00:15:57.473
4.0, -5443.007402778555, -7280.924294105089, -7538.639907674779, -12561.412162949106, -1593.8134901301255, -356.0856409174968, -3169.7679364404603, -3526.1665017803316, -12680.524609151436, -9949.387305901922, -16772.570225306776, -9052.925891032923, -4887.96888446437, -8321.688571177552, -8807.168460746821, -7428.132883087741, 0.012, -0.004, 0.984, 192.0, 0.0, 0.0, 0.0, 0.0, 0.0, 0.0, 0.0, 0.0, 0.0, 1.6444989574736469E9, 0.0, 2022-02-11 00:15:57.473
6.0, -5424.969545003122, -7263.758154363412, -7528.469863947615, -12554.796046590334, -1572.9369608088687, -340.17119886531816, -3162.1236398367455, -3509.536803905583, -12674.109658492764, -9941.720657553751, -16773.531350318357, -9050.847178798578, -4881.866858228071, -8331.143359082145, -8800.977027532701, -7419.795682405911, 0.012, -0.004, 0.984, 192.0, 0.0, 0.0, 0.0, 0.0, 0.0, 0.0, 0.0, 0.0, 0.0, 1.6444989574736538E9, 0.0, 2022-02-11 00:15:57.473
8.0, -5437.330059686907, -7269.279035243873, -7534.549538439458, -12562.462694938506, -1572.020539286201, -342.60753901094665, -3174.327692309343, -3522.187891267287, -12680.03287077342, -9929.15897716987, -16766.669364770576, -9038.129036203509, -4878.134116904034, -8334.809045172817, -8790.941094272268, -7422.7014091851015, 0.008, -0.006, 0.99, 192.0, 0.0, 32.0, 127.5, 104.0, 15.0, 120.0, 0.0, 0.0, 0.0, 1.644498957473664E9, 0.0, 2022-02-11 00:15:57.473
10.0, -5432.971469518122, -7259.377212450173, -7527.531090680492, -12551.823264577779, -1557.1119257345113, -325.73197194718983, -3155.1945990556, -3512.1072545179436, -12671.293338691396, -9932.690552793807, -16784.126077190173, -9044.879263029012, -4871.830924967638, -8316.54766995283, -8794.718539085216, -7421.807339406889, 0.008, -0.006, 0.99, 192.0, 0.0, 0.0, 0.0, 0.0, 0.0, 0.0, 0.0, 0.0, 0.0, 1.6444989574736707E9, 0.0, 2022-02-11 00:15:57.473
12.0, -5422.086169968387, -7249.765962334391, -7513.293029462461, -12546.0118110194, -1535.2072161683102, -320.0546288555418, -3136.463837202053, -3508.419216682818, -12667.068858989342, -9916.574945041531, -16759.248585611414, -9034.418646623928, -4853.211921836367, -8296.587562154242, -8776.010128976122, -7411.346723001805, 0.008, -0.006, 0.99, 192.0, 0.0, 0.0, 0.0, 0.0, 0.0, 0.0, 0.0, 0.0, 0.0, 1.6444989574736776E9, 0.0, 2022-02-11 00:15:57.473
14.0, -5428.50112062706, -7251.665860613091, -7526.637020902279, -12548.895186054133, -1539.9010825039247, -321.5745474785027, -3121.0187817834358, -3507.6145538824267, -12668.07468748983, -9930.880061492928, -16763.07073391327, -9023.622754052014, -4847.556930489174, -8300.566172667286, -8774.847838264446, -7412.173737546652, 0.008, -0.006, 0.99, 192.0, 0.0, 0.0, 0.0, 0.0, 0.0, 0.0, 0.0, 0.0, 0.0, 1.6444989574736853E9, 0.0, 2022-02-11 00:15:57.473
16.0, -5417.749931544057, -7236.667840083581, -7517.539860908969, -12554.10314251222, -1527.7417335202376, -319.0935038439636, -3133.5134069339524, -3508.083940515988, -12659.849245530278, -9924.822738745539, -16761.260242612392, -9035.7821030357, -4844.897072898993, -8294.933533064548, -8779.385242388875, -7412.41960673566, 0.008, -0.006, 0.99, 192.0, 0.0, 0.0, 0.0, 0.0, 0.0, 0.0, 0.0, 0.0, 0.0, 1.6444989574736934E9, 0.0, 2022-02-11 00:15:57.473
18.0, -5427.450588637661, -7245.988517521444, -7524.670067390212, -12556.606537891215, -1532.3908963669417, -309.34814326144976, -3151.327747264832, -3502.250135213153, -12669.147571223686, -9924.53216606762, -16757.996887921916, -9024.963858719333, -4846.014660121758, -8288.719748105974, -8774.914893497813, -7414.7218364145565, 0.008, -0.002, 0.986, 192.0, 0.0, 32.0, 127.5, 120.0, 15.0, 104.0, 0.0, 0.0, 0.0, 1.6444989574737003E9, 0.0, 2022-02-11 00:15:57.473
20.0, -5435.653678852758, -7252.6493373691255, -7525.7205993796115, -12551.286822710852, -1532.3685446224863, -305.0566083260308, -3143.6387471722064, -3507.83807132698, -12666.152437466675, -9925.605049801476, -16778.962824220995, -9030.283573899696, -4844.561796732163, -8283.176515481056, -8782.73800405717, -7412.687827669124, 0.008, -0.002, 0.986, 192.0, 0.0, 0.0, 0.0, 0.0, 0.0, 0.0, 0.0, 0.0, 0.0, 1.6444989574737072E9, 0.0, 2022-02-11 00:15:57.473
22.0, -5419.0239809780105, -7245.00504076541, -7517.003419042042, -12548.9622412875, -1527.6523265424164, -289.2092215072181, -3163.3529857817875, -3501.959562535234, -12671.27098694694, -9906.58371527001, -16761.08142865675, -9011.128128901497, -4843.399506020487, -8283.3553294367, -8780.458126122729, -7407.211650277573, 0.008, -0.002, 0.986, 192.0, 0.0, 0.0, 0.0, 0.0, 0.0, 0.0, 0.0, 0.0, 0.0, 1.644498957473714E9, 0.0, 2022-02-11 00:15:57.473
24.0, -5433.038524751488, -7240.9146715300885, -7527.7769598694995, -12544.424837163073, -1533.1732074228773, -301.4803292131817, -3149.8972356196923, -3500.9090305458344, -12673.774382325933, -9905.57788676952, -16769.820960738776, -9023.198070907363, -4836.783389661717, -8288.317416705779, -8786.336634914474, -7410.698522412601, 0.008, -0.002, 0.986, 192.0, 0.0, 0.0, 0.0, 0.0, 0.0, 0.0, 0.0, 0.0, 0.0, 1.6444989574737206E9, 0.0, 2022-02-11 00:15:57.473
26.0, -5418.062855966432, -7234.834997038245, -7514.455320174136, -12543.240194706941, -1513.2578031131989, -287.3540267174276, -3158.9049886351813, -3507.3686846934183, -12664.45370488807, -9915.278543863124, -16769.41862933858, -9015.821995237113, -4835.509340227764, -8280.471954401964, -8786.560152359027, -7408.7986241339, 0.008, -0.002, 0.986, 192.0, 0.0, 0.0, 0.0, 0.0, 0.0, 0.0, 0.0, 0.0, 0.0, 1.6444989574737282E9, 0.0, 2022-02-11 00:15:57.473
28.0, -5423.2484606800635, -7226.587203334237, -7517.785730097978, -12547.95641278701, -1508.1169018884782, -287.309323228517, -3150.7466019089943, -3520.533862177594, -12672.120353236241, -9913.669218262341, -16761.79668447932, -9011.083425412588, -4829.563776202653, -8269.094916474214, -8778.535876099573, -7411.592592190814, 0.002, -0.006, 0.988, 192.0, 0.0, 8.0, 127.5, 104.0, 15.0, 112.0, 0.0, 0.0, 0.0, 1.6444989574737363E9, 0.0, 2022-02-11 00:15:57.473
30.0, -5423.583736846893, -7226.587203334237, -7518.322171964905, -12550.750380843923, -1503.2218698527658, -278.1004045129305, -3137.492017446997, -3487.4756321281952, -12668.834646801311, -9908.796537971084, -16778.784010265354, -9010.949314945856, -4825.607517434063, -8264.982195494436, -8782.313320912519, -7416.84525213781, 0.002, -0.006, 0.988, 192.0, 0.0, 0.0, 0.0, 0.0, 0.0, 0.0, 0.0, 0.0, 0.0, 1.6444989574737437E9, 0.0, 2022-02-11 00:15:57.473
32.0, -5408.2280884060965, -7203.251982122896, -7504.687607847168, -12556.092447768742, -1482.0100643646795, -264.46584039519314, -3124.4385986850975, -3480.2113151802205, -12669.326385179327, -9893.686758719297, -16761.17083563457, -9006.188393376875, -4813.291706239189, -8247.212558652469, -8767.158838171821, -7409.603286934292, 0.002, -0.006, 0.988, 192.0, 0.0, 0.0, 0.0, 0.0, 0.0, 0.0, 0.0, 0.0, 0.0, 1.6444989574737504E9, 0.0, 2022-02-11 00:15:57.473
34.0, -5416.811158276935, -7224.24027016643, -7513.6283056292905, -12541.139130728143, -1491.2413348247212, -275.082919011464, -3134.586290667807, -3487.341521661463, -12662.062068231353, -9886.914180149339, -16756.789893721332, -9001.941561930367, -4804.060435779147, -8266.904445517594, -8769.550474828538, -7412.106682313286, 0.002, -0.006, 0.988, 192.0, 0.0, 0.0, 0.0, 0.0, 0.0, 0.0, 0.0, 0.0, 0.0, 1.6444989574737575E9, 0.0, 2022-02-11 00:15:57.473
36.0, -5413.54780358646, -7229.33646790224, -7505.984009025576, -12540.915613283589, -1475.5504102170958, -261.9400932717435, -3105.909002531648, -3475.6515593113377, -12659.402210641172, -9893.552648252566, -16763.674231013567, -8991.68211122538, -4805.312133468644, -8258.67900355804, -8766.68945153826, -7404.931772343132, 0.002, -0.006, 0.988, 192.0, 0.0, 0.0, 0.0, 0.0, 0.0, 0.0, 0.0, 0.0, 0.0, 1.6444989574737675E9, 0.0, 2022-02-11 00:15:57.473
38.0, -5433.731428829602, -7233.113912715186, -7512.957753295631, -12556.092447768742, -1479.283151541132, -274.0100352776093, -3116.369618936732, -3493.2423821976645, -12677.328309694329, -9908.081282148514, -16768.59161479373, -8998.722910728802, -4805.066264279636, -8256.175608179046, -8759.916872968302, -7410.698522412601, 0.008, -0.004, 0.988, 192.0, 0.0, 32.0, 127.5, 112.0, 15.0, 112.0, 0.0, 0.0, 0.0, 1.6444989574737747E9, 0.0, 2022-02-11 00:15:57.473
40.0, -5428.1211409713205, -7222.697999799014, -7513.069512017908, -12555.846578579734, -1472.063538082068, -268.8467823084334, -3117.598964881774, -3483.5193733596057, -12672.634443358713, -9910.495270549687, -16783.43317311206, -9012.469233568816, -4806.921459069426, -8261.87530301515, -8768.634053305872, -7414.8335951368335, 0.008, -0.004, 0.988, 192.0, 0.0, 0.0, 0.0, 0.0, 0.0, 0.0, 0.0, 0.0, 0.0, 1.6444989574737816E9, 0.0, 2022-02-11 00:15:57.473
42.0, -5417.906393755245, -7216.797139262812, -7506.095767747852, -12563.803799605823, -1465.6038839344842, -269.15970673080767, -3123.9245085626258, -3483.675835570793, -12671.338042180305, -9893.999683141672, -16763.09308565773, -9000.488698540772, -4800.4618049218425, -8258.254320413389, -8763.40374510333, -7412.218441035562, 0.008, -0.004, 0.988, 192.0, 0.0, 0.0, 0.0, 0.0, 0.0, 0.0, 0.0, 0.0, 0.0, 1.6444989574737885E9, 0.0, 2022-02-11 00:15:57.473
44.0, -5431.630364850804, -7226.788369034335, -7515.550555652447, -12555.131322757165, -1467.3696717464534, -264.46584039519314, -3125.6455928856844, -3489.4872891291725, -12677.21655097205, -9910.696436249786, -16765.730591503452, -9011.910439957433, -4795.432662419398, -8254.745096533907, -8760.073335179488, -7419.70627542809, 0.008, -0.004, 0.988, 192.0, 0.0, 0.0, 0.0, 0.0, 0.0, 0.0, 0.0, 0.0, 0.0, 1.6444989574737957E9, 0.0, 2022-02-11 00:15:57.473
46.0, -5418.956925744645, -7214.517261328371, -7509.806157327433, -12550.213938976996, -1450.0470697935905, -242.00233721760958, -3124.7291713630166, -3474.7127860442147, -12668.029984000921, -9898.313569821545, -16770.402106094614, -8991.324483314096, -4786.000226259259, -8240.06000042677, -8758.911044467814, -7409.290362511917, 0.008, -0.004, 0.988, 192.0, 0.0, 0.0, 127.5, 104.0, 15.0, 104.0, 0.0, 0.0, 0.0, 1.6444989574738023E9, 0.0, 2022-02-11 00:15:57.473
48.0, -5427.808216548946, -7211.298610126807, -7512.443663173159, -12559.847540837234, -1454.7185843847496, -240.1694941722744, -3128.7077818760613, -3482.8488210259466, -12679.407021928671, -9885.371909781923, -16768.23398688245, -8985.893009411457, -4782.669816335419, -8227.990058420904, -8753.546625798539, -7408.239830522518, 0.008, -0.004, 0.988, 192.0, 0.0, 0.0, 0.0, 0.0, 0.0, 0.0, 0.0, 0.0, 0.0, 1.64449895747381E9, 0.0, 2022-02-11 00:15:57.473
50.0, -5423.002591491055, -7203.9001827121, -7507.191003226162, -12548.224633720474, -1447.6777848813279, -237.375526115361, -3132.5522819223743, -3476.0091872226226, -12670.265158446451, -9878.666386445331, -16778.761658520896, -8998.0747101396, -4781.127545968002, -8238.316564359257, -8755.02184093259, -7408.508051455981, 0.008, -0.004, 0.988, 192.0, 0.0, 0.0, 0.0, 0.0, 0.0, 0.0, 0.0, 0.0, 0.0, 1.644498957473818E9, 0.0, 2022-02-11 00:15:57.473
52.0, -5416.587640832382, -7213.578488061248, -7500.083148489374, -12556.405372191117, -1424.9460607702806, -224.50092130910414, -3117.911889304148, -3474.153992432832, -12666.621824100235, -9885.751889437663, -16762.578995535256, -8994.230210093285, -4767.582388828086, -8225.91134618656, -8739.017991902589, -7401.08727229682, 0.008, -0.004, 0.988, 192.0, 0.0, 0.0, 0.0, 0.0, 0.0, 0.0, 0.0, 0.0, 0.0, 1.6444989574738252E9, 0.0, 2022-02-11 00:15:57.473
54.0, -5434.737257330091, -7218.04883695231, -7512.421311428704, -12555.9136338131, -1426.0412962485907, -229.64182253382475, -3098.0635402278353, -3456.764335246603, -12675.003728270976, -9907.142508881392, -16770.446809583522, -8991.369186803006, -4770.264598162723, -8223.743226974395, -8737.498073279628, -7404.909420598677, 0.008, -0.004, 0.988, 192.0, 0.0, 0.0, 0.0, 0.0, 0.0, 0.0, 0.0, 0.0, 0.0, 1.644498957473832E9, 0.0, 2022-02-11 00:15:57.473
56.0, -5417.258193166041, -7192.053758150788, -7499.367892666804, -12555.511302412904, -1408.89750825137, -213.86149094837796, -3111.3181246898325, -3458.5971782919382, -12669.482847390515, -9889.149354594869, -16770.200940394516, -8993.224381592796, -4764.028461459692, -8217.395331549089, -8737.676887235271, -7401.109624041274, 0.005, -0.004, 0.986, 192.0, 0.0, 8.0, 127.5, 112.0, 15.0, 96.0, 0.0, 0.0, 0.0, 1.6444989574738393E9, 0.0, 2022-02-11 00:15:57.473
58.0, -5427.092960726376, -7209.9798572039435, -7502.139508979262, -12557.120628013687, -1407.4669966062304, -216.32018283846176, -3129.71361037655, -3470.063623197511, -12676.255425960473, -9879.940435879284, -16761.997850179418, -8992.062090881122, -4755.3783363554885, -8211.136843101602, -8730.032590631556, -7401.6907693971125, 0.005, -0.004, 0.986, 192.0, 0.0, 0.0, 0.0, 0.0, 0.0, 0.0, 0.0, 0.0, 0.0, 1.644498957473846E9, 0.0, 2022-02-11 00:15:57.473
60.0, -5440.280489955007, -7240.9146715300885, -7503.078282246385, -12554.773694845879, -1402.2813918925992, -216.65545900529136, -3096.163641949134, -3458.619530036394, -12676.613053871759, -9904.415596057845, -16781.287405644347, -8991.480945525283, -4750.975042697793, -8220.792796706295, -8738.928584924768, -7409.044493322908, 0.005, -0.004, 0.986, 192.0, 0.0, 0.0, 0.0, 0.0, 0.0, 0.0, 0.0, 0.0, 0.0, 1.6444989574738529E9, 0.0, 2022-02-11 00:15:57.473
62.0, -5443.432085923206, -7244.893282043134, -7495.210468198117, -12565.524883928882, -1384.9140864508256, -215.44846480470477, -3083.154926676146, -3454.059774167511, -12683.65385337518, -9902.918029179338, -16768.61396653819, -8989.53634375767, -4745.5212170506975, -8214.601363492175, -8723.371770783875, -7404.261220009473, 0.005, -0.004, 0.986, 192.0, 0.0, 0.0, 0.0, 0.0, 0.0, 0.0, 0.0, 0.0, 0.0, 1.64449895747386E9, 0.0, 2022-02-11 00:15:57.473
64.0, -5477.742013662102, -7262.975843307477, -7507.861555559821, -12570.48697119796, -1396.2687726341217, -222.06458116347568, -3090.4415953685757, -3459.804172492525, -12697.221362259552, -9917.223145630735, -16783.343766134236, -9001.36041657453, -4751.556188053631, -8221.619811251141, -8724.39995102882, -7413.112510813775, 0.005, -0.004, 0.986, 192.0, 0.0, 0.0, 0.0, 0.0, 0.0, 0.0, 0.0, 0.0, 0.0, 1.6444989574738672E9, 0.0, 2022-02-11 00:15:57.473
66.0, -5485.520420732549, -7274.039956812854, -7500.731349078578, -12561.658032138113, -1377.3368450804765, -196.40477852878317, -3091.715644802528, -3451.7575444886143, -12707.927847853643, -9919.078340420525, -16797.537123863356, -9007.484794555283, -4752.98669969877, -8208.879316911616, -8727.372733041375, -7406.116414799263, 0.0075, -0.003, 0.986, 192.0, 0.0, 40.0, 127.5, 120.0, 15.0, 104.0, 0.0, 0.0, 0.0, 1.6444989574738743E9, 0.0, 2022-02-11 00:15:57.473
68.0, -5529.173377653763, -7308.171070596108, -7506.7216165926, -12572.610386921215, -1378.387377069876, -196.04715061749826, -3108.501804888464, -3469.2589603971196, -12715.259220034985, -9918.20662238677, -16791.300987160324, -9000.30988458513, -4738.815693714106, -8196.027063849815, -8722.209480072199, -7406.205821777085, 0.0075, -0.003, 0.986, 192.0, 0.0, 0.0, 0.0, 0.0, 0.0, 0.0, 0.0, 0.0, 0.0, 1.6444989574738843E9, 0.0, 2022-02-11 00:15:57.473
70.0, -5585.633884147869, -7370.063050992853, -7515.259982974528, -12578.287730012862, -1385.964618440225, -194.2590110610737, -3106.892479287682, -3459.960634703712, -12736.8063016899, -9942.100637209493, -16827.443757944555, -9025.58970756408, -4746.080010662081, -8203.783119175807, -8734.614698244894, -7412.196089291107, 0.0075, -0.003, 0.986, 192.0, 0.0, 0.0, 0.0, 0.0, 0.0, 0.0, 0.0, 0.0, 0.0, 1.6444989574738917E9, 0.0, 2022-02-11 00:15:57.473
72.0, -5618.759169430634, -7397.242772250506, -7513.181270740184, -12587.407241750627, -1365.736289708172, -176.08704281890903, -3103.651476341662, -3441.699259483726, -12757.213444377596, -9959.177369973346, -16829.723635878996, -9040.610079838048, -4743.666022260907, -8199.3351220292, -8729.92083190928, -7410.3185427568615, 0.0075, -0.003, 0.986, 192.0, 0.0, 0.0, 0.0, 0.0, 0.0, 0.0, 0.0, 0.0, 0.0, 1.644498957473899E9, 0.0, 2022-02-11 00:15:57.473
74.0, -5664.69200428629, -7439.487569271037, -7520.8479190883545, -12586.602578950236, -1361.5788652394851, -180.44563298769393, -3087.692330800573, -3434.2337768356538, -12771.429153851172, -9958.998556017705, -16844.587545941777, -9048.12026597503, -4734.613565756508, -8191.377901003111, -8724.198785328721, -7409.5585834453805, 0.0075, -0.003, 0.986, 192.0, 0.0, 0.0, 0.0, 0.0, 0.0, 0.0, 0.0, 0.0, 0.0, 1.6444989574739065E9, 0.0, 2022-02-11 00:15:57.473
76.0, -5660.199303650774, -7455.37965957876, -7507.883907304276, -12587.9213318731, -1342.9822138526695, -167.32515899242867, -3077.0976039287575, -3434.166721602288, -12765.125961914775, -9960.49612289621, -16854.064685590827, -9045.326297918118, -4723.817673184594, -8183.867714866128, -8714.095796834921, -7403.009522319976, 0.00875, -0.0015, 0.984, 192.0, 0.0, 40.0, 0.0, 0.0, 15.0, 88.0, 0.0, 0.0, 0.0, 1.6444989574739137E9, 0.0, 2022-02-11 00:15:57.473
78.0, -5676.180800936318, -7462.755735249011, -7518.322171964905, -12592.97282612, -1346.8490656434376, -172.62252242833645, -3099.4493483840643, -3451.086992154955, -12773.932549230165, -9973.504838169198, -16844.60989768623, -9035.580937335604, -4719.16851033789, -8195.28945628279, -8712.419416000774, -7406.652856666191, 0.00875, -0.0015, 0.984, 192.0, 0.0, 0.0, 0.0, 0.0, 0.0, 0.0, 0.0, 0.0, 0.0, 1.6444989574739218E9, 0.0, 2022-02-11 00:15:57.473
80.0, -5669.519981088636, -7449.814075209389, -7520.3785324547935, -12588.34601501775, -1340.9929085961471, -169.89560960478897, -3104.6126013532403, -3443.8003234625253, -12778.134677187763, -9983.473716196266, -16861.686630450087, -9047.002678752266, -4723.08006561757, -8197.748148172874, -8724.623468473372, -7408.753920644989, 0.00875, -0.0015, 0.984, 192.0, 0.0, 0.0, 0.0, 0.0, 0.0, 0.0, 0.0, 0.0, 0.0, 1.6444989574739287E9, 0.0, 2022-02-11 00:15:57.473
82.0, -5632.863120181933, -7432.580880234347, -7513.605953884835, -12594.604503465236, -1319.3117164744995, -164.26297000205162, -3076.8070312508385, -3434.926680913768, -12767.919929971687, -9974.73418411424, -16841.257136017935, -9042.867606028034, -4715.391065524944, -8192.674302181518, -8714.118148579377, -7405.110586298774, 0.00875, -0.0015, 0.984, 192.0, 0.0, 0.0, 0.0, 0.0, 0.0, 0.0, 0.0, 0.0, 0.0, 1.644498957473936E9, 0.0, 2022-02-11 00:15:57.473
84.0, -5642.6084807644465, -7414.855946881288, -7522.2560789890385, -12590.223561551997, -1334.801475382027, -173.56129569545934, -3098.5776303503076, -3447.153085130821, -12765.640052037246, -9975.78471610364, -16841.99474358496, -9039.537196104193, -4714.988734124749, -8201.81616566374, -8716.48743349164, -7413.224269536051, 0.00875, -0.0015, 0.984, 192.0, 0.0, 0.0, 0.0, 0.0, 0.0, 0.0, 0.0, 0.0, 0.0, 1.6444989574739432E9, 0.0, 2022-02-11 00:15:57.473
86.0, -5615.652276951347, -7382.244751720996, -7514.723541107601, -12584.568570204803, -1329.0123735681027, -152.99769079657685, -3103.919697275126, -3441.833369950458, -12761.48262756856, -9958.05978275058, -16845.839243631275, -9022.438111595882, -4718.8108824266055, -8183.621845677119, -8723.997619628622, -7410.586763690325, 0.011375, 2.5E-4, 0.985, 192.0, 0.0, 56.0, 0.0, 8.0, 15.0, 104.0, 0.0, 0.0, 0.0, 1.64449895747395E9, 0.0, 2022-02-11 00:15:57.473
88.0, -5607.516241969614, -7376.589760373803, -7520.244421988061, -12597.68904420007, -1327.7159723896948, -164.08415604640913, -3085.6806737995953, -3462.508733571617, -12763.896615969732, -9946.950965756294, -16833.702246392044, -9023.175719162908, -4715.5251759916755, -8165.293415223768, -8715.72747418016, -7415.235926537029, 0.011375, 2.5E-4, 0.985, 192.0, 0.0, 0.0, 0.0, 0.0, 0.0, 0.0, 0.0, 0.0, 0.0, 1.6444989574739568E9, 0.0, 2022-02-11 00:15:57.473
90.0, -5592.093538295453, -7358.417792131638, -7522.0772650333965, -12591.966997619511, -1330.0182020685916, -169.73914739360183, -3100.7681013069277, -3454.4621055677067, -12756.76640948849, -9959.467942651265, -16841.81592962932, -9033.949259990366, -4714.094664346536, -8193.724834170918, -8720.667209704783, -7425.763598175478, 0.011375, 2.5E-4, 0.985, 192.0, 0.0, 0.0, 0.0, 0.0, 0.0, 0.0, 0.0, 0.0, 0.0, 1.644498957473965E9, 0.0, 2022-02-11 00:15:57.473
92.0, -5579.285988722562, -7345.744353025479, -7518.34452370936, -12597.286712799872, -1327.000716567125, -154.7634786085461, -3116.056694514358, -3451.7575444886143, -12754.486531554048, -9936.713866795762, -16823.08516777577, -9013.385655091484, -4715.279306802668, -8190.081499824703, -8721.851852160913, -7418.432225994137, 0.011375, 2.5E-4, 0.985, 192.0, 0.0, 0.0, 0.0, 0.0, 0.0, 0.0, 0.0, 0.0, 0.0, 1.644498957473972E9, 0.0, 2022-02-11 00:15:57.473
94.0, -5593.389939473861, -7352.896911251178, -7533.320192494416, -12604.26045706993, -1332.543949192041, -172.91309510625544, -3107.7641973214386, -3470.935341231268, -12760.208578134607, -9950.594300102508, -16835.557441181834, -9011.910439957433, -4724.108245862513, -8196.854078394661, -8726.456311518707, -7432.402066278704, 0.011375, 2.5E-4, 0.985, 192.0, 0.0, 0.0, 0.0, 0.0, 0.0, 0.0, 0.0, 0.0, 0.0, 1.6444989574739797E9, 0.0, 2022-02-11 00:15:57.473
96.0, -5563.595064114937, -7321.515062035926, -7520.91497432172, -12599.320721545306, -1313.3661524493878, -149.51081866154894, -3100.119900717724, -3446.616643263894, -12757.124037399773, -9948.023849490148, -16841.23478427348, -9009.675265511903, -4720.733132449762, -8187.3322352567, -8727.573898741472, -7427.507034242993, 0.010687499999999999, 1.25E-4, 0.9875, 192.0, 0.0, 40.0, 0.0, 0.0, 15.0, 120.0, 0.0, 0.0, 0.0, 1.644498957473987E9, 0.0, 2022-02-11 00:15:57.473
98.0, -5553.492075621138, -7311.680294475591, -7521.406712699737, -12608.283771071885, -1313.9920012941363, -146.5156849045378, -3114.067389257835, -3448.87416945388, -12753.838330964843, -9944.15699769938, -16819.397129940644, -9004.556716031637, -4711.5912689675415, -8171.395441460067, -8718.34262828143, -7422.433188251637, 0.010687499999999999, 1.25E-4, 0.9875, 192.0, 0.0, 0.0, 0.0, 0.0, 0.0, 0.0, 0.0, 0.0, 0.0, 1.6444989574739947E9, 0.0, 2022-02-11 00:15:57.473
100.0, -5543.344383638428, -7302.6054862267365, -7526.167634268718, -12611.569477506815, -1303.1737569777677, -150.5837023954037, -3087.982903478492, -3447.7565822311144, -12750.574976274369, -9944.49227386621, -16833.56813592531, -9025.07561744161, -4712.485338745754, -8162.052412277748, -8725.83046267396, -7428.870490654766, 0.010687499999999999, 1.25E-4, 0.9875, 192.0, 0.0, 0.0, 0.0, 0.0, 0.0, 0.0, 0.0, 0.0, 0.0, 1.644498957474005E9, 0.0, 2022-02-11 00:15:57.474
102.0, -5523.496034562116, -7292.211925055019, -7520.289125476972, -12610.094262372764, -1298.614001108885, -152.41654544073887, -3109.194708966578, -3459.4688963256954, -12748.831540206855, -9931.036523704115, -16820.335903207768, -9004.377902075996, -4700.393044995433, -8190.52853471381, -8724.087026606445, -7436.358325047294, 0.010687499999999999, 1.25E-4, 0.9875, 192.0, 0.0, 0.0, 0.0, 0.0, 0.0, 0.0, 0.0, 0.0, 0.0, 1.6444989574740124E9, 0.0, 2022-02-11 00:15:57.474
104.0, -5538.918738236277, -7282.377157494683, -7526.793483113466, -12610.943628662066, -1308.6275826248625, -156.81983909843436, -3130.205348754567, -3470.220085408698, -12749.435037307148, -9945.341640155511, -16819.151260751638, -8999.013483406721, -4703.946972363827, -8178.346833985667, -8725.96457314069, -7447.400086808216, 0.010687499999999999, 1.25E-4, 0.9875, 192.0, 0.0, 0.0, 0.0, 0.0, 0.0, 0.0, 0.0, 0.0, 0.0, 1.6444989574740195E9, 0.0, 2022-02-11 00:15:57.474
106.0, -5520.545604294015, -7268.630834654669, -7520.780863854989, -12613.625837996702, -1289.002750993103, -145.08517325939815, -3089.3240081458102, -3455.8479137239356, -12749.010354162498, -9946.25806167818, -16828.98602831197, -9001.650989252448, -4702.851736885516, -8173.921188583517, -8720.264878304586, -7445.030801895953, 0.01134375, 6.25E-5, 0.98675, 192.0, 0.0, 48.0, 0.0, 0.0, 15.0, 104.0, 0.0, 0.0, 0.0, 1.6444989579537468E9, 0.0, 2022-02-11 00:15:57.953
108.0, -5515.337647835929, -7255.800933337323, -7521.987858055575, -12621.516003789426, -1279.2126869216786, -146.2474639710741, -3098.845851283771, -3458.8430474809466, -12749.815016962888, -9929.114273680958, -16814.792670582854, -8991.9726839033, -4694.559239692598, -8168.623825147609, -8709.603096199406, -7445.52254027397, 0.01134375, 6.25E-5, 0.98675, 192.0, 0.0, 0.0, 0.0, 0.0, 0.0, 0.0, 0.0, 0.0, 0.0, 1.644498957953756E9, 0.0, 2022-02-11 00:15:57.953
110.0, -5513.817729212968, -7254.012793780898, -7527.553442424946, -12619.325532832807, -1283.6606840682846, -145.2863389594959, -3100.8351565402936, -3459.1783236477763, -12740.717856969579, -9934.165767927858, -16829.90244983464, -9009.563506789626, -4693.843983870028, -8174.2788164948015, -8717.135634080843, -7452.272767099473, 0.01134375, 6.25E-5, 0.98675, 192.0, 0.0, 0.0, 0.0, 0.0, 0.0, 0.0, 0.0, 0.0, 0.0, 1.6444989579537628E9, 0.0, 2022-02-11 00:15:57.953
112.0, -5493.879973158833, -7257.969052549488, -7516.981067297586, -12622.141852634175, -1268.036814694025, -134.06576324293175, -3105.081987986802, -3464.2074661502206, -12739.555566257903, -9937.898509251894, -16811.55166763683, -8980.68505295337, -4685.126803532458, -8159.3254994542, -8714.766349168582, -7450.9987176655195, 0.01134375, 6.25E-5, 0.98675, 192.0, 0.0, 0.0, 0.0, 0.0, 0.0, 0.0, 0.0, 0.0, 0.0, 1.6444989579537694E9, 0.0, 2022-02-11 00:15:57.953
114.0, -5502.798319196501, -7235.19262494953, -7527.553442424946, -12624.622896268715, -1276.5751810759523, -133.864597542834, -3120.5493951498743, -3469.1024981859327, -12740.673153480668, -9931.818834760052, -16815.440871172057, -8984.954236144333, -4680.3658819634775, -8143.098132979648, -8721.471872505173, -7463.448639327126, 0.01134375, 6.25E-5, 0.98675, 192.0, 0.0, 0.0, 0.0, 0.0, 0.0, 0.0, 0.0, 0.0, 0.0, 1.6444989579537773E9, 0.0, 2022-02-11 00:15:57.953
116.0, -5485.341606776907, -7223.972049232966, -7515.014113785519, -12616.665675242624, -1254.7375267431173, -125.3038794164514, -3109.6417438556846, -3463.492210327651, -12735.912231911689, -9926.253250390679, -16820.291199718857, -8983.881352410479, -4680.142364518924, -8163.371165200611, -8725.092855106934, -7460.43115382566, 0.012, 0.0, 0.98, 192.0, 0.0, 48.0, 0.0, 0.0, 15.0, 80.0, 0.0, 0.0, 0.0, 1.6444989579537983E9, 0.0, 2022-02-11 00:15:57.953
118.0, -5489.767252179057, -7224.732008544446, -7522.457244689137, -12629.964963193532, -1264.9969774481033, -136.3456411773731, -3135.1450842791896, -3479.0713762129994, -12745.635240749747, -9925.761512012663, -16814.524449649387, -8982.517895998704, -4670.464059169777, -8163.862903578628, -8721.91890739428, -7463.582749793858, 0.012, 0.0, 0.98, 192.0, 0.0, 0.0, 0.0, 0.0, 0.0, 0.0, 0.0, 0.0, 0.0, 1.6444989579538052E9, 0.0, 2022-02-11 00:15:57.953
120.0, -5505.927563420244, -7224.62024982217, -7527.285221491483, -12634.345905106773, -1264.9969774481033, -138.71492608963564, -3107.4289211546093, -3492.3930159083625, -12743.42241804867, -9923.191061400303, -16831.578830668786, -8998.387634561972, -4681.461117441788, -8170.300205981756, -8727.909174908302, -7476.770279022489, 0.012, 0.0, 0.98, 192.0, 0.0, 0.0, 0.0, 0.0, 0.0, 0.0, 0.0, 0.0, 0.0, 1.6444989579538124E9, 0.0, 2022-02-11 00:15:57.953
122.0, -5488.51555448956, -7229.023543479865, -7528.000477314053, -12635.083512673798, -1258.3361576004218, -125.16976894971955, -3128.5513196648744, -3478.2667134126086, -12748.496264040026, -9928.53312832512, -16820.80528984133, -8983.948407643844, -4678.175411006858, -8159.101982009648, -8726.433959774251, -7474.110421432308, 0.012, 0.0, 0.98, 192.0, 0.0, 0.0, 0.0, 0.0, 0.0, 0.0, 0.0, 0.0, 0.0, 1.6444989579538193E9, 0.0, 2022-02-11 00:15:57.953
124.0, -5497.120976104853, -7221.222784664963, -7535.868291362321, -12634.524719062414, -1271.099003684402, -136.01036501054347, -3131.814674355349, -3476.3891668783626, -12749.837368707344, -9928.555480069575, -16822.168746253104, -8989.156364101931, -4679.002425551704, -8155.123371496603, -8732.468930777184, -7482.112345947307, 0.012, 0.0, 0.98, 192.0, 0.0, 0.0, 0.0, 0.0, 0.0, 0.0, 0.0, 0.0, 0.0, 1.644498957953838E9, 0.0, 2022-02-11 00:15:57.953
126.0, -5480.915961374755, -7207.565868802771, -7528.022829058508, -12628.802672481856, -1257.8667709668603, -125.48269337209385, -3112.3910084236873, -3480.9042192583347, -12746.37284831677, -9931.260041148667, -16826.683798633076, -8986.943541400855, -4674.532076660643, -8156.2633104638235, -8733.20653834421, -7485.263941915506, 0.008, -0.002, 0.984, 192.0, 0.0, 32.0, 127.5, 120.0, 15.0, 96.0, 0.0, 0.0, 0.0, 1.6444989579538448E9, 0.0, 2022-02-11 00:15:57.953
128.0, -5488.962589378666, -7207.074130424754, -7530.68268664869, -12646.237033156996, -1252.3458900863993, -127.51670211752679, -3132.1275987777235, -3487.6544460838377, -12749.971479174075, -9921.738198010707, -16814.144469993647, -8976.818201162601, -4667.82655332405, -8146.830874303684, -8730.904308665313, -7488.236723928061, 0.008, -0.002, 0.984, 192.0, 0.0, 0.0, 0.0, 0.0, 0.0, 0.0, 0.0, 0.0, 0.0, 1.6444989579538512E9, 0.0, 2022-02-11 00:15:57.953
130.0, -5488.023816111543, -7199.988627432422, -7537.745837896567, -12638.480977831005, -1249.551922029486, -129.66246958523627, -3125.9361655636035, -3493.9576380202343, -12757.794589733434, -9935.752741784185, -16838.28435400538, -9000.958085174332, -4673.012158037682, -8160.756011099341, -8736.87222443488, -7494.405805397726, 0.008, -0.002, 0.984, 192.0, 0.0, 0.0, 0.0, 0.0, 0.0, 0.0, 0.0, 0.0, 0.0, 1.6444989579538577E9, 0.0, 2022-02-11 00:15:57.953
