%OpenBCI Raw EEG Data
%Number of channels = 16
%Sample Rate = 125 Hz
%Board = OpenBCI_GUI$BoardCytonSerialDaisy
Sample Index, EXG Channel 0, EXG Channel 1, EXG Channel 2, EXG Channel 3, EXG Channel 4, EXG Channel 5, EXG Channel 6, EXG Channel 7, EXG Channel 8, EXG Channel 9, EXG Channel 10, EXG Channel 11, EXG Channel 12, EXG Channel 13, EXG Channel 14, EXG Channel 15, Accel Channel 0, Accel Channel 1, Accel Channel 2, Other, Other, Other, Other, Other, Other, Other, Analog Channel 0, Analog Channel 1, Analog Channel 2, Timestamp, Other, Timestamp (Formatted)
116.0, -9436.191253208071, -11155.465084965836, -10977.098164212486, -17383.19753208131, -2522.103789103483, -1888.6106477511703, -5954.057688004696, -6801.188802860833, -17330.71563610025, -14942.901127684252, -20164.89448128873, -12591.721128430501, -6378.830239633351, -10134.504453480775, -12231.589821766594, -12630.322591104818, 0.0, 0.0, 0.0, 192.0, 0.0, 0.0, 0.0, 0.0, 0.0, 0.0, 0.0, 0.0, 0.0, 1.6444991891452332E9, 0.0, 2022-02-11 00:19:49.145
118.0, -9446.696573102066, -11158.326108256115, -10973.36542288845, -17388.96428215078, -2526.909414161374, -1890.5999530076926, -5968.608673645101, -6816.92443095737, -17336.28122046962, -14937.961392159628, -20159.932394019652, -12580.657014925126, -6373.510524452988, -10124.937906853904, -12226.538327519695, -12626.16516663613, 0.0, 0.0, 0.0, 192.0, 0.0, 0.0, 0.0, 0.0, 0.0, 0.0, 0.0, 0.0, 0.0, 1.6444991891452415E9, 0.0, 2022-02-11 00:19:49.145
120.0, -9448.127084747206, -11175.224027064327, -10981.613216592457, -17386.86321817198, -2534.799579954097, -1893.773900720346, -5961.880798564052, -6813.951648944813, -17337.57762164803, -14954.300517356458, -20177.590272139343, -12593.464564498016, -6381.6242076902645, -10131.911651123959, -12232.819167711636, -12634.390608595682, 0.0, 0.0, 0.0, 192.0, 0.0, 0.0, 0.0, 0.0, 0.0, 0.0, 0.0, 0.0, 0.0, 1.644499189145249E9, 0.0, 2022-02-11 00:19:49.145
122.0, -9434.58192760729, -11166.752715915765, -10971.532579843115, -17384.225712326253, -2521.746161192198, -1892.4774995419384, -5961.880798564052, -6811.090625654534, -17333.57665939053, -14944.599860262855, -20157.138425962738, -12582.467506226005, -6381.31128326789, -10131.62107844604, -12229.555813021161, -12626.433387569594, 0.005, -0.01, 0.494, 192.0, 0.0, 40.0, 127.5, 48.0, 15.0, 112.0, 0.0, 0.0, 0.0, 1.6444991891452563E9, 0.0, 2022-02-11 00:19:49.145
124.0, -9452.575081893812, -11164.428134492415, -10981.054422981075, -17383.331642548044, -2534.5760625095445, -1897.4619385554718, -5968.631025389555, -6816.946782701824, -17333.174327990335, -14934.228650835592, -20161.385257409245, -12586.200247550041, -6381.110117567792, -10135.912613381459, -12232.439188055896, -12629.137948648686, 0.005, -0.01, 0.494, 192.0, 0.0, 0.0, 0.0, 0.0, 0.0, 0.0, 0.0, 0.0, 0.0, 1.6444991891452641E9, 0.0, 2022-02-11 00:19:49.145
126.0, -9434.358410162737, -11158.72843965631, -10969.051536208575, -17382.504628003197, -2522.9084519038743, -1885.4143482940613, -5968.608673645101, -6806.530869785652, -17325.552383131075, -14935.636810736278, -20162.99458301003, -12585.172067305097, -6376.103326809804, -10125.787273143205, -12234.294382845686, -12623.393550323672, 0.005, -0.01, 0.494, 192.0, 0.0, 0.0, 0.0, 0.0, 0.0, 0.0, 0.0, 0.0, 0.0, 1.644499189145271E9, 0.0, 2022-02-11 00:19:49.145
128.0, -9442.58385212229, -11165.635128693, -10973.655995566369, -17392.49585777472, -2534.5313590206338, -1894.4444530540054, -5962.685461364444, -6818.332590858054, -17329.62040062194, -14946.455055052646, -20151.058751470897, -12589.083622584776, -6375.544533198421, -10125.67551442093, -12229.04172289869, -12625.271096857918, 0.005, -0.01, 0.494, 192.0, 0.0, 0.0, 0.0, 0.0, 0.0, 0.0, 0.0, 0.0, 0.0, 1.644499189145278E9, 0.0, 2022-02-11 00:19:49.145
130.0, -9442.15916897764, -11165.299852526172, -10978.931007257821, -17385.365651293476, -2534.9336904208294, -1900.4794240569383, -5963.311310209193, -6821.081855426056, -17332.90610705687, -14957.787389491486, -20169.8118650689, -12591.497610985949, -6383.255885035502, -10125.206127787367, -12235.210804368355, -12633.094207417274, 0.005, -0.01, 0.494, 192.0, 0.0, 0.0, 0.0, 0.0, 0.0, 0.0, 0.0, 0.0, 0.0, 1.6444991891452858E9, 0.0, 2022-02-11 00:19:49.145
132.0, -9430.290392671872, -11153.989869831787, -10968.537446086102, -17382.124648347457, -2528.6752019733435, -1896.4114065660724, -5958.371574684569, -6816.633858279451, -17329.70980759976, -14935.614458991822, -20154.36680965028, -12571.783372376369, -6379.210219289091, -10140.785293672716, -12230.494586288285, -12630.121425404719, 0.0045000000000000005, -0.017, 0.741, 192.0, 0.0, 16.0, 127.5, 32.0, 15.0, 112.0, 0.0, 0.0, 0.0, 1.644499189145293E9, 0.0, 2022-02-11 00:19:49.145
134.0, -9447.970622536019, -11159.600157690067, -10978.260454924162, -17388.53959900613, -2542.846207958008, -1905.620325281659, -5967.200513744416, -6828.189710162844, -17329.62040062194, -14949.29372659847, -20153.495091616525, -12583.227465537486, -6383.948789113616, -10134.839729647605, -12235.881356702013, -12635.396437096171, 0.0045000000000000005, -0.017, 0.741, 192.0, 0.0, 0.0, 0.0, 0.0, 0.0, 0.0, 0.0, 0.0, 0.0, 1.6444991891453E9, 0.0, 2022-02-11 00:19:49.145
136.0, -9429.15045370465, -11149.027782562707, -10968.179818174818, -17382.39286928092, -2530.6421554854105, -1892.4774995419384, -5971.939083568941, -6825.641611294939, -17324.457147652764, -14946.209185863638, -20160.491187631036, -12580.142924802652, -6378.606722188798, -10123.753264397772, -12240.821092226637, -12635.530547562903, 0.0045000000000000005, -0.017, 0.741, 192.0, 0.0, 0.0, 0.0, 0.0, 0.0, 0.0, 0.0, 0.0, 0.0, 1.6444991891456232E9, 0.0, 2022-02-11 00:19:49.145
138.0, -9441.510968388435, -11165.389259503992, -10974.974748489232, -17388.137267605933, -2534.687821231821, -1900.3900170791171, -5980.388042973047, -6817.907907713403, -17332.57083089004, -14947.885566697785, -20150.61171658179, -12575.851389867234, -6376.438602976633, -10129.676476678429, -12235.1884526239, -12631.97662019451, 0.0045000000000000005, -0.017, 0.741, 192.0, 0.0, 0.0, 0.0, 0.0, 0.0, 0.0, 0.0, 0.0, 0.0, 1.6444991891456356E9, 0.0, 2022-02-11 00:19:49.145
140.0, -9435.878328785699, -11161.20948329085, -10967.352803629972, -17385.231540826742, -2529.2786990736367, -1901.7534734908909, -5968.22869398936, -6822.311201371098, -17330.20154597778, -14955.462808068134, -20168.47076040158, -12592.704605186535, -6378.316149510879, -10138.058380849168, -12241.581051538116, -12637.45279758606, 0.0045000000000000005, -0.017, 0.741, 192.0, 0.0, 0.0, 0.0, 0.0, 0.0, 0.0, 0.0, 0.0, 0.0, 1.6444991891456535E9, 0.0, 2022-02-11 00:19:49.145
142.0, -9430.670372327611, -11154.548663443169, -10956.176931402319, -17381.074116358057, -2511.1737860648377, -1888.2977233287959, -5945.206397200393, -6807.179070374856, -17328.48046165472, -14937.357895059336, -20149.583536336846, -12578.824171879789, -6370.135411040236, -10129.140034811502, -12228.773501965226, -12629.942611449076, 0.00425, -0.018500000000000003, 0.8634999999999999, 192.0, 0.0, 16.0, 127.5, 48.0, 15.0, 104.0, 0.0, 0.0, 0.0, 1.644499189145661E9, 0.0, 2022-02-11 00:19:49.145
144.0, -9450.026983025908, -11159.041364078685, -10967.97865247472, -17382.929311147847, -2531.491521774712, -1898.2666013558628, -5960.159714240995, -6809.213079120288, -17335.588316391506, -14949.807816720942, -20157.56310910739, -12583.182762048575, -6365.173323771158, -10128.134206311013, -12231.858042700058, -12627.305105603351, 0.00425, -0.018500000000000003, 0.8634999999999999, 192.0, 0.0, 0.0, 0.0, 0.0, 0.0, 0.0, 0.0, 0.0, 0.0, 1.6444991891456685E9, 0.0, 2022-02-11 00:19:49.145
146.0, -9434.6266310962, -11150.368887230026, -10955.506379068658, -17380.180046579844, -2522.170844336849, -1891.3152088302625, -5956.181103727949, -6802.06052089459, -17330.00038027768, -14944.756322474042, -20158.256013185503, -12584.099183571243, -6376.416251232177, -10131.19639530139, -12232.796815967182, -12629.07089341532, 0.00425, -0.018500000000000003, 0.8634999999999999, 192.0, 0.0, 0.0, 0.0, 0.0, 0.0, 0.0, 0.0, 0.0, 0.0, 1.6444991891456788E9, 0.0, 2022-02-11 00:19:49.145
148.0, -9440.438084654581, -11161.92473911342, -10965.385850117904, -17387.1537908499, -2527.0211728836507, -1896.4114065660724, -5966.932292810952, -6817.483224568752, -17334.448377424287, -14937.871985181808, -20148.018914224973, -12574.085602055264, -6372.16941978567, -10128.067151077646, -12226.583031008606, -12629.003838181954, 0.00425, -0.018500000000000003, 0.8634999999999999, 192.0, 0.0, 0.0, 0.0, 0.0, 0.0, 0.0, 0.0, 0.0, 0.0, 1.6444991891457212E9, 0.0, 2022-02-11 00:19:49.145
150.0, -9446.003669023952, -11150.078314552107, -10958.590919803491, -17387.131439105444, -2530.1280653629383, -1900.8594037126786, -5971.536752168746, -6820.076026925568, -17336.460034425265, -14952.333563844391, -20169.007202268505, -12592.212866808519, -6374.941036098127, -10135.845558148094, -12240.307002104164, -12635.68700977409, 0.00425, -0.018500000000000003, 0.8634999999999999, 192.0, 0.0, 0.0, 0.0, 0.0, 0.0, 0.0, 0.0, 0.0, 0.0, 1.6444991891457288E9, 0.0, 2022-02-11 00:19:49.145
152.0, -9442.762666077931, -11163.288195525194, -10958.523864570125, -17387.131439105444, -2522.774341437142, -1901.7311217464355, -5964.473600920868, -6811.045922165624, -17338.13641525941, -14950.701886499153, -20155.97613525106, -12588.591884206759, -6375.365719242778, -10134.14682556949, -12236.0378189132, -12629.629687026703, 0.007125, -0.019250000000000003, 0.92675, 192.0, 0.0, 40.0, 127.5, 48.0, 15.0, 120.0, 0.0, 0.0, 0.0, 1.644499189145736E9, 0.0, 2022-02-11 00:19:49.145
154.0, -9455.346698206271, -11171.02189910673, -10970.705565298267, -17383.286939059133, -2534.0172688981615, -1913.7563602633907, -5971.6708626354775, -6817.192651890833, -17346.160691518868, -14964.895244228273, -20165.09564698883, -12592.436384253071, -6375.678643665153, -10153.324622312144, -12242.832749227615, -12633.429483584105, 0.007125, -0.019250000000000003, 0.92675, 192.0, 0.0, 0.0, 0.0, 0.0, 0.0, 0.0, 0.0, 0.0, 0.0, 1.644499189145743E9, 0.0, 2022-02-11 00:19:49.145
156.0, -9443.76849457842, -11162.081201324607, -10966.346975129483, -17383.041069870123, -2531.200949096793, -1904.5921450367148, -5978.354034227614, -6819.360771102998, -17339.164595504357, -14960.603709292855, -20166.52615863397, -12589.128326073685, -6374.091669808826, -10140.561776228164, -12245.85023472908, -12632.848338228267, 0.007125, -0.019250000000000003, 0.92675, 192.0, 0.0, 0.0, 0.0, 0.0, 0.0, 0.0, 0.0, 0.0, 0.0, 1.6444991891457496E9, 0.0, 2022-02-11 00:19:49.145
158.0, -9449.334078947793, -11167.155047315962, -10969.856199008966, -17389.63483448444, -2538.1970451113043, -1906.8720229711562, -5979.046938305729, -6829.73198053026, -17344.640772895906, -14960.760171504042, -20155.953783506608, -12579.561779446814, -6376.818582632373, -10139.399485516487, -12244.464426572851, -12635.575251051814, 0.007125, -0.019250000000000003, 0.92675, 192.0, 0.0, 0.0, 0.0, 0.0, 0.0, 0.0, 0.0, 0.0, 0.0, 1.6444991891457565E9, 0.0, 2022-02-11 00:19:49.145
160.0, -9446.450703913059, -11156.426209977415, -10968.984480975208, -17384.896264659914, -2539.2475771007034, -1904.9050694590892, -5985.595999431133, -6830.670753797383, -17343.836110095515, -14966.661032040243, -20172.069391258883, -12594.291579042861, -6384.1499548137135, -10142.640488462506, -12246.833711485115, -12640.157358665152, 0.007125, -0.019250000000000003, 0.92675, 192.0, 0.0, 0.0, 0.0, 0.0, 0.0, 0.0, 0.0, 0.0, 0.0, 1.6444991891457634E9, 0.0, 2022-02-11 00:19:49.145
162.0, -9440.885119543687, -11155.822712877121, -10957.339222113995, -17386.23736932723, -2527.8034839395864, -1897.908973444578, -5982.198534273927, -6813.906945455903, -17336.72825535873, -14944.465749796123, -20153.69625731662, -12582.199285292541, -6376.483306465543, -10135.890261637005, -12242.653935271972, -12633.02715218391, 0.004562500000000001, -0.017625000000000002, 0.956375, 192.0, 0.0, 8.0, 127.5, 64.0, 15.0, 104.0, 0.0, 0.0, 0.0, 1.6444991891457703E9, 0.0, 2022-02-11 00:19:49.145
164.0, -9442.360334677736, -11166.171570559927, -10964.245911150683, -17391.914712418882, -2537.615899755466, -1896.165537377064, -5984.433708719458, -6828.3238206295755, -17337.95760130377, -14952.087694655384, -20159.105379474804, -12590.06709934081, -6376.326844254357, -10134.124473825035, -12244.218557383843, -12637.78807375289, 0.004562500000000001, -0.017625000000000002, 0.956375, 192.0, 0.0, 0.0, 0.0, 0.0, 0.0, 0.0, 0.0, 0.0, 0.0, 1.644499189145811E9, 0.0, 2022-02-11 00:19:49.145
166.0, -9433.44198864007, -11149.184244773895, -10959.21676864824, -17383.77867743715, -2523.623707726444, -1891.5387262748154, -5957.142228739528, -6808.475471553264, -17329.37453143293, -14948.712581242631, -20160.93822252014, -12590.961169119022, -6369.129582539747, -10135.264412792256, -12242.072789916134, -12634.569422551325, 0.004562500000000001, -0.017625000000000002, 0.956375, 192.0, 0.0, 0.0, 0.0, 0.0, 0.0, 0.0, 0.0, 0.0, 0.0, 1.6444991891458182E9, 0.0, 2022-02-11 00:19:49.145
168.0, -9442.87442480021, -11167.043288593684, -10964.357669872961, -17386.997328638714, -2527.289393817114, -1892.298685586296, -5964.585359643145, -6816.633858279451, -17337.95760130377, -14956.468636568623, -20154.590327094833, -12578.354785246229, -6366.0673935493705, -10133.76684591375, -12232.282725844709, -12628.489748059483, 0.004562500000000001, -0.017625000000000002, 0.956375, 192.0, 0.0, 0.0, 0.0, 0.0, 0.0, 0.0, 0.0, 0.0, 0.0, 1.644499189145825E9, 0.0, 2022-02-11 00:19:49.145
170.0, -9445.176654479106, -11160.293061768183, -10967.442210607793, -17384.605691981997, -2530.530396763134, -1892.9468861755, -5966.5076096663015, -6808.900154697914, -17332.324961701033, -14958.100313913861, -20169.253071457515, -12585.127363816186, -6370.694204651619, -10132.24692729079, -12240.932850948913, -12635.530547562903, 0.004562500000000001, -0.017625000000000002, 0.956375, 192.0, 0.0, 0.0, 0.0, 0.0, 0.0, 0.0, 0.0, 0.0, 0.0, 1.6444991891458318E9, 0.0, 2022-02-11 00:19:49.145
172.0, -9430.24568918296, -11156.001526832762, -10952.287727867095, -17387.28790131663, -2520.852091413986, -1889.2812000848294, -5964.540656154234, -6812.25291636621, -17337.443511181296, -14960.424895337213, -20156.736094562544, -12587.11666907271, -6366.78264937194, -10130.794063901194, -12233.601478767572, -12630.702570760557, 0.006, -0.02, 0.986, 192.0, 0.0, 24.0, 127.5, 48.0, 15.0, 104.0, 0.0, 0.0, 0.0, 1.644499189145839E9, 0.0, 2022-02-11 00:19:49.145
174.0, -9444.617860867722, -11164.271672281227, -10969.967957731242, -17387.936101905838, -2539.3146323340693, -1904.033351425332, -5971.313234724193, -6826.535681073151, -17338.42698793733, -14961.475427326612, -20157.65251608521, -12587.451945239538, -6369.844838362317, -10138.036029104715, -12237.334220091609, -12638.346867364273, 0.006, -0.02, 0.986, 192.0, 0.0, 0.0, 0.0, 0.0, 0.0, 0.0, 0.0, 0.0, 0.0, 1.644499189145846E9, 0.0, 2022-02-11 00:19:49.145
176.0, -9431.653849083645, -11158.415515233937, -10959.50734132616, -17386.751459449704, -2524.8083501825754, -1888.387130306617, -5959.310347951692, -6799.87004993797, -17335.05187452458, -14952.735895244587, -20167.37552492327, -12593.35280577574, -6369.397803473211, -10133.923308124937, -12240.70933350436, -12635.709361518546, 0.006, -0.02, 0.986, 192.0, 0.0, 0.0, 0.0, 0.0, 0.0, 0.0, 0.0, 0.0, 0.0, 1.6444991891458523E9, 0.0, 2022-02-11 00:19:49.145
178.0, -9434.492520629468, -11151.799398875166, -10962.54717857208, -17393.144058363923, -2525.8588821719745, -1890.0635111407653, -5968.362804456092, -6814.666904767383, -17328.636923865906, -14946.589165519377, -20147.884803758243, -12575.314948000307, -6357.394916700711, -10122.345104497088, -12234.584955523605, -12633.809463239844, 0.006, -0.02, 0.986, 192.0, 0.0, 0.0, 0.0, 0.0, 0.0, 0.0, 0.0, 0.0, 0.0, 1.6444991891458595E9, 0.0, 2022-02-11 00:19:49.145
180.0, -9435.58775610778, -11142.836349348587, -10973.767754288645, -17381.29763380261, -2535.1795596098377, -1895.4055780655835, -5966.820534088675, -6807.670808752872, -17330.872098311436, -14941.761188717031, -20168.157835979204, -12587.720166173001, -6366.939111583128, -10139.086561094113, -12241.156368393466, -12640.760855765446, 0.006, -0.02, 0.986, 192.0, 0.0, 0.0, 0.0, 0.0, 0.0, 0.0, 0.0, 0.0, 0.0, 1.6444991891458693E9, 0.0, 2022-02-11 00:19:49.145
182.0, -9420.813253022821, -11138.656573135446, -10955.21580639074, -17377.184912822835, -2520.9414983918073, -1886.5989907501926, -5959.779734585254, -6802.284038339143, -17325.61943836444, -14943.370514317814, -20150.119978203773, -12569.704660142024, -6368.369623228267, -10131.106988323569, -12236.574260780128, -12630.8813847162, 0.006, -0.022, 0.988, 192.0, 0.0, 24.0, 127.5, 40.0, 15.0, 112.0, 0.0, 0.0, 0.0, 1.644499189145876E9, 0.0, 2022-02-11 00:19:49.145
184.0, -9435.25247994095, -11144.535081927192, -10968.112762941451, -17379.48714250173, -2532.720867719754, -1890.8681739411563, -5967.51343816679, -6813.817538478082, -17328.212240721256, -14936.352066558848, -20152.243393927027, -12576.20901777852, -6364.860399348784, -10121.67455216343, -12240.217595126343, -12631.395474838671, 0.006, -0.022, 0.988, 192.0, 0.0, 0.0, 0.0, 0.0, 0.0, 0.0, 0.0, 0.0, 0.0, 1.6444991891458828E9, 0.0, 2022-02-11 00:19:49.145
186.0, -9411.984313962974, -11129.559413142135, -10954.522902312625, -17371.44051449782, -2519.131007090927, -1874.3725865331396, -5970.486220179346, -6804.474509295763, -17318.42217664983, -14938.140206115271, -20150.83523402634, -12565.904863584623, -6356.724364367052, -10114.991380571293, -12244.41972308394, -12629.875556215711, 0.006, -0.022, 0.988, 192.0, 0.0, 0.0, 0.0, 0.0, 0.0, 0.0, 0.0, 0.0, 0.0, 1.6444991891458893E9, 0.0, 2022-02-11 00:19:49.145
188.0, -9423.584869335278, -11143.305735982149, -10959.060306437053, -17386.77381119416, -2521.5449954921005, -1888.6553512400808, -5958.863313062587, -6813.638724522439, -17311.42608063532, -14933.178118846194, -20130.003408193996, -12555.86893032419, -6347.716611351563, -10106.56477291164, -12233.13209213401, -12628.981486437498, 0.006, -0.022, 0.988, 192.0, 0.0, 0.0, 0.0, 0.0, 0.0, 0.0, 0.0, 0.0, 0.0, 1.6444991891458962E9, 0.0, 2022-02-11 00:19:49.145
190.0, -9431.96677350602, -11143.238680748784, -10969.74444028669, -17387.466715272276, -2527.8258356840415, -1886.621342494648, -5955.219978716372, -6811.716474499282, -17318.824508050027, -14946.902089941752, -20157.741923063033, -12582.48985797046, -6359.7865533574295, -10124.937906853904, -12241.491644560296, -12640.894966232177, 0.006, -0.022, 0.988, 192.0, 0.0, 0.0, 0.0, 0.0, 0.0, 0.0, 0.0, 0.0, 0.0, 1.6444991891459029E9, 0.0, 2022-02-11 00:19:49.145
192.0, -9414.979447719985, -11135.34851495606, -10953.092390667485, -17380.15769483539, -2518.6616204573656, -1884.0508918822877, -5973.4366504474465, -6809.548355287118, -17314.33180741451, -14922.829261163386, -20142.498033344513, -12566.687174640558, -6352.410477687178, -10120.311095751655, -12241.513996304751, -12633.8318149843, 0.002, -0.02, 0.988, 192.0, 0.0, 8.0, 127.5, 48.0, 15.0, 112.0, 0.0, 0.0, 0.0, 1.6444991891459095E9, 0.0, 2022-02-11 00:19:49.145
194.0, -9430.804482794343, -11134.119169011017, -10963.284786139106, -17382.191703580822, -2526.663544972366, -1893.1257001311424, -5954.75059208281, -6813.392855333431, -17317.99749350518, -14929.803005433441, -20148.756521792, -12570.330508986774, -6359.0265940459485, -10127.016619088248, -12236.060170657656, -12636.625783041214, 0.002, -0.02, 0.988, 192.0, 0.0, 0.0, 0.0, 0.0, 0.0, 0.0, 0.0, 0.0, 0.0, 1.6444991891459165E9, 0.0, 2022-02-11 00:19:49.145
196.0, -9417.840471010264, -11125.804320073643, -10954.45584707926, -17379.24127331272, -2513.1854430658154, -1883.13447035962, -5950.906092036497, -6823.026457193668, -17313.035406236104, -14940.174214860705, -20152.019876482475, -12571.58220667627, -6354.9138730661725, -10116.488947449798, -12239.792911981693, -12634.748236506968, 0.002, -0.02, 0.988, 192.0, 0.0, 0.0, 0.0, 0.0, 0.0, 0.0, 0.0, 0.0, 0.0, 1.6444991891459231E9, 0.0, 2022-02-11 00:19:49.145
198.0, -9418.712189044021, -11130.565241642624, -10961.630757049414, -17386.43853502733, -2523.5566524930778, -1894.2879908428183, -5957.656318861999, -6808.542526786629, -17311.984874246704, -14939.011924149028, -20137.580649564345, -12563.021488549888, -6351.270538719958, -10112.219764258834, -12236.75307473577, -12635.374085351717, 0.002, -0.02, 0.988, 192.0, 0.0, 0.0, 0.0, 0.0, 0.0, 0.0, 0.0, 0.0, 0.0, 1.64449918914593E9, 0.0, 2022-02-11 00:19:49.145
200.0, -9444.260232956438, -11149.005430818252, -10966.346975129483, -17386.81851468307, -2535.157207865382, -1902.42402582455, -5957.008118272796, -6811.314143099087, -17314.51062137015, -14948.377305075803, -20156.624335840268, -12577.907750357122, -6359.6747946351525, -10125.831976632116, -12244.956164950869, -12640.135006920696, 0.002, -0.02, 0.988, 192.0, 0.0, 0.0, 0.0, 0.0, 0.0, 0.0, 0.0, 0.0, 0.0, 1.6444991891459365E9, 0.0, 2022-02-11 00:19:49.145
202.0, -9432.749084561954, -11148.759561629244, -10958.367402358937, -17384.851561171003, -2526.104751360983, -1886.1519558610864, -5959.980900285352, -6815.024532678668, -17328.458109910265, -14939.48131078259, -20149.136501447738, -12569.212921764009, -6365.150972026703, -10122.546270197186, -12239.99407768179, -12633.36242835074, 0.008, -0.024, 0.986, 192.0, 0.0, 32.0, 127.5, 32.0, 15.0, 104.0, 0.0, 0.0, 0.0, 1.6444991891459434E9, 0.0, 2022-02-11 00:19:49.145
204.0, -9456.196064495573, -11163.757582158754, -10965.475257095726, -17388.405488539396, -2537.101809632994, -1897.7748629778462, -5972.676691135966, -6823.898175227425, -17328.927496543827, -14953.67466851171, -20152.5563183494, -12577.706584657024, -6358.467800434566, -10127.687171421907, -12243.033914927712, -12639.039771442387, 0.008, -0.024, 0.986, 192.0, 0.0, 0.0, 0.0, 0.0, 0.0, 0.0, 0.0, 0.0, 0.0, 1.6444991891459823E9, 0.0, 2022-02-11 00:19:49.145
206.0, -9450.742238848477, -11160.985965846297, -10957.518036069636, -17392.339395563533, -2525.098922860494, -1873.8584964106676, -5953.834170560142, -6797.813689448081, -17330.80504307807, -14950.232499865593, -20163.933356277154, -12582.400450992638, -6366.201504016102, -10121.04870331868, -12246.230214384821, -12634.636477784692, 0.008, -0.024, 0.986, 192.0, 0.0, 0.0, 0.0, 0.0, 0.0, 0.0, 0.0, 0.0, 0.0, 1.6444991891459892E9, 0.0, 2022-02-11 00:19:49.145
208.0, -9459.705288375055, -11162.438829235893, -10964.7376495287, -17393.68050023085, -2533.0337921421283, -1889.3482553181955, -5966.664071877489, -6813.392855333431, -17339.499871671185, -14950.85834871034, -20156.937260262643, -12580.72407015849, -6363.608701659286, -10121.04870331868, -12238.854138714569, -12632.73657950599, 0.008, -0.024, 0.986, 192.0, 0.0, 0.0, 0.0, 0.0, 0.0, 0.0, 0.0, 0.0, 0.0, 1.644499189145996E9, 0.0, 2022-02-11 00:19:49.145
210.0, -9475.26210251595, -11189.327977815627, -10968.626853063925, -17385.745630949215, -2542.555635280089, -1897.5066420443825, -5987.13826979855, -6819.360771102998, -17339.343409459998, -14961.296613370969, -20176.204463983115, -12593.01752960891, -6366.7155941385745, -10140.2935552947, -12254.209787155365, -12638.07864643081, 0.008, -0.024, 0.986, 192.0, 0.0, 0.0, 0.0, 0.0, 0.0, 0.0, 0.0, 0.0, 0.0, 1.6444991891460028E9, 0.0, 2022-02-11 00:19:49.146
212.0, -9459.370012208225, -11183.538876001701, -10958.099181425474, -17388.561950750583, -2528.4740362732455, -1888.9459239179998, -5977.169391771483, -6815.315105356587, -17343.254964739677, -14953.406447578247, -20164.51450163299, -12594.783317420879, -6371.387108729734, -10138.326601782634, -12244.442074828396, -12637.430445841605, 0.012, -0.018000000000000002, 0.988, 192.0, 0.0, 48.0, 127.5, 56.0, 15.0, 112.0, 0.0, 0.0, 0.0, 1.644499189146012E9, 0.0, 2022-02-11 00:19:49.146
214.0, -9474.233922271005, -11172.92179738543, -10966.50343734067, -17384.046898370612, -2540.879254445941, -1896.1208338881534, -5972.27435973577, -6821.640649037439, -17347.211223508268, -14957.206244135648, -20164.536853377445, -12589.418898751605, -6369.598969173309, -10139.265375049756, -12242.631583527516, -12638.458626086549, 0.012, -0.018000000000000002, 0.988, 192.0, 0.0, 0.0, 0.0, 0.0, 0.0, 0.0, 0.0, 0.0, 0.0, 1.6444991891460245E9, 0.0, 2022-02-11 00:19:49.146
216.0, -9467.863675101242, -11176.92275964293, -10957.518036069636, -17380.67178495786, -2528.272870573148, -1886.2413628389077, -5950.615519358578, -6810.688294254339, -17344.216089751255, -14968.069191940927, -20167.04024875644, -12580.947587603045, -6369.107230795292, -10137.209014559867, -12245.336144606608, -12636.849300485766, 0.012, -0.018000000000000002, 0.988, 192.0, 0.0, 0.0, 0.0, 0.0, 0.0, 0.0, 0.0, 0.0, 0.0, 1.644499189146035E9, 0.0, 2022-02-11 00:19:49.146
218.0, -9477.92196010613, -11191.920780172442, -10964.894111739888, -17388.070212372568, -2530.530396763134, -1890.6446564966031, -5971.872028335575, -6817.483224568752, -17352.508586944175, -14962.682421527199, -20158.41247539669, -12576.92427360109, -6365.843876104817, -10129.47531097833, -12238.51886254774, -12632.066027172332, 0.012, -0.018000000000000002, 0.988, 192.0, 0.0, 0.0, 0.0, 0.0, 0.0, 0.0, 0.0, 0.0, 0.0, 1.644499189146042E9, 0.0, 2022-02-11 00:19:49.146
220.0, -9489.947198623086, -11197.329902330626, -10966.391678618393, -17385.522113504663, -2532.854978186486, -1892.6339617531255, -5968.094583522628, -6819.5172333141845, -17355.570775934553, -14974.126514688316, -20181.211254741105, -12595.073890098798, -6370.962425585083, -10134.035066847215, -12245.514958562251, -12639.710323776046, 0.012, -0.018000000000000002, 0.988, 192.0, 0.0, 0.0, 0.0, 0.0, 0.0, 0.0, 0.0, 0.0, 0.0, 1.644499189146049E9, 0.0, 2022-02-11 00:19:49.146
222.0, -9489.29899803388, -11212.104405415585, -10955.484027324204, -17386.840866427527, -2524.0930943600056, -1888.9906274069106, -5964.719470109877, -6819.1596054029, -17357.425970724344, -14968.516226830034, -20166.83908305634, -12589.01656735141, -6364.770992370963, -10127.91068886646, -12245.179682395421, -12636.245803385473, 0.012, -0.016, 0.984, 192.0, 0.0, 48.0, 127.5, 64.0, 15.0, 96.0, 0.0, 0.0, 0.0, 1.644499189146056E9, 0.0, 2022-02-11 00:19:49.146
224.0, -9528.749826997499, -11230.723408546855, -10974.281844411116, -17391.981767652247, -2532.1844258528267, -1899.1159676451646, -5973.771926614276, -6829.419056107886, -17364.019735338657, -14981.167314191738, -20169.14131273524, -12597.621988966703, -6371.901198852205, -10136.940793626403, -12241.737513749304, -12645.16414942314, 0.012, -0.016, 0.984, 192.0, 0.0, 0.0, 0.0, 0.0, 0.0, 0.0, 0.0, 0.0, 0.0, 1.644499189146063E9, 0.0, 2022-02-11 00:19:49.146
226.0, -9559.32701341236, -11266.37444095307, -10961.40723960486, -17393.971072908767, -2521.299126303092, -1893.2374588534187, -5965.2782637212595, -6817.818500735581, -17373.58628196553, -14989.660977084754, -20186.6650803882, -12611.54712576236, -6368.615492417275, -10133.990363358304, -12245.604365540072, -12644.158320922652, 0.012, -0.016, 0.984, 192.0, 0.0, 0.0, 0.0, 0.0, 0.0, 0.0, 0.0, 0.0, 0.0, 1.64449918914607E9, 0.0, 2022-02-11 00:19:49.146
228.0, -9608.14322330275, -11308.328665295681, -10969.74444028669, -17395.356881065, -2520.136835591416, -1896.679627499536, -5978.80106911672, -6818.421997835875, -17398.128497377456, -15005.530715648023, -20193.95174908063, -12621.650114256157, -6370.716556396074, -10139.198319816389, -12238.250641614277, -12641.297297632373, 0.012, -0.016, 0.984, 192.0, 0.0, 0.0, 0.0, 0.0, 0.0, 0.0, 0.0, 0.0, 0.0, 1.6444991891460772E9, 0.0, 2022-02-11 00:19:49.146
230.0, -9656.110066903839, -11341.163377900528, -10978.08164096852, -17392.115878118977, -2524.4954257602008, -1891.1587466190754, -5970.843848090631, -6824.769893261182, -17407.851506215513, -15014.06908202995, -20221.220877316104, -12636.35756210775, -6370.202466273602, -10134.727970925329, -12243.346839350086, -12641.87844298821, 0.012, -0.016, 0.984, 192.0, 0.0, 0.0, 0.0, 0.0, 0.0, 0.0, 0.0, 0.0, 0.0, 1.644499189146084E9, 0.0, 2022-02-11 00:19:49.146
232.0, -9672.113915933838, -11372.567578860233, -10969.677385053325, -17398.21790435528, -2517.298164045592, -1884.4532232824831, -5962.618406131078, -6816.432692579352, -17428.16924192539, -15025.334361235424, -20224.90891515123, -12634.301201617862, -6371.297701751912, -10130.347029012088, -12241.916327704947, -12635.083512673798, 0.006, -0.024, 0.982, 192.0, 0.0, 24.0, 127.5, 32.0, 15.0, 88.0, 0.0, 0.0, 0.0, 1.644499189146091E9, 0.0, 2022-02-11 00:19:49.146
234.0, -9689.190648697693, -11388.057337767761, -10979.825077036034, -17399.11197413349, -2532.162074108371, -1903.6310200251366, -5968.653377134011, -6810.598887276517, -17424.59296281254, -15028.530660692533, -20223.411348272723, -12647.622841313225, -6373.9352075976385, -10141.679363450929, -12244.017391683745, -12639.911489476144, 0.006, -0.024, 0.982, 192.0, 0.0, 0.0, 0.0, 0.0, 0.0, 0.0, 0.0, 0.0, 0.0, 1.644499189146098E9, 0.0, 2022-02-11 00:19:49.146
236.0, -9686.82136378543, -11394.91932331554, -10981.434402636814, -17398.888456688936, -2518.4157512683573, -1886.0401971388098, -5946.636908845533, -6800.451195293808, -17425.0623494461, -15033.448044472701, -20231.39092104327, -12647.578137824314, -6372.8176203748735, -10136.33729652611, -12244.486778317307, -12638.235108641997, 0.006, -0.024, 0.982, 192.0, 0.0, 0.0, 0.0, 0.0, 0.0, 0.0, 0.0, 0.0, 0.0, 1.6444991891461053E9, 0.0, 2022-02-11 00:19:49.146
0.0, -4688.077233800559, -5519.5174240490705, -5481.742975919602, -8644.872444256836, -1404.9412494827807, -871.7403855014308, -2981.6109516156857, -3328.2418046285875, -8716.018046858078, -7518.143358009263, -10112.845613103582, -6328.181186697625, -3184.6989017366054, -5067.922779074047, -6117.4265882285345, -6320.559241838365, 0.012, -0.02, 0.986, 192.0, 0.0, 48.0, 127.5, 48.0, 15.0, 104.0, 0.0, 0.0, 0.0, 1.6444991897027912E9, 0.0, 2022-02-11 00:19:49.702
2.0, -9397.790956233854, -11054.14462734993, -10974.907693255866, -17300.13844968539, -2827.1380456850584, -1760.266931088797, -5958.572740384668, -6666.832466939983, -17288.761411757638, -14907.38420574477, -20097.928654900632, -12433.31431547574, -6623.1124547854015, -10131.95635461287, -12204.253638297754, -12516.216935660475, 0.012, -0.02, 0.986, 192.0, 0.0, 0.0, 0.0, 0.0, 0.0, 0.0, 0.0, 0.0, 0.0, 1.6444991897029247E9, 0.0, 2022-02-11 00:19:49.702
4.0, -9405.323494115293, -11051.641231970934, -10976.047632223086, -17297.70210953976, -2840.7726098027956, -1764.2902450907525, -5969.636853890044, -6668.262978585122, -17294.79638276057, -14923.790386174964, -20121.64385576771, -12461.365754767152, -6635.294155513544, -10147.893148409505, -12214.22251632482, -12523.414197375083, 0.012, -0.02, 0.986, 192.0, 0.0, 0.0, 0.0, 0.0, 0.0, 0.0, 0.0, 0.0, 0.0, 1.6444991897029324E9, 0.0, 2022-02-11 00:19:49.702
6.0, -9403.602409792235, -11058.279700074161, -10975.086507211508, -17301.077222952514, -2843.924205770994, -1765.4525358024284, -5975.694176637433, -6665.379603550387, -17298.03738570659, -14907.607723189321, -20111.22794285154, -12450.659269173058, -6645.374792262887, -10149.301308310189, -12213.619019224529, -12522.296610152318, 0.008, -0.019000000000000003, 0.989, 192.0, 0.0, 16.0, 127.5, 56.0, 15.5, 0.0, 0.0, 0.0, 0.0, 1.644499189702947E9, 0.0, 2022-02-11 00:19:49.702
8.0, -9416.208793665028, -11065.342851322039, -10982.149658459384, -17298.551475829063, -2866.2088949929353, -1775.555524296227, -5974.80010685922, -6661.848027926449, -17303.71472879824, -14919.834127406375, -20124.97426569155, -12448.669963916536, -6655.209559823223, -10144.361572785565, -12218.402292537963, -12525.515261353883, 0.008, -0.019000000000000003, 0.989, 192.0, 0.0, 0.0, 0.0, 0.0, 0.0, 0.0, 0.0, 0.0, 0.0, 1.6444991897029536E9, 0.0, 2022-02-11 00:19:49.702
10.0, -9407.402206349636, -11066.95217692282, -10969.699736797778, -17292.650615292863, -2863.66079612503, -1770.9510649384338, -5958.460981662391, -6660.12694360339, -17295.444583349774, -14921.063473351416, -20127.544716303913, -12447.686487160503, -6667.882998929382, -10162.265320094266, -12223.789062951691, -12525.694075309524, 0.008, -0.019000000000000003, 0.989, 192.0, 0.0, 0.0, 0.0, 0.0, 0.0, 0.0, 0.0, 0.0, 0.0, 1.6444991897029605E9, 0.0, 2022-02-11 00:19:49.702
12.0, -9399.400281834636, -11056.625670984467, -10973.387774632905, -17297.94797872877, -2878.256485254346, -1777.4777743193836, -5973.32489172517, -6660.439868025765, -17288.269673379622, -14910.938133113163, -20111.250294595993, -12444.400780725573, -6677.2260281117, -10169.373174831055, -12216.07771111461, -12523.950639242012, 0.008, -0.019000000000000003, 0.989, 192.0, 0.0, 0.0, 0.0, 0.0, 0.0, 0.0, 0.0, 0.0, 0.0, 1.644499189702967E9, 0.0, 2022-02-11 00:19:49.702
14.0, -9436.884157286186, -11085.10179342053, -10983.714280571257, -17294.952844971758, -2893.120395317125, -1779.8917627205567, -5976.320025482181, -6661.043365126057, -17290.594254802974, -14918.493022739056, -20134.205536151592, -12457.27538553183, -6691.285275374088, -10163.62877650604, -12229.891089187991, -12525.269392164873, 0.008, -0.019000000000000003, 0.989, 192.0, 0.0, 0.0, 0.0, 0.0, 0.0, 0.0, 0.0, 0.0, 0.0, 1.6444991897029736E9, 0.0, 2022-02-11 00:19:49.702
16.0, -9438.53818637588, -11094.333063880571, -10976.807591534567, -17296.42806010581, -2892.315732516734, -1775.913152207512, -5983.9419703414405, -6660.193998836756, -17314.175345203323, -14927.523127499, -20138.31825713137, -12457.029516342822, -6709.032560471602, -10168.836732964128, -12229.086426387601, -12522.698941552513, 0.008, -0.019000000000000003, 0.989, 192.0, 0.0, 0.0, 127.5, 48.0, 15.0, 96.0, 0.0, 0.0, 0.0, 1.6444991897029803E9, 0.0, 2022-02-11 00:19:49.702
18.0, -9459.660584886144, -11098.982226727276, -10988.430498651327, -17300.697243296774, -2913.0134478823484, -1790.3523791256405, -5990.848659378131, -6663.099725615946, -17317.4386998938, -14925.444415264657, -20152.243393927027, -12461.23164430042, -6718.397941398375, -10170.334299842632, -12233.288554345198, -12526.789310787835, 0.008, -0.019000000000000003, 0.989, 192.0, 0.0, 0.0, 0.0, 0.0, 0.0, 0.0, 0.0, 0.0, 0.0, 1.6444991897029872E9, 0.0, 2022-02-11 00:19:49.702
20.0, -9452.128047004706, -11097.082328448574, -10986.88822828391, -17296.51746708363, -2914.3992560385773, -1779.1765068979869, -5987.6970634099325, -6667.145391362356, -17308.833278278504, -14928.059569365929, -20155.730266062055, -12473.145124095097, -6724.298801934577, -10175.743422000816, -12239.837615470602, -12528.465691621983, 0.008, -0.019000000000000003, 0.989, 192.0, 0.0, 0.0, 0.0, 0.0, 0.0, 0.0, 0.0, 0.0, 0.0, 1.644499189702994E9, 0.0, 2022-02-11 00:19:49.702
22.0, -9470.165904780139, -11118.33883742557, -10989.011644007165, -17301.61366481944, -2939.902596462083, -1791.1570419260315, -6010.115863098606, -6665.692527972762, -17319.137432472402, -14923.633923963776, -20149.717646803576, -12460.203464055476, -6743.029563788124, -10175.139924900524, -12241.04460967119, -12527.951601499512, 0.008, -0.019000000000000003, 0.989, 192.0, 0.0, 0.0, 0.0, 0.0, 0.0, 0.0, 0.0, 0.0, 0.0, 1.6444991897030005E9, 0.0, 2022-02-11 00:19:49.703
24.0, -9471.082326302807, -11115.321351924105, -10993.973731276243, -17299.445545607276, -2951.8384280012165, -1794.8897832500677, -6010.227621820882, -6671.995719909159, -17320.76910981764, -14928.774825188499, -20174.28221395996, -12463.600929212682, -6760.039241318613, -10183.58888430463, -12257.048458701189, -12534.925345769567, 0.008, -0.019000000000000003, 0.989, 192.0, 0.0, 0.0, 0.0, 0.0, 0.0, 0.0, 0.0, 0.0, 0.0, 1.6444991897030077E9, 0.0, 2022-02-11 00:19:49.703
26.0, -9465.382631466702, -11118.741168825767, -10989.70454808528, -17301.65836830835, -2954.3641751246664, -1793.459271604928, -6014.630915478578, -6668.173571607301, -17315.203525448265, -14929.825357177897, -20161.13938822024, -12459.599966955182, -6762.028546575135, -10179.54321855822, -12253.963917966357, -12527.973953243965, 0.003, -0.019500000000000003, 0.9895, 192.0, 127.5, 120.0, 127.5, 48.0, 15.0, 120.0, 0.0, 0.0, 0.0, 1.6444991897030144E9, 0.0, 2022-02-11 00:19:49.703
28.0, -9490.461288745557, -11126.608982874035, -11012.726844874245, -17306.687510810796, -2983.756719083395, -1814.2910974372742, -6023.281040582781, -6676.063737400024, -17328.23459246571, -14936.843804936863, -20176.226815727572, -12469.591196726704, -6788.2918463101205, -10198.139869945035, -12256.176740667432, -12536.042932992332, 0.003, -0.019500000000000003, 0.9895, 192.0, 0.0, 0.0, 0.0, 0.0, 0.0, 0.0, 0.0, 0.0, 0.0, 1.6444991897030208E9, 0.0, 2022-02-11 00:19:49.703
30.0, -9489.701329434078, -11132.934526554887, -11008.61412389447, -17303.982949731704, -2987.5788673852526, -1815.2522224488525, -6012.440444521957, -6676.84604845596, -17329.463938410754, -14945.449226552157, -20189.391993211746, -12488.031385902332, -6801.635837749939, -10216.490652142842, -12266.682060561427, -12534.701828325013, 0.003, -0.019500000000000003, 0.9895, 192.0, 0.0, 0.0, 0.0, 0.0, 0.0, 0.0, 0.0, 0.0, 0.0, 1.6444991897030275E9, 0.0, 2022-02-11 00:19:49.703
32.0, -9500.698387706088, -11143.305735982149, -11011.475147184748, -17309.526182356618, -3005.013228060392, -1819.5661091287268, -6034.792188977264, -6688.245438128167, -17339.522223415643, -14937.760226459532, -20187.760315866508, -12470.060583360266, -6813.884593711447, -10228.314724959699, -12264.357479138074, -12537.00405800391, 0.003, -0.019500000000000003, 0.9895, 192.0, 0.0, 0.0, 0.0, 0.0, 0.0, 0.0, 0.0, 0.0, 0.0, 1.644499189703034E9, 0.0, 2022-02-11 00:19:49.703
34.0, -9507.716835465055, -11140.265898736227, -11013.50915593018, -17312.834240536005, -3021.240594534945, -1819.5437573842714, -6044.269328626315, -6680.981121180192, -17336.616496636452, -14953.00411617805, -20207.98864459856, -12483.784554455824, -6826.356867117509, -10208.041692738736, -12276.829752544136, -12540.692095839036, 0.003, -0.019500000000000003, 0.9895, 192.0, 0.0, 0.0, 0.0, 0.0, 0.0, 0.0, 0.0, 0.0, 0.0, 1.6444991897030404E9, 0.0, 2022-02-11 00:19:49.703
36.0, -9497.569143482346, -11149.161893029439, -11008.971751805753, -17308.542705600586, -3024.9956876034366, -1823.6564783640479, -6047.3985728500575, -6683.730385748195, -17334.04604602409, -14950.567776032422, -20194.331728736368, -12476.207313085475, -6834.604660821517, -10219.30697194421, -12278.215560700364, -12536.378209159162, 0.0045000000000000005, -0.022750000000000003, 0.98775, 192.0, 0.0, 24.0, 127.5, 24.0, 15.0, 104.0, 0.0, 0.0, 0.0, 1.6444991897030473E9, 0.0, 2022-02-11 00:19:49.703
38.0, -9522.290172849915, -11148.513692440236, -11025.176766535851, -17310.911990512846, -3047.369783803199, -1836.9334145705004, -6058.8426660111745, -6692.916952719325, -17343.81375835106, -14963.867063983329, -20209.24034228806, -12485.684452734526, -6848.26157668371, -10229.40996043801, -12285.725746837348, -12543.128435984665, 0.0045000000000000005, -0.022750000000000003, 0.98775, 192.0, 0.0, 0.0, 0.0, 0.0, 0.0, 0.0, 0.0, 0.0, 0.0, 1.6444991897030551E9, 0.0, 2022-02-11 00:19:49.703
40.0, -9505.816937186353, -11145.20563426085, -11016.70545538729, -17305.391109632386, -3044.4193535350983, -1828.7079726109473, -6050.885444985086, -6695.554458565052, -17341.62328739444, -14959.955508703652, -20218.873944148298, -12490.892409192611, -6857.35873667702, -10231.041637783246, -12292.811249829681, -12542.994325517933, 0.0045000000000000005, -0.022750000000000003, 0.98775, 192.0, 0.0, 0.0, 0.0, 0.0, 0.0, 0.0, 0.0, 0.0, 0.0, 1.6444991897030618E9, 0.0, 2022-02-11 00:19:49.703
42.0, -9509.683788977121, -11144.669192393923, -11016.057254798086, -17304.877019509917, -3055.885798440671, -1844.4212489630281, -6063.000090479862, -6699.644827800373, -17340.326886216033, -14941.560023016933, -20206.51342946451, -12468.294795548296, -6863.639576868961, -10245.279699001278, -12291.760717840281, -12544.58129937426, 0.0045000000000000005, -0.022750000000000003, 0.98775, 192.0, 0.0, 0.0, 0.0, 0.0, 0.0, 0.0, 0.0, 0.0, 0.0, 1.644499189703069E9, 0.0, 2022-02-11 00:19:49.703
44.0, -9517.417492558658, -11146.278517994704, -11021.689894400823, -17304.005301476158, -3072.3813858486874, -1845.069449552232, -6076.545247619778, -6704.316342391532, -17336.52708965863, -14947.14795913076, -20221.511449994025, -12482.264635832864, -6872.893199073458, -10239.110617531613, -12304.255342990798, -12550.795084332834, 0.0045000000000000005, -0.022750000000000003, 0.98775, 192.0, 0.0, 0.0, 0.0, 0.0, 0.0, 0.0, 0.0, 0.0, 0.0, 1.644499189703076E9, 0.0, 2022-02-11 00:19:49.703
46.0, -9510.957838411074, -11145.786779616688, -11018.001856565697, -17306.66515906634, -3068.9615689470256, -1845.2482635078745, -6057.300395643759, -6688.312493361533, -17341.757397861173, -14943.48227304009, -20217.801060414444, -12484.388051556118, -6881.923303833402, -10231.533376161264, -12305.86466859158, -12542.189662717541, 0.0032500000000000003, -0.023375, 0.988875, 192.0, 0.0, 8.0, 127.5, 32.0, 15.0, 120.0, 0.0, 0.0, 0.0, 1.6444991897030828E9, 0.0, 2022-02-11 00:19:49.703
48.0, -9537.645821290711, -11161.29889026867, -11030.742350905222, -17305.838144521495, -3095.783662293394, -1853.3172432562403, -6073.125430718116, -6698.594295810974, -17348.373514219944, -14943.236403851082, -20229.6251332313, -12489.32778708074, -6898.016559841223, -10239.98233556537, -12300.544953411218, -12543.553119129316, 0.0032500000000000003, -0.023375, 0.988875, 192.0, 0.0, 0.0, 0.0, 0.0, 0.0, 0.0, 0.0, 0.0, 0.0, 1.6444991897030895E9, 0.0, 2022-02-11 00:19:49.703
50.0, -9524.212422873072, -11153.945166342875, -11021.265211256172, -17297.992682217682, -3095.9624762490366, -1843.0354408067992, -6083.7872128232975, -6700.628304556407, -17344.596069406995, -14950.947755688163, -20235.97302865661, -12482.532856766327, -6915.070940860623, -10237.88127158657, -12309.373892471063, -12540.24506094993, 0.0032500000000000003, -0.023375, 0.988875, 192.0, 0.0, 0.0, 0.0, 0.0, 0.0, 0.0, 0.0, 0.0, 0.0, 1.6444991897030964E9, 0.0, 2022-02-11 00:19:49.703
52.0, -9535.567109056366, -11163.645823436478, -11028.283659015138, -17303.60297007596, -3117.6436683706843, -1845.8294088637126, -6093.331407705714, -6693.095766674968, -17350.34046773201, -14950.008982421039, -20228.99928438655, -12468.808885670769, -6925.0845223766, -10226.16895749199, -12308.993912815324, -12535.350028914218, 0.0032500000000000003, -0.023375, 0.988875, 192.0, 0.0, 0.0, 0.0, 0.0, 0.0, 0.0, 0.0, 0.0, 0.0, 1.6444991897031033E9, 0.0, 2022-02-11 00:19:49.703
54.0, -9537.55641431289, -11161.58946294659, -11030.764702649678, -17300.205504918755, -3128.7971888538827, -1850.7020891549694, -6075.673529586021, -6692.693435274772, -17347.971182819747, -14953.406447578247, -20247.797101473465, -12483.449278288994, -6938.741438238792, -10238.797693109238, -12316.347636741119, -12536.489967881438, 0.0032500000000000003, -0.023375, 0.988875, 192.0, 0.0, 0.0, 0.0, 0.0, 0.0, 0.0, 0.0, 0.0, 0.0, 1.6444991897031097E9, 0.0, 2022-02-11 00:19:49.703
56.0, -9531.879071221241, -11151.821750619622, -11019.521775188658, -17302.395975875377, -3136.977927324525, -1848.7127838984472, -6096.751224607376, -6702.259981901644, -17346.56302291906, -14940.263621838525, -20239.728121725097, -12478.509542764372, -6953.538293068206, -10243.826835611682, -12314.33597974014, -12536.802892303813, 0.004625000000000001, -0.025687500000000002, 0.9884375, 192.0, 0.0, 24.0, 127.5, 16.0, 15.0, 112.0, 0.0, 0.0, 0.0, 1.644499189703117E9, 0.0, 2022-02-11 00:19:49.703
58.0, -9564.356155914802, -11172.407707262959, -11042.298202788616, -17303.24534216468, -3165.275235804944, -1865.3871852621062, -6104.775500866831, -6703.444624357775, -17354.520243945153, -14927.232554821081, -20250.16638638573, -12492.904066193589, -6964.937682740412, -10264.45749574393, -12320.527412954261, -12541.250889450419, 0.004625000000000001, -0.025687500000000002, 0.9884375, 192.0, 0.0, 0.0, 0.0, 0.0, 0.0, 0.0, 0.0, 0.0, 0.0, 1.6444991897031236E9, 0.0, 2022-02-11 00:19:49.703
60.0, -9555.951899999607, -11180.387280033503, -11039.370124264971, -17301.256036908155, -3169.8573434182817, -1862.9508451164777, -6092.01265478285, -6698.437833599786, -17363.48329347173, -14964.738782017086, -20269.590052317388, -12497.687339507025, -6982.126174226543, -10276.661548216529, -12327.635267691048, -12539.708619083003, 0.004625000000000001, -0.025687500000000002, 0.9884375, 192.0, 0.0, 0.0, 0.0, 0.0, 0.0, 0.0, 0.0, 0.0, 0.0, 1.64449918970313E9, 0.0, 2022-02-11 00:19:49.703
62.0, -9568.491228639035, -11183.896503912987, -11050.814217426088, -17307.648635822374, -3188.074015149357, -1868.6952434414916, -6106.608343912166, -6697.655522543851, -17370.591148208518, -14969.34324137488, -20264.53855807049, -12483.404574800084, -6992.407976675985, -10265.373917266597, -12326.316514768187, -12535.238270191941, 0.004625000000000001, -0.025687500000000002, 0.9884375, 192.0, 0.0, 0.0, 0.0, 0.0, 0.0, 0.0, 0.0, 0.0, 0.0, 1.6444991897031367E9, 0.0, 2022-02-11 00:19:49.703
64.0, -9576.582560131856, -11187.293969070193, -11049.964851136787, -17303.066528209034, -3201.5521170559073, -1869.6116649641592, -6109.603477669177, -6698.683702788795, -17369.942947619315, -14980.295596157981, -20283.045802479483, -12493.976949927444, -7008.367122217074, -10273.1746760815, -12334.273735794275, -12539.48510163845, 0.004625000000000001, -0.025687500000000002, 0.9884375, 192.0, 0.0, 0.0, 0.0, 0.0, 0.0, 0.0, 0.0, 0.0, 0.0, 1.6444991897031431E9, 0.0, 2022-02-11 00:19:49.703
66.0, -9571.195789718127, -11186.243437080793, -11054.278737816661, -17307.71569105574, -3204.882526979748, -1865.0966125841871, -6120.041742329806, -6695.710920776239, -17369.272395285654, -14967.510398329545, -20272.24990990757, -12479.940054409512, -7020.481767711851, -10270.023080113302, -12335.257212550308, -12530.745569556424, 0.0063125, -0.02684375, 0.9902187499999999, 192.0, 0.0, 32.0, 127.5, 16.0, 15.5, 0.0, 0.0, 0.0, 0.0, 1.64449918970315E9, 0.0, 2022-02-11 00:19:49.703
68.0, -9588.138412015249, -11201.152050632483, -11058.883197174455, -17309.637941078894, -3226.228442934566, -1883.7379674599133, -6136.202053570993, -6712.944115751281, -17373.318061032067, -14966.549273317967, -20285.772715303032, -12502.895295965112, -7032.976392862367, -10286.831591943694, -12342.476826009373, -12537.026409748365, 0.0063125, -0.02684375, 0.9902187499999999, 192.0, 0.0, 0.0, 0.0, 0.0, 0.0, 0.0, 0.0, 0.0, 0.0, 1.6444991897031565E9, 0.0, 2022-02-11 00:19:49.703
70.0, -9582.461068923601, -11193.30658832867, -11050.56834823708, -17302.060699708545, -3225.133207456256, -1881.5474965032931, -6115.906669605573, -6695.08507193149, -17369.38415400793, -14963.934119216696, -20299.608445120866, -12501.017749430866, -7043.660526712004, -10285.468135531919, -12348.556500501216, -12538.725142326968, 0.0063125, -0.02684375, 0.9902187499999999, 192.0, 0.0, 0.0, 0.0, 0.0, 0.0, 0.0, 0.0, 0.0, 0.0, 1.6444991897031648E9, 0.0, 2022-02-11 00:19:49.703
72.0, -9589.837144593852, -11201.26380935476, -11053.8093511831, -17303.22299042022, -3236.6667075951946, -1882.1286418591312, -6126.881376133129, -6702.192926668278, -17374.703869188295, -14964.694078528177, -20283.58224434641, -12490.959464425978, -7052.511817516305, -10278.31557730622, -12341.292183553242, -12532.421950390572, 0.0063125, -0.02684375, 0.9902187499999999, 192.0, 0.0, 0.0, 0.0, 0.0, 0.0, 0.0, 0.0, 0.0, 0.0, 1.6444991897031713E9, 0.0, 2022-02-11 00:19:49.703
74.0, -9601.057720310417, -11203.722501244843, -11062.14655186493, -17307.223952677723, -3254.6598618817166, -1894.6009152651925, -6134.905652392585, -6714.575793096518, -17377.721354689762, -14975.132343188805, -20306.001044035085, -12503.074109920753, -7065.967567678401, -10296.867525204127, -12351.417523791495, -12538.05458999331, 0.0063125, -0.02684375, 0.9902187499999999, 192.0, 0.0, 0.0, 0.0, 0.0, 0.0, 0.0, 0.0, 0.0, 0.0, 1.644499189703178E9, 0.0, 2022-02-11 00:19:49.703
76.0, -9601.258886010515, -11209.690417014412, -11060.313708819594, -17307.89450501138, -3256.5821119048733, -1890.3093803297736, -6138.7278006944425, -6704.785729025094, -17381.230578569244, -14978.350994390368, -20303.497648656088, -12502.515316309371, -7076.83051548368, -10298.834478716193, -12350.992840646844, -12536.71348532599, 0.01, -0.022, 0.99, 192.0, 0.0, 40.0, 127.5, 40.0, 15.0, 120.0, 0.0, 0.0, 0.0, 1.6444991897031844E9, 0.0, 2022-02-11 00:19:49.703
78.0, -9618.268563541003, -11223.950829976897, -11076.071688660586, -17312.633074835907, -3281.906638372736, -1912.325848618251, -6147.914367665573, -6712.340618650987, -17394.73103222025, -14984.520075860033, -20318.070986040948, -12506.896258222612, -7095.114242448121, -10307.663417776039, -12356.200797104932, -12544.938927285544, 0.01, -0.022, 0.99, 192.0, 0.0, 0.0, 0.0, 0.0, 0.0, 0.0, 0.0, 0.0, 0.0, 1.6444991897031913E9, 0.0, 2022-02-11 00:19:49.703
80.0, -9609.372569247791, -11207.946980946897, -11066.862769944999, -17299.333786885, -3282.711301173127, -1889.9294006740333, -6147.042649631817, -6702.0588162015465, -17383.39869778141, -14977.72514554562, -20322.92131458775, -12501.733005253436, -7100.992751239866, -10305.13767065259, -12363.331003586174, -12539.775674316368, 0.01, -0.022, 0.99, 192.0, 0.0, 0.0, 0.0, 0.0, 0.0, 0.0, 0.0, 0.0, 0.0, 1.6444991897032125E9, 0.0, 2022-02-11 00:19:49.703
82.0, -9618.492080985556, -11231.908051002985, -11072.741278736745, -17303.133583442403, -3303.945458405669, -1907.5425753048153, -6164.342899840224, -6717.481519875708, -17395.893322931926, -14974.4841425996, -20318.853297096884, -12489.931284181033, -7115.700199091459, -10307.819879987226, -12364.001555919833, -12538.076941737765, 0.01, -0.022, 0.99, 192.0, 0.0, 0.0, 0.0, 0.0, 0.0, 0.0, 0.0, 0.0, 0.0, 1.644499189703219E9, 0.0, 2022-02-11 00:19:49.703
84.0, -9634.630040482289, -11238.591222595123, -11082.888970719454, -17300.652539807863, -3321.3798190808084, -1914.6951335305137, -6175.36230985669, -6717.906203020359, -17395.401584553907, -14998.646378355788, -20341.294448530014, -12514.674665293058, -7134.006277800355, -10325.47775810692, -12377.792582248758, -12544.223671462974, 0.01, -0.022, 0.99, 192.0, 0.0, 0.0, 0.0, 0.0, 0.0, 0.0, 0.0, 0.0, 0.0, 1.6444991897032323E9, 0.0, 2022-02-11 00:19:49.703
86.0, -9624.258831055025, -11230.991629480319, -11075.222322371284, -17308.475650367218, -3317.7811882235037, -1904.7709589923572, -6164.208789373492, -6711.535955850596, -17397.323834577066, -14986.129401460816, -20332.73373040363, -12507.43270008954, -7144.5339494388045, -10317.14055742509, -12378.97722470489, -12540.468578394482, 0.01, -0.02, 0.99, 192.0, 0.0, 40.0, 127.5, 48.0, 15.0, 120.0, 0.0, 0.0, 0.0, 1.6444991897032511E9, 0.0, 2022-02-11 00:19:49.703
88.0, -9647.19172086617, -11234.210280681882, -11088.834534744565, -17309.66029282335, -3334.187368653699, -1918.4725783434606, -6166.823943474763, -6725.818720557538, -17403.87289570247, -14986.82230553893, -20341.272096785557, -12523.704770053002, -7155.6204146886375, -10329.724589553427, -12381.592378806161, -12544.603651118714, 0.01, -0.02, 0.99, 192.0, 0.0, 0.0, 0.0, 0.0, 0.0, 0.0, 0.0, 0.0, 0.0, 1.644499189703272E9, 0.0, 2022-02-11 00:19:49.703
90.0, -9641.648488241255, -11243.329792419649, -11085.705290520822, -17303.24534216468, -3329.2476331290763, -1909.1519009055974, -6158.464391048478, -6694.615685297929, -17402.39768056842, -14996.746480077087, -20357.07478011546, -12513.221801903463, -7168.517371239349, -10334.083179722213, -12381.145343917055, -12543.262546451397, 0.01, -0.02, 0.99, 192.0, 0.0, 0.0, 0.0, 0.0, 0.0, 0.0, 0.0, 0.0, 0.0, 1.644499189703279E9, 0.0, 2022-02-11 00:19:49.703
92.0, -9648.823398211409, -11246.526091876756, -11095.33889238106, -17305.65933056585, -3340.6246710568275, -1913.5775463077482, -6173.1271354111595, -6705.679798803306, -17410.176087638865, -15001.842677812896, -20353.207928324693, -12507.879734978646, -7173.859438164168, -10323.779025528316, -12379.446611338451, -12534.210089946997, 0.01, -0.02, 0.99, 192.0, 0.0, 0.0, 0.0, 0.0, 0.0, 0.0, 0.0, 0.0, 0.0, 1.6444991897032857E9, 0.0, 2022-02-11 00:19:49.703
94.0, -9658.032316926994, -11240.155844706995, -11099.362206383015, -17303.84883926497, -3357.8131625429587, -1916.907956231589, -6178.178629658059, -6717.794444298082, -17409.572590538573, -14997.998177766583, -20372.85511170091, -12521.089615951732, -7177.860400421668, -10328.092912208189, -12392.321216144708, -12542.81551156229, 0.01, -0.02, 0.99, 192.0, 0.0, 0.0, 0.0, 0.0, 0.0, 0.0, 0.0, 0.0, 0.0, 1.6444991897033048E9, 0.0, 2022-02-11 00:19:49.703
96.0, -9650.835055212387, -11243.03921974173, -11092.187296412862, -17308.654464322863, -3357.6343485873163, -1917.7796742653459, -6159.64903350461, -6706.216240670234, -17409.907866705402, -14989.72803231812, -20361.299259817515, -12512.95358097, -7193.059586651277, -10332.429150632519, -12391.583608577683, -12539.82037780528, 0.008, -0.024, 0.99, 192.0, 0.0, 32.0, 127.5, 32.0, 15.0, 120.0, 0.0, 0.0, 0.0, 1.6444991897033112E9, 0.0, 2022-02-11 00:19:49.703
98.0, -9674.863180501841, -11267.80495259821, -11110.135747210474, -17309.772051545628, -3384.0988140224, -1936.8904157746335, -6183.923027983074, -6720.968392010736, -17417.55216330912, -15005.038977270005, -20374.777361724064, -12525.448206120516, -7206.090653668721, -10341.928642026025, -12398.937332503478, -12547.777598831368, 0.008, -0.024, 0.99, 192.0, 0.0, 0.0, 0.0, 0.0, 0.0, 0.0, 0.0, 0.0, 0.0, 1.644499189703318E9, 0.0, 2022-02-11 00:19:49.703
100.0, -9662.703831518154, -11263.938100807442, -11099.026930216185, -17301.032519463603, -3383.1823924997325, -1924.3510871352062, -6183.431289605056, -6710.775996539116, -17417.48510807575, -15009.822250583442, -20386.355565351914, -12527.616325332681, -7215.679552040047, -10335.245470433889, -12408.526230874806, -12544.380133674162, 0.008, -0.024, 0.99, 192.0, 0.0, 0.0, 0.0, 0.0, 0.0, 0.0, 0.0, 0.0, 0.0, 1.6444991897033243E9, 0.0, 2022-02-11 00:19:49.703
102.0, -9674.706718290654, -11260.115952505583, -11100.725662794788, -17298.46206885124, -3392.190145515221, -1928.0391249703318, -6186.337016384246, -6715.939249508292, -17420.703759277316, -15003.384948180314, -20374.062105901492, -12515.367569371174, -7220.820453264768, -10337.90532802407, -12402.491259871873, -12537.607555104203, 0.008, -0.024, 0.99, 192.0, 0.0, 0.0, 0.0, 0.0, 0.0, 0.0, 0.0, 0.0, 0.0, 1.6444991897033324E9, 0.0, 2022-02-11 00:19:49.703
104.0, -9699.606561613866, -11277.237388758349, -11111.29803792215, -17297.992682217682, -3398.67215140726, -1931.5707005942704, -6182.000777959916, -6709.837223271993, -17426.045826202135, -15006.134212748315, -20398.626673057875, -12531.930212012556, -7234.320906915773, -10350.735229341415, -12410.806108809247, -12537.741665570935, 0.008, -0.024, 0.99, 192.0, 0.0, 0.0, 0.0, 0.0, 0.0, 0.0, 0.0, 0.0, 0.0, 1.644499189703339E9, 0.0, 2022-02-11 00:19:49.703
106.0, -9707.720244851142, -11295.588170956156, -11109.375787898993, -17300.294911896577, -3397.6216194178605, -1924.328735390751, -6190.874420508674, -6704.696322047273, -17433.757178039217, -15016.326608219935, -20396.212684656704, -12521.29078165183, -7245.116799487687, -10356.256110221877, -12406.983960507388, -12534.657124836103, 0.004, -0.022, 0.99, 192.0, 0.0, 16.0, 127.5, 40.0, 15.0, 120.0, 0.0, 0.0, 0.0, 1.6444991897033455E9, 0.0, 2022-02-11 00:19:49.703
108.0, -9749.070972093461, -11330.188671372971, -11117.847099047554, -17304.586446831996, -3424.0413813640334, -1938.4773896309603, -6201.89383052514, -6714.352275651965, -17448.486977635264, -15033.02336132805, -20413.13295520937, -12528.443339877527, -7259.377212450173, -10361.776991102337, -12410.40377740905, -12537.942831271033, 0.004, -0.022, 0.99, 192.0, 0.0, 0.0, 0.0, 0.0, 0.0, 0.0, 0.0, 0.0, 0.0, 1.644499189703352E9, 0.0, 2022-02-11 00:19:49.703
110.0, -9765.343042056924, -11349.38881986008, -11112.974418756297, -17299.51260084064, -3421.537985985039, -1929.939023249033, -6203.950191015028, -6716.095711719479, -17453.002030015236, -15043.841605644418, -20430.94729554025, -12543.843691807235, -7269.971939321988, -10361.32995621323, -12415.231754211398, -12538.456921393505, 0.004, -0.022, 0.99, 192.0, 0.0, 0.0, 0.0, 0.0, 0.0, 0.0, 0.0, 0.0, 0.0, 1.644499189703359E9, 0.0, 2022-02-11 00:19:49.703
112.0, -9812.728740302175, -11396.841573338697, -11122.071578749606, -17308.296836411577, -3433.96555590219, -1932.8894535171335, -6209.493423639944, -6723.963525767747, -17462.210948730823, -15044.959192867183, -20424.509993137122, -12544.648354607625, -7275.381061480172, -10357.843084078204, -12413.26480069933, -12537.853424293211, 0.004, -0.022, 0.99, 192.0, 0.0, 0.0, 0.0, 0.0, 0.0, 0.0, 0.0, 0.0, 0.0, 1.644499189703365E9, 0.0, 2022-02-11 00:19:49.703
114.0, -9868.183418295792, -11444.383733795135, -11132.845119577065, -17310.42025213483, -3446.5272362860724, -1945.1829129675525, -6209.225202706481, -6708.13849069339, -17492.98930084578, -15073.055335647505, -20468.05119133606, -12572.29746249884, -7293.888305889167, -10372.52818018534, -12424.574783393715, -12538.613383604692, 0.004, -0.022, 0.99, 192.0, 0.0, 0.0, 0.0, 0.0, 0.0, 0.0, 0.0, 0.0, 0.0, 1.6444991897033715E9, 0.0, 2022-02-11 00:19:49.703
116.0, -9892.792688941085, -11473.977443453961, -11125.469043906814, -17311.80606029106, -3439.3299745714635, -1940.6008053542146, -6210.3427899292465, -6708.13849069339, -17499.89598988247, -15077.816257216486, -20469.995793103673, -12575.15848578912, -7297.710454191024, -10377.020880820857, -12421.423187425517, -12535.327677169762, 0.002, -0.02, 0.99, 192.0, 0.0, 8.0, 127.5, 48.0, 15.0, 120.0, 0.0, 0.0, 0.0, 1.6444991897033784E9, 0.0, 2022-02-11 00:19:49.703
118.0, -9940.513663353166, -11503.012359501405, -11143.484549937792, -17315.047063237078, -3461.614663793405, -1948.356860680206, -6219.283487711369, -6707.579697082007, -17523.857059938557, -15078.285643850048, -20492.034613136606, -12585.909674872122, -7312.149681109153, -10383.458183223986, -12423.07721651521, -12537.518148126383, 0.002, -0.02, 0.99, 192.0, 0.0, 0.0, 0.0, 0.0, 0.0, 0.0, 0.0, 0.0, 0.0, 1.644499189703385E9, 0.0, 2022-02-11 00:19:49.703
120.0, -9943.620555832453, -11533.097807538248, -11140.824692347609, -17319.47270863923, -3463.380451605374, -1943.3277181777619, -6217.316534199302, -6702.036464457091, -17523.36532156054, -15092.344891112434, -20507.971406933237, -12599.007797122931, -7317.670561989613, -10392.465936239474, -12433.180205009008, -12538.009886504398, 0.002, -0.02, 0.99, 192.0, 0.0, 0.0, 0.0, 0.0, 0.0, 0.0, 0.0, 0.0, 0.0, 1.644499190183731E9, 0.0, 2022-02-11 00:19:50.183
122.0, -9951.756590814184, -11525.18529000107, -11151.374715730515, -17327.67579885433, -3479.384300635374, -1950.8602560592005, -6235.957889075028, -6710.999513983669, -17538.720970001337, -15112.550868100032, -20506.67500575483, -12594.8727243987, -7340.379934356205, -10372.86345635217, -12429.514518918339, -12536.400560903618, 0.002, -0.02, 0.99, 192.0, 0.0, 0.0, 0.0, 0.0, 0.0, 0.0, 0.0, 0.0, 0.0, 1.644499190183925E9, 0.0, 2022-02-11 00:19:50.183
124.0, -9956.249291449702, -11532.069627293306, -11156.560320444147, -17322.80311856307, -3497.4668618997175, -1971.423860958083, -6232.4710169400005, -6722.890642033893, -17536.172871133433, -15118.474080380689, -20524.198773407792, -12611.413015295628, -7349.745315282979, -10414.34829406122, -12444.087856303198, -12544.983630774455, 0.002, -0.02, 0.99, 192.0, 0.0, 0.0, 0.0, 0.0, 0.0, 0.0, 0.0, 0.0, 0.0, 1.6444991901839318E9, 0.0, 2022-02-11 00:19:50.183
126.0, -9926.365009112957, -11489.578961083766, -11149.54187268518, -17311.739005057694, -3488.995550751156, -1955.19649448353, -6235.555557674833, -6709.814871527537, -17540.307943857664, -15107.70053955323, -20515.638055281408, -12595.9232563881, -7365.726812568523, -10411.48727077094, -12443.171434780532, -12538.345162671229, 0.008, -0.022, 0.992, 192.0, 0.0, 32.0, 127.5, 40.0, 15.5, 0.0, 0.0, 0.0, 0.0, 1.6444991901839392E9, 0.0, 2022-02-11 00:19:50.183
128.0, -9917.91604970885, -11488.930760494562, -11158.147294300474, -17312.543667858085, -3505.737007348181, -1959.6668433745915, -6252.922863116606, -6722.734179822705, -17532.887164698503, -15087.472210821177, -20510.3406918455, -12589.575360962792, -7365.816219546345, -10408.961523647491, -12442.70204814697, -12538.14399697113, 0.008, -0.022, 0.992, 192.0, 0.0, 0.0, 0.0, 0.0, 0.0, 0.0, 0.0, 0.0, 0.0, 1.644499190183946E9, 0.0, 2022-02-11 00:19:50.183
130.0, -9895.76547095364, -11467.070754417271, -11151.709991897344, -17313.14716495838, -3505.8487660704573, -1963.3101777208065, -6247.156113047137, -6719.649639087873, -17520.75016745927, -15090.5120480671, -20516.040386681605, -12588.457773740027, -7371.426507404627, -10408.246267824921, -12449.094647061187, -12542.435531906549, 0.008, -0.022, 0.992, 192.0, 0.0, 0.0, 0.0, 0.0, 0.0, 0.0, 0.0, 0.0, 0.0, 1.6444991901839583E9, 0.0, 2022-02-11 00:19:50.183
132.0, -9892.90444766336, -11461.147542136616, -11155.040401821185, -17319.29389468359, -3519.50568193265, -1977.905866850122, -6260.991842864972, -6725.595203112985, -17516.79390869068, -15093.03779519055, -20502.182305119313, -12578.48889571296, -7377.103850496274, -10420.830299953259, -12448.84877787218, -12545.162444730096, 0.008, -0.022, 0.992, 192.0, 0.0, 0.0, 0.0, 0.0, 0.0, 0.0, 0.0, 0.0, 0.0, 1.6444991901839652E9, 0.0, 2022-02-11 00:19:50.183
134.0, -9881.169781824325, -11440.69569596001, -11161.343593757581, -17311.42608063532, -3539.9798798537113, -1976.005968571421, -6276.883933172695, -6739.609746886462, -17512.345911544075, -15094.89298998034, -20515.68275877032, -12580.791125391857, -7389.956103558076, -10425.032427910857, -12459.599966955182, -12552.359706444706, 0.008, -0.022, 0.992, 192.0, 0.0, 0.0, 0.0, 0.0, 0.0, 0.0, 0.0, 0.0, 0.0, 1.6444991901839776E9, 0.0, 2022-02-11 00:19:50.183
136.0, -9860.941453092271, -11424.31186727427, -11153.051096564663, -17312.543667858085, -3541.924481621323, -1971.2673987468959, -6281.868372186229, -6735.675839862328, -17504.008710862247, -15081.861922962897, -20502.67404349733, -12575.091430555753, -7397.622751906247, -10413.945962661024, -12460.56109196676, -12546.235328463952, 0.01, -0.02, 0.994, 192.0, 0.0, 40.0, 127.5, 48.0, 15.5, 8.0, 0.0, 0.0, 0.0, 1.6444991901839843E9, 0.0, 2022-02-11 00:19:50.183
138.0, -9879.00166261216, -11421.853175384185, -11173.88292239701, -17324.47949939722, -3565.6843859773144, -1983.4267477305827, -6277.867409928729, -6733.641831116895, -17511.787117932694, -15082.152495640816, -20514.408709336367, -12570.8669508537, -7415.057112581386, -10416.650523740116, -12469.881769404623, -12551.95737504451, 0.01, -0.02, 0.994, 192.0, 0.0, 0.0, 0.0, 0.0, 0.0, 0.0, 0.0, 0.0, 0.0, 1.6444991901839907E9, 0.0, 2022-02-11 00:19:50.183
140.0, -9859.130961791392, -11414.119471802649, -11168.11617232754, -17313.169516702834, -3561.504609764172, -1981.5044977074265, -6279.633197740698, -6734.670011361839, -17513.731719700303, -15087.025175932073, -20530.524317088642, -12583.115706815208, -7426.478853998048, -10435.180119893566, -12478.867170675656, -12551.398581433128, 0.01, -0.02, 0.994, 192.0, 0.0, 0.0, 0.0, 0.0, 0.0, 0.0, 0.0, 0.0, 0.0, 1.6444991901839976E9, 0.0, 2022-02-11 00:19:50.183
142.0, -9852.961880321727, -11405.335236231713, -11167.333861271603, -17316.321112671034, -3568.0089674006663, -1980.163393040108, -6286.495183288477, -6725.9528310242695, -17509.574295231618, -15076.65396650481, -20511.055947668072, -12564.340241472752, -7429.071656354864, -10431.357971591708, -12472.049888616788, -12545.631831363658, 0.01, -0.02, 0.994, 192.0, 0.0, 0.0, 0.0, 0.0, 0.0, 0.0, 0.0, 0.0, 0.0, 1.644499190184004E9, 0.0, 2022-02-11 00:19:50.184
144.0, -9851.017278554116, -11391.141878502594, -11169.680794439411, -17311.42608063532, -3585.2645141201633, -1996.0778350922867, -6296.508764804455, -6741.844921331993, -17502.42173700592, -15069.590815256932, -20522.29887512909, -12576.38783173416, -7433.229080823551, -10435.135416404655, -12478.151914853086, -12552.046782022331, 0.01, -0.02, 0.994, 192.0, 0.0, 0.0, 0.0, 0.0, 0.0, 0.0, 0.0, 0.0, 0.0, 1.6444991901840105E9, 0.0, 2022-02-11 00:19:50.184
146.0, -9837.85210106994, -11391.745375602886, -11165.836294393099, -17307.76039454465, -3584.7727757421467, -1991.0710443342978, -6310.746826022485, -6737.151054996379, -17500.231266049297, -15067.713268722686, -20515.459241325767, -12563.714392628002, -7450.238758354039, -10450.871044501191, -12480.700013720993, -12547.688191853547, 0.008, -0.016, 0.994, 192.0, 0.0, 32.0, 127.5, 64.0, 15.5, 8.0, 0.0, 0.0, 0.0, 1.6444991901840172E9, 0.0, 2022-02-11 00:19:50.184
148.0, -9852.894825088362, -11391.25363722487, -11184.388242291003, -17314.175345203323, -3607.9291829978447, -2004.6385532186691, -6306.3882358537, -6745.443552189297, -17507.1826585749, -15088.321577110479, -20527.082148442525, -12570.844599109245, -7462.062831170897, -10443.986707208956, -12488.456069046983, -12550.571566888282, 0.008, -0.016, 0.994, 192.0, 0.0, 0.0, 0.0, 0.0, 0.0, 0.0, 0.0, 0.0, 0.0, 1.6444991901840236E9, 0.0, 2022-02-11 00:19:50.184
150.0, -9828.576127120987, -11367.538436357789, -11173.905274141463, -17310.75552830166, -3602.0283224616437, -1994.3791025136834, -6311.327971378323, -6736.033467773613, -17505.41687076293, -15080.766687484585, -20539.844994526506, -12577.304253256829, -7470.489438830547, -10449.708753789515, -12495.206295872485, -12553.231424478463, 0.008, -0.016, 0.994, 192.0, 0.0, 0.0, 0.0, 0.0, 0.0, 0.0, 0.0, 0.0, 0.0, 1.6444991901840303E9, 0.0, 2022-02-11 00:19:50.184
152.0, -9828.196147465247, -11359.625918820611, -11176.654538709467, -17311.71665331324, -3613.4500638783056, -2000.5928874722586, -6333.836178044818, -6735.318211951043, -17498.197257303866, -15062.125332608859, -20520.48838382821, -12565.189607762053, -7466.466124828592, -10442.802064752826, -12490.154801625587, -12547.86700580919, 0.008, -0.016, 0.994, 192.0, 0.0, 0.0, 0.0, 0.0, 0.0, 0.0, 0.0, 0.0, 0.0, 1.6444991901840367E9, 0.0, 2022-02-11 00:19:50.184
154.0, -9831.392446922357, -11380.72596558642, -11166.797419404676, -17307.96156024475, -3616.556956357593, -1996.3460560257504, -6299.749767750474, -6736.078171262524, -17496.811449147637, -15068.450876289711, -20534.569982835055, -12566.910692085112, -7476.680872044668, -10450.692230545548, -12497.32971159574, -12550.683325610558, 0.01, -0.015, 0.993, 192.0, 0.0, 48.0, 127.5, 72.0, 15.5, 0.0, 0.0, 0.0, 0.0, 1.6444991901840434E9, 0.0, 2022-02-11 00:19:50.184
156.0, -9817.355551404424, -11365.616186334633, -11163.310547269648, -17306.66515906634, -3614.85822377899, -1990.6687129341024, -6305.918849220139, -6735.2288049732215, -17489.167152543923, -15067.445047789222, -20520.555439061576, -12550.0127732769, -7475.406822610716, -10441.282146129864, -12489.171324869552, -12541.04972375032, 0.01, -0.015, 0.993, 192.0, 0.0, 0.0, 0.0, 0.0, 0.0, 0.0, 0.0, 0.0, 0.0, 1.64449919018405E9, 0.0, 2022-02-11 00:19:50.184
158.0, -9827.078560242482, -11358.217758919925, -11181.54957074518, -17311.917819013335, -3639.2663287241853, -2015.6579632351356, -6327.06359947486, -6761.559159941574, -17496.2303037918, -15065.768666955075, -20528.02092170965, -12550.884491310657, -7482.514677347503, -10450.424009612085, -12499.654293019092, -12552.091485511242, 0.01, -0.015, 0.993, 192.0, 0.0, 0.0, 0.0, 0.0, 0.0, 0.0, 0.0, 0.0, 0.0, 1.6444991901840563E9, 0.0, 2022-02-11 00:19:50.184
160.0, -9819.903650272328, -11348.539453570778, -11177.459201509859, -17303.737080542694, -3647.804695106113, -2012.5734225003032, -6333.366791411257, -6753.557235426573, -17497.146725314466, -15067.780323956053, -20539.889698015417, -12560.026354792877, -7498.987913011064, -10468.014832498411, -12515.255810648896, -12560.004003048422, 0.01, -0.015, 0.993, 192.0, 0.0, 0.0, 0.0, 0.0, 0.0, 0.0, 0.0, 0.0, 0.0, 1.6444991901840632E9, 0.0, 2022-02-11 00:19:50.184
162.0, -9815.254487425624, -11341.923337212007, -11175.715765442344, -17308.922685256326, -3655.4713434542828, -2014.6521347346468, -6360.21123650208, -6759.592206429506, -17496.185600302888, -15065.433390788245, -20521.44950883979, -12546.369438930684, -7505.067587502907, -10457.755381793426, -12512.95358097, -12556.047744279831, 0.01, -0.015, 0.993, 192.0, 0.0, 0.0, 0.0, 0.0, 0.0, 0.0, 0.0, 0.0, 0.0, 1.6444991901840696E9, 0.0, 2022-02-11 00:19:50.184
164.0, -9825.625696852887, -11355.736715285388, -11189.327977815627, -17309.928513756815, -3666.378994748473, -2026.900890696155, -6363.519294681465, -6762.721450653249, -17493.279873523697, -15071.490713535633, -20537.810985781074, -12555.645412879636, -7510.432006172181, -10464.080925474278, -12522.900107252612, -12565.860160095712, 0.009000000000000001, -0.0155, 0.9924999999999999, 192.0, 0.0, 32.0, 127.5, 64.0, 15.5, 0.0, 0.0, 0.0, 0.0, 1.6444991901840763E9, 0.0, 2022-02-11 00:19:50.184
166.0, -9818.540193860556, -11350.01466870483, -11181.34840504508, -17312.454260880266, -3667.63069243797, -2027.616146518725, -6362.759335369985, -6772.690328680316, -17498.621940448516, -15067.713268722686, -20537.229840425236, -12554.214901234496, -7519.484462676581, -10479.391870426163, -12522.900107252612, -12564.407296706117, 0.009000000000000001, -0.0155, 0.9924999999999999, 192.0, 0.0, 0.0, 0.0, 0.0, 0.0, 0.0, 0.0, 0.0, 0.0, 1.6444991901840992E9, 0.0, 2022-02-11 00:19:50.184
168.0, -9831.370095177901, -11347.19834890346, -11194.915913929453, -17310.42025213483, -3689.401291537439, -2037.1379896566857, -6377.936169855138, -6773.070308336057, -17507.473231252818, -15070.395478057324, -20544.091825973013, -12557.567662902793, -7536.516491951525, -10479.861257059725, -12524.777653786858, -12571.045764809343, 0.009000000000000001, -0.0155, 0.9924999999999999, 192.0, 0.0, 0.0, 0.0, 0.0, 0.0, 0.0, 0.0, 0.0, 0.0, 1.644499190184106E9, 0.0, 2022-02-11 00:19:50.184
170.0, -9817.266144426601, -11337.564747043223, -11191.205524349873, -17307.112193955447, -3685.892067657956, -2032.0864954097863, -6371.275350007457, -6771.192761801811, -17500.901818382958, -15071.244844346626, -20551.534956876632, -12553.834921578757, -7546.597128700868, -10480.688271604571, -12531.48317712345, -12567.715354885502, 0.009000000000000001, -0.0155, 0.9924999999999999, 192.0, 0.0, 0.0, 0.0, 0.0, 0.0, 0.0, 0.0, 0.0, 0.0, 1.6444991901841128E9, 0.0, 2022-02-11 00:19:50.184
172.0, -9829.201975965736, -11345.186691902481, -11195.608818007568, -17312.029577735615, -3693.9163439174113, -2039.5296263134035, -6384.574637958364, -6769.0916978230125, -17505.573332974116, -15075.625786259865, -20544.896488773407, -12547.10704649771, -7554.219073560128, -10482.0740797608, -12527.079883465754, -12566.06132579581, 0.009000000000000001, -0.0155, 0.9924999999999999, 192.0, 0.0, 0.0, 0.0, 0.0, 0.0, 0.0, 0.0, 0.0, 0.0, 1.6444991901841197E9, 0.0, 2022-02-11 00:19:50.184
174.0, -9836.913327802817, -11348.964136715429, -11202.783727977721, -17303.80413577606, -3699.526631775693, -2040.6248617917136, -6388.463841493588, -6764.487238465219, -17508.36730103103, -15078.643271761332, -20566.041239028127, -12566.217788006996, -7558.510608495547, -10494.971036311512, -12533.293668424329, -12566.016622306899, 0.0105, -0.01675, 0.99125, 192.0, 0.0, 48.0, 127.5, 56.0, 15.0, 120.0, 0.0, 0.0, 0.0, 1.6444991901841264E9, 0.0, 2022-02-11 00:19:50.184
176.0, -9822.27293518459, -11337.29652610976, -11194.200658106884, -17303.17828693131, -3688.7083874593245, -2025.3362685842835, -6378.226742533057, -6746.3152702230545, -17501.79588816117, -15063.734658209642, -20553.904241788896, -12555.556005901815, -7549.324041524415, -10498.167335768621, -12524.867060764678, -12557.277090224874, 0.0105, -0.01675, 0.99125, 192.0, 0.0, 0.0, 0.0, 0.0, 0.0, 0.0, 0.0, 0.0, 0.0, 1.644499190184133E9, 0.0, 2022-02-11 00:19:50.184
178.0, -9835.23694696867, -11350.14877917156, -11211.947943204397, -17306.396938132875, -3709.8084342251345, -2039.2167018910293, -6384.217010047079, -6759.502799451685, -17508.18848707539, -15067.825027444964, -20560.341544192022, -12550.705677355014, -7560.745782941078, -10485.806821084836, -12526.185813687542, -12559.53461641486, 0.0105, -0.01675, 0.99125, 192.0, 0.0, 0.0, 0.0, 0.0, 0.0, 0.0, 0.0, 0.0, 0.0, 1.6444991901841397E9, 0.0, 2022-02-11 00:19:50.184
180.0, -9832.130054489382, -11349.277061137804, -11196.033501152218, -17299.199676418266, -3711.596573781559, -2033.4276000771047, -6392.509507239999, -6759.636909918418, -17509.395481275973, -15083.068917163482, -20572.433837942343, -12552.002078533422, -7571.362861557349, -10495.909809578636, -12537.540499870838, -12563.803799605823, 0.0105, -0.01675, 0.99125, 192.0, 0.0, 0.0, 0.0, 0.0, 0.0, 0.0, 0.0, 0.0, 0.0, 1.6444991901841464E9, 0.0, 2022-02-11 00:19:50.184
182.0, -9827.436188153766, -11346.81836924772, -11195.921742429942, -17304.05000496507, -3711.1048354035424, -2033.6511175216579, -6395.16936483018, -6754.987747071713, -17509.03785336469, -15079.626748517365, -20554.373628422454, -12544.67070635208, -7573.195704602684, -10486.902056563147, -12533.226613190964, -12560.942776315544, 0.0105, -0.01675, 0.99125, 192.0, 0.0, 0.0, 0.0, 0.0, 0.0, 0.0, 0.0, 0.0, 0.0, 1.6444991901841533E9, 0.0, 2022-02-11 00:19:50.184
184.0, -9834.23111846818, -11343.130331412594, -11205.711806501366, -17302.887714253393, -3723.2641843872293, -2034.7910564888784, -6385.69222518113, -6754.719526138249, -17503.60637946205, -15084.767649742085, -20569.3045937186, -12559.19934024803, -7576.012024404053, -10494.41224270013, -12538.8592527937, -12560.808665848812, 0.00725, -0.017375, 0.990625, 192.0, 0.0, 16.0, 127.5, 56.0, 15.0, 120.0, 0.0, 0.0, 0.0, 1.64449919018416E9, 0.0, 2022-02-11 00:19:50.184
186.0, -9825.51393813061, -11339.039962177272, -11197.620475008545, -17303.60297007596, -3716.0222191837097, -2022.229376104996, -6379.634902433741, -6750.71856388075, -17501.572370716618, -15079.537341539544, -20561.325020948057, -12554.147846001131, -7580.817649461944, -10484.733937350982, -12533.226613190964, -12555.265433223896, 0.00725, -0.017375, 0.990625, 192.0, 0.0, 0.0, 0.0, 0.0, 0.0, 0.0, 0.0, 0.0, 0.0, 1.6444991901841674E9, 0.0, 2022-02-11 00:19:50.184
188.0, -9848.849159341951, -11350.752276271854, -11209.712768758865, -17304.42998462081, -3733.2554141587516, -2042.8153327483337, -6384.217010047079, -6755.434781960819, -17515.586914490093, -15081.07961190696, -20573.126742020457, -12555.57835764627, -7589.35601584387, -10485.672710618104, -12535.037104491843, -12558.48408442546, 0.00725, -0.017375, 0.990625, 192.0, 0.0, 0.0, 0.0, 0.0, 0.0, 0.0, 0.0, 0.0, 0.0, 1.6444991901841745E9, 0.0, 2022-02-11 00:19:50.184
190.0, -9840.511958660121, -11338.7270377549, -11204.460108811869, -17296.070432194523, -3734.9764984818103, -2037.1156379122303, -6394.319998540878, -6758.876950606937, -17513.642312722484, -15080.587873528943, -20583.967338081282, -12555.935985557555, -7600.867164238354, -10515.780510399403, -12543.597822618225, -12558.215863491996, 0.00725, -0.017375, 0.990625, 192.0, 0.0, 0.0, 0.0, 0.0, 0.0, 0.0, 0.0, 0.0, 0.0, 1.6444991901841815E9, 0.0, 2022-02-11 00:19:50.184
192.0, -9845.51874941811, -11349.500578582356, -11207.343483846604, -17299.445545607276, -3739.5139026062375, -2032.5782337878031, -6400.287914310446, -6760.24040701871, -17517.46446102434, -15075.31286183749, -20574.534901921143, -12546.212976719497, -7601.001274705086, -10503.487050948985, -12538.8592527937, -12552.113837255698, 0.00725, -0.017375, 0.990625, 192.0, 0.0, 0.0, 0.0, 0.0, 0.0, 0.0, 0.0, 0.0, 0.0, 1.644499190184188E9, 0.0, 2022-02-11 00:19:50.184
194.0, -9859.555644936043, -11359.87178800962, -11218.541707818713, -17298.46206885124, -3754.534274880204, -2039.8201989913225, -6409.69799872613, -6762.3414709975095, -17519.789042447694, -15092.680167279264, -20592.572759696577, -12565.748401373436, -7606.768024774555, -10505.83398411679, -12547.174101731074, -12555.041915779342, 0.007625, -0.0196875, 0.9903124999999999, 192.0, 0.0, 32.0, 127.5, 40.0, 15.0, 120.0, 0.0, 0.0, 0.0, 1.6444991901841948E9, 0.0, 2022-02-11 00:19:50.184
196.0, -9845.004659295639, -11355.446142607469, -11200.682663998921, -17296.293949639075, -3750.8909405339887, -2030.6112802757361, -6405.697036468629, -6762.676747164339, -17516.61509473504, -15084.611187530898, -20579.631099656952, -12553.566700645293, -7608.913792242264, -10511.041940574878, -12549.141055243143, -12552.538520400349, 0.007625, -0.0196875, 0.9903124999999999, 192.0, 0.0, 0.0, 0.0, 0.0, 0.0, 0.0, 0.0, 0.0, 0.0, 1.6444991901842017E9, 0.0, 2022-02-11 00:19:50.184
198.0, -9861.14261879237, -11359.24593916487, -11211.635018782023, -17299.400842118364, -3765.8666093190445, -2037.2497483789623, -6414.950658673127, -6767.48237222223, -17522.158327359954, -15094.84828649143, -20583.028564814158, -12552.069133766787, -7616.714551057166, -10507.666827162127, -12545.453017408016, -12553.969032045488, 0.007625, -0.0196875, 0.9903124999999999, 192.0, 0.0, 0.0, 0.0, 0.0, 0.0, 0.0, 0.0, 0.0, 0.0, 1.6444991901842103E9, 0.0, 2022-02-11 00:19:50.184
200.0, -9849.698525631253, -11344.694953524466, -11205.622399523545, -17296.22689440571, -3760.211617971852, -2030.4101145756383, -6403.50656551201, -6749.846845846992, -17518.112661613544, -15090.377937600368, -20597.423088243377, -12560.383982704161, -7621.296658670504, -10505.65517016115, -12549.185758732052, -12552.33735470025, 0.007625, -0.0196875, 0.9903124999999999, 192.0, 0.0, 0.0, 0.0, 0.0, 0.0, 0.0, 0.0, 0.0, 0.0, 1.6444991901842172E9, 0.0, 2022-02-11 00:19:50.184
202.0, -9845.295231973558, -11338.90585171054, -11205.510640801269, -17298.193847917777, -3765.5089814077596, -2032.7123442545349, -6420.292725597946, -6763.213189031267, -17521.912458170948, -15073.591777514432, -20585.956643337806, -12541.72027608398, -7624.269440683061, -10508.873821362713, -12539.418046405084, -12551.644450622136, 0.007625, -0.0196875, 0.9903124999999999, 192.0, 0.0, 0.0, 0.0, 0.0, 0.0, 0.0, 0.0, 0.0, 0.0, 1.6444991901842248E9, 0.0, 2022-02-11 00:19:50.184
204.0, -9865.657671172343, -11354.507369340345, -11216.910030473475, -17292.51650482613, -3780.730519381824, -2036.7580100009454, -6410.815585948895, -6756.373555227942, -17519.766690703236, -15087.114582909893, -20599.904131877916, -12549.208110476507, -7628.27040294056, -10519.066216834333, -12548.761075587401, -12557.344145458239, 0.0078125, -0.022843750000000003, 0.99115625, 192.0, 0.0, 32.0, 127.5, 24.0, 15.5, 0.0, 0.0, 0.0, 0.0, 1.6444991901842313E9, 0.0, 2022-02-11 00:19:50.184
206.0, -9853.543025677565, -11359.760029287343, -11209.064568169662, -17290.370737358422, -3772.862705333556, -2020.9553266710434, -6406.814623691395, -6738.358049196965, -17523.074748882624, -15090.266178878092, -20596.529018465164, -12551.040953521842, -7635.825292566454, -10510.55020219686, -12545.140092985643, -12548.224633720474, 0.0078125, -0.022843750000000003, 0.99115625, 192.0, 0.0, 0.0, 0.0, 0.0, 0.0, 0.0, 0.0, 0.0, 0.0, 1.6444991901842382E9, 0.0, 2022-02-11 00:19:50.184
208.0, -9864.405973482844, -11357.39074437508, -11218.117024674062, -17291.175400158812, -3783.323321738639, -2033.6511175216579, -6415.352990073323, -6756.842941861504, -17525.980475661814, -15090.869675978385, -20598.518323721688, -12549.543386643338, -7634.08185649894, -10514.238240031988, -12545.274203452374, -12551.063305266298, 0.0078125, -0.022843750000000003, 0.99115625, 192.0, 0.0, 0.0, 0.0, 0.0, 0.0, 0.0, 0.0, 0.0, 0.0, 1.6444991901842449E9, 0.0, 2022-02-11 00:19:50.184
210.0, -9857.298118746057, -11353.278023395304, -11209.153975147483, -17283.08406866599, -3780.4399467039048, -2019.9271464260992, -6414.570679017387, -6741.397886442886, -17517.397405790976, -15091.316710867492, -20604.597998213532, -12548.604613376214, -7640.563862390979, -10518.596830200771, -12548.090523253743, -12550.0127732769, 0.0078125, -0.022843750000000003, 0.99115625, 192.0, 0.0, 0.0, 0.0, 0.0, 0.0, 0.0, 0.0, 0.0, 0.0, 1.644499190184265E9, 0.0, 2022-02-11 00:19:50.184
212.0, -9856.09112454547, -11350.372296616113, -11212.50673681578, -17292.51650482613, -3780.104670537075, -2016.842605691267, -6420.516243042498, -6746.918767323347, -17524.19233610539, -15077.279815349559, -20596.998405098726, -12541.742627828435, -7642.463760669681, -10494.568704911317, -12539.663915594092, -12543.217842962486, 0.0078125, -0.022843750000000003, 0.99115625, 192.0, 0.0, 0.0, 0.0, 0.0, 0.0, 0.0, 0.0, 0.0, 0.0, 1.6444991901842713E9, 0.0, 2022-02-11 00:19:50.184
214.0, -9862.371964737411, -11340.537529055779, -11219.368722363559, -17288.202618146257, -3791.5040602092818, -2019.9271464260992, -6420.695056998141, -6736.94988929628, -17522.18067910441, -15083.292434608036, -20612.823440173084, -12548.895186054133, -7648.789304350532, -10513.500632464962, -12545.117741241187, -12548.492854653938, 0.00690625, -0.022421875, 0.990578125, 192.0, 0.0, 24.0, 127.5, 40.0, 15.0, 120.0, 0.0, 0.0, 0.0, 1.6444991901842787E9, 0.0, 2022-02-11 00:19:50.184
216.0, -9846.99396455216, -11330.501595795346, -11206.762338490766, -17281.765315743127, -3785.536144439715, -2014.6968382235575, -6421.611478520808, -6739.386229441909, -17515.51985925673, -15074.664661248287, -20595.612596942497, -12534.299496924818, -7646.420019438269, -10507.063330061834, -12540.021543505376, -12541.809683061801, 0.00690625, -0.022421875, 0.990578125, 192.0, 0.0, 0.0, 0.0, 0.0, 0.0, 0.0, 0.0, 0.0, 0.0, 1.6444991901842852E9, 0.0, 2022-02-11 00:19:50.184
218.0, -9871.849104386461, -11350.774628016308, -11221.581545064635, -17290.90717922535, -3801.9646766143655, -2034.1875593885852, -6411.441434793644, -6743.364839954954, -17524.460557038852, -15088.768611999585, -20601.714623178796, -12544.536595885349, -7654.6231096533675, -10520.966115113035, -12540.759151072401, -12548.314040698295, 0.00690625, -0.022421875, 0.990578125, 192.0, 0.0, 0.0, 0.0, 0.0, 0.0, 0.0, 0.0, 0.0, 0.0, 1.644499190184292E9, 0.0, 2022-02-11 00:19:50.184
220.0, -9866.082354316994, -11349.120598926616, -11218.094672929607, -17287.912045468336, -3795.6391329335133, -2028.8007889748562, -6419.331600586367, -6749.824494102538, -17533.42360656543, -15097.932827226261, -20623.686387978363, -12557.701773369525, -7663.6085109244, -10525.212946559543, -12543.597822618225, -12550.929194799566, 0.00690625, -0.022421875, 0.990578125, 192.0, 0.0, 0.0, 0.0, 0.0, 0.0, 0.0, 0.0, 0.0, 0.0, 1.6444991901842985E9, 0.0, 2022-02-11 00:19:50.184
222.0, -9867.199941539759, -11347.064238436727, -11216.865326984564, -17293.075298437514, -3805.853880149589, -2025.7385999844792, -6443.717353787107, -6743.878930077426, -17534.988228677303, -15085.818181731485, -20608.710719193306, -12551.465636666493, -7664.390821980336, -10520.56378371284, -12541.00502026141, -12550.0127732769, 0.00690625, -0.022421875, 0.990578125, 192.0, 0.0, 0.0, 0.0, 0.0, 0.0, 0.0, 0.0, 0.0, 0.0, 1.6444991901843047E9, 0.0, 2022-02-11 00:19:50.184
224.0, -9874.62072069892, -11341.141026156072, -11224.330809632636, -17287.196789645768, -3813.9005081534992, -2023.5704807723143, -6431.17802514768, -6758.072287806545, -17528.863850696547, -15085.371146842379, -20622.1664693554, -12549.610441876703, -7666.625996425867, -10517.412187744641, -12554.10314251222, -12556.159503002109, 0.006, -0.024, 0.99, 192.0, 0.0, 24.0, 127.5, 32.0, 15.0, 120.0, 0.0, 0.0, 0.0, 1.6444991901843116E9, 0.0, 2022-02-11 00:19:50.184
226.0, -9871.62558694191, -11345.611375047134, -11216.328885117637, -17283.866379721927, -3811.307705796684, -2019.5024632814484, -6424.1819291331685, -6740.794389342594, -17530.00378966377, -15087.31574860999, -20614.54452449614, -12544.737761585446, -7667.855342370909, -10522.284868035898, -12552.739686100447, -12551.487988410949, 0.006, -0.024, 0.99, 192.0, 0.0, 0.0, 0.0, 0.0, 0.0, 0.0, 0.0, 0.0, 0.0, 1.644499190184318E9, 0.0, 2022-02-11 00:19:50.184
228.0, -9888.612912727942, -11365.124447956616, -11234.07617021515, -17293.052946693057, -3822.975316402354, -2029.8289692198002, -6434.888414727261, -6756.284148250121, -17543.727760759328, -15091.964911456695, -20620.110108865512, -12538.456921393505, -7682.920418133786, -10528.56570822784, -12554.10314251222, -12552.650279122625, 0.006, -0.024, 0.99, 192.0, 0.0, 0.0, 0.0, 0.0, 0.0, 0.0, 0.0, 0.0, 0.0, 1.6444991901843245E9, 0.0, 2022-02-11 00:19:50.184
230.0, -9888.232933072202, -11357.01076471934, -11234.165577192973, -17291.28715888109, -3823.556461758192, -2030.1865971310851, -6434.08375192687, -6745.600014400485, -17548.533385817216, -15094.5130103246, -20639.04203641916, -12557.075924524775, -7693.470441516691, -10531.002048373468, -12561.747439115936, -12554.997212290433, 0.006, -0.024, 0.99, 192.0, 0.0, 0.0, 0.0, 0.0, 0.0, 0.0, 0.0, 0.0, 0.0, 1.6444991901843328E9, 0.0, 2022-02-11 00:19:50.184
232.0, -9885.841296415485, -11369.885369525597, -11234.456149870892, -17293.634092048895, -3827.244499593318, -2035.5957192892695, -6461.151714462247, -6759.189875029311, -17557.116455688054, -15106.94058024175, -20633.387045071966, -12554.706639612514, -7703.7522439661325, -10541.395609545185, -12556.383020446661, -12553.142017500642, 0.006, -0.024, 0.99, 192.0, 0.0, 0.0, 0.0, 0.0, 0.0, 0.0, 0.0, 0.0, 0.0, 1.6444991901843393E9, 0.0, 2022-02-11 00:19:50.184
234.0, -9897.263037832146, -11369.661852081044, -11243.441551141925, -17295.399879860866, -3836.5204735422703, -2042.413001348138, -6449.640566067764, -6752.9537383262805, -17549.919193973445, -15109.84630702094, -20643.75825449923, -12557.031221035866, -7706.85913644542, -10538.333420554807, -12563.96026181701, -12560.853369337723, 0.002, -0.022, 0.994, 192.0, 0.0, 8.0, 127.5, 40.0, 15.5, 8.0, 0.0, 0.0, 0.0, 1.644499190184346E9, 0.0, 2022-02-11 00:19:50.184
236.0, -9881.549761480066, -11361.77168628832, -11227.996495723308, -17293.455278093254, -3826.886871682033, -2033.8969867106662, -6435.402504849733, -6753.691345893306, -17544.666534026448, -15110.628618076877, -20635.93514393987, -12554.974860545977, -7708.557869024024, -10536.411170531652, -12556.517130913393, -12557.880587325168, 0.002, -0.022, 0.994, 192.0, 0.0, 0.0, 0.0, 0.0, 0.0, 0.0, 0.0, 0.0, 0.0, 1.6444991901843524E9, 0.0, 2022-02-11 00:19:50.184
238.0, -9890.311645306545, -11362.621052577622, -11235.7525510493, -17287.912045468336, -3836.453418308904, -2038.0544111793533, -6449.618214323308, -6749.533921424619, -17543.772464248235, -15107.432318619767, -20629.900172936937, -12547.688191853547, -7706.814432956509, -10531.002048373468, -12553.76786634539, -12556.874758824679, 0.002, -0.022, 0.994, 192.0, 0.0, 0.0, 0.0, 0.0, 0.0, 0.0, 0.0, 0.0, 0.0, 1.6444991901843588E9, 0.0, 2022-02-11 00:19:50.184
240.0, -9883.583770225498, -11355.647308307565, -11230.544594591212, -17281.452391320752, -3825.4787117813485, -2031.4606465650377, -6434.79900774944, -6744.0353922886125, -17539.056246168166, -15107.70053955323, -20643.08770216557, -12551.487988410949, -7704.311037577515, -10535.807673431358, -12558.461732681006, -12553.47729366747, 0.002, -0.022, 0.994, 192.0, 0.0, 0.0, 0.0, 0.0, 0.0, 0.0, 0.0, 0.0, 0.0, 1.644499190663119E9, 0.0, 2022-02-11 00:19:50.663
242.0, -9886.690662704787, -11346.639555292077, -11230.030504468741, -17288.67200477982, -3825.7916362037226, -2028.577271530303, -6438.107065928825, -6746.114104522956, -17546.81230149416, -15092.389594601345, -20635.532812539677, -12552.24794772243, -7711.664761503311, -10530.13033033971, -12550.079828510265, -12549.744552343434, 0.002, -0.022, 0.994, 192.0, 0.0, 0.0, 0.0, 0.0, 0.0, 0.0, 0.0, 0.0, 0.0, 1.6444991906633167E9, 0.0, 2022-02-11 00:19:50.663
244.0, -9891.183363340302, -11363.67158456702, -11238.166539450473, -17283.28523436609, -3830.8654821950777, -2032.4217715766158, -6446.377211377288, -6750.852674347481, -17546.43232183842, -15097.888123737352, -20650.217908646813, -12563.379116461172, -7714.972819682696, -10534.980658886512, -12555.95833730201, -12553.991383789944, 0.008, -0.022, 0.994, 192.0, 0.0, 32.0, 127.5, 40.0, 15.5, 8.0, 0.0, 0.0, 0.0, 1.6444991906633255E9, 0.0, 2022-02-11 00:19:50.663
246.0, -9868.4292874848, -11353.479189095402, -11221.849765998099, -17271.014126660124, -3818.0355808777313, -2023.7269429835014, -6432.9885164485595, -6739.319174208543, -17538.497452556785, -15102.783155773062, -20634.258763105725, -12539.350991171717, -7710.994209169652, -10542.803769445869, -12550.929194799566, -12542.949622029022, 0.008, -0.022, 0.994, 192.0, 0.0, 0.0, 0.0, 0.0, 0.0, 0.0, 0.0, 0.0, 0.0, 1.6444991906633332E9, 0.0, 2022-02-11 00:19:50.663
248.0, -9887.33886329399, -11347.62303204811, -11233.919708003963, -17278.881940708394, -3837.012211920287, -2028.0855331522864, -6443.538539831465, -6742.068438776546, -17540.71027525786, -15100.570333071988, -20628.871992691995, -12533.67364808007, -7709.183717868772, -10535.204176331064, -12548.112874998198, -12544.357781929706, 0.008, -0.022, 0.994, 192.0, 0.0, 0.0, 0.0, 0.0, 0.0, 0.0, 0.0, 0.0, 0.0, 1.6444991906633408E9, 0.0, 2022-02-11 00:19:50.663
250.0, -9886.467145260232, -11337.117712154117, -11230.589298080124, -17278.300795352556, -3838.5321305432476, -2027.7502569854566, -6462.291653429467, -6732.94892703878, -17541.22436538033, -15108.214629675704, -20646.75338825624, -12549.833959321257, -7720.0690174185065, -10530.912641395646, -12559.556968159315, -12542.949622029022, 0.008, -0.022, 0.994, 192.0, 0.0, 0.0, 0.0, 0.0, 0.0, 0.0, 0.0, 0.0, 0.0, 1.6444991906633475E9, 0.0, 2022-02-11 00:19:50.663
252.0, -9893.083261619004, -11361.615224077133, -11234.478501615347, -17288.493190824174, -3842.823665478667, -2035.6851262670907, -6450.959318990626, -6746.874063834437, -17547.393446849997, -15099.944484227239, -20639.936106197372, -12554.72899135697, -7725.5898982989675, -10551.252728849975, -12555.064267523798, -12547.218805219985, 0.008, -0.022, 0.994, 192.0, 0.0, 0.0, 0.0, 0.0, 0.0, 0.0, 0.0, 0.0, 0.0, 1.6444991906633546E9, 0.0, 2022-02-11 00:19:50.663
254.0, -9902.426290801322, -11357.144875186072, -11244.000344753307, -17289.722536769215, -3854.0665929396864, -2042.1224286702193, -6454.312080658923, -6761.201532030289, -17554.702467286883, -15115.076615223483, -20660.455007607343, -12562.797971105334, -7735.312907137026, -10544.591909002294, -12562.976785060977, -12556.29361346884, 0.004, -0.024, 0.99, 192.0, 0.0, 16.0, 127.5, 32.0, 15.0, 120.0, 0.0, 0.0, 0.0, 1.6444991906633615E9, 0.0, 2022-02-11 00:19:50.663
0.0, -9875.514790477133, -11353.233319906392, -11238.121835961561, -17284.46987682222, -3837.9286334429544, -2025.8503587067555, -6435.93894671666, -6741.1520172538785, -17546.968763705347, -15101.486754594656, -20652.542490070166, -12545.76594183039, -7732.563642569023, -10542.177920601122, -12561.635680393658, -12550.638622121647, 0.004, -0.024, 0.99, 192.0, 0.0, 0.0, 0.0, 0.0, 0.0, 0.0, 0.0, 0.0, 0.0, 1.6444991906633692E9, 0.0, 2022-02-11 00:19:50.663
2.0, -9898.112404121448, -11362.15166594406, -11238.591222595123, -17291.734193770193, -3853.8430754951332, -2037.674431523613, -6450.400525379244, -6741.822569587537, -17546.544080560696, -15113.355530900424, -20644.160585899423, -12544.737761585446, -7736.0952181929615, -10539.741580455493, -12559.15463675912, -12549.901014554622, 0.004, -0.024, 0.99, 192.0, 0.0, 0.0, 0.0, 0.0, 0.0, 0.0, 0.0, 0.0, 0.0, 1.6444991906633763E9, 0.0, 2022-02-11 00:19:50.663
4.0, -9889.082299361504, -11339.755217999842, -11234.232632426338, -17282.45821982124, -3850.646776038024, -2030.6112802757361, -6469.824191310906, -6743.2083777437665, -17545.33708636011, -15105.018330218594, -20654.956478471337, -12552.516168655893, -7737.726895538199, -10546.916490425647, -12568.050631052332, -12553.276127967374, 0.004, -0.024, 0.99, 192.0, 0.0, 0.0, 0.0, 0.0, 0.0, 0.0, 0.0, 0.0, 0.0, 1.6444991906633956E9, 0.0, 2022-02-11 00:19:50.663
6.0, -9891.988026140694, -11350.126427427105, -11238.255946428293, -17284.55928380004, -3860.0568604537084, -2028.3090505968394, -6466.426726153699, -6748.952776068781, -17547.639316039003, -15105.532420341066, -20640.830175975585, -12543.240194706941, -7739.582090327989, -10552.035039905912, -12566.664822896102, -12548.135226742654, 0.004, -0.024, 0.99, 192.0, 0.0, 0.0, 0.0, 0.0, 0.0, 0.0, 0.0, 0.0, 0.0, 1.6444991906634233E9, 0.0, 2022-02-11 00:19:50.663
8.0, -9908.170689126337, -11357.077819952705, -11247.330754677148, -17288.47083907972, -3870.5398286032473, -2043.9105682266438, -6452.523941102499, -6760.978014585736, -17554.680115542425, -15119.390501903357, -20662.28785065268, -12558.394677447639, -7749.9532997552515, -10553.957289929067, -12575.829038122778, -12557.120628013687, 0.01, -0.026000000000000002, 0.992, 192.0, 0.0, 40.0, 127.5, 24.0, 15.5, 0.0, 0.0, 0.0, 0.0, 1.64449919066343E9, 0.0, 2022-02-11 00:19:50.663
10.0, -9896.01134014265, -11358.374221131113, -11239.775865051255, -17281.83237097649, -3856.0558981962085, -2027.616146518725, -6461.710508073629, -6747.566967912551, -17555.261260898264, -15108.728719798175, -20656.007010460737, -12544.111912740698, -7747.740477054176, -10543.206100846064, -12570.978709575977, -12553.276127967374, 0.01, -0.026000000000000002, 0.992, 192.0, 0.0, 0.0, 0.0, 0.0, 0.0, 0.0, 0.0, 0.0, 0.0, 1.644499190663437E9, 0.0, 2022-02-11 00:19:50.663
12.0, -9912.4398723173, -11357.055468208251, -11244.514434875779, -17287.576769301508, -3867.7011570574236, -2048.3362136287947, -6478.787240837484, -6769.538732712118, -17556.512958587762, -15108.08051920897, -20654.3753331155, -12552.24794772243, -7750.690907322277, -10554.180807373621, -12571.67161365409, -12559.780485603867, 0.01, -0.026000000000000002, 0.992, 192.0, 0.0, 0.0, 0.0, 0.0, 0.0, 0.0, 0.0, 0.0, 0.0, 1.6444991906634438E9, 0.0, 2022-02-11 00:19:50.663
14.0, -9906.114328636448, -11362.084610710694, -11241.943984263418, -17283.28523436609, -3862.1579244325076, -2037.7861902458897, -6463.319833674412, -6750.696212136294, -17555.79770276519, -15128.219440963203, -20673.061391480136, -12555.690116368547, -7761.2185789607265, -10557.108885897265, -12573.63856716616, -12561.233348993463, 0.01, -0.026000000000000002, 0.992, 192.0, 0.0, 0.0, 0.0, 0.0, 0.0, 0.0, 0.0, 0.0, 0.0, 1.6444991906634507E9, 0.0, 2022-02-11 00:19:50.663
16.0, -9913.468052562244, -11367.314918913236, -11241.899280774509, -17293.723499026717, -3862.1802761769627, -2037.1826931455962, -6476.261493714034, -6754.294842993599, -17561.251528412286, -15112.4167576333, -20661.729057041295, -12544.178967974063, -7761.531503383101, -10561.243958621497, -12564.049668794833, -12553.164369245098, 0.01, -0.026000000000000002, 0.992, 192.0, 0.0, 0.0, 0.0, 0.0, 0.0, 0.0, 0.0, 0.0, 0.0, 1.6444991906634576E9, 0.0, 2022-02-11 00:19:50.663
18.0, -9923.168709655847, -11367.739602057887, -11248.381286666547, -17287.04032743458, -3874.5631426052028, -2044.4246583491158, -6455.7649440485175, -6752.886683092915, -17564.38077263603, -15106.292379652547, -20674.894234525473, -12573.683270655069, -7771.813305832542, -10563.859112722768, -12569.704660142024, -12556.852407080223, 0.008, -0.024, 0.986, 192.0, 0.0, 32.0, 127.5, 32.0, 15.0, 104.0, 0.0, 0.0, 0.0, 1.6444991906634643E9, 0.0, 2022-02-11 00:19:50.663
20.0, -9916.664352019352, -11376.34502367318, -11235.774902793753, -17287.576769301508, -3862.202627921418, -2029.4713413085153, -6463.163371463224, -6739.810912586559, -17565.230138925333, -15139.596478890953, -20671.76499030173, -12556.137151257653, -7773.199113988771, -10554.13610388471, -12565.8154566068, -12549.05164826532, 0.008, -0.024, 0.986, 192.0, 0.0, 0.0, 0.0, 0.0, 0.0, 0.0, 0.0, 0.0, 0.0, 1.6444991906634715E9, 0.0, 2022-02-11 00:19:50.663
22.0, -9933.271698149645, -11367.851360780163, -11246.459036643391, -17295.332824627498, -3874.741956560845, -2045.8775217387108, -6483.9951972955705, -6761.313290752565, -17572.00271749529, -15139.395313190857, -20674.04486823617, -12558.059401280809, -7769.309910453548, -10557.33240334182, -12563.379116461172, -12556.360668702206, 0.008, -0.024, 0.986, 192.0, 0.0, 0.0, 0.0, 0.0, 0.0, 0.0, 0.0, 0.0, 0.0, 1.6444991906634784E9, 0.0, 2022-02-11 00:19:50.663
24.0, -9930.969468470748, -11385.6880528555, -11251.912862290486, -17288.694356524273, -3872.7079478154124, -2035.3051466113504, -6476.149734991758, -6753.154904026378, -17569.499322116295, -15132.779196832085, -20688.12646724301, -12562.596805405237, -7773.82496283352, -10569.290586625408, -12574.286767755362, -12558.886415825657, 0.008, -0.024, 0.986, 192.0, 0.0, 0.0, 0.0, 0.0, 0.0, 0.0, 0.0, 0.0, 0.0, 1.6444991906634853E9, 0.0, 2022-02-11 00:19:50.663
26.0, -9941.810064531574, -11395.5898756492, -11243.799179053209, -17292.114173425936, -3871.947988503932, -2036.221568134018, -6478.9437030486715, -6759.391040729409, -17580.76460132177, -15136.04255152256, -20679.006955505247, -12553.432590178561, -7775.344881456481, -10563.255615622475, -12569.972881075488, -12552.717334355992, 0.008, -0.024, 0.986, 192.0, 0.0, 0.0, 0.0, 0.0, 0.0, 0.0, 0.0, 0.0, 0.0, 1.6444991906634924E9, 0.0, 2022-02-11 00:19:50.663
28.0, -9977.036413793137, -11419.50624221638, -11256.673783859467, -17294.19288566028, -3881.045148497242, -2039.5072745689483, -6479.971883293615, -6747.611671401462, -17590.845238071113, -15150.66059239633, -20699.0341185372, -12569.8164188643, -7784.866724594442, -10568.95531045858, -12574.577340433281, -12555.734819857458, 0.008, -0.024, 0.99, 192.0, 0.0, 32.0, 127.5, 32.0, 15.0, 120.0, 0.0, 0.0, 0.0, 1.644499190663499E9, 0.0, 2022-02-11 00:19:50.663
30.0, -9992.861448867494, -11442.819111683264, -11247.46486514388, -17291.51067632564, -3867.4552878684153, -2022.385838316183, -6479.077813515403, -6740.302650964577, -17602.95988356589, -15155.935604087783, -20705.3373104736, -12574.666747411102, -7784.486744938701, -10563.322670855841, -12572.006889820921, -12547.062343008798, 0.008, -0.024, 0.99, 192.0, 0.0, 0.0, 0.0, 0.0, 0.0, 0.0, 0.0, 0.0, 0.0, 1.6444991906635063E9, 0.0, 2022-02-11 00:19:50.663
32.0, -10038.950745934337, -11473.239835886936, -11255.13151349205, -17296.293949639075, -3875.1219362165853, -2034.6345942776913, -6472.148772734257, -6749.086886535512, -17615.72272964987, -15166.507979215145, -20712.24399951029, -12581.43932598106, -7788.085375796006, -10566.407211590673, -12567.894168841145, -12547.464674408993, 0.008, -0.024, 0.99, 192.0, 0.0, 0.0, 0.0, 0.0, 0.0, 0.0, 0.0, 0.0, 0.0, 1.6444991906635132E9, 0.0, 2022-02-11 00:19:50.663
34.0, -10095.388900683987, -11525.006476045428, -11258.171350737972, -17301.680720052806, -3874.741956560845, -2034.4781320665043, -6475.1886099801795, -6749.220997002244, -17635.25815430381, -15183.562360234542, -20738.44024401191, -12601.935875646577, -7798.277771267626, -10574.945577972601, -12573.616215421704, -12554.416066934595, 0.008, -0.024, 0.99, 192.0, 0.0, 0.0, 0.0, 0.0, 0.0, 0.0, 0.0, 0.0, 0.0, 1.6444991906635208E9, 0.0, 2022-02-11 00:19:50.663
36.0, -10136.67257269294, -11563.563235230833, -11260.004193783307, -17309.81675503454, -3869.2210756803843, -2030.7006872535574, -6481.8270780834055, -6746.650546389884, -17659.8674249491, -15193.151258605869, -20740.317790546156, -12610.675407728602, -7801.854050380475, -10571.078726181833, -12566.798933362834, -12549.29751745433, 0.007, -0.022, 0.99, 192.0, 0.0, 24.0, 127.5, 48.0, 15.0, 120.0, 0.0, 0.0, 0.0, 1.6444991906635275E9, 0.0, 2022-02-11 00:19:50.663
38.0, -10175.788125489727, -11592.352282089269, -11274.242255001338, -17304.117060198434, -3873.3114449157056, -2030.3654110867276, -6468.103106987847, -6745.510607422663, -17675.983032701377, -15213.647808271386, -20769.933851949438, -12630.322591104818, -7805.519736471145, -10584.869752510758, -12573.705622399524, -12552.516168655893, 0.007, -0.022, 0.99, 192.0, 0.0, 0.0, 0.0, 0.0, 0.0, 0.0, 0.0, 0.0, 0.0, 1.6444991906635373E9, 0.0, 2022-02-11 00:19:50.663
40.0, -10166.847427707604, -11610.01016020896, -11251.219958212372, -17304.29587415408, -3853.9324824729542, -2014.4956725234597, -6455.56377834842, -6735.027639273124, -17669.411619831517, -15202.918970932838, -20764.01063966878, -12623.438253812583, -7797.629570678422, -10559.075839409334, -12562.82032284979, -12542.10025573972, 0.007, -0.022, 0.99, 192.0, 0.0, 0.0, 0.0, 0.0, 0.0, 0.0, 0.0, 0.0, 0.0, 1.6444991906635444E9, 0.0, 2022-02-11 00:19:50.663
42.0, -10172.904750454993, -11609.25020089748, -11262.641699629034, -17308.788574789593, -3864.750726789323, -2041.8095042478449, -6471.344109933867, -6765.068383821057, -17672.40675358853, -15200.549686020577, -20761.574299523152, -12619.303181088351, -7796.02024507764, -10590.547095602406, -12556.986517546955, -12549.521034898882, 0.007, -0.022, 0.99, 192.0, 0.0, 0.0, 0.0, 0.0, 0.0, 0.0, 0.0, 0.0, 0.0, 1.644499190663551E9, 0.0, 2022-02-11 00:19:50.663
44.0, -10162.690003238917, -11604.444575839589, -11260.071249016673, -17302.686548553294, -3868.8187442801886, -2042.9494432150655, -6472.0817175008915, -6747.969299312747, -17665.947099440946, -15210.183287880815, -20768.436285070933, -12625.874593958211, -7797.674274167332, -10597.118508472266, -12567.603596163226, -12560.048706537333, 0.007, -0.022, 0.99, 192.0, 0.0, 0.0, 0.0, 0.0, 0.0, 0.0, 0.0, 0.0, 0.0, 1.6444991906635587E9, 0.0, 2022-02-11 00:19:50.663
46.0, -10152.810532189671, -11583.590398262788, -11259.758324594299, -17303.737080542694, -3868.1258402020744, -2029.3148790973282, -6477.7143571036295, -6731.652525860372, -17670.59626228765, -15195.699357473775, -20751.53836626272, -12616.553916520348, -7799.484765468213, -10592.536400858928, -12561.836846093756, -12550.035125021353, 0.0075, -0.020999999999999998, 0.989, 192.0, 0.0, 32.0, 127.5, 48.0, 15.0, 112.0, 0.0, 0.0, 0.0, 1.6444991906635656E9, 0.0, 2022-02-11 00:19:50.663
48.0, -10136.694924437395, -11565.19491257607, -11265.212150241394, -17296.964501972736, -3870.562180347703, -2030.9242046981103, -6476.350900691856, -6739.609746886462, -17664.136608140067, -15203.366005821945, -20761.30607858969, -12617.224468854007, -7799.887096868408, -10592.849325281302, -12565.279014739874, -12551.108008755209, 0.0075, -0.020999999999999998, 0.989, 192.0, 0.0, 0.0, 0.0, 0.0, 0.0, 0.0, 0.0, 0.0, 0.0, 1.6444991906635725E9, 0.0, 2022-02-11 00:19:50.663
50.0, -10100.060415275148, -11535.4223889616, -11248.828321555653, -17295.04225194958, -3854.8712557400772, -2016.6861434800796, -6477.848467570361, -6735.698191606783, -17640.28729680625, -15183.182380578803, -20739.91545914596, -12602.628779724691, -7791.30402699757, -10571.570464559849, -12561.166293760098, -12542.435531906549, 0.0075, -0.020999999999999998, 0.989, 192.0, 0.0, 0.0, 0.0, 0.0, 0.0, 0.0, 0.0, 0.0, 0.0, 1.6444991906635804E9, 0.0, 2022-02-11 00:19:50.663
52.0, -10104.508412421754, -11535.37768547269, -11260.428876927957, -17299.736118285193, -3868.327005902172, -2027.9737744300098, -6481.8270780834055, -6746.3152702230545, -17646.47873002037, -15182.265959056134, -20737.30030504469, -12593.643378453658, -7795.1485270438825, -10576.443144851106, -12560.831017593267, -12547.62113662018, 0.0075, -0.020999999999999998, 0.989, 192.0, 0.0, 0.0, 0.0, 0.0, 0.0, 0.0, 0.0, 0.0, 0.0, 1.644499190663587E9, 0.0, 2022-02-11 00:19:50.663
54.0, -10072.433659128388, -11490.18245818406, -11254.215091969383, -17293.61174030444, -3864.9965959783312, -2020.0612568928311, -6479.524848404509, -6745.577662656029, -17638.029770616267, -15173.884054885395, -20745.279877815232, -12593.35280577574, -7798.009550334162, -10565.267272623452, -12569.43643920856, -12550.660973866103, 0.0075, -0.020999999999999998, 0.989, 192.0, 0.0, 0.0, 0.0, 0.0, 0.0, 0.0, 0.0, 0.0, 0.0, 1.6444991906635942E9, 0.0, 2022-02-11 00:19:50.663
56.0, -10061.704821789841, -11492.216466929493, -11254.796237325221, -17298.10444093996, -3853.2842818837503, -2025.671544751113, -6479.368386193322, -6747.745781868194, -17636.86747990459, -15155.265051754124, -20726.213839794855, -12587.49664872845, -7801.83169863602, -10581.539342586917, -12565.413125206605, -12547.017639519889, 0.00675, -0.020499999999999997, 0.9884999999999999, 192.0, 0.0, 24.0, 127.5, 48.0, 15.0, 112.0, 0.0, 0.0, 0.0, 1.6444991906636007E9, 0.0, 2022-02-11 00:19:50.663
58.0, -10066.71161254783, -11490.048347717327, -11253.879815802553, -17298.10444093996, -3875.0325292387643, -2033.2264343770069, -6495.9086770902495, -6749.735087124716, -17631.994799613334, -15175.806304908552, -20732.58408696462, -12584.970901604998, -7792.421614220335, -10588.244865923509, -12568.20709326352, -12553.47729366747, 0.00675, -0.020499999999999997, 0.9884999999999999, 192.0, 0.0, 0.0, 0.0, 0.0, 0.0, 0.0, 0.0, 0.0, 0.0, 1.644499190663608E9, 0.0, 2022-02-11 00:19:50.663
60.0, -10039.08485640107, -11481.55468482431, -11242.055742985696, -17291.5330280701, -3849.1939126484294, -2015.1662248571188, -6483.972845551115, -6736.413447429353, -17626.608029199604, -15168.944319360771, -20722.704615915372, -12588.681291184581, -7793.87447760993, -10578.90183674119, -12561.568625160293, -12546.503549397416, 0.00675, -0.020499999999999997, 0.9884999999999999, 192.0, 0.0, 0.0, 0.0, 0.0, 0.0, 0.0, 0.0, 0.0, 0.0, 1.6444991906636147E9, 0.0, 2022-02-11 00:19:50.663
62.0, -10041.297679102145, -11464.187379382538, -11252.18108322395, -17298.95380722926, -3874.361976905105, -2028.4431610635713, -6484.241066484579, -6743.722467866239, -17628.64203794504, -15156.270880254613, -20715.417947222944, -12578.131267801675, -7799.998855590685, -10576.152572173187, -12555.108971012709, -12548.783427331857, 0.00675, -0.020499999999999997, 0.9884999999999999, 192.0, 0.0, 0.0, 0.0, 0.0, 0.0, 0.0, 0.0, 0.0, 0.0, 1.644499190663622E9, 0.0, 2022-02-11 00:19:50.663
64.0, -10023.304524815623, -11450.12813212015, -11248.291879688726, -17285.60981578944, -3863.7001947999233, -2021.737637726979, -6470.226522711101, -6740.973203298236, -17617.28735176174, -15146.883147583385, -20724.67156942744, -12579.695889913546, -7793.82977412102, -10581.516990842461, -12560.428686193072, -12549.811607576801, 0.00675, -0.020499999999999997, 0.9884999999999999, 192.0, 0.0, 0.0, 0.0, 0.0, 0.0, 0.0, 0.0, 0.0, 0.0, 1.6444991906636286E9, 0.0, 2022-02-11 00:19:50.663
66.0, -10008.038283352647, -11434.548966234799, -11247.733086077344, -17286.906216967847, -3858.201665663918, -2018.518986525415, -6472.305234945445, -6743.834226588515, -17618.471994217874, -15148.537176673077, -20710.500563442776, -12559.109933270209, -7794.254457265671, -10576.04081345091, -12551.95737504451, -12543.15078772912, 0.008375, -0.02225, 0.98725, 192.0, 0.0, 40.0, 127.5, 32.0, 15.0, 104.0, 0.0, 0.0, 0.0, 1.6444991906636355E9, 0.0, 2022-02-11 00:19:50.663
68.0, -10023.84096668255, -11434.370152279158, -11250.549405878712, -17289.543722813574, -3857.3522993746165, -2027.772608729912, -6483.57051415092, -6748.818665602049, -17611.09591854762, -15163.177569291303, -20719.57537169163, -12576.521942200892, -7795.1485270438825, -10578.655967552182, -12557.455904180517, -12551.420933177584, 0.008375, -0.02225, 0.98725, 192.0, 0.0, 0.0, 0.0, 0.0, 0.0, 0.0, 0.0, 0.0, 0.0, 1.6444991906636424E9, 0.0, 2022-02-11 00:19:50.663
70.0, -10001.01983559368, -11419.662704427565, -11237.026600483252, -17283.642862277375, -3849.305671370706, -2015.2109283460295, -6477.513191403532, -6737.66514511885, -17609.397185969017, -15153.52161568661, -20717.183735034912, -12573.616215421704, -7789.001797318673, -10575.057336694877, -12552.58322388926, -12543.463712151493, 0.008375, -0.02225, 0.98725, 192.0, 0.0, 0.0, 0.0, 0.0, 0.0, 0.0, 0.0, 0.0, 0.0, 1.644499190663652E9, 0.0, 2022-02-11 00:19:50.663
72.0, -10007.568896719087, -11420.132091061127, -11247.733086077344, -17290.303682125053, -3855.3182906291836, -2021.4023615601495, -6485.515115918532, -6741.062610276057, -17612.839354615135, -15152.962822075227, -20712.176944276925, -12564.720221128491, -7783.369157715936, -10575.95140647309, -12555.846578579734, -12545.631831363658, 0.008375, -0.02225, 0.98725, 192.0, 0.0, 0.0, 0.0, 0.0, 0.0, 0.0, 0.0, 0.0, 0.0, 1.644499190663659E9, 0.0, 2022-02-11 00:19:50.663
74.0, -9993.017911078681, -11410.520840945344, -11240.044085984719, -17290.70601352525, -3848.769229503778, -2020.5753470153031, -6481.290636216479, -6741.442589931798, -17598.489534674827, -15153.029877308594, -20715.86498211205, -12577.416011979105, -7778.9435123137855, -10578.119525685255, -12566.709526385013, -12548.515206398393, 0.008375, -0.02225, 0.98725, 192.0, 0.0, 0.0, 0.0, 0.0, 0.0, 0.0, 0.0, 0.0, 0.0, 1.6444991906636658E9, 0.0, 2022-02-11 00:19:50.663
76.0, -9981.372652217467, -11389.979587790918, -11247.107237232594, -17291.08599318099, -3847.405773092005, -2021.0447336488646, -6490.9242380767155, -6751.210302258766, -17604.47980218885, -15124.799624061541, -20701.71632787184, -12573.839732866256, -7783.704433882765, -10573.224493649543, -12554.281956467863, -12551.44328492204, 0.009187500000000001, -0.024125, 0.987625, 192.0, 0.0, 40.0, 127.5, 24.0, 15.0, 112.0, 0.0, 0.0, 0.0, 1.6444991906636727E9, 0.0, 2022-02-11 00:19:50.663
78.0, -10002.092719327537, -11418.96980034945, -11250.504702389802, -17283.933434955292, -3871.7691745482894, -2026.2303383624958, -6503.24004927159, -6752.52905518163, -17610.20184876941, -15134.835557321974, -20719.977703091827, -12568.318851985796, -7787.97361707373, -10595.598589849305, -12562.596805405237, -12557.522959413882, 0.009187500000000001, -0.024125, 0.987625, 192.0, 0.0, 0.0, 0.0, 0.0, 0.0, 0.0, 0.0, 0.0, 0.0, 1.6444991906636796E9, 0.0, 2022-02-11 00:19:50.663
80.0, -9981.037376050637, -11403.994131564396, -11238.36770515057, -17278.725478497206, -3864.1248779445746, -2015.4344457905825, -6504.357636494356, -6751.031488303124, -17613.889886604535, -15162.48466521319, -20721.989360092804, -12559.847540837234, -7782.765660615642, -10575.213798906065, -12564.742572872947, -12551.644450622136, 0.009187500000000001, -0.024125, 0.987625, 192.0, 0.0, 0.0, 0.0, 0.0, 0.0, 0.0, 0.0, 0.0, 0.0, 1.6444991906636865E9, 0.0, 2022-02-11 00:19:50.663
82.0, -9989.195762776824, -11394.449936681978, -11251.242309956826, -17282.122943654413, -3865.8906657565435, -2023.8610534502334, -6512.605430198363, -6759.949834340791, -17609.598351669116, -15153.566319175521, -20699.65996738195, -12546.0118110194, -7791.125213041928, -10578.767726274458, -12559.892244326145, -12551.756209344412, 0.009187500000000001, -0.024125, 0.987625, 192.0, 0.0, 0.0, 0.0, 0.0, 0.0, 0.0, 0.0, 0.0, 0.0, 1.6444991906636934E9, 0.0, 2022-02-11 00:19:50.663
84.0, -9969.012137533682, -11377.842590551685, -11240.22289994036, -17280.111286653435, -3860.19097092044, -2017.6919719805685, -6514.14770056578, -6761.246235519199, -17596.544932907218, -15139.66353412432, -20714.635636167008, -12555.421895435084, -7789.8064601190645, -10568.061240680367, -12569.369383975194, -12554.147846001131, 0.009187500000000001, -0.024125, 0.987625, 192.0, 0.0, 0.0, 0.0, 0.0, 0.0, 0.0, 0.0, 0.0, 0.0, 1.6444991906637003E9, 0.0, 2022-02-11 00:19:50.663
86.0, -9962.06074500808, -11373.573407360722, -11237.160710949984, -17282.212350632235, -3852.7701917612785, -2017.4461027915602, -6502.211869026646, -6750.360935969465, -17598.8024590972, -15137.562470145522, -20691.300414955665, -12553.030258778366, -7782.340977470992, -10566.317804612852, -12560.361630959706, -12553.05261052282, 0.007593750000000001, -0.0250625, 0.9868125, 192.0, 0.0, 24.0, 127.5, 24.0, 15.0, 104.0, 0.0, 0.0, 0.0, 1.644499190663708E9, 0.0, 2022-02-11 00:19:50.663
88.0, -9966.06170726558, -11369.706555569954, -11249.185949466939, -17276.84793196296, -3867.1423634460407, -2028.3761058302052, -6508.962095852148, -6755.971223827747, -17600.61295039808, -15133.941487543761, -20710.858191354062, -12551.823264577779, -7785.134945527905, -10572.062202937866, -12560.942776315544, -12556.315965213296, 0.007593750000000001, -0.0250625, 0.9868125, 192.0, 0.0, 0.0, 0.0, 0.0, 0.0, 0.0, 0.0, 0.0, 0.0, 1.644499190663715E9, 0.0, 2022-02-11 00:19:50.663
90.0, -9962.463076408278, -11373.595759105177, -11244.402676153502, -17277.74200174117, -3851.9655289608872, -2018.9213179256105, -6504.692912661185, -6751.09854353649, -17596.29906371821, -15131.639257864865, -20708.868886097538, -12541.452055150516, -7789.135907785405, -10583.305130398885, -12560.831017593267, -12553.29847971183, 0.007593750000000001, -0.0250625, 0.9868125, 192.0, 0.0, 0.0, 0.0, 0.0, 0.0, 0.0, 0.0, 0.0, 0.0, 1.644499190663722E9, 0.0, 2022-02-11 00:19:50.663
92.0, -9978.39987020491, -11366.018517734828, -11252.650469857512, -17287.442658834774, -3851.1161626715857, -2019.323649325806, -6512.7618924095505, -6756.217093016755, -17609.933627835944, -15123.27970543858, -20708.15363027497, -12546.637659864147, -7780.508134425657, -10562.47330456654, -12560.093410026242, -12553.276127967374, 0.007593750000000001, -0.0250625, 0.9868125, 192.0, 0.0, 0.0, 0.0, 0.0, 0.0, 0.0, 0.0, 0.0, 0.0, 1.6444991906637287E9, 0.0, 2022-02-11 00:19:50.663
94.0, -9964.810009576084, -11362.732811299898, -11249.074190744663, -17277.13850464088, -3835.5369967862366, -2022.6540592496467, -6489.0466915424695, -6746.807008601071, -17603.29515973272, -15145.966726060717, -20723.688092671408, -12549.588090132249, -7775.121364011928, -10572.553941315884, -12560.96512806, -12551.465636666493, 0.007593750000000001, -0.0250625, 0.9868125, 192.0, 0.0, 0.0, 0.0, 0.0, 0.0, 0.0, 0.0, 0.0, 0.0, 1.6444991906637368E9, 0.0, 2022-02-11 00:19:50.663
96.0, -9955.422276904856, -11356.876654252608, -11237.026600483252, -17276.825580218505, -3842.6672032674796, -2020.1506638706524, -6502.658903915752, -6738.3356974525095, -17586.28548220223, -15133.114472998916, -20690.406345177456, -12535.439435892038, -7767.611177874945, -10567.323633113341, -12560.33927921525, -12546.548252886327, 0.009796875, -0.02453125, 0.98740625, 192.0, 0.0, 48.0, 127.5, 32.0, 15.0, 112.0, 0.0, 0.0, 0.0, 1.6444991906637435E9, 0.0, 2022-02-11 00:19:50.663
98.0, -9961.59135837452, -11345.29845062476, -11256.852597815108, -17280.647728520362, -3854.8042005067114, -2024.3974953171607, -6504.961133594648, -6739.207415486267, -17605.932665578446, -15127.370074673901, -20722.414043237455, -12550.236290721452, -7774.048480278073, -10569.827028492336, -12565.01079380641, -12547.755247086912, 0.009796875, -0.02453125, 0.98740625, 192.0, 0.0, 0.0, 0.0, 0.0, 0.0, 0.0, 0.0, 0.0, 0.0, 1.644499190663751E9, 0.0, 2022-02-11 00:19:50.663
100.0, -9954.058820493081, -11346.259575636337, -11232.377437636547, -17282.94995819926, -3843.5389213012368, -2016.6414399911691, -6511.309029019956, -6757.111162794968, -17575.735458819327, -15124.620810105898, -20693.66969986793, -12542.591994117736, -7765.755983085154, -10571.682223282127, -12557.366497202695, -12547.352915686717, 0.009796875, -0.02453125, 0.98740625, 192.0, 0.0, 0.0, 0.0, 0.0, 0.0, 0.0, 0.0, 0.0, 0.0, 1.6444991906637585E9, 0.0, 2022-02-11 00:19:50.663
102.0, -9988.055823809604, -11378.893122541085, -11260.652394372511, -17289.454315835752, -3850.2220928933734, -2021.1117888822305, -6504.916430105738, -6737.709848607761, -17618.427290728963, -15148.850101095451, -20713.898028599982, -12547.062343008798, -7778.96586405824, -10575.034984950422, -12552.67263086708, -12549.76690408789, 0.009796875, -0.02453125, 0.98740625, 192.0, 0.0, 0.0, 0.0, 0.0, 0.0, 0.0, 0.0, 0.0, 0.0, 1.644499190663767E9, 0.0, 2022-02-11 00:19:50.663
104.0, -9976.119992270469, -11366.77847704631, -11269.704850876911, -17287.1297344124, -3829.4796740388483, -2015.8814806796886, -6496.266305001534, -6730.154958981867, -17611.54295343673, -15161.836464623984, -20743.938773147915, -12567.558892674315, -7774.450811678268, -10576.286682639919, -12557.120628013687, -12550.303345954819, 0.009796875, -0.02453125, 0.98740625, 192.0, 0.0, 0.0, 0.0, 0.0, 0.0, 0.0, 0.0, 0.0, 0.0, 1.6444991911435032E9, 0.0, 2022-02-11 00:19:51.143
106.0, -9967.78279158864, -11366.398497390568, -11225.426045110948, -17279.820713975514, -3858.4475348529263, -2017.1778818580965, -6517.545165722986, -6740.8614445759595, -17612.34761623712, -15118.161155958314, -20709.830011109116, -12547.129398242165, -7780.955169314763, -10571.682223282127, -12557.8135320918, -12541.519110383882, 0.01, -0.028, 0.988, 192.0, 0.0, 40.0, 127.5, 16.0, 15.0, 112.0, 0.0, 0.0, 0.0, 1.644499191143658E9, 0.0, 2022-02-11 00:19:51.143
108.0, -9981.953797573304, -11361.682279310498, -11247.487216888336, -17284.156952399844, -3849.819761493178, -2024.9786406729986, -6517.522813978531, -6745.443552189297, -17613.934590093446, -15146.056133038537, -20717.362548990553, -12555.846578579734, -7786.274884495126, -10583.819220521358, -12562.038011793855, -12549.431627921062, 0.01, -0.028, 0.988, 192.0, 0.0, 0.0, 0.0, 0.0, 0.0, 0.0, 0.0, 0.0, 0.0, 1.6444991911436656E9, 0.0, 2022-02-11 00:19:51.143
110.0, -9983.093736540524, -11370.175942203516, -11245.140283720528, -17288.336728612987, -3841.7954852337225, -2020.3965330596607, -6499.172031780724, -6738.805084086071, -17619.58958144064, -15158.595461677965, -20728.963104362858, -12559.378154203672, -7784.352634471969, -10577.76189777397, -12558.81936059229, -12547.241156964441, 0.01, -0.028, 0.988, 192.0, 0.0, 0.0, 0.0, 0.0, 0.0, 0.0, 0.0, 0.0, 0.0, 1.6444991911436725E9, 0.0, 2022-02-11 00:19:51.143
112.0, -9994.113146556992, -11373.081668982706, -11247.330754677148, -17292.56120831504, -3854.4689243398816, -2026.1856348735853, -6516.069950588936, -6765.895398365903, -17627.0103605998, -15161.970575090716, -20728.136089818014, -12569.63760490866, -7784.956131572263, -10585.607360077782, -12560.518093170893, -12554.505473912415, 0.01, -0.028, 0.988, 192.0, 0.0, 0.0, 0.0, 0.0, 0.0, 0.0, 0.0, 0.0, 0.0, 1.6444991911436796E9, 0.0, 2022-02-11 00:19:51.143
114.0, -9993.532001201154, -11375.875637039619, -11260.361821694592, -17281.452391320752, -3847.204607391907, -2021.5588237713366, -6515.980543611115, -6724.455264145764, -17627.0103605998, -15150.973516818705, -20741.077749857635, -12581.39462249215, -7782.363329215447, -10586.52378160045, -12561.76979086039, -12552.918500056088, 0.01, -0.028, 0.988, 192.0, 0.0, 0.0, 0.0, 0.0, 0.0, 0.0, 0.0, 0.0, 0.0, 1.6444991911436863E9, 0.0, 2022-02-11 00:19:51.143
116.0, -9974.153038758403, -11360.67645081001, -11240.379362151547, -17281.05005992056, -3843.5389213012368, -2018.0943033807641, -6526.038828616003, -6740.950851553781, -17624.81988964318, -15140.28938296907, -20716.557886190163, -12552.069133766787, -7766.068907507528, -10573.626825049738, -12557.210034991507, -12545.72123834148, 0.008, -0.024, 0.99, 192.0, 0.0, 32.0, 127.5, 32.0, 15.0, 120.0, 0.0, 0.0, 0.0, 1.6444991911436932E9, 0.0, 2022-02-11 00:19:51.143
118.0, -9993.666111667886, -11374.735698072398, -11259.043068771729, -17288.47083907972, -3849.171560903974, -2033.8746349662108, -6507.129252806813, -6752.52905518163, -17624.037578587246, -15169.391354249878, -20730.43831949691, -12571.805724120823, -7776.216599490238, -10592.871677025758, -12562.954433316521, -12561.613328649204, 0.008, -0.024, 0.99, 192.0, 0.0, 0.0, 0.0, 0.0, 0.0, 0.0, 0.0, 0.0, 0.0, 1.6444991911437004E9, 0.0, 2022-02-11 00:19:51.143
120.0, -9982.378480717955, -11368.030174735806, -11250.258833200793, -17283.50875181064, -3837.5039502983036, -2013.6016027452474, -6517.880441889816, -6754.272491249143, -17622.07062507518, -15162.931700102294, -20735.556868977175, -12568.430610708072, -7763.945491784274, -10582.679281554138, -12560.898072826634, -12555.980689046466, 0.008, -0.024, 0.99, 192.0, 0.0, 0.0, 0.0, 0.0, 0.0, 0.0, 0.0, 0.0, 0.0, 1.6444991911437075E9, 0.0, 2022-02-11 00:19:51.143
122.0, -9998.941123359338, -11362.86692176663, -11250.862330301086, -17285.60981578944, -3854.6700900399796, -2026.096227895764, -6529.324535050933, -6748.438685946308, -17628.485575733852, -15158.640165166875, -20727.95727586237, -12567.715354885502, -7771.947416299274, -10583.483944354528, -12562.52975017187, -12554.974860545977, 0.008, -0.024, 0.99, 192.0, 0.0, 0.0, 0.0, 0.0, 0.0, 0.0, 0.0, 0.0, 0.0, 1.6444991911437144E9, 0.0, 2022-02-11 00:19:51.143
124.0, -10001.198649549324, -11383.899913299074, -11258.66308911599, -17281.4300395763, -3833.145360129519, -2007.4101695311274, -6486.8115170969395, -6723.449435645275, -17627.613857700093, -15161.52354020161, -20743.20116558089, -12576.544293945348, -7762.447924905769, -10581.271121653454, -12560.652203637625, -12547.755247086912, 0.008, -0.024, 0.99, 192.0, 0.0, 0.0, 0.0, 0.0, 0.0, 0.0, 0.0, 0.0, 0.0, 1.644499191143721E9, 0.0, 2022-02-11 00:19:51.143
126.0, -9997.756480903206, -11385.15161098857, -11248.6048041111, -17284.983966944692, -3833.2124153628847, -2010.002971887943, -6497.897982346772, -6736.793427085094, -17631.279543790763, -15166.306813515046, -20725.655046183474, -12558.752305358925, -7759.497494637668, -10571.70457502658, -12549.118703498687, -12544.111912740698, 0.008, -0.024, 0.994, 192.0, 0.0, 32.0, 127.5, 32.0, 15.5, 8.0, 0.0, 0.0, 0.0, 1.6444991911437285E9, 0.0, 2022-02-11 00:19:51.143
