%OpenBCI Raw EEG Data
%Number of channels = 16
%Sample Rate = 125 Hz
%Board = OpenBCI_GUI$BoardCytonSerialDaisy
Sample Index, EXG Channel 0, EXG Channel 1, EXG Channel 2, EXG Channel 3, EXG Channel 4, EXG Channel 5, EXG Channel 6, EXG Channel 7, EXG Channel 8, EXG Channel 9, EXG Channel 10, EXG Channel 11, EXG Channel 12, EXG Channel 13, EXG Channel 14, EXG Channel 15, Accel Channel 0, Accel Channel 1, Accel Channel 2, Other, Other, Other, Other, Other, Other, Other, Analog Channel 0, Analog Channel 1, Analog Channel 2, Timestamp, Other, Timestamp (Formatted)
172.0, -9108.246458559806, -11225.98483872233, -10645.040648584443, -17153.041619425014, -2626.978174087784, -2171.2261046440726, -5749.650984960912, -7026.740256159336, -17021.322789349888, -14669.941624396042, -19749.643772798037, -12565.480180439972, -6226.525452914889, -10622.91242157369, -11866.697593533707, -12377.099678170644, 0.003, -0.007, 0.495, 192.0, 0.0, 24.0, 127.5, 72.0, 15.0, 120.0, 0.0, 0.0, 0.0, 1.6444991236129134E9, 0.0, 2022-02-11 00:18:43.612
174.0, -9091.773222896245, -11205.398882078993, -10648.013430597, -17144.77147397655, -2632.6108136905214, -2179.0715669478855, -5742.319612779572, -7028.416636993485, -17011.08569038936, -14667.61704297269, -19756.103426945618, -12570.308157242318, -6227.844205837751, -10624.097064029822, -11873.403116870299, -12383.760498018324, 0.003, -0.007, 0.495, 192.0, 0.0, 0.0, 0.0, 0.0, 0.0, 0.0, 0.0, 0.0, 0.0, 1.6444991236129212E9, 0.0, 2022-02-11 00:18:43.612
176.0, -9104.200792813397, -11224.308457888183, -10647.67815443017, -17150.046485668005, -2620.004429817728, -2167.471011575581, -5746.767609926178, -7018.894793855524, -17000.401556539724, -14659.838635902242, -19744.391112851037, -12549.833959321257, -6220.4681301675, -10618.263258726985, -11867.323442378456, -12377.032622937277, 0.003, -0.007, 0.495, 192.0, 0.0, 0.0, 0.0, 0.0, 0.0, 0.0, 0.0, 0.0, 0.0, 1.6444991236129284E9, 0.0, 2022-02-11 00:18:43.612
178.0, -9123.42329304496, -11235.014943482274, -10648.438113741651, -17156.997878193604, -2631.582633445577, -2176.0764331908745, -5756.512970508692, -7026.270869525775, -17026.284876618967, -14672.04268837484, -19755.58933682315, -12572.275110754385, -6228.559461660321, -10628.410950709695, -11867.77047726756, -12382.218227650908, 0.003, -0.007, 0.495, 192.0, 0.0, 0.0, 0.0, 0.0, 0.0, 0.0, 0.0, 0.0, 0.0, 1.6444991236129365E9, 0.0, 2022-02-11 00:18:43.612
180.0, -9116.024865630254, -11234.120873704062, -10645.063000328899, -17151.946383946703, -2619.132711783971, -2169.2591511320056, -5748.287528549138, -7023.6110119355935, -17019.534649793466, -14674.501380264925, -19765.781732294767, -12578.332433501773, -6228.782979104874, -10633.216575767587, -11873.11254419238, -12384.095774185154, 0.003, -0.007, 0.495, 192.0, 0.0, 0.0, 0.0, 0.0, 0.0, 0.0, 0.0, 0.0, 0.0, 1.644499123612944E9, 0.0, 2022-02-11 00:18:43.612
182.0, -9132.319287338172, -11244.134455220039, -10647.052305585421, -17161.64704104031, -2617.5010344387338, -2168.9685784540866, -5738.139836566429, -7015.430273464951, -17025.815489985405, -14673.674365720079, -19752.638906555047, -12570.397564220139, -6224.893775569651, -10611.021293523467, -11860.349698108399, -12376.384422348074, 0.0035, -0.0085, 0.7415, 192.0, 0.0, 16.0, 127.5, 88.0, 15.0, 112.0, 0.0, 0.0, 0.0, 1.644499123612951E9, 0.0, 2022-02-11 00:18:43.612
184.0, -9143.115179910086, -11260.652394372511, -10656.954128379122, -17159.79184625052, -2626.933470598873, -2183.541915838947, -5745.4488570033145, -7026.62849743706, -17034.17504241169, -14682.503304779924, -19775.77296206629, -12587.943683617556, -6231.621650650698, -10619.760825605492, -11869.178637168246, -12385.660396297026, 0.0035, -0.0085, 0.7415, 192.0, 0.0, 0.0, 0.0, 0.0, 0.0, 0.0, 0.0, 0.0, 0.0, 1.6444991236129577E9, 0.0, 2022-02-11 00:18:43.612
186.0, -9125.054970390198, -11240.602879596101, -10646.62762244077, -17153.466302569665, -2617.836310605563, -2165.9734446970756, -5749.986261127742, -7020.571174689672, -17024.832013229374, -14677.988252399953, -19760.797293281234, -12577.77363989039, -6227.419522693101, -10632.233099011553, -11870.184465668735, -12383.224056151397, 0.0035, -0.0085, 0.7415, 192.0, 0.0, 0.0, 0.0, 0.0, 0.0, 0.0, 0.0, 0.0, 0.0, 1.6444991236129644E9, 0.0, 2022-02-11 00:18:43.612
188.0, -9132.788673971734, -11236.400751638503, -10659.435172013662, -17160.52945381754, -2637.61760444851, -2177.7751657694776, -5768.001767158719, -7034.63042195206, -17027.693036519653, -14675.216636087494, -19755.879909501065, -12570.174046775586, -6226.99483954845, -10631.048456555422, -11871.145590680313, -12386.107431186132, 0.0035, -0.0085, 0.7415, 192.0, 0.0, 0.0, 0.0, 0.0, 0.0, 0.0, 0.0, 0.0, 0.0, 1.6444991236129713E9, 0.0, 2022-02-11 00:18:43.612
190.0, -9126.843109946622, -11245.073228487163, -10656.39533476774, -17153.95804094768, -2630.6885636673646, -2175.7858605129554, -5753.182560584851, -7029.15424456051, -17020.071091660393, -14672.981461641964, -19763.14422644904, -12587.720166173001, -6233.722714629497, -10634.870604857279, -11880.935654751738, -12392.812954522724, 0.0035, -0.0085, 0.7415, 192.0, 0.0, 0.0, 0.0, 0.0, 0.0, 0.0, 0.0, 0.0, 0.0, 1.644499123612978E9, 0.0, 2022-02-11 00:18:43.612
192.0, -9128.005400658298, -11239.440588884425, -10651.410895754207, -17165.91622423127, -2627.7828368881746, -2174.020072700986, -5760.983319399753, -7032.2387852953425, -17027.84949873084, -14671.28272906336, -19750.71665653189, -12578.667709668603, -6230.258194238925, -10616.318656959374, -11872.911378492283, -12389.013157965323, 0.00475, -0.009250000000000001, 0.86175, 192.0, 0.0, 24.0, 127.5, 88.0, 15.0, 88.0, 0.0, 0.0, 0.0, 1.644499123612985E9, 0.0, 2022-02-11 00:18:43.612
194.0, -9133.99566817232, -11236.46780687187, -10658.809323168913, -17166.027982953547, -2635.136560813971, -2186.29118040695, -5764.894874679431, -7033.557538218205, -17026.03900742996, -14678.18941810005, -19765.11117996111, -12590.223561551997, -6233.18627276257, -10633.216575767587, -11881.49444836312, -12400.703120315447, 0.00475, -0.009250000000000001, 0.86175, 192.0, 0.0, 0.0, 0.0, 0.0, 0.0, 0.0, 0.0, 0.0, 0.0, 1.644499123612992E9, 0.0, 2022-02-11 00:18:43.612
196.0, -9117.61183948658, -11238.79238829522, -10651.67911668767, -17162.00466895159, -2628.296927010647, -2172.4554505891147, -5763.039679889641, -7028.506043971306, -17024.49673706254, -14682.033918146362, -19761.177272936973, -12581.864009125711, -6231.599298906243, -10626.354590219808, -11883.528457108552, -12397.21624818042, 0.00475, -0.009250000000000001, 0.86175, 192.0, 0.0, 0.0, 0.0, 0.0, 0.0, 0.0, 0.0, 0.0, 0.0, 1.6444991236129987E9, 0.0, 2022-02-11 00:18:43.612
198.0, -9136.789636229234, -11241.586356352134, -10659.30106154693, -17168.173750421258, -2636.4329619923788, -2186.894677507243, -5770.192238115339, -7043.794637178736, -17027.04483593045, -14674.52373200938, -19756.57281357918, -12576.38783173416, -6231.554595417332, -10622.53244191795, -11885.227189687157, -12406.894553529568, 0.00475, -0.009250000000000001, 0.86175, 192.0, 0.0, 0.0, 0.0, 0.0, 0.0, 0.0, 0.0, 0.0, 0.0, 1.6444991236130056E9, 0.0, 2022-02-11 00:18:43.613
200.0, -9122.015133144276, -11237.965373750374, -10654.674250444681, -17161.289413129023, -2630.576804945088, -2176.9705029690867, -5761.340947311038, -7037.513796986795, -17020.80869922742, -14678.725859966979, -19762.63013632657, -12586.513171972416, -6228.7159238715085, -10624.611154152293, -11893.407928157798, -12410.917867531523, 0.00475, -0.009250000000000001, 0.86175, 192.0, 0.0, 0.0, 0.0, 0.0, 0.0, 0.0, 0.0, 0.0, 0.0, 1.6444991236130123E9, 0.0, 2022-02-11 00:18:43.613
202.0, -9128.295973336217, -11241.60870809659, -10656.641203956748, -17162.988145707626, -2625.1900345313593, -2178.445718103137, -5757.89877866492, -7036.284451041753, -17027.313056863914, -14666.454752261014, -19748.325019875174, -12571.738668887458, -6223.306801713325, -10614.105834258298, -11886.97062575467, -12405.441690139973, 0.005375, -0.010625, 0.924875, 192.0, 0.0, 24.0, 127.5, 80.0, 15.0, 112.0, 0.0, 0.0, 0.0, 1.644499123613019E9, 0.0, 2022-02-11 00:18:43.613
204.0, -9132.363990827083, -11233.919708003963, -10657.714087690603, -17158.048410183004, -2629.2133485333143, -2184.033654216964, -5756.937653653343, -7040.263061554798, -17020.875754460783, -14677.72003146649, -19757.332772890662, -12572.699793899035, -6217.428292921579, -10619.582011649849, -11892.335044423944, -12411.253143698352, 0.005375, -0.010625, 0.924875, 192.0, 0.0, 0.0, 0.0, 0.0, 0.0, 0.0, 0.0, 0.0, 0.0, 1.6444991236130297E9, 0.0, 2022-02-11 00:18:43.613
206.0, -9115.510775507782, -11223.50379508779, -10648.214596297097, -17159.747142761607, -2620.9879065737614, -2171.829601744366, -5761.720926966778, -7036.083285341655, -17014.863135202308, -14666.544159238836, -19750.71665653189, -12568.028279307877, -6219.395246433645, -10613.390578435728, -11891.01629150108, -12406.671036085014, 0.005375, -0.010625, 0.924875, 192.0, 0.0, 0.0, 0.0, 0.0, 0.0, 0.0, 0.0, 0.0, 0.0, 1.6444991236130364E9, 0.0, 2022-02-11 00:18:43.613
208.0, -9130.307630337194, -11230.857519013587, -10662.027974370478, -17167.68201204324, -2631.6273369344876, -2181.2396861600505, -5775.1543253844175, -7042.274718555775, -17021.009864927517, -14678.636452989156, -19751.8118920102, -12573.526808443881, -6218.769397588897, -10604.874563798257, -11889.518724622576, -12408.995617508366, 0.005375, -0.010625, 0.924875, 192.0, 0.0, 0.0, 0.0, 0.0, 0.0, 0.0, 0.0, 0.0, 0.0, 1.6444991236130435E9, 0.0, 2022-02-11 00:18:43.613
210.0, -9127.580717513647, -11235.819606282665, -10660.530407491971, -17163.479884085642, -2624.675944408887, -2179.6303605592684, -5749.248653560717, -7030.67416318347, -17016.07012940289, -14681.09514487924, -19765.379400894573, -12582.333395759273, -6223.239746479959, -10622.28657272894, -11895.911323536793, -12410.850812298157, 0.005375, -0.010625, 0.924875, 192.0, 0.0, 0.0, 0.0, 0.0, 0.0, 0.0, 0.0, 0.0, 0.0, 1.6444991236130505E9, 0.0, 2022-02-11 00:18:43.613
212.0, -9129.659429747991, -11248.716562833377, -10659.368116780295, -17164.753933519594, -2618.5292146836778, -2175.4952878350364, -5740.173845311862, -7028.170767804476, -17023.04387367295, -14668.37700228417, -19750.87311874308, -12577.77363989039, -6223.887947069162, -10616.832747081846, -11886.903570521305, -12406.559277362738, 0.01, -0.01, 0.984, 192.0, 0.0, 40.0, 127.5, 88.0, 15.0, 96.0, 0.0, 0.0, 0.0, 1.6444991236130571E9, 0.0, 2022-02-11 00:18:43.613
214.0, -9131.447569304415, -11236.534862105234, -10663.123209848787, -17157.400209593798, -2623.04426706365, -2180.6808925486675, -5752.71317395129, -7029.556575960705, -17022.909763206215, -14683.933816425064, -19756.796331023736, -12570.554026431326, -6222.479787168478, -10620.118453516776, -11892.849134546415, -12407.721568074414, 0.01, -0.01, 0.984, 192.0, 0.0, 0.0, 0.0, 0.0, 0.0, 0.0, 0.0, 0.0, 0.0, 1.6444991236130643E9, 0.0, 2022-02-11 00:18:43.613
216.0, -9120.38345579904, -11227.638867812022, -10654.58484346686, -17161.356468362388, -2604.6040778880215, -2172.991892456042, -5744.0406971026305, -7022.336962501641, -17014.192582868647, -14670.343955796237, -19747.76622626379, -12571.15752353162, -6211.192156218548, -10604.986322520534, -11885.428355387254, -12400.658416826536, 0.01, -0.01, 0.984, 192.0, 0.0, 0.0, 0.0, 0.0, 0.0, 0.0, 0.0, 0.0, 0.0, 1.6444991236130707E9, 0.0, 2022-02-11 00:18:43.613
218.0, -9130.553499526202, -11231.371609136058, -10656.77531442348, -17163.166959663267, -2617.7916071166524, -2174.355348867816, -5768.739374725745, -7031.076494583666, -17017.07595790338, -14678.032955888862, -19743.65350528401, -12567.938872330054, -6209.85105155123, -10606.841517310324, -11884.02019548657, -12403.631198839093, 0.01, -0.01, 0.984, 192.0, 0.0, 0.0, 0.0, 0.0, 0.0, 0.0, 0.0, 0.0, 0.0, 1.6444991236130776E9, 0.0, 2022-02-11 00:18:43.613
220.0, -9115.33196155214, -11213.758434505276, -10655.031878355967, -17158.897776472306, -2614.640011148454, -2167.605122042313, -5771.779211971666, -7024.415674735985, -17006.03419614246, -14665.203054571517, -19755.477578100872, -12572.230407265473, -6210.231031206969, -10604.986322520534, -11892.335044423944, -12403.944123261468, 0.01, -0.01, 0.984, 192.0, 0.0, 0.0, 0.0, 0.0, 0.0, 0.0, 0.0, 0.0, 0.0, 1.6444991236130843E9, 0.0, 2022-02-11 00:18:43.613
222.0, -9119.75760695429, -11226.208356166882, -10656.30592778992, -17168.64313705482, -2613.0977407810383, -2174.601218056824, -5759.955139154808, -7029.9589073609, -17013.142050879247, -14654.518920721881, -19742.357104105606, -12569.01175606391, -6211.818005063296, -10602.214706208075, -11887.01532924358, -12401.574838349205, 0.01, -0.016, 0.99, 192.0, 0.0, 40.0, 127.5, 64.0, 15.0, 120.0, 0.0, 0.0, 0.0, 1.6444991236130912E9, 0.0, 2022-02-11 00:18:43.613
224.0, -9138.778941485756, -11247.621327355067, -10662.497361004038, -17166.430314353744, -2618.775083872686, -2183.38545362776, -5758.681089720856, -7039.391343521041, -17017.411234070212, -14691.734575239967, -19757.9139182465, -12572.699793899035, -6217.808272577318, -10612.80943307989, -11890.010463000592, -12410.22496345341, 0.01, -0.016, 0.99, 192.0, 0.0, 0.0, 0.0, 0.0, 0.0, 0.0, 0.0, 0.0, 0.0, 1.644499123613098E9, 0.0, 2022-02-11 00:18:43.613
226.0, -9126.753702968801, -11246.771961065766, -10647.901671874723, -17163.234014896636, -2606.079293022072, -2166.1075551638073, -5756.736487953244, -7024.706247413904, -17016.60657126982, -14686.19134261505, -19751.163691420996, -12563.289709483352, -6214.231993464469, -10606.461537654584, -11887.21649494368, -12405.620504095616, 0.01, -0.016, 0.99, 192.0, 0.0, 0.0, 0.0, 0.0, 0.0, 0.0, 0.0, 0.0, 0.0, 1.6444991236131046E9, 0.0, 2022-02-11 00:18:43.613
228.0, -9140.634136275547, -11241.027562740752, -10666.632433728271, -17167.056163198493, -2619.780912373175, -2181.0161687154973, -5761.385650799948, -7036.887948142046, -17025.726083007587, -14676.423630288082, -19746.402769852015, -12562.753267616425, -6216.8024440768295, -10601.834726552335, -11881.270930918567, -12407.0286639963, 0.01, -0.016, 0.99, 192.0, 0.0, 0.0, 0.0, 0.0, 0.0, 0.0, 0.0, 0.0, 0.0, 1.6444991236131113E9, 0.0, 2022-02-11 00:18:43.613
230.0, -9126.574889013158, -11224.151995676995, -10655.59067196735, -17163.43518059673, -2620.0267815621833, -2181.172630926684, -5759.441049032337, -7035.72565743037, -17021.41219632771, -14668.824037173277, -19763.39009563805, -12579.271206768895, -6218.836452822263, -10606.14861323221, -11890.949236267716, -12411.901344287557, 0.01, -0.016, 0.99, 192.0, 0.0, 0.0, 0.0, 0.0, 0.0, 0.0, 0.0, 0.0, 0.0, 1.6444991236131184E9, 0.0, 2022-02-11 00:18:43.613
232.0, -9128.09480763612, -11228.599992823601, -10659.211654569108, -17167.503198087597, -2618.9315460838734, -2184.2124681726063, -5765.833647946554, -7036.977355119867, -17026.84367023035, -14657.223481800973, -19745.28518262925, -12559.400505948128, -6221.451606923533, -10617.257430226497, -11886.009500743092, -12409.040320997277, 0.01, -0.012, 0.994, 192.0, 0.0, 40.0, 127.5, 80.0, 15.5, 8.0, 0.0, 0.0, 0.0, 1.6444991236131256E9, 0.0, 2022-02-11 00:18:43.613
234.0, -9147.8090462457, -11235.976068493852, -10670.16400935221, -17167.324384131956, -2633.5942904465546, -2189.4874798640585, -5772.360357327504, -7047.035640124755, -17030.33054236538, -14685.297272836839, -19760.216147925395, -12566.396601962639, -6228.984144804972, -10606.036854509934, -11896.917152037282, -12417.131652490098, 0.01, -0.012, 0.994, 192.0, 0.0, 0.0, 0.0, 0.0, 0.0, 0.0, 0.0, 0.0, 0.0, 1.6444991236131325E9, 0.0, 2022-02-11 00:18:43.613
236.0, -9131.916955937977, -11242.100446474606, -10658.719916191092, -17167.01145970958, -2622.6642874079093, -2176.1658401686955, -5777.255389363217, -7043.660526712004, -17026.84367023035, -14679.307005322815, -19752.616554810593, -12559.57931990377, -6225.206699992025, -10605.902744043202, -11897.475945648664, -12412.951876276957, 0.01, -0.012, 0.994, 192.0, 0.0, 0.0, 0.0, 0.0, 0.0, 0.0, 0.0, 0.0, 0.0, 1.6444991236131413E9, 0.0, 2022-02-11 00:18:43.613
238.0, -9152.927595725965, -11245.900243032009, -10669.269939573996, -17172.97937547915, -2634.8906916249625, -2189.018093230497, -5788.967703457797, -7047.996765136334, -17039.919440736707, -14689.454697305526, -19755.119950189586, -12564.317889728296, -6231.196967506047, -10609.09904350031, -11897.967684026682, -12419.277419957807, 0.01, -0.012, 0.994, 192.0, 0.0, 0.0, 0.0, 0.0, 0.0, 0.0, 0.0, 0.0, 0.0, 1.644499123613148E9, 0.0, 2022-02-11 00:18:43.613
240.0, -9145.462113077892, -11248.828321555653, -10664.888997660757, -17176.57800633645, -2628.4980927107445, -2181.485555349059, -5768.985243914753, -7042.721753444881, -17036.589030812866, -14688.225351360483, -19771.63788934206, -12579.718241658002, -6232.314554728813, -10613.614095880283, -11904.203820729712, -12421.087911258688, 0.01, -0.012, 0.994, 192.0, 0.0, 0.0, 0.0, 0.0, 0.0, 0.0, 0.0, 0.0, 0.0, 1.6444991236131551E9, 0.0, 2022-02-11 00:18:43.613
242.0, -9138.376610085561, -11231.170443435962, -10660.150427836232, -17180.154285449302, -2625.3688484870017, -2181.9549419826203, -5764.917226423887, -7039.748971432326, -17036.61138255732, -14666.499455749925, -19757.980973479865, -12572.856256110223, -6227.03954303736, -10606.48388939904, -11893.87731479136, -12417.869260057123, 0.006, -0.012, 0.986, 192.0, 0.0, 24.0, 127.5, 80.0, 15.0, 104.0, 0.0, 0.0, 0.0, 1.644499123613162E9, 0.0, 2022-02-11 00:18:43.613
244.0, -9143.09282816563, -11245.654373843, -10672.82386694239, -17173.001727223604, -2630.219177033803, -2186.022959473486, -5773.701461994822, -7043.593471478638, -17033.12451042229, -14660.710353936, -19768.687459073957, -12569.905825842123, -6226.771322103897, -10612.541212146427, -11900.269913705579, -12419.635047869093, 0.006, -0.012, 0.986, 192.0, 0.0, 0.0, 0.0, 0.0, 0.0, 0.0, 0.0, 0.0, 0.0, 1.6444991236131687E9, 0.0, 2022-02-11 00:18:43.613
246.0, -9130.285278592739, -11234.232632426338, -10658.675212702181, -17167.279680643045, -2620.4067612179233, -2171.1366976662516, -5789.615904047001, -7037.87142489808, -17026.351931852332, -14661.85029290322, -19756.259889156805, -12574.77850613338, -6221.56336564581, -10606.841517310324, -11899.241733460634, -12413.890649544079, 0.006, -0.012, 0.986, 192.0, 0.0, 0.0, 0.0, 0.0, 0.0, 0.0, 0.0, 0.0, 0.0, 1.6444991236131756E9, 0.0, 2022-02-11 00:18:43.613
248.0, -9142.712848509891, -11242.972164508363, -10668.10764886232, -17177.293262159023, -2630.420342733901, -2167.515715064492, -5769.3428718260375, -7032.395247506529, -17034.398559856243, -14673.652013975623, -19749.308496631205, -12563.513226927904, -6219.4399499225565, -10586.81435427837, -11897.11831773738, -12413.734187332891, 0.006, -0.012, 0.986, 192.0, 0.0, 0.0, 0.0, 0.0, 0.0, 0.0, 0.0, 0.0, 0.0, 1.6444991236131823E9, 0.0, 2022-02-11 00:18:43.613
250.0, -9144.769208999778, -11235.93136500494, -10667.68296571767, -17172.420581867766, -2630.5991566895436, -2173.95301746762, -5746.588795970535, -7032.283488784253, -17029.79410049845, -14679.083487878263, -19765.62527008358, -12574.085602055264, -6224.402037191634, -10606.886220799235, -11903.756785840606, -12413.465966399428, 0.006, -0.012, 0.986, 192.0, 0.0, 0.0, 0.0, 0.0, 0.0, 0.0, 0.0, 0.0, 0.0, 1.644499123613189E9, 0.0, 2022-02-11 00:18:43.613
252.0, -9134.822682717167, -11238.345353406115, -10670.275768074485, -17179.081401715448, -2629.4368659778675, -2173.2377616450503, -5750.90268265041, -7036.39620976403, -17035.963181968116, -14674.881359920664, -19754.15882517801, -12563.446171694539, -6223.5526709023325, -10599.867773040269, -11897.431242159753, -12413.756539077347, 0.002, -0.012, 0.986, 192.0, 0.0, 8.0, 127.5, 80.0, 15.0, 104.0, 0.0, 0.0, 0.0, 1.644499123613196E9, 0.0, 2022-02-11 00:18:43.613
254.0, -9149.95481371341, -11241.407542396491, -10670.387526796761, -17181.33892790543, -2638.645784693454, -2182.737253038556, -5767.66649099189, -7042.788808678247, -17035.89612673475, -14662.610252214701, -19766.206415439417, -12567.760058374413, -6228.447702938045, -10602.751148075004, -11906.014312030591, -12417.846908312667, 0.002, -0.012, 0.986, 192.0, 0.0, 0.0, 0.0, 0.0, 0.0, 0.0, 0.0, 0.0, 0.0, 1.6444991236132026E9, 0.0, 2022-02-11 00:18:43.613
0.0, -9134.9567931839, -11232.444492869914, -10662.25149181503, -17180.44485812722, -2626.553490943133, -2170.309683121405, -5778.127107396974, -7036.910299886501, -17026.32958010788, -14670.165141840595, -19762.71954330439, -12569.43643920856, -6228.85003433824, -10606.796813821413, -11905.276704463568, -12417.981018779401, 0.002, -0.012, 0.986, 192.0, 0.0, 0.0, 0.0, 0.0, 0.0, 0.0, 0.0, 0.0, 0.0, 1.6444991236132092E9, 0.0, 2022-02-11 00:18:43.613
2.0, -9151.206511402906, -11251.37642042356, -10670.186361096665, -17184.714041318184, -2634.0860288245713, -2178.870401247788, -5761.832685689054, -7043.481712756362, -17034.19739415615, -14668.734630195455, -19752.035409454755, -12570.956357831521, -6221.56336564581, -10605.299246942908, -11899.666416605285, -12421.043207769777, 0.002, -0.012, 0.986, 192.0, 0.0, 0.0, 0.0, 0.0, 0.0, 0.0, 0.0, 0.0, 0.0, 1.6444991236132164E9, 0.0, 2022-02-11 00:18:43.613
4.0, -9147.47377007887, -11242.391019152525, -10666.744192450547, -17179.416677882276, -2634.1754358023927, -2172.120174422285, -5760.558636255102, -7040.196006321431, -17034.532670322977, -14682.592711757747, -19769.648584085535, -12584.255645782428, -6225.206699992025, -10609.389616178229, -11905.12024225238, -12421.669056614526, 0.002, -0.012, 0.986, 192.0, 0.0, 0.0, 0.0, 0.0, 0.0, 0.0, 0.0, 0.0, 0.0, 1.6444991236132233E9, 0.0, 2022-02-11 00:18:43.613
6.0, -9134.9567931839, -11235.305516160193, -10662.922044148689, -17188.91616927578, -2629.682735166876, -2161.279578361461, -5778.060052163608, -7041.492407499839, -17037.863080246818, -14680.581054756769, -19760.506720603316, -12572.610386921215, -6224.983182547472, -10586.546133344906, -11897.990035771136, -12419.299771702263, 0.002, -0.012, 0.986, 192.0, 0.0, 0.0, 127.5, 80.0, 15.0, 120.0, 0.0, 0.0, 0.0, 1.64449912361323E9, 0.0, 2022-02-11 00:18:43.613
8.0, -9151.832360247656, -11226.968315478363, -10679.104707134331, -17187.35154716391, -2641.350345772546, -2172.634264544757, -5772.069784649585, -7046.141570346543, -17032.722179022097, -14672.489723263947, -19768.463941629405, -12580.947587603045, -6223.70913311352, -10594.816278793369, -11905.768442841583, -12425.9829432944, 0.002, -0.012, 0.986, 192.0, 0.0, 0.0, 0.0, 0.0, 0.0, 0.0, 0.0, 0.0, 0.0, 1.644499123613237E9, 0.0, 2022-02-11 00:18:43.613
10.0, -9142.735200254345, -11241.854577285598, -10666.453619772628, -17183.17177095077, -2636.4776654812895, -2166.3310726083605, -5773.187371872351, -7043.951099389923, -17032.230440644078, -14666.18653132755, -19768.039258484754, -12572.833904365767, -6224.357333702724, -10606.05920625439, -11904.919076552282, -12421.870222314623, 0.002, -0.012, 0.986, 192.0, 0.0, 0.0, 0.0, 0.0, 0.0, 0.0, 0.0, 0.0, 0.0, 1.6444991236132438E9, 0.0, 2022-02-11 00:18:43.613
12.0, -9149.977165457865, -11256.003231525807, -10677.16010536672, -17182.478866872654, -2644.6807556963868, -2171.7848982554556, -5782.284531865661, -7048.7343727033585, -17040.99232447056, -14668.466409261991, -19769.447418385436, -12569.168218275097, -6226.726618614986, -10608.272028955464, -11904.740262596639, -12425.625315383115, 0.002, -0.012, 0.986, 192.0, 0.0, 0.0, 0.0, 0.0, 0.0, 0.0, 0.0, 0.0, 0.0, 1.6444991236132522E9, 0.0, 2022-02-11 00:18:43.613
14.0, -9132.609860016091, -11229.628173068544, -10669.761677952014, -17176.19802668071, -2633.6389939354654, -2156.831581214855, -5763.754935712211, -7038.899605143024, -17026.106062663326, -14660.844464402731, -19771.101447475132, -12577.639529423659, -6225.18434824757, -10600.426566651651, -11908.227134731667, -12423.658361871048, 0.002, -0.012, 0.986, 192.0, 0.0, 0.0, 0.0, 0.0, 0.0, 0.0, 0.0, 0.0, 0.0, 1.6444991236132596E9, 0.0, 2022-02-11 00:18:43.613
16.0, -9123.512700022782, -11220.352199119592, -10659.837503413857, -17177.65089007031, -2624.720647897798, -2148.6955462331234, -5769.812258459599, -7029.266003282786, -17022.060396916913, -14644.192414783529, -19750.649601298526, -12558.171160003087, -6216.8024440768295, -10571.481057582028, -11898.079442748958, -12414.784719322291, 0.002, -0.014, 0.986, 192.0, 0.0, 8.0, 127.5, 72.0, 15.0, 104.0, 0.0, 0.0, 0.0, 1.6444991236132665E9, 0.0, 2022-02-11 00:18:43.613
18.0, -9149.418371846483, -11246.593147110123, -10670.052250629933, -17170.811256266985, -2635.2259677917923, -2158.0385754154418, -5797.997808217741, -7031.411770750496, -17024.452033573634, -14663.079638848263, -19761.892528759545, -12567.134209529664, -6219.127025500182, -10581.673453053649, -11904.44968991872, -12418.472757157417, 0.002, -0.014, 0.986, 192.0, 0.0, 0.0, 0.0, 0.0, 0.0, 0.0, 0.0, 0.0, 0.0, 1.6444991236132734E9, 0.0, 2022-02-11 00:18:43.613
20.0, -9132.162825126985, -11228.689399801422, -10665.358384294317, -17171.235939411636, -2616.0928745380493, -2144.649880486713, -5740.3973627564155, -7023.968639846878, -17019.914629449206, -14663.079638848263, -19761.914880504, -12564.608462406215, -6212.08622599676, -10571.972795960046, -11901.745128839628, -12414.628257111104, 0.002, -0.014, 0.986, 192.0, 0.0, 0.0, 0.0, 0.0, 0.0, 0.0, 0.0, 0.0, 0.0, 1.6444991236132803E9, 0.0, 2022-02-11 00:18:43.613
22.0, -9130.553499526202, -11231.371609136058, -10668.487628518062, -17176.980337736648, -2627.7604851437195, -2155.445773058626, -5754.5460169966245, -7033.334020773652, -17022.28391436147, -14650.272089275371, -19753.734142033358, -12565.323718228785, -6211.035694007361, -10582.791040276414, -11891.955064768204, -12415.768196078325, 0.002, -0.014, 0.986, 192.0, 0.0, 0.0, 0.0, 0.0, 0.0, 0.0, 0.0, 0.0, 0.0, 1.6444991236132872E9, 0.0, 2022-02-11 00:18:43.613
24.0, -9130.866423948577, -11234.009114981785, -10669.135829107265, -17167.79377076552, -2624.7653513867085, -2150.6848514896456, -5764.604302001513, -7032.216433550887, -17014.773728224485, -14652.775484654367, -19767.94985150693, -12572.833904365767, -6214.030827764372, -10572.03985119341, -11904.248524218623, -12416.0811205007, 0.002, -0.014, 0.986, 192.0, 0.0, 0.0, 0.0, 0.0, 0.0, 0.0, 0.0, 0.0, 0.0, 1.644499123613294E9, 0.0, 2022-02-11 00:18:43.613
26.0, -9136.856691462599, -11233.517376603768, -10661.15625633672, -17170.02894521105, -2618.7303803837754, -2147.9802904105536, -5765.878351435465, -7025.242689280831, -17020.585181782866, -14652.484911976448, -19744.43581633995, -12552.896148311633, -6206.8782695386735, -10566.049583679389, -11896.760689826095, -12410.381425664596, 0.006, -0.012, 0.988, 192.0, 0.0, 24.0, 127.5, 80.0, 15.0, 112.0, 0.0, 0.0, 0.0, 1.6444991236133013E9, 0.0, 2022-02-11 00:18:43.613
28.0, -9152.748781770324, -11237.808911539187, -10673.472067531595, -17173.024078968057, -2628.967479344306, -2161.7936684839333, -5766.526552024669, -7038.2290528093645, -17027.737740008564, -14658.117551579184, -19762.7642467933, -12568.877645597178, -6215.349580687235, -10574.051508194389, -11899.129974738356, -12420.283248458296, 0.006, -0.012, 0.988, 192.0, 0.0, 0.0, 0.0, 0.0, 0.0, 0.0, 0.0, 0.0, 0.0, 1.6444991236133082E9, 0.0, 2022-02-11 00:18:43.613
30.0, -9141.215281631385, -11239.261774928782, -10671.281596574974, -17172.26411965658, -2619.646801906443, -2148.248511344017, -5779.624674275479, -7027.433160237451, -17027.335408608367, -14658.408124257103, -19768.173368951484, -12564.072020539286, -6213.89671729764, -10577.314862884863, -11904.382634685355, -12418.204536223953, 0.006, -0.012, 0.988, 192.0, 0.0, 0.0, 0.0, 0.0, 0.0, 0.0, 0.0, 0.0, 0.0, 1.6444991236133153E9, 0.0, 2022-02-11 00:18:43.613
32.0, -9144.8586159776, -11236.154882449495, -10674.030861142977, -17175.326308646956, -2622.70899089682, -2156.183380625651, -5770.527514282169, -7028.863671882591, -17031.76105401052, -14662.453790003514, -19756.48340660136, -12564.831979850767, -6207.101786983227, -10567.681261024627, -11898.817050315984, -12416.863431556634, 0.006, -0.012, 0.988, 192.0, 0.0, 0.0, 0.0, 0.0, 0.0, 0.0, 0.0, 0.0, 0.0, 1.6444991236133225E9, 0.0, 2022-02-11 00:18:43.613
34.0, -9154.916900982487, -11257.634908871045, -10673.293253575952, -17172.219416167667, -2619.490339695256, -2152.9870811685423, -5754.009575129697, -7026.896718370524, -17030.4199493432, -14671.886226163653, -19774.700078332437, -12577.170142790097, -6212.756778330419, -10572.33042387133, -11904.986131785648, -12420.819690325225, 0.004, -0.013000000000000001, 0.988, 192.0, 0.0, 8.0, 127.5, 72.0, 15.0, 112.0, 0.0, 0.0, 0.0, 1.6444991236133292E9, 0.0, 2022-02-11 00:18:43.613
36.0, -9151.854711992111, -11262.932272306953, -10662.765581937503, -17174.72281154666, -2609.2755924791804, -2146.0133368984866, -5764.2913775791385, -7024.5497852027165, -17038.243059902557, -14668.734630195455, -19760.305554903218, -12571.9174828431, -6208.107615483716, -10566.56367380186, -11895.285474692044, -12416.572858878715, 0.004, -0.013000000000000001, 0.988, 192.0, 0.0, 0.0, 0.0, 0.0, 0.0, 0.0, 0.0, 0.0, 0.0, 1.644499123613336E9, 0.0, 2022-02-11 00:18:43.613
0.0, -4601.978314158716, -5448.863559825845, -5327.270069988975, -8507.722140279073, -1389.8985254643592, -989.8917066921839, -2986.081300506747, -3467.023785951589, -8520.507338107507, -7341.989259956988, -9890.937494151294, -6295.1006049037705, -3104.299676930866, -5284.8464590128015, -5950.906092036497, -6211.013342262905, 0.008, -0.014, 0.986, 192.0, 0.0, 32.0, 127.5, 72.0, 15.0, 104.0, 0.0, 0.0, 0.0, 1.6444991241912909E9, 0.0, 2022-02-11 00:18:44.191
2.0, -9220.608677936636, -10898.53178245208, -10667.72766920658, -17015.913667191704, -2794.4374435469445, -1992.8815356351777, -5979.13634528355, -6940.663688261949, -16988.532780233953, -14348.255318195263, -19853.35586707066, -12372.718736257404, -6376.058623320892, -10298.029815915801, -11881.78502104104, -12346.723657455881, 0.008, -0.014, 0.986, 192.0, 0.0, 0.0, 0.0, 0.0, 0.0, 0.0, 0.0, 0.0, 0.0, 1.6444991241913004E9, 0.0, 2022-02-11 00:18:44.191
4.0, -9213.210250521928, -10894.039081816565, -10668.197055840143, -17013.544382279444, -2790.0117981447934, -1987.58417219927, -5972.095545780128, -6935.142807381489, -16986.856399399807, -14356.905443299467, -19865.246995120884, -12387.806163764735, -6379.813716389384, -10314.19012715699, -11888.468192633176, -12346.544843500238, 0.008, -0.014, 0.986, 192.0, 0.0, 0.0, 0.0, 0.0, 0.0, 0.0, 0.0, 0.0, 0.0, 1.6444991241913073E9, 0.0, 2022-02-11 00:18:44.191
6.0, -9211.243297009862, -10898.911762107822, -10668.152352351231, -17017.880620703774, -2789.9670946558826, -1990.3110850228175, -5983.584342430156, -6938.4955690497845, -16992.801963424918, -14357.866568311045, -19849.757236213354, -12382.911131729023, -6376.148030298714, -10302.164888640034, -11882.097945463413, -12345.06962836619, 0.006, -0.014, 0.987, 192.0, 0.0, 16.0, 127.5, 72.0, 15.0, 112.0, 0.0, 0.0, 0.0, 1.6444991241913197E9, 0.0, 2022-02-11 00:18:44.191
8.0, -9229.884651885588, -10908.098329078954, -10673.919102420701, -17016.3159985919, -2800.226545360869, -1993.8650123912112, -5973.235484747349, -6938.2049963718655, -16996.60175998232, -14365.376754448029, -19867.616280033148, -12396.45628886894, -6380.886600123239, -10310.524441066318, -11889.943407767227, -12352.289241825252, 0.006, -0.014, 0.987, 192.0, 0.0, 0.0, 0.0, 0.0, 0.0, 0.0, 0.0, 0.0, 0.0, 1.6444991241913264E9, 0.0, 2022-02-11 00:18:44.191
10.0, -9217.211212779428, -10909.059454090531, -10665.738363950059, -17014.684321246663, -2784.2673998197797, -1976.8329831162673, -5987.048862820729, -6936.70742949336, -16998.83693442785, -14360.548777645681, -19863.414152075547, -12386.576817819694, -6376.326844254357, -10299.527382794307, -11886.68005307675, -12344.957869643911, 0.006, -0.014, 0.987, 192.0, 0.0, 0.0, 0.0, 0.0, 0.0, 0.0, 0.0, 0.0, 0.0, 1.6444991241913333E9, 0.0, 2022-02-11 00:18:44.191
12.0, -9235.472587999415, -10921.7775966856, -10674.723765221092, -17021.546306794444, -2792.9845801573492, -1990.5793059562811, -5955.689365349933, -6937.154464382465, -17003.17317285218, -14362.471027668838, -19861.46955030794, -12380.005404949834, -6380.283103022945, -10296.264028103833, -11884.958968753692, -12346.276622566775, 0.006, -0.014, 0.987, 192.0, 0.0, 0.0, 0.0, 0.0, 0.0, 0.0, 0.0, 0.0, 0.0, 1.6444991241913395E9, 0.0, 2022-02-11 00:18:44.191
14.0, -9230.264631541328, -10916.793157672068, -10667.124172106287, -17014.974893924584, -2783.7533096973075, -1983.516154708404, -5961.724336352866, -6928.794911956181, -17002.234399585057, -14374.742135374801, -19874.74648651439, -12395.003425479345, -6383.769975157974, -10304.84709797467, -11887.082384476947, -12346.254270822319, 0.006, -0.014, 0.987, 192.0, 0.0, 0.0, 0.0, 0.0, 0.0, 0.0, 0.0, 0.0, 0.0, 1.644499124191346E9, 0.0, 2022-02-11 00:18:44.191
16.0, -9232.142178075574, -10926.180890343296, -10666.386564539262, -17021.389844583256, -2776.757213682796, -1976.162430782608, -5960.673804363466, -6927.297345077675, -17006.257713587012, -14363.678021869424, -19855.367524071637, -12383.40287010704, -6373.7563936419965, -10292.777155968804, -11878.119334950368, -12337.358276529107, 0.006, -0.013000000000000001, 0.9875, 192.0, 0.0, 24.0, 127.5, 80.0, 15.0, 112.0, 0.0, 0.0, 0.0, 1.6444991241913528E9, 0.0, 2022-02-11 00:18:44.191
18.0, -9262.138219134597, -10946.632736519901, -10685.9219891932, -17021.568658538898, -2788.804803944207, -1981.7727186408902, -5961.880798564052, -6934.9192899369355, -17017.12066139229, -14376.79849586469, -19877.719268526944, -12400.211381937432, -6380.528972211954, -10300.242638616877, -11887.68588157724, -12344.332020799164, 0.006, -0.013000000000000001, 0.9875, 192.0, 0.0, 0.0, 0.0, 0.0, 0.0, 0.0, 0.0, 0.0, 0.0, 1.6444991241913593E9, 0.0, 2022-02-11 00:18:44.191
20.0, -9267.50263780387, -10964.7376495287, -10669.985195396566, -17024.69790276264, -2775.706681693397, -1970.3956807131387, -5963.6912898649325, -6935.142807381489, -17021.255734116523, -14377.55845517617, -19879.865035994655, -12400.83723078218, -6386.072204836871, -10298.521554293819, -11890.636311845341, -12343.862634165602, 0.006, -0.013000000000000001, 0.9875, 192.0, 0.0, 0.0, 0.0, 0.0, 0.0, 0.0, 0.0, 0.0, 0.0, 1.6444991241913657E9, 0.0, 2022-02-11 00:18:44.191
22.0, -9307.445205145503, -10994.84544931, -10682.144544380253, -17029.972914454094, -2779.662940461986, -1973.9496080815327, -5962.2831299642485, -6929.241946845287, -17035.404388356732, -14391.148315804998, -19882.971928473944, -12409.375597164108, -6381.490097223533, -10299.929714194503, -11881.203875685202, -12345.20373883292, 0.006, -0.013000000000000001, 0.9875, 192.0, 0.0, 0.0, 0.0, 0.0, 0.0, 0.0, 0.0, 0.0, 0.0, 1.6444991241913724E9, 0.0, 2022-02-11 00:18:44.191
24.0, -9338.581185171746, -11024.953249091299, -10683.709166492124, -17028.27418187549, -2778.902981150506, -1965.098317277231, -5975.3141969816925, -6915.696789705371, -17044.18862392767, -14401.296007787707, -19906.575370618746, -12423.747768848869, -6387.189792059636, -10302.366054340131, -11890.92688452326, -12343.907337654513, 0.006, -0.013000000000000001, 0.9875, 192.0, 0.0, 0.0, 0.0, 0.0, 0.0, 0.0, 0.0, 0.0, 0.0, 1.6444991241913788E9, 0.0, 2022-02-11 00:18:44.191
26.0, -9373.584016988756, -11064.828761199566, -10687.196038627153, -17038.868908747307, -2770.968111868872, -1972.3402824807506, -5943.708830321888, -6917.529632750707, -17069.51315039553, -14409.610856725081, -19907.71530958597, -12423.36778919313, -6382.227704790557, -10300.46615606143, -11880.376861140354, -12341.202776575421, 0.009000000000000001, -0.0125, 0.98975, 192.0, 0.0, 48.0, 127.5, 80.0, 15.5, 0.0, 0.0, 0.0, 0.0, 1.6444991241913855E9, 0.0, 2022-02-11 00:18:44.191
28.0, -9413.504232585936, -11093.774270269188, -10698.036634687976, -17037.32663837989, -2777.3383590386343, -1976.3859482271612, -5953.700060093411, -6917.0825978616, -17078.4314964332, -14429.19098486793, -19931.27404824186, -12444.89251910359, -6386.206315303602, -10311.150289911067, -11886.188314698735, -12349.517625512795, 0.009000000000000001, -0.0125, 0.98975, 192.0, 0.0, 0.0, 0.0, 0.0, 0.0, 0.0, 0.0, 0.0, 0.0, 1.644499124191392E9, 0.0, 2022-02-11 00:18:44.191
30.0, -9431.76560780592, -11108.682883820878, -10696.963750954123, -17039.673571547697, -2767.1012600781037, -1961.4326311865607, -5952.269548448271, -6902.84453664357, -17088.176857015715, -14427.67106624497, -19934.269181998872, -12444.624298170125, -6380.886600123239, -10300.197935127966, -11886.612997843386, -12341.269831808786, 0.009000000000000001, -0.0125, 0.98975, 192.0, 0.0, 0.0, 0.0, 0.0, 0.0, 0.0, 0.0, 0.0, 0.0, 1.6444991241913984E9, 0.0, 2022-02-11 00:18:44.191
32.0, -9445.53428239039, -11120.126976981996, -10696.807288742935, -17051.922327509204, -2779.2159055728803, -1971.2003435135298, -5975.425955703969, -6924.793949698681, -17104.068947323438, -14428.162804622985, -19940.080635557253, -12455.151969808576, -6388.374434515767, -10285.89281867657, -11888.378785655355, -12348.198872589932, 0.009000000000000001, -0.0125, 0.98975, 192.0, 0.0, 0.0, 0.0, 0.0, 0.0, 0.0, 0.0, 0.0, 0.0, 1.644499124191405E9, 0.0, 2022-02-11 00:18:44.191
34.0, -9428.748122304454, -11113.175584456396, -10695.086204419877, -17041.41700761521, -2776.131364838048, -1975.9165615935997, -5947.799199557209, -6913.931001893402, -17089.361499471845, -14415.936400405932, -19947.501414716415, -12465.523179235839, -6387.770937415474, -10319.37573187062, -11895.084308991947, -12351.328116813675, 0.009000000000000001, -0.0125, 0.98975, 192.0, 0.0, 0.0, 0.0, 0.0, 0.0, 0.0, 0.0, 0.0, 0.0, 1.6444991241914115E9, 0.0, 2022-02-11 00:18:44.191
36.0, -9429.798654293854, -11129.268840464216, -10694.683873019681, -17043.741589038564, -2766.900094378006, -1969.9933493129433, -5937.919728507964, -6911.807586170147, -17093.72008964063, -14438.109330905598, -19928.7035976295, -12449.36286799465, -6384.082899580348, -10317.967571969935, -11883.416698386276, -12343.505006254318, 0.0085, -0.013250000000000001, 0.988875, 192.0, 0.0, 32.0, 127.5, 72.0, 15.0, 112.0, 0.0, 0.0, 0.0, 1.644499124191418E9, 0.0, 2022-02-11 00:18:44.191
38.0, -9425.641229825167, -11116.282476935683, -10701.478803334094, -17040.36647562581, -2770.543428724221, -1966.908808578111, -5946.927481523452, -6915.003885627257, -17090.389679716787, -14442.378514096561, -19941.265278013383, -12449.407571483562, -6385.356949014301, -10309.540964310285, -11888.199971699712, -12345.740180699848, 0.0085, -0.013250000000000001, 0.988875, 192.0, 0.0, 0.0, 0.0, 0.0, 0.0, 0.0, 0.0, 0.0, 0.0, 1.6444991241914265E9, 0.0, 2022-02-11 00:18:44.191
40.0, -9390.750156730433, -11080.184409640362, -10690.057061917432, -17041.975801226592, -2762.2732832757574, -1957.2081514845077, -5945.631080345044, -6903.917420377425, -17081.47133367912, -14414.170612593964, -19929.977647063453, -12438.164644022543, -6384.284065280445, -10300.443804316976, -11887.037680988036, -12340.487520752851, 0.0085, -0.013250000000000001, 0.988875, 192.0, 0.0, 0.0, 0.0, 0.0, 0.0, 0.0, 0.0, 0.0, 0.0, 1.644499124191433E9, 0.0, 2022-02-11 00:18:44.191
42.0, -9386.324511328283, -11080.7655549962, -10701.344692867362, -17047.675496062697, -2775.505515993299, -1975.0448435598428, -5949.185007713439, -6916.210879827843, -17074.4305341757, -14407.979179379843, -19916.678359112546, -12443.238490013897, -6385.602818203309, -10298.387443827087, -11886.389480398831, -12345.337849299653, 0.0085, -0.013250000000000001, 0.988875, 192.0, 0.0, 0.0, 0.0, 0.0, 0.0, 0.0, 0.0, 0.0, 0.0, 1.6444991241914396E9, 0.0, 2022-02-11 00:18:44.191
44.0, -9372.37702278817, -11072.51776129219, -10691.532277051483, -17048.301344907446, -2778.83592591714, -1970.127459779675, -5955.13057173855, -6916.769673439226, -17067.70265909465, -14428.252211600806, -19926.714292372977, -12456.515426220349, -6390.296684538924, -10303.014254929336, -11896.224247959168, -12352.78098020327, 0.0085, -0.013250000000000001, 0.988875, 192.0, 0.0, 0.0, 0.0, 0.0, 0.0, 0.0, 0.0, 0.0, 0.0, 1.644499124191446E9, 0.0, 2022-02-11 00:18:44.191
46.0, -9342.403333473603, -11041.292374288127, -10686.346672337851, -17044.47919660559, -2780.221734073369, -1971.0885847912534, -5969.927426567963, -6919.518938007229, -17059.164292712725, -14410.90725790349, -19902.350890916692, -12437.807016111257, -6385.491059481033, -10305.092967163679, -11891.932713023749, -12349.115294112598, 0.00625, -0.013625000000000002, 0.9884375, 192.0, 0.0, 16.0, 127.5, 72.0, 15.0, 112.0, 0.0, 0.0, 0.0, 1.6444991241914525E9, 0.0, 2022-02-11 00:18:44.191
48.0, -9340.32462123926, -11029.334191004538, -10696.315550364918, -17041.908745993227, -2787.6201614880756, -1980.2528000179293, -5958.237464217837, -6925.263336332243, -17048.502510607545, -14396.780955407734, -19905.547190373803, -12428.486338673394, -6384.775803658463, -10316.268839391332, -11901.231038717156, -12354.30089882623, 0.00625, -0.013625000000000002, 0.9884375, 192.0, 0.0, 0.0, 0.0, 0.0, 0.0, 0.0, 0.0, 0.0, 0.0, 1.6444991241914592E9, 0.0, 2022-02-11 00:18:44.191
50.0, -9309.635676102123, -11006.490708171214, -10678.881189689779, -17044.345086138856, -2771.92923688045, -1968.6075411567142, -5955.197626971916, -6917.529632750707, -17040.36647562581, -14389.382527993028, -19895.824181535743, -12426.541736905783, -6385.155783314202, -10306.27760961981, -11896.604227614907, -12351.328116813675, 0.00625, -0.013625000000000002, 0.9884375, 192.0, 0.0, 0.0, 0.0, 0.0, 0.0, 0.0, 0.0, 0.0, 0.0, 1.644499124191466E9, 0.0, 2022-02-11 00:18:44.191
52.0, -9321.236231474428, -11005.775452348644, -10691.219352629108, -17051.56469959792, -2785.7426149538296, -1977.4364802165605, -5966.887589322042, -6921.776464197214, -17044.90387975024, -14386.342690747106, -19890.124486699642, -12424.865356071634, -6385.938094370138, -10297.22515311541, -11890.703367078706, -12354.166788359498, 0.00625, -0.013625000000000002, 0.9884375, 192.0, 0.0, 0.0, 0.0, 0.0, 0.0, 0.0, 0.0, 0.0, 0.0, 1.6444991241914723E9, 0.0, 2022-02-11 00:18:44.191
54.0, -9299.689149819511, -10984.69775732729, -10688.224218872097, -17040.433530859176, -2779.260609061791, -1968.8534103457225, -5979.2481040058265, -6916.65791471695, -17029.123548164793, -14400.916028131966, -19894.08074546823, -12426.005295038854, -6386.116908325781, -10298.588609527185, -11899.107622993903, -12354.703230226425, 0.00625, -0.013625000000000002, 0.9884375, 192.0, 0.0, 0.0, 0.0, 0.0, 0.0, 0.0, 0.0, 0.0, 0.0, 1.6444991241914787E9, 0.0, 2022-02-11 00:18:44.191
56.0, -9286.345158379694, -10997.594713878003, -10675.550779765937, -17046.28968790647, -2778.4559462613997, -1978.9787505839768, -5954.08003974915, -6923.98928689829, -17025.70373126313, -14382.855818612077, -19871.17020740154, -12416.192879222976, -6379.053757077904, -10289.916132678525, -11892.133878723846, -12350.478750524373, 0.004125, -0.0118125, 0.98721875, 192.0, 0.0, 8.0, 127.5, 88.0, 15.0, 104.0, 0.0, 0.0, 0.0, 1.6444991241914854E9, 0.0, 2022-02-11 00:18:44.191
58.0, -9288.26740840285, -10988.564609118059, -10687.64307351626, -17043.272202405, -2790.12355686707, -1986.1536605541303, -5948.246234446316, -6925.6433159879825, -17025.234344629567, -14394.635187940024, -19884.51419884136, -12424.038341526788, -6382.7417949130295, -10305.741167752883, -11901.87923930636, -12360.514683784806, 0.004125, -0.0118125, 0.98721875, 192.0, 0.0, 0.0, 0.0, 0.0, 0.0, 0.0, 0.0, 0.0, 0.0, 1.644499124191492E9, 0.0, 2022-02-11 00:18:44.191
60.0, -9266.608568025656, -10965.810533262556, -10676.713070477614, -17044.61330707232, -2773.091527592126, -1958.8845323186556, -5943.753533810799, -6906.689036689882, -17016.56186778091, -14357.397181677483, -19875.484094081414, -12413.175393721509, -6372.616454674775, -10282.249484330356, -11896.44776540372, -12347.64007897855, 0.004125, -0.0118125, 0.98721875, 192.0, 0.0, 0.0, 0.0, 0.0, 0.0, 0.0, 0.0, 0.0, 0.0, 1.6444991241914995E9, 0.0, 2022-02-11 00:18:44.191
62.0, -9279.080841431718, -10971.532579843115, -10687.821887471902, -17048.524862352, -2787.866030677084, -1971.1556400246193, -5968.496914922824, -6925.553909010161, -17022.552135294933, -14376.753792375779, -19872.019573690843, -12411.78958556528, -6378.562018699887, -10302.880144462604, -11892.73737582414, -12349.070590623689, 0.004125, -0.0118125, 0.98721875, 192.0, 0.0, 0.0, 0.0, 0.0, 0.0, 0.0, 0.0, 0.0, 0.0, 1.644499124191506E9, 0.0, 2022-02-11 00:18:44.191
64.0, -9273.761126251356, -10966.279919896117, -10686.346672337851, -17046.26733616201, -2786.9719608988717, -1971.8485441027337, -5954.728240338354, -6916.277935061209, -17021.23338237207, -14387.236760525318, -19886.637614564614, -12418.964495535434, -6384.015844346982, -10304.735339252395, -11901.678073606263, -12358.100695383633, 0.004125, -0.0118125, 0.98721875, 192.0, 0.0, 0.0, 0.0, 0.0, 0.0, 0.0, 0.0, 0.0, 0.0, 1.644499124191513E9, 0.0, 2022-02-11 00:18:44.191
66.0, -9261.467666800936, -10964.40237336187, -10681.78691646897, -17045.954411739636, -2786.569629498676, -1964.8971515771332, -5966.865237577586, -6924.4139700429405, -17017.27712360348, -14378.161952276463, -19866.766913743846, -12404.212344194932, -6375.030443075949, -10295.235847858889, -11894.413756658287, -12354.703230226425, 0.0050625, -0.01090625, 0.986609375, 192.0, 0.0, 24.0, 127.5, 88.0, 15.0, 104.0, 0.0, 0.0, 0.0, 1.6444991241915195E9, 0.0, 2022-02-11 00:18:44.191
68.0, -9265.490980802891, -10964.111800683952, -10690.146468895253, -17047.2731646625, -2796.5608592701983, -1971.6026749137254, -5972.564932413689, -6927.811435200148, -17015.958370680615, -14384.442792468404, -19875.014707447852, -12412.728358832403, -6383.2111815465905, -10300.242638616877, -11903.868544562882, -12360.291166340252, 0.0050625, -0.01090625, 0.986609375, 192.0, 0.0, 0.0, 0.0, 0.0, 0.0, 0.0, 0.0, 0.0, 0.0, 1.644499124191526E9, 0.0, 2022-02-11 00:18:44.191
70.0, -9252.012878896341, -10948.957317943254, -10682.435117058172, -17051.005905986538, -2796.4938040368324, -1963.5560469098148, -5979.13634528355, -6932.259432346754, -17012.046815400936, -14377.983138320822, -19868.622108533636, -12410.582591364693, -6384.105251324803, -10294.632350758595, -11906.237829475145, -12360.693497740449, 0.0050625, -0.01090625, 0.986609375, 192.0, 0.0, 0.0, 0.0, 0.0, 0.0, 0.0, 0.0, 0.0, 0.0, 1.6444991241915345E9, 0.0, 2022-02-11 00:18:44.191
72.0, -9263.613434268646, -10965.318794884539, -10694.862686975323, -17059.164292712725, -2820.410170604011, -1981.4597942185158, -5992.703854167921, -6947.592729043095, -17027.17894639718, -14379.123077288043, -19871.349021357182, -12410.470832642417, -6393.2471148070235, -10300.242638616877, -11914.530326668064, -12373.433992079974, 0.0050625, -0.01090625, 0.986609375, 192.0, 0.0, 0.0, 0.0, 0.0, 0.0, 0.0, 0.0, 0.0, 0.0, 1.6444991241915407E9, 0.0, 2022-02-11 00:18:44.191
74.0, -9260.506541789358, -10954.947585457276, -10690.727614251091, -17055.453903133144, -2824.5899468171533, -1988.2323727884739, -5997.643589692544, -6951.191359900398, -17022.865059717307, -14378.832504610124, -19885.005937219375, -12420.149137991564, -6398.700940454119, -10309.719778265928, -11927.829614618971, -12381.279454383786, 0.0050625, -0.01090625, 0.986609375, 192.0, 0.0, 0.0, 0.0, 0.0, 0.0, 0.0, 0.0, 0.0, 0.0, 1.6444991241915476E9, 0.0, 2022-02-11 00:18:44.191
76.0, -9259.143085377586, -10959.484989581704, -10693.476878819094, -17062.405295658744, -2833.061257965715, -1992.4792042349823, -6013.960363144918, -6960.020298960245, -17029.21295514261, -14373.55749291867, -19870.164378901052, -12407.36394016313, -6405.451167279622, -10309.183336399, -11924.655666906317, -12381.480620083883, 0.0050625, -0.01090625, 0.986609375, 192.0, 0.0, 0.0, 127.5, 80.0, 15.5, 0.0, 0.0, 0.0, 0.0, 1.644499124191554E9, 0.0, 2022-02-11 00:18:44.191
78.0, -9263.434620313004, -10950.8348644775, -10704.004550457545, -17064.23813870408, -2834.961156244416, -1989.6405326891581, -6017.00020039084, -6963.127191439533, -17028.36358885331, -14381.581769178125, -19880.893216239598, -12417.466928656928, -6410.547365015432, -10311.61967654463, -11936.278574023077, -12391.0248149663, 0.0050625, -0.01090625, 0.986609375, 192.0, 0.0, 0.0, 0.0, 0.0, 0.0, 0.0, 0.0, 0.0, 0.0, 1.6444991241915605E9, 0.0, 2022-02-11 00:18:44.191
80.0, -9247.631936983102, -10950.74545749968, -10689.744137495058, -17060.751266569052, -2822.8465107496395, -1983.0244163303873, -6003.142118828549, -6955.952281469379, -17018.4170625707, -14381.134734289019, -19874.277099880826, -12416.371693178618, -6404.26652482349, -10308.266914876333, -11929.662457664306, -12383.49227708486, 0.0050625, -0.01090625, 0.986609375, 192.0, 0.0, 0.0, 0.0, 0.0, 0.0, 0.0, 0.0, 0.0, 0.0, 1.6444991241915672E9, 0.0, 2022-02-11 00:18:44.191
82.0, -9257.824332454722, -10965.162332673352, -10703.758681268535, -17063.23231020359, -2834.2682521663014, -1993.1050530797309, -6006.450177007935, -6970.123287454044, -17027.111891163815, -14386.007414580276, -19871.50548356837, -12413.465966399428, -6404.177117845669, -10314.592458557185, -11924.901536095327, -12386.30859688623, 0.0050625, -0.01090625, 0.986609375, 192.0, 0.0, 0.0, 0.0, 0.0, 0.0, 0.0, 0.0, 0.0, 0.0, 1.6444991241915736E9, 0.0, 2022-02-11 00:18:44.191
84.0, -9252.795189952278, -10953.382963345404, -10704.026902201998, -17058.918423523715, -2831.831912020673, -1986.4665849765047, -5994.42493849098, -6939.099066150077, -17024.74260625155, -14387.616740181058, -19887.196408175994, -12420.797338580769, -6411.687303982652, -10315.106548679656, -11931.584707687463, -12387.381480620084, 0.0050625, -0.01090625, 0.986609375, 192.0, 0.0, 0.0, 0.0, 0.0, 0.0, 0.0, 0.0, 0.0, 0.0, 1.6444991241915803E9, 0.0, 2022-02-11 00:18:44.191
86.0, -9246.424942782514, -10948.152655142863, -10699.73536726658, -17064.57341487091, -2829.6861445529635, -1981.549201196337, -6006.7183979413985, -6943.882339463514, -17025.167289396202, -14375.725612130835, -19868.331535855716, -12408.0791959857, -6408.222783592079, -10303.729510751906, -11927.181414029768, -12377.189085148464, 0.004, -0.012, 0.988, 192.0, 0.0, 16.0, 127.5, 80.0, 15.0, 112.0, 0.0, 0.0, 0.0, 1.6444991241915867E9, 0.0, 2022-02-11 00:18:44.191
88.0, -9247.006088138352, -10946.74449524218, -10705.144489424765, -17059.276051435, -2834.312955655212, -1982.6891401635578, -6004.103243840128, -6954.007679701767, -17022.909763206215, -14378.206655765374, -19875.03705919231, -12416.59521062317, -6407.485176025054, -10309.965647454936, -11931.584707687463, -12384.74397477436, 0.004, -0.012, 0.988, 192.0, 0.0, 0.0, 0.0, 0.0, 0.0, 0.0, 0.0, 0.0, 0.0, 1.6444991241915932E9, 0.0, 2022-02-11 00:18:44.191
90.0, -9237.931279889499, -10932.752303213156, -10691.934608451678, -17056.213862444623, -2828.8814817525727, -1965.5006486774266, -6004.684389195966, -6947.32450810963, -17013.61143751281, -14363.007469535765, -19865.001125931874, -12408.190954707976, -6403.148937600725, -10298.208629871444, -11929.796568131038, -12377.479657826383, 0.004, -0.012, 0.988, 192.0, 0.0, 0.0, 0.0, 0.0, 0.0, 0.0, 0.0, 0.0, 0.0, 1.6444991241915998E9, 0.0, 2022-02-11 00:18:44.191
92.0, -9251.901120174065, -10939.837806205489, -10707.200849914652, -17059.924252024204, -2844.438295893466, -1978.8222883727897, -6015.010895134318, -6957.651014047982, -17027.581277797377, -14362.9404143024, -19866.36458234365, -12400.323140659708, -6410.547365015432, -10299.99676942787, -11933.059922821514, -12381.54767531725, 0.004, -0.012, 0.988, 192.0, 0.0, 0.0, 0.0, 0.0, 0.0, 0.0, 0.0, 0.0, 0.0, 1.6444991241916063E9, 0.0, 2022-02-11 00:18:44.191
94.0, -9245.910852660043, -10932.64054449088, -10709.413672615729, -17056.66089733373, -2844.482999382377, -1975.000140070932, -6029.338363330169, -6947.592729043095, -17021.434548072168, -14373.535141174216, -19883.910701741064, -12413.30950418824, -6420.784463975962, -10304.131842152101, -11946.090989838958, -12384.363995118618, 0.004, -0.012, 0.988, 192.0, 0.0, 0.0, 0.0, 0.0, 0.0, 0.0, 0.0, 0.0, 0.0, 1.6444991241916127E9, 0.0, 2022-02-11 00:18:44.191
96.0, -9244.457989270448, -10938.697867238268, -10705.12213768031, -17065.489836393575, -2832.725981798885, -1977.6823494055689, -5980.432746461957, -6948.464447076852, -17026.106062663326, -14366.9413765599, -19871.17020740154, -12398.222076680908, -6420.918574442694, -10300.354397339153, -11930.35536174242, -12382.195875906453, 0.002, -0.016, 0.982, 192.0, 0.0, 8.0, 127.5, 64.0, 15.0, 88.0, 0.0, 0.0, 0.0, 1.6444991241916192E9, 0.0, 2022-02-11 00:18:44.191
98.0, -9259.92539643352, -10950.231367377206, -10721.751835555058, -17066.85329280535, -2848.8862930400724, -1985.7066256650241, -5994.179069301971, -6948.620909288038, -17030.397597598745, -14377.357289476073, -19882.949576729487, -12409.30854193074, -6430.373362347289, -10313.072539934223, -11935.049228078036, -12387.49323934236, 0.002, -0.016, 0.982, 192.0, 0.0, 0.0, 0.0, 0.0, 0.0, 0.0, 0.0, 0.0, 0.0, 1.644499124191626E9, 0.0, 2022-02-11 00:18:44.191
100.0, -9253.599852752668, -10947.124474897919, -10706.64205630327, -17071.18953122968, -2843.700688326441, -1979.6940064065466, -6007.3665985306025, -6947.905653465468, -17029.950562709637, -14370.428248694927, -19880.043849950296, -12408.146251219065, -6433.435551337666, -10301.628446773106, -11936.099760067435, -12382.620559051104, 0.002, -0.016, 0.982, 192.0, 0.0, 0.0, 0.0, 0.0, 0.0, 0.0, 0.0, 0.0, 0.0, 1.6444991241916325E9, 0.0, 2022-02-11 00:18:44.191
102.0, -9260.148913878074, -10951.840692977989, -10718.711998309136, -17080.130229011804, -2860.9562350459382, -1993.6861984355687, -6026.052656895239, -6950.610214544561, -17039.584164569875, -14380.754754633279, -19878.903910983077, -12416.103472245155, -6442.823284008895, -10296.644007759573, -11936.859719378916, -12386.487410841872, 0.002, -0.016, 0.982, 192.0, 0.0, 0.0, 0.0, 0.0, 0.0, 0.0, 0.0, 0.0, 0.0, 1.6444991241916409E9, 0.0, 2022-02-11 00:18:44.191
104.0, -9258.919567933031, -10944.911652196843, -10718.466129120128, -17076.5315981545, -2858.162266989025, -1993.77560541339, -6003.052711850729, -6955.974633213835, -17032.856289488827, -14375.882074342022, -19892.13614370062, -12432.196728252975, -6445.639603810264, -10315.933563224502, -11943.02880084858, -12392.388271378073, 0.002, -0.016, 0.982, 192.0, 0.0, 0.0, 0.0, 0.0, 0.0, 0.0, 0.0, 0.0, 0.0, 1.6444991241916473E9, 0.0, 2022-02-11 00:18:44.191
106.0, -9254.583329508701, -10950.633698777403, -10713.54874533996, -17075.436362676188, -2856.9776245328935, -1988.969980355499, -6006.293714796748, -6957.539255325706, -17037.550155824443, -14371.65759463997, -19875.193521403497, -12412.057806498744, -6441.549234574943, -10311.351455611164, -11936.390332745354, -12390.242503910364, 0.008, -0.014, 0.984, 192.0, 0.0, 32.0, 127.5, 72.0, 15.0, 96.0, 0.0, 0.0, 0.0, 1.6444991241916535E9, 0.0, 2022-02-11 00:18:44.191
108.0, -9269.156666893563, -10953.82999823451, -10726.780978057503, -17074.60934813134, -2872.0650520402255, -1992.1439280681525, -6013.2898108112595, -6953.493589579295, -17042.646353560252, -14386.119173302553, -19891.46559136696, -12415.36586467813, -6452.568644591409, -10315.039493446291, -11946.22510030569, -12391.650663811048, 0.008, -0.014, 0.984, 192.0, 0.0, 0.0, 0.0, 0.0, 0.0, 0.0, 0.0, 0.0, 0.0, 1.6444991241916602E9, 0.0, 2022-02-11 00:18:44.191
110.0, -9254.762143464344, -10948.35382084296, -10711.984123228089, -17075.14578999827, -2858.698708855952, -1986.1089570652196, -6007.254839808326, -6944.4858365638065, -17039.248888403046, -14379.525408688238, -19889.900969255086, -12416.706969345447, -6449.439400367666, -10310.636199788594, -11947.722667184195, -12389.571951576705, 0.008, -0.014, 0.984, 192.0, 0.0, 0.0, 0.0, 0.0, 0.0, 0.0, 0.0, 0.0, 0.0, 1.6444991241916668E9, 0.0, 2022-02-11 00:18:44.191
112.0, -9268.933149449009, -10956.69102152479, -10715.918030252222, -17080.309042967445, -2871.3944997065664, -1993.8650123912112, -6018.765988202809, -6953.13596166801, -17046.04381871746, -14375.256225497274, -19885.922358742042, -12413.287152443785, -6455.027336481493, -10318.571069070229, -11941.55358571453, -12392.052995211245, 0.008, -0.014, 0.984, 192.0, 0.0, 0.0, 0.0, 0.0, 0.0, 0.0, 0.0, 0.0, 0.0, 1.6444991241916733E9, 0.0, 2022-02-11 00:18:44.191
114.0, -9267.010899425853, -10966.97282397423, -10717.057969219442, -17075.70458360965, -2871.930941573494, -1992.4792042349823, -6018.229546335882, -6950.967842455846, -17041.61817331531, -14388.309644259172, -19899.199294948496, -12425.804129338758, -6462.09048772937, -10319.0851591927, -11949.667268951807, -12395.539867346271, 0.008, -0.014, 0.984, 192.0, 0.0, 0.0, 0.0, 0.0, 0.0, 0.0, 0.0, 0.0, 0.0, 1.6444991241916797E9, 0.0, 2022-02-11 00:18:44.191
116.0, -9261.490018545392, -10966.45873385176, -10712.386454628284, -17078.453848177654, -2867.549999660254, -1986.9136198656108, -6022.789302204765, -6961.316700138653, -17043.04868496045, -14381.760583133768, -19881.340251128706, -12412.25897219884, -6456.636662082275, -10305.584705541696, -11941.88886188136, -12390.60013182165, 0.008, -0.012, 0.988, 192.0, 0.0, 32.0, 127.5, 80.0, 15.0, 112.0, 0.0, 0.0, 0.0, 1.6444991241916866E9, 0.0, 2022-02-11 00:18:44.191
118.0, -9278.365585609148, -10966.101105940474, -10723.674085578214, -17079.61613888933, -2886.280761513801, -1998.9835618714765, -6033.182863376483, -6953.225368645832, -17047.541385595963, -14380.955920333377, -19898.327576914737, -12421.110263003144, -6465.934987775682, -10308.08810092069, -11949.51080674062, -12399.250256925852, 0.008, -0.012, 0.988, 192.0, 0.0, 0.0, 0.0, 0.0, 0.0, 0.0, 0.0, 0.0, 0.0, 1.6444991241916938E9, 0.0, 2022-02-11 00:18:44.191
120.0, -9266.943844192487, -10960.267300637639, -10712.40880637274, -17082.499513924064, -2871.930941573494, -1987.7182826660019, -6023.14693011605, -6947.257452876264, -17052.212900187125, -14376.172647019941, -19906.03892875182, -12418.159832735042, -6470.181819222191, -10318.481662092408, -11948.415571262309, -12392.678844055992, 0.008, -0.012, 0.988, 192.0, 0.0, 0.0, 0.0, 0.0, 0.0, 0.0, 0.0, 0.0, 0.0, 1.6444991246707883E9, 0.0, 2022-02-11 00:18:44.670
122.0, -9276.59979779718, -10959.484989581704, -10723.763492556036, -17088.735650627095, -2887.2865900142897, -1998.447120004549, -6038.524930301301, -6958.992118715301, -17053.777522298995, -14380.933568588922, -19894.818353035254, -12417.958667034945, -6473.80280182395, -10312.536098067296, -11944.861643893915, -12397.462117369429, 0.008, -0.012, 0.988, 192.0, 0.0, 0.0, 0.0, 0.0, 0.0, 0.0, 0.0, 0.0, 0.0, 1.6444991246709623E9, 0.0, 2022-02-11 00:18:44.670
124.0, -9271.12362040563, -10952.086562166996, -10716.655637819247, -17086.47812443711, -2892.1369185610915, -1999.2741345493955, -6040.044848924262, -6957.0922204366, -17048.726028052097, -14389.963673348866, -19909.212876464473, -12431.995562552878, -6477.177915236702, -10322.393217372086, -11954.22702482069, -12402.491259871873, 0.008, -0.012, 0.988, 192.0, 0.0, 0.0, 0.0, 0.0, 0.0, 0.0, 0.0, 0.0, 0.0, 1.6444991246709695E9, 0.0, 2022-02-11 00:18:44.670
126.0, -9273.872884973633, -10969.967957731242, -10714.711036051636, -17090.4343832057, -2887.219534780924, -1998.5141752379152, -6028.913680185518, -6955.1699704134435, -17052.794045542963, -14384.979234335333, -19892.694937312, -12425.535908405294, -6480.530676904998, -10316.984095213902, -11948.862606151415, -12400.479602870895, 0.008, -0.01, 0.99, 192.0, 0.0, 32.0, 127.5, 88.0, 15.0, 120.0, 0.0, 0.0, 0.0, 1.6444991246709778E9, 0.0, 2022-02-11 00:18:44.670
128.0, -9287.395690369092, -10972.270187410139, -10728.278544936007, -17083.550045913464, -2895.377921507111, -2001.3975502726496, -6003.387988017558, -6962.590749572605, -17058.449036890153, -14396.110403074075, -19909.101117742197, -12430.27447822982, -6485.738633363085, -10327.847043019181, -11951.41070501932, -12403.698254072458, 0.008, -0.01, 0.99, 192.0, 0.0, 0.0, 0.0, 0.0, 0.0, 0.0, 0.0, 0.0, 0.0, 1.6444991246709847E9, 0.0, 2022-02-11 00:18:44.670
130.0, -9273.716422762445, -10966.235216407207, -10718.153204697754, -17085.315833725435, -2890.929924360505, -1989.3723117556945, -6023.951592916441, -6950.409048844463, -17051.967030998116, -14381.782934878223, -19907.447088652505, -12425.535908405294, -6484.509287418043, -10319.956877226457, -11956.216330077212, -12400.054919726244, 0.008, -0.01, 0.99, 192.0, 0.0, 0.0, 0.0, 0.0, 0.0, 0.0, 0.0, 0.0, 0.0, 1.6444991246709917E9, 0.0, 2022-02-11 00:18:44.670
132.0, -9292.491888104903, -10972.806629277067, -10731.988934515588, -17090.792011116984, -2903.2010320664685, -2001.9786956284877, -6034.389857577069, -6958.2768628927315, -17064.37224917081, -14394.7469466623, -19907.804716563787, -12425.021818282821, -6491.192459010179, -10326.863566263148, -11958.026821378091, -12402.468908127417, 0.008, -0.01, 0.99, 192.0, 0.0, 0.0, 0.0, 0.0, 0.0, 0.0, 0.0, 0.0, 0.0, 1.6444991246710105E9, 0.0, 2022-02-11 00:18:44.671
134.0, -9289.519106092346, -10972.471353110237, -10729.239669947585, -17092.021357062025, -2903.4245495110217, -2000.1682043276078, -6037.854377967641, -6959.908540237969, -17059.365458412824, -14403.888810144523, -19921.931019059542, -12434.320143976229, -6494.612275911842, -10315.33006612421, -11967.503961027141, -12405.50874537334, 0.008, -0.01, 0.99, 192.0, 0.0, 0.0, 0.0, 0.0, 0.0, 0.0, 0.0, 0.0, 0.0, 1.6444991246710222E9, 0.0, 2022-02-11 00:18:44.671
136.0, -9284.758184523367, -10965.139980928896, -10723.048236733466, -17099.129211798812, -2901.792872165784, -2000.4587770055268, -6043.777590248298, -6962.076659450133, -17066.495664894064, -14386.543856447204, -19910.37516717615, -12427.480510172905, -6492.354749721855, -10326.170662185034, -11961.93837665777, -12404.614675595127, 0.006, -0.012, 0.994, 192.0, 0.0, 24.0, 127.5, 80.0, 15.5, 8.0, 0.0, 0.0, 0.0, 1.644499124671029E9, 0.0, 2022-02-11 00:18:44.671
138.0, -9298.191582941006, -10976.718184556745, -10735.65462060626, -17093.42951696271, -2918.154349107069, -2007.1643003421188, -6045.00693619334, -6964.535351340217, -17068.306156194943, -14401.497173487804, -19926.62488539516, -12433.537832920294, -6502.927124849216, -10334.977249500424, -11969.761487217127, -12411.588419865182, 0.006, -0.012, 0.994, 192.0, 0.0, 0.0, 0.0, 0.0, 0.0, 0.0, 0.0, 0.0, 0.0, 1.6444991246710355E9, 0.0, 2022-02-11 00:18:44.671
140.0, -9288.736795036411, -10975.466486867248, -10724.814024545434, -17092.62485416232, -2911.0911978591917, -1990.5122507229153, -6035.552148288745, -6944.150560396977, -17064.461656148633, -14410.326112547651, -19925.32848421675, -12440.869205101635, -6508.38095049631, -10329.948106997981, -11972.398993062854, -12404.949951761957, 0.006, -0.012, 0.994, 192.0, 0.0, 0.0, 0.0, 0.0, 0.0, 0.0, 0.0, 0.0, 0.0, 1.644499124671043E9, 0.0, 2022-02-11 00:18:44.671
142.0, -9303.89127777711, -10973.521885099637, -10735.296992694974, -17098.458659465156, -2924.4351892990103, -2006.2702305639066, -6047.376221105603, -6964.110668195566, -17071.904787052248, -14408.985007880332, -19919.89701031411, -12439.08106554521, -6513.030113343015, -10321.789720271794, -11968.107458127435, -12405.441690139973, 0.006, -0.012, 0.994, 192.0, 0.0, 0.0, 0.0, 0.0, 0.0, 0.0, 0.0, 0.0, 0.0, 1.6444991246710494E9, 0.0, 2022-02-11 00:18:44.671
144.0, -9300.270295175349, -10976.047632223086, -10737.152187484764, -17094.48004895211, -2923.3846573096107, -2002.649247962147, -6048.4491048394575, -6960.802610016181, -17070.72014459612, -14405.520487489759, -19936.66081865559, -12447.79824588278, -6518.662752945752, -10335.200766944978, -11980.13269664439, -12412.303675687752, 0.006, -0.012, 0.994, 192.0, 0.0, 0.0, 0.0, 0.0, 0.0, 0.0, 0.0, 0.0, 0.0, 1.644499124671056E9, 0.0, 2022-02-11 00:18:44.671
146.0, -9297.588085840713, -10984.7424608162, -10730.111387981342, -17100.425612977222, -2923.7199334764405, -1996.1448903256526, -6052.226549652404, -6960.5120373382615, -17073.312946952934, -14398.524391475248, -19921.32752195925, -12436.84589109968, -6515.846433144383, -10324.85190926217, -11973.427173307799, -12407.542754118771, 0.008, -0.01, 0.99, 192.0, 0.0, 32.0, 127.5, 88.0, 15.0, 120.0, 0.0, 0.0, 0.0, 1.6444991246710627E9, 0.0, 2022-02-11 00:18:44.671
148.0, -9309.7474348244, -10989.302216685082, -10741.22020497563, -17101.34203449989, -2938.7179540059515, -2010.7852829438787, -6050.371354862614, -6968.424554875441, -17077.604481888353, -14400.08901358712, -19938.158385534094, -12447.395914482584, -6526.351753038377, -10336.787740801305, -11981.071469911512, -12413.51066988834, 0.008, -0.01, 0.99, 192.0, 0.0, 0.0, 0.0, 0.0, 0.0, 0.0, 0.0, 0.0, 0.0, 1.6444991246710703E9, 0.0, 2022-02-11 00:18:44.671
150.0, -9298.526859107837, -10982.037899737108, -10731.720713582125, -17099.866819365838, -2929.2631661013565, -1998.000085115443, -6045.8115989937305, -6955.974633213835, -17072.19535973017, -14409.14147009152, -19937.219612266974, -12443.640821414092, -6525.077703604425, -10334.127883211122, -11981.585560033986, -12407.74391981887, 0.008, -0.01, 0.99, 192.0, 0.0, 0.0, 0.0, 0.0, 0.0, 0.0, 0.0, 0.0, 0.0, 1.6444991246710777E9, 0.0, 2022-02-11 00:18:44.671
152.0, -9308.831013301733, -10985.278902683129, -10738.202719474164, -17104.068947323438, -2939.2320441284232, -2008.9524398985434, -6056.518084587823, -6970.637377576516, -17076.799819087963, -14414.572943994159, -19930.871716841666, -12436.465911443938, -6526.351753038377, -10333.457330877463, -11980.557379789041, -12414.561201877737, 0.008, -0.01, 0.99, 192.0, 0.0, 0.0, 0.0, 0.0, 0.0, 0.0, 0.0, 0.0, 0.0, 1.644499124671085E9, 0.0, 2022-02-11 00:18:44.671
154.0, -9303.421891143547, -10974.259492666662, -10736.347524684374, -17095.79880187497, -2936.639241771608, -1994.714378680513, -6046.146875160561, -6954.007679701767, -17071.457752163144, -14413.321246304662, -19943.94748734802, -12445.764237137348, -6531.0679711184475, -10325.701275551472, -11987.41936533682, -12416.617562367626, 0.009000000000000001, -0.011, 0.989, 192.0, 0.0, 40.0, 127.5, 80.0, 15.0, 112.0, 0.0, 0.0, 0.0, 1.6444991246710918E9, 0.0, 2022-02-11 00:18:44.671
156.0, -9295.330559650727, -10971.867856009943, -10728.189137958187, -17097.47518270912, -2933.308831847767, -1994.647323447147, -6046.4597995829345, -6959.640319304504, -17069.311984695432, -14396.333920518628, -19925.70846387249, -12434.297792231775, -6526.955250138671, -10323.75667378386, -11980.378565833398, -12409.397948908561, 0.009000000000000001, -0.011, 0.989, 192.0, 0.0, 0.0, 0.0, 0.0, 0.0, 0.0, 0.0, 0.0, 0.0, 1.6444991246710985E9, 0.0, 2022-02-11 00:18:44.671
158.0, -9310.775615069344, -10982.686100326313, -10734.559385127948, -17092.401336717765, -2950.2291024004344, -2005.2420503189626, -6054.327613631202, -6971.397336887996, -17072.508284152544, -14405.028749111743, -19942.293458258326, -12434.78953060979, -6533.258442075067, -10341.660421092562, -11986.61470253643, -12416.371693178618, 0.009000000000000001, -0.011, 0.989, 192.0, 0.0, 0.0, 0.0, 0.0, 0.0, 0.0, 0.0, 0.0, 0.0, 1.6444991246711051E9, 0.0, 2022-02-11 00:18:44.671
160.0, -9305.142975466606, -10980.294463669594, -10728.54676586947, -17096.826982119917, -2949.5809018112304, -2000.3023147943397, -6056.272215398814, -6967.374022886041, -17069.311984695432, -14404.626417711546, -19943.388693736637, -12433.73899862039, -6536.164168854257, -10331.84800527668, -11991.532086316596, -12417.265762956831, 0.009000000000000001, -0.011, 0.989, 192.0, 0.0, 0.0, 0.0, 0.0, 0.0, 0.0, 0.0, 0.0, 0.0, 1.6444991246711116E9, 0.0, 2022-02-11 00:18:44.671
162.0, -9318.241097717417, -10981.054422981075, -10738.090960751888, -17101.3867379888, -2963.3272246512443, -2012.8416434337669, -6060.921378245518, -6968.513961853262, -17080.644319134273, -14405.296970045207, -19939.834766368243, -12433.537832920294, -6543.517892780053, -10334.060827977757, -11989.721595015717, -12421.333780447696, 0.009000000000000001, -0.011, 0.989, 192.0, 0.0, 0.0, 0.0, 0.0, 0.0, 0.0, 0.0, 0.0, 0.0, 1.6444991246711185E9, 0.0, 2022-02-11 00:18:44.671
164.0, -9316.631772116634, -10987.22350445074, -10738.873271807823, -17096.62581641982, -2968.624588087152, -2013.8474719342557, -6061.167247434527, -6985.233066705831, -17079.303214466956, -14414.37177829406, -19958.09614158823, -12451.84391162919, -6554.3137853519665, -10342.912118782058, -11996.248304396666, -12424.641838627082, 0.006500000000000001, -0.0115, 0.9864999999999999, 192.0, 0.0, 16.0, 127.5, 80.0, 15.0, 96.0, 0.0, 0.0, 0.0, 1.6444991246711247E9, 0.0, 2022-02-11 00:18:44.671
166.0, -9314.374245926649, -10984.384832904916, -10733.911184538745, -17098.72688039862, -2966.3223584082557, -2006.6949137085576, -6064.832933525197, -6970.950301998891, -17086.00873780355, -14408.157993335486, -19946.652048427113, -12443.216138269441, -6557.621843531352, -10338.933508269014, -11991.219161894222, -12421.914925803534, 0.006500000000000001, -0.0115, 0.9864999999999999, 192.0, 0.0, 0.0, 0.0, 0.0, 0.0, 0.0, 0.0, 0.0, 0.0, 1.6444991246711333E9, 0.0, 2022-02-11 00:18:44.671
168.0, -9331.026295545853, -10987.13409747292, -10750.518530669038, -17097.67634840922, -2980.8062888152945, -2012.8416434337669, -6071.896084773074, -6963.3283571396305, -17087.685118637695, -14405.274618300751, -19958.632583455157, -12449.631088928116, -6566.1155064243685, -10340.319316425243, -11998.125850930912, -12425.088873516188, 0.006500000000000001, -0.0115, 0.9864999999999999, 192.0, 0.0, 0.0, 0.0, 0.0, 0.0, 0.0, 0.0, 0.0, 0.0, 1.6444991246711397E9, 0.0, 2022-02-11 00:18:44.671
170.0, -9317.07880700574, -10986.262379439162, -10738.158015985253, -17097.966921087136, -2972.5137916223757, -2001.5093089949262, -6067.604549837655, -6964.512999595761, -17083.997080802572, -14407.42038576846, -19960.08544684475, -12450.145179050587, -6566.651948291296, -10324.76250228435, -12003.311455644543, -12417.623390868115, 0.006500000000000001, -0.0115, 0.9864999999999999, 192.0, 0.0, 0.0, 0.0, 0.0, 0.0, 0.0, 0.0, 0.0, 0.0, 1.6444991246711462E9, 0.0, 2022-02-11 00:18:44.671
172.0, -9330.623964145656, -10986.530600372625, -10741.242556720086, -17096.201133275168, -2985.276637706356, -2018.2060621030407, -6075.002977252362, -6977.454659635385, -17094.837676863393, -14418.886830674033, -19956.710333432, -12443.0373243138, -6571.189352415723, -10341.90629028157, -12000.47278409872, -12423.70306535996, 0.006500000000000001, -0.0115, 0.9864999999999999, 192.0, 0.0, 0.0, 0.0, 0.0, 0.0, 0.0, 0.0, 0.0, 0.0, 1.6444991246711528E9, 0.0, 2022-02-11 00:18:44.671
174.0, -9332.747379868912, -10997.639417366912, -10740.192024730686, -17091.95430182866, -2985.9024865511046, -2017.5578615138368, -6057.613320066133, -6970.61502583206, -17087.036918048492, -14421.323170819662, -19971.95422315052, -12455.219025041943, -6575.637349562329, -10348.90238629608, -12004.876077756415, -12425.401797938563, 0.00525, -0.01375, 0.98625, 192.0, 0.0, 16.0, 127.5, 64.0, 15.0, 104.0, 0.0, 0.0, 0.0, 1.6444991246711593E9, 0.0, 2022-02-11 00:18:44.671
176.0, -9321.169176241061, -10987.402318406383, -10732.994763016077, -17092.08841229539, -2982.594428371719, -2007.8125009313228, -6068.185695193493, -6968.581017086628, -17089.741479127584, -14414.639999227526, -19955.078656086764, -12444.601946425671, -6572.373994871855, -10332.540909354795, -11998.908161986848, -12418.852736813156, 0.00525, -0.01375, 0.98625, 192.0, 0.0, 0.0, 0.0, 0.0, 0.0, 0.0, 0.0, 0.0, 0.0, 1.6444991246711657E9, 0.0, 2022-02-11 00:18:44.671
178.0, -9341.643374162124, -10999.136984245419, -10751.725524869624, -17093.00483381806, -2995.916068067082, -2014.2050998455406, -6067.20221843746, -6971.33028165463, -17092.982482073603, -14416.696359717413, -19967.975612637474, -12455.956632608966, -6582.298169410011, -10338.799397802282, -12006.23953416819, -12419.679751358004, 0.00525, -0.01375, 0.98625, 192.0, 0.0, 0.0, 0.0, 0.0, 0.0, 0.0, 0.0, 0.0, 0.0, 1.6444991246711724E9, 0.0, 2022-02-11 00:18:44.671
180.0, -9328.634658889134, -10995.381891176927, -10732.36891417133, -17092.51309544004, -2991.691588365029, -2012.8416434337669, -6065.570541092222, -6967.32931939713, -17094.2341797631, -14416.159917850486, -19973.138865606652, -12461.94690012299, -6587.237904934634, -10340.878110036625, -12008.13943244689, -12415.07529200021, 0.00525, -0.01375, 0.98625, 192.0, 0.0, 0.0, 0.0, 0.0, 0.0, 0.0, 0.0, 0.0, 0.0, 1.6444991246711788E9, 0.0, 2022-02-11 00:18:44.671
182.0, -9337.910632838088, -10994.756042332177, -10739.923803797223, -17093.228351262613, -3005.5049664384087, -2020.262422592929, -6078.668663343033, -6975.308892167675, -17104.47127872363, -14405.699301445402, -19967.6626882151, -12460.18111231102, -6594.390463160332, -10348.231833962422, -12002.61855156643, -12417.377521679107, 0.00525, -0.01375, 0.98625, 192.0, 0.0, 0.0, 0.0, 0.0, 0.0, 0.0, 0.0, 0.0, 0.0, 1.6444991246711855E9, 0.0, 2022-02-11 00:18:44.671
184.0, -9329.729894367445, -10987.245856195195, -10732.100693237864, -17086.47812443711, -3002.9345158260485, -2017.356695813739, -6068.72213706042, -6970.279749665231, -17093.854200107362, -14423.37953130955, -19977.81038019781, -12459.354097766174, -6595.061015493991, -10342.845063548692, -12008.89939175837, -12417.824556568214, 0.004625000000000001, -0.015875, 0.9881249999999999, 192.0, 0.0, 16.0, 127.5, 56.0, 15.0, 120.0, 0.0, 0.0, 0.0, 1.6444991246711924E9, 0.0, 2022-02-11 00:18:44.671
186.0, -9326.019504787864, -10992.833792309022, -10730.893699037279, -17093.787144873993, -3001.168728014079, -2018.1837103585854, -6074.377128407613, -6968.983348486823, -17089.33914772739, -14420.339694063628, -19960.04074335584, -12447.060638315754, -6583.259294421589, -10331.892708765592, -12001.210391665745, -12413.354207677152, 0.004625000000000001, -0.015875, 0.9881249999999999, 192.0, 0.0, 0.0, 0.0, 0.0, 0.0, 0.0, 0.0, 0.0, 0.0, 1.644499124671199E9, 0.0, 2022-02-11 00:18:44.671
188.0, -9340.749304383911, -11000.947475546298, -10744.729428855113, -17093.51892394053, -3015.2503270209227, -2029.6278035197024, -6083.675454101021, -6977.231142190832, -17096.357595486355, -14424.698284232412, -19975.463447030004, -12457.923586121035, -6593.898724782315, -10340.721647825438, -12009.882868514404, -12423.07721651521, 0.004625000000000001, -0.015875, 0.9881249999999999, 192.0, 0.0, 0.0, 0.0, 0.0, 0.0, 0.0, 0.0, 0.0, 0.0, 1.6444991246712058E9, 0.0, 2022-02-11 00:18:44.671
190.0, -9320.208051229483, -10981.680271825824, -10735.900489795267, -17093.13894428479, -3007.538975183842, -2018.8766144366998, -6071.627863839611, -6971.687909565915, -17089.89794133877, -14415.064682372176, -19974.010583640407, -12458.169455310042, -6594.2340009491445, -10335.42428438953, -12012.56507784904, -12418.606867624148, 0.004625000000000001, -0.015875, 0.9881249999999999, 192.0, 0.0, 0.0, 0.0, 0.0, 0.0, 0.0, 0.0, 0.0, 0.0, 1.6444991246712124E9, 0.0, 2022-02-11 00:18:44.671
192.0, -9343.677382907556, -10992.319702186549, -10740.393190430785, -17101.230275777612, -3022.268774779889, -2031.6171087762248, -6094.918381562041, -6987.937627784923, -17099.129211798812, -14413.18713583793, -19973.317679562293, -12456.671888431536, -6591.328274169955, -10326.148310440578, -12009.011150480646, -12422.004332781355, 0.004625000000000001, -0.015875, 0.9881249999999999, 192.0, 0.0, 0.0, 0.0, 0.0, 0.0, 0.0, 0.0, 0.0, 0.0, 1.644499124671219E9, 0.0, 2022-02-11 00:18:44.671
194.0, -9352.640432434135, -11003.808498836577, -10741.913109053745, -17100.179743788212, -3023.296955024833, -2030.030134919898, -6082.468459900434, -6985.255418450287, -17108.29342702549, -14430.9567726799, -19997.90459846313, -12476.341423552207, -6607.153309244312, -10352.724534597937, -12017.191888951289, -12430.78856835229, 0.0053125, -0.0149375, 0.9880625, 192.0, 0.0, 24.0, 127.5, 72.0, 15.0, 112.0, 0.0, 0.0, 0.0, 1.644499124671226E9, 0.0, 2022-02-11 00:18:44.671
196.0, -9344.213824774484, -10998.064100511563, -10737.621574118326, -17104.113650812345, -3022.7158096689955, -2028.8454924637667, -6078.936884276496, -6987.71411034037, -17108.248723536577, -14428.676894745458, -19983.15244712263, -12465.076144346733, -6607.935620300248, -10347.114246739657, -12011.38043539291, -12426.072350272221, 0.0053125, -0.0149375, 0.9880625, 192.0, 0.0, 0.0, 0.0, 0.0, 0.0, 0.0, 0.0, 0.0, 0.0, 1.644499124671233E9, 0.0, 2022-02-11 00:18:44.671
198.0, -9357.84838889222, -11008.480013427738, -10750.02679229102, -17101.029110077514, -3040.7089639555174, -2044.0446786933755, -6098.15938450806, -6998.264133723275, -17119.4916509976, -14440.925650706966, -20000.63151128668, -12476.967272396956, -6620.609059406407, -10357.485456166918, -12019.024731996624, -12435.124806776621, 0.0053125, -0.0149375, 0.9880625, 192.0, 0.0, 0.0, 0.0, 0.0, 0.0, 0.0, 0.0, 0.0, 0.0, 1.644499124671242E9, 0.0, 2022-02-11 00:18:44.671
200.0, -9343.632679418646, -10995.806574321578, -10745.623498633326, -17096.223485019622, -3029.086056838758, -2030.320707597817, -6089.352797192669, -6984.137831227521, -17109.589828203898, -14423.446586542916, -19998.19517114105, -12467.713650192458, -6622.397198962832, -10353.685659609517, -12024.255040199167, -12430.296829974275, 0.0053125, -0.0149375, 0.9880625, 192.0, 0.0, 0.0, 0.0, 0.0, 0.0, 0.0, 0.0, 0.0, 0.0, 1.6444991246712484E9, 0.0, 2022-02-11 00:18:44.671
202.0, -9353.84742663472, -10993.951379531787, -10743.567138143437, -17101.967883344638, -3038.1385133431572, -2039.5519780578588, -6085.8435733131855, -6971.263226421264, -17116.83179340742, -14413.053025371199, -19992.13784839366, -12466.640766458604, -6625.124111786379, -10350.66817410805, -12018.354179662965, -12426.385274694596, 0.0053125, -0.0149375, 0.9880625, 192.0, 0.0, 0.0, 0.0, 0.0, 0.0, 0.0, 0.0, 0.0, 0.0, 1.644499124671255E9, 0.0, 2022-02-11 00:18:44.671
204.0, -9350.204092288506, -10989.481030640725, -10742.829530576413, -17099.35272924337, -3036.015097619903, -2039.999012946965, -6078.15457322056, -6972.38081364403, -17107.846392136384, -14418.082167873643, -20005.660653789124, -12479.627129987137, -6631.337896744954, -10357.306642211275, -12024.366798921443, -12428.531042162305, 0.004656250000000001, -0.01346875, 0.9880312499999999, 192.0, 0.0, 16.0, 127.5, 80.0, 15.0, 112.0, 0.0, 0.0, 0.0, 1.644499124671262E9, 0.0, 2022-02-11 00:18:44.671
206.0, -9337.150673526607, -10991.962074275265, -10736.638097362293, -17097.51988619803, -3030.427161506076, -2035.8639402227332, -6079.898009288074, -6977.409956146474, -17108.315778769946, -14416.584600995136, -19989.34388033675, -12467.333670536718, -6625.682905397762, -10350.623470619139, -12014.934362761303, -12424.820652582725, 0.004656250000000001, -0.01346875, 0.9880312499999999, 192.0, 0.0, 0.0, 0.0, 0.0, 0.0, 0.0, 0.0, 0.0, 0.0, 1.6444991246712687E9, 0.0, 2022-02-11 00:18:44.671
208.0, -9355.054420835308, -10998.019397022654, -10751.054972535965, -17095.99996757507, -3051.7507257164393, -2045.542245571881, -6092.482041416412, -6985.14365972801, -17113.94841837268, -14422.530165020247, -20001.5702845538, -12472.98866188391, -6630.533233944564, -10348.164778729055, -12024.61266811045, -12432.822577097724, 0.004656250000000001, -0.01346875, 0.9880312499999999, 192.0, 0.0, 0.0, 0.0, 0.0, 0.0, 0.0, 0.0, 0.0, 0.0, 1.644499124671276E9, 0.0, 2022-02-11 00:18:44.671
210.0, -9340.905766595099, -10976.271149667638, -10741.60018463137, -17092.691909395686, -3044.4864087684646, -2035.908643711644, -6091.610323382655, -6981.500325381795, -17097.85516236486, -14420.876135930555, -20000.13977290866, -12471.17817058303, -6632.410780478809, -10350.534063641318, -12028.479519901219, -12428.084007273199, 0.004656250000000001, -0.01346875, 0.9880312499999999, 192.0, 0.0, 0.0, 0.0, 0.0, 0.0, 0.0, 0.0, 0.0, 0.0, 1.6444991246712828E9, 0.0, 2022-02-11 00:18:44.671
212.0, -9352.685135923044, -10992.45381265328, -10743.231861976608, -17096.80463037546, -3054.164714117612, -2038.8143704908337, -6116.398407983591, -6990.977465030845, -17103.06311882295, -14417.501022517805, -19991.802572226832, -12459.935243122012, -6633.774236890583, -10359.72063061245, -12025.260868699655, -12430.609754396648, 0.004656250000000001, -0.01346875, 0.9880312499999999, 192.0, 0.0, 0.0, 0.0, 0.0, 0.0, 0.0, 0.0, 0.0, 0.0, 1.6444991246712904E9, 0.0, 2022-02-11 00:18:44.671
214.0, -9358.675403437068, -10996.030091766132, -10751.233786491608, -17092.20017101767, -3063.2171706220115, -2042.1224286702193, -6104.529631677822, -6980.874476537047, -17103.174877545225, -14416.629304484048, -20013.43906085957, -12476.833161930224, -6645.2406817961555, -10360.480589923929, -12037.934307805814, -12434.78953060979, 0.004328125, -0.011734375, 0.987015625, 192.0, 0.0, 16.0, 127.5, 88.0, 15.0, 104.0, 0.0, 0.0, 0.0, 1.6444991246712976E9, 0.0, 2022-02-11 00:18:44.671
216.0, -9347.521882953868, -10990.464507396759, -10743.097751509877, -17097.162258286746, -3056.8022199633388, -2036.0204024339203, -6110.139919536105, -6985.903619039491, -17106.661749680254, -14420.876135930555, -20002.66552003211, -12465.478475746928, -6646.201806807734, -10360.704107368483, -12032.815758325549, -12431.481472430405, 0.004328125, -0.011734375, 0.987015625, 192.0, 0.0, 0.0, 0.0, 0.0, 0.0, 0.0, 0.0, 0.0, 0.0, 1.6444991246713042E9, 0.0, 2022-02-11 00:18:44.671
218.0, -9363.749249428422, -10994.197248720795, -10751.814931847446, -17102.549028700476, -3068.872161969204, -2053.3430043867834, -6105.647218900588, -6999.158203501488, -17105.76767990204, -14420.876135930555, -20007.448793345546, -12473.94978689549, -6648.8840161423705, -10362.514598669362, -12035.386208937909, -12440.377466723618, 0.004328125, -0.011734375, 0.987015625, 192.0, 0.0, 0.0, 0.0, 0.0, 0.0, 0.0, 0.0, 0.0, 0.0, 1.644499124671311E9, 0.0, 2022-02-11 00:18:44.671
220.0, -9350.204092288506, -10991.917370786354, -10746.986955045099, -17103.398394989777, -3065.7205660010063, -2043.6423472931801, -6108.016503812851, -6991.156278986487, -17102.973711845127, -14421.434929541938, -20011.53916258087, -12472.876903161634, -6651.2309493101775, -10359.988851545913, -12037.889604316904, -12442.70204814697, 0.004328125, -0.011734375, 0.987015625, 192.0, 0.0, 0.0, 0.0, 0.0, 0.0, 0.0, 0.0, 0.0, 0.0, 1.6444991246713176E9, 0.0, 2022-02-11 00:18:44.671
222.0, -9358.630699948157, -10997.974693533743, -10754.541844670994, -17106.013549091047, -3074.348339360755, -2052.538341586392, -6107.904745090574, -6999.068796523667, -17111.86970613834, -14423.692455731923, -20006.130040422686, -12468.205388570475, -6656.371850534899, -10360.972328301947, -12035.855595571471, -12443.909042347555, 0.004328125, -0.011734375, 0.987015625, 192.0, 0.0, 0.0, 0.0, 0.0, 0.0, 0.0, 0.0, 0.0, 0.0, 1.644499124671324E9, 0.0, 2022-02-11 00:18:44.671
224.0, -9357.401354003114, -10989.548085874092, -10753.468960937138, -17098.369252487333, -3078.014025451425, -2041.7200972700236, -6120.041742329806, -6988.76464232977, -17106.840563635895, -14420.026769641254, -20021.753909796942, -12473.592158984204, -6661.468048270709, -10362.000508546891, -12042.650525885883, -12446.501844704371, 0.004, -0.01, 0.986, 192.0, 0.0, 16.0, 127.5, 88.0, 15.0, 104.0, 0.0, 0.0, 0.0, 1.6444991246713307E9, 0.0, 2022-02-11 00:18:44.671
226.0, -9347.432475976047, -10979.288635169105, -10747.07636202292, -17103.82307813443, -3076.4941068284643, -2041.0271931919092, -6097.377073452124, -6999.627590135049, -17111.690892182694, -14411.33194104814, -20009.795726513355, -12462.75156292338, -6657.847065668949, -10353.797418331793, -12035.967354293747, -12438.432864956007, 0.004, -0.01, 0.986, 192.0, 0.0, 0.0, 0.0, 0.0, 0.0, 0.0, 0.0, 0.0, 0.0, 1.6444991246713383E9, 0.0, 2022-02-11 00:18:44.671
228.0, -9370.588883231745, -10994.376062676438, -10760.353298229373, -17108.069909580936, -3099.270534428422, -2057.2322079220066, -6107.63652415711, -6982.036767248723, -17112.49555498309, -14436.120025649076, -20020.435156874082, -12476.967272396956, -6666.564246006518, -10372.014090062868, -12041.711752618761, -12447.708838904959, 0.004, -0.01, 0.986, 192.0, 0.0, 0.0, 0.0, 0.0, 0.0, 0.0, 0.0, 0.0, 0.0, 1.6444991246713452E9, 0.0, 2022-02-11 00:18:44.671
230.0, -9354.51797896838, -10986.620007350446, -10752.820760347935, -17099.688005410197, -3093.168508192123, -2050.481981096504, -6115.683152161021, -6988.742290585315, -17111.44502299369, -14429.772130223768, -20022.938552253076, -12467.13250483662, -6669.917007674815, -10375.389203475619, -12044.796293353593, -12442.009144068856, 0.004, -0.01, 0.986, 192.0, 0.0, 0.0, 0.0, 0.0, 0.0, 0.0, 0.0, 0.0, 0.0, 1.644499124671353E9, 0.0, 2022-02-11 00:18:44.671
232.0, -9368.532522741858, -10986.396489905894, -10760.688574396203, -17107.041729335993, -3103.5397176193856, -2053.387707875694, -6124.132111565127, -6986.23889520632, -17123.425558021732, -14417.94805740691, -20020.859840018733, -12467.333670536718, -6676.041385655569, -10378.406688977086, -12044.215147997755, -12442.27736500232, 0.004, -0.01, 0.986, 192.0, 0.0, 0.0, 0.0, 0.0, 0.0, 0.0, 0.0, 0.0, 0.0, 1.6444991246713595E9, 0.0, 2022-02-11 00:18:44.671
234.0, -9371.192380332039, -11004.926086059342, -10765.717716898647, -17104.85125837937, -3099.181127450601, -2049.587911318292, -6103.367340966147, -6983.266113193765, -17120.989217876104, -14416.383435295038, -20037.86951754922, -12487.718461479959, -6677.516600789619, -10382.228837278943, -12049.333697478021, -12443.014972569345, 0.008, -0.01, 0.988, 192.0, 0.0, 32.0, 127.5, 88.0, 15.0, 112.0, 0.0, 0.0, 0.0, 1.6444991246713665E9, 0.0, 2022-02-11 00:18:44.671
236.0, -9370.365365787193, -11010.022283795153, -10752.84311209239, -17108.360482258857, -3107.8089008103493, -2045.899873483166, -6126.926079622041, -6990.262209208276, -17124.3419795444, -14437.215261127385, -20027.16303195513, -12468.451257759483, -6682.121060147412, -10375.0986307977, -12045.802121854082, -12437.136463777599, 0.008, -0.01, 0.988, 192.0, 0.0, 0.0, 0.0, 0.0, 0.0, 0.0, 0.0, 0.0, 0.0, 1.6444991246713753E9, 0.0, 2022-02-11 00:18:44.671
238.0, -9391.107784641717, -11011.765719862668, -10769.204589033674, -17108.58399970341, -3121.7340376060056, -2055.9358067435987, -6130.50235873489, -7000.09697676861, -17135.316686071954, -14443.38434259705, -20043.323343196316, -12479.962406153967, -6695.42034809832, -10378.920779099559, -12054.608709169474, -12446.36773423764, 0.008, -0.01, 0.988, 192.0, 0.0, 0.0, 0.0, 0.0, 0.0, 0.0, 0.0, 0.0, 0.0, 1.6444991246713965E9, 0.0, 2022-02-11 00:18:44.671
240.0, -9376.065060623296, -11008.837641339022, -10757.9393098282, -17112.137927071803, -3108.658267099651, -2041.8765594812107, -6104.283762488814, -6989.904581296991, -17132.947401159694, -14440.81389198469, -20046.273773464414, -12482.04111838831, -6697.856688243948, -10370.963558073468, -12054.251081258188, -12443.618469669638, 0.008, -0.01, 0.988, 192.0, 0.0, 0.0, 0.0, 0.0, 0.0, 0.0, 0.0, 0.0, 0.0, 1.644499125149799E9, 0.0, 2022-02-11 00:18:45.149
242.0, -9384.737537471956, -11005.864859326466, -10763.79546687549, -17113.814307905952, -3119.1635869936454, -2055.1758474321186, -6126.747265666398, -7000.409901190985, -17134.757892460573, -14437.483482060848, -20037.556593126847, -12480.074164876243, -6689.765356751127, -10375.657424409083, -12046.584432910018, -12445.317202248241, 0.008, -0.01, 0.988, 192.0, 0.0, 0.0, 0.0, 0.0, 0.0, 0.0, 0.0, 0.0, 0.0, 1.6444991251498675E9, 0.0, 2022-02-11 00:18:45.149
244.0, -9389.409052063114, -10991.447984152794, -10767.259987266063, -17107.667578180743, -3120.61645038324, -2057.5004288554705, -6124.333277265225, -7002.309799469686, -17134.266154082557, -14438.981048939355, -20055.527395668913, -12484.410403300573, -6700.3600836229425, -10386.609779192184, -12064.622290685451, -12452.670926174036, 0.008, -0.012, 0.988, 192.0, 0.0, 32.0, 127.5, 80.0, 15.0, 112.0, 0.0, 0.0, 0.0, 1.644499125149875E9, 0.0, 2022-02-11 00:18:45.149
246.0, -9380.066022880796, -10998.444080167304, -10760.80033311848, -17106.14765955778, -3119.074180015824, -2057.969815489032, -6129.496530234401, -7000.342845957619, -17134.176747104735, -14425.771167966268, -20040.149395483662, -12469.814714171258, -6700.225973156211, -10395.751642674404, -12061.828322628537, -12448.200577282976, 0.008, -0.012, 0.988, 192.0, 0.0, 0.0, 0.0, 0.0, 0.0, 0.0, 0.0, 0.0, 0.0, 1.644499125149882E9, 0.0, 2022-02-11 00:18:45.149
248.0, -9405.077624926285, -11021.958115334286, -10773.27260652454, -17111.735595671606, -3138.0284593139245, -2070.866772039744, -6123.595669698199, -7002.198040747409, -17150.202947879192, -14432.8566709586, -20058.8354538483, -12477.838990430713, -6711.893583761881, -10408.022750380367, -12062.454171473286, -12455.286080275308, 0.008, -0.012, 0.988, 192.0, 0.0, 0.0, 0.0, 0.0, 0.0, 0.0, 0.0, 0.0, 0.0, 1.6444991251498888E9, 0.0, 2022-02-11 00:18:45.149
250.0, -9383.6646537381, -10999.315798201062, -10759.123952284332, -17107.041729335993, -3123.164549251145, -2049.610263062747, -6118.991210340406, -6990.5080783972835, -17141.06108439697, -14450.201624655918, -20057.53905266989, -12482.778725955335, -6708.85374651596, -10386.676834425549, -12058.72143014925, -12449.474626716928, 0.008, -0.012, 0.988, 192.0, 0.0, 0.0, 0.0, 0.0, 0.0, 0.0, 0.0, 0.0, 0.0, 1.6444991251498957E9, 0.0, 2022-02-11 00:18:45.149
252.0, -9387.419746806592, -10999.628722623434, -10762.566120930449, -17105.700624668672, -3128.8418923427935, -2050.5043328409593, -6126.233175543925, -6993.346749943108, -17139.854090196382, -14433.23665061434, -20043.14452924067, -12471.669908961048, -6703.310513891043, -10377.736136643427, -12052.1947207683, -12444.870167359135, 0.008, -0.012, 0.988, 192.0, 0.0, 0.0, 0.0, 0.0, 0.0, 0.0, 0.0, 0.0, 0.0, 1.6444991251499023E9, 0.0, 2022-02-11 00:18:45.149
254.0, -9385.51984852789, -10991.693853341802, -10764.331908742417, -17098.995101332082, -3126.517310919441, -2044.1340856711968, -6119.281783018325, -6983.467278893862, -17128.745273202094, -14427.782824967246, -20055.48269218, -12472.586330483715, -6703.6457900578735, -10374.495133697406, -12057.559139437573, -12441.517405690838, 0.004, -0.016, 0.988, 192.0, 0.0, 16.0, 127.5, 64.0, 15.0, 112.0, 0.0, 0.0, 0.0, 1.6444991251499212E9, 0.0, 2022-02-11 00:18:45.149
0.0, -9378.747269957932, -11006.378949448937, -10761.9402720857, -17104.29246476799, -3122.4045899396647, -2042.7482775149679, -6126.277879032837, -6982.595560860105, -17137.685970984217, -14423.893621432022, -20050.095921766275, -12468.808885670769, -6703.064644702035, -10370.851799351192, -12050.585395167518, -12434.901289332067, 0.004, -0.016, 0.988, 192.0, 0.0, 0.0, 0.0, 0.0, 0.0, 0.0, 0.0, 0.0, 0.0, 1.6444991251499424E9, 0.0, 2022-02-11 00:18:45.149
2.0, -9403.267133625404, -11009.687007628323, -10773.339661757906, -17108.539296214498, -3135.972098824036, -2051.5325130859032, -6132.893995391607, -6989.85987780808, -17143.810348964973, -14442.33381060765, -20060.109503282252, -12481.728193965935, -6709.345484893976, -10375.232741264432, -12057.827360371037, -12441.495053946383, 0.004, -0.016, 0.988, 192.0, 0.0, 0.0, 0.0, 0.0, 0.0, 0.0, 0.0, 0.0, 0.0, 1.64449912514995E9, 0.0, 2022-02-11 00:18:45.149
4.0, -9389.744328229945, -10999.762833090166, -10762.007327319066, -17102.727842656117, -3125.913813819148, -2039.0378879353868, -6124.02035284285, -6980.539200370217, -17139.183537862722, -14434.913031448488, -20058.567232914833, -12481.191752099008, -6708.294952904577, -10379.278407010843, -12058.34145049351, -12437.292925988786, 0.004, -0.016, 0.988, 192.0, 0.0, 0.0, 0.0, 0.0, 0.0, 0.0, 0.0, 0.0, 0.0, 1.644499125149958E9, 0.0, 2022-02-11 00:18:45.149
6.0, -9400.517869057401, -11008.211792494272, -10766.65649016577, -17111.10974682686, -3133.915738334148, -2047.7103647840459, -6131.619945957655, -6993.234991220831, -17146.738427488617, -14434.913031448488, -20052.308744467347, -12471.289929305307, -6713.055874473557, -10380.731270400438, -12055.592185925507, -12439.393989967584, 0.004, -0.016, 0.988, 192.0, 0.0, 0.0, 0.0, 0.0, 0.0, 0.0, 0.0, 0.0, 0.0, 1.6444991251499774E9, 0.0, 2022-02-11 00:18:45.149
8.0, -9402.082491169274, -10997.326492944538, -10768.779905889023, -17101.52084845553, -3137.8943488471928, -2049.3420421292835, -6138.191358827515, -6986.440060906418, -17137.283639584024, -14438.9586971949, -20068.178483030617, -12481.772897454846, -6716.118063463934, -10388.710843170982, -12066.030450586135, -12446.859472615657, 0.006, -0.018000000000000002, 0.986, 192.0, 0.0, 24.0, 127.5, 56.0, 15.0, 104.0, 0.0, 0.0, 0.0, 1.6444991251499848E9, 0.0, 2022-02-11 00:18:45.149
10.0, -9393.588828276257, -11007.407129693882, -10763.214321519652, -17103.219581034136, -3131.054715043869, -2043.8211612488226, -6115.414931227557, -6975.532409612229, -17143.96681117616, -14439.025752428264, -20058.187253259093, -12474.977967140434, -6714.508737863152, -10389.001415848901, -12058.43085747133, -12438.432864956007, 0.006, -0.018000000000000002, 0.986, 192.0, 0.0, 0.0, 0.0, 0.0, 0.0, 0.0, 0.0, 0.0, 0.0, 1.6444991251499915E9, 0.0, 2022-02-11 00:18:45.149
12.0, -9409.391511606158, -11003.8979058144, -10780.738089172613, -17098.77158388753, -3151.685375176117, -2052.0242514639203, -6126.836672644219, -6984.115479483066, -17152.3487153469, -14440.18804313994, -20070.570119687334, -12476.810810185769, -6721.929517022314, -10387.168572803566, -12062.275357517643, -12441.405646968562, 0.006, -0.018000000000000002, 0.986, 192.0, 0.0, 0.0, 0.0, 0.0, 0.0, 0.0, 0.0, 0.0, 0.0, 1.6444991251499982E9, 0.0, 2022-02-11 00:18:45.149
14.0, -9378.94843565803, -10986.374138161438, -10760.330946484917, -17095.66469140824, -3141.403572726676, -2040.8260274918114, -6126.277879032837, -6978.751060813793, -17143.743293731608, -14432.163766880485, -20070.368953987236, -12472.631033972626, -6722.465958889242, -10376.797363376303, -12068.176218053844, -12436.711780632948, 0.006, -0.018000000000000002, 0.986, 192.0, 0.0, 0.0, 0.0, 0.0, 0.0, 0.0, 0.0, 0.0, 0.0, 1.6444991251500049E9, 0.0, 2022-02-11 00:18:45.150
16.0, -9387.28563633986, -10986.41884165035, -10762.9908040751, -17102.213752533647, -3146.142142551201, -2049.2079316625513, -6136.693791949009, -6986.663578350971, -17125.884249911815, -14422.060778386687, -20049.29125896588, -12463.824446657234, -6714.352275651965, -10374.29396799731, -12063.683517418327, -12439.617507412137, 0.006, -0.018000000000000002, 0.986, 192.0, 0.0, 0.0, 0.0, 0.0, 0.0, 0.0, 0.0, 0.0, 0.0, 1.6444991251500118E9, 0.0, 2022-02-11 00:18:45.150
18.0, -9406.15050866014, -10997.773527833644, -10771.953853601677, -17102.370214744835, -3156.781572911927, -2049.274986895917, -6134.346858781202, -6983.087299238122, -17151.856976968884, -14438.444607072426, -20081.857750637264, -12482.488153277416, -6729.462054903753, -10385.29102626932, -12072.847732645003, -12445.473664459429, 0.006, -0.016, 0.98, 192.0, 0.0, 24.0, 127.5, 64.0, 15.0, 80.0, 0.0, 0.0, 0.0, 1.6444991251500187E9, 0.0, 2022-02-11 00:18:45.150
20.0, -9390.727804985978, -10985.815344550056, -10764.734240142614, -17102.504325211565, -3151.4395059871085, -2042.837684492789, -6134.6821349480315, -6981.589732359616, -17160.618860795363, -14429.99564766832, -20071.374782487725, -12471.446391516494, -6731.1160839934455, -10381.155953545089, -12066.499837219697, -12440.735094634903, 0.006, -0.016, 0.98, 192.0, 0.0, 0.0, 0.0, 0.0, 0.0, 0.0, 0.0, 0.0, 0.0, 1.6444991251500251E9, 0.0, 2022-02-11 00:18:45.150
22.0, -9400.473165568492, -10976.964053745754, -10778.569969960448, -17098.34690074288, -3162.7941921704046, -2048.649138051169, -6148.987251399428, -6988.317607440664, -17169.24663415511, -14427.559307522692, -20080.136666314207, -12472.742792694902, -6739.252118975177, -10382.452354723497, -12068.019755842657, -12444.020801069833, 0.006, -0.016, 0.98, 192.0, 0.0, 0.0, 0.0, 0.0, 0.0, 0.0, 0.0, 0.0, 0.0, 1.644499125150032E9, 0.0, 2022-02-11 00:18:45.150
24.0, -9381.071851381284, -10967.755135030167, -10775.8430571369, -17095.2847117525, -3155.172247311145, -2032.4217715766158, -6134.369210525658, -6972.961958999867, -17163.85986374138, -14417.389263795527, -20082.662413437654, -12470.12763859363, -6745.130627766923, -10374.271616252854, -12073.361822767476, -12437.918774833533, 0.006, -0.016, 0.98, 192.0, 0.0, 0.0, 0.0, 0.0, 0.0, 0.0, 0.0, 0.0, 0.0, 1.644499125150051E9, 0.0, 2022-02-11 00:18:45.150
26.0, -9390.14665963014, -10974.952396744777, -10778.212342049163, -17105.790031646495, -3164.0235381154466, -2047.5986060617695, -6150.149542111104, -6987.647055107004, -17180.713079060686, -14423.670103987468, -20080.091962825296, -12471.580501983226, -6751.456171447775, -10377.065584309768, -12067.639776186918, -12440.355114979162, 0.006, -0.016, 0.98, 192.0, 0.0, 0.0, 0.0, 0.0, 0.0, 0.0, 0.0, 0.0, 0.0, 1.6444991251500576E9, 0.0, 2022-02-11 00:18:45.150
28.0, -9389.721976485489, -10970.951434487277, -10778.32410077144, -17101.900828111273, -3169.5444189959076, -2049.0067659624538, -6144.047515874805, -6981.969712015357, -17171.817084767474, -14438.869290217077, -20091.536055986413, -12484.477458533938, -6753.981918571225, -10390.946017616514, -12074.14413382341, -12447.0382865713, 0.01, -0.018000000000000002, 0.984, 192.0, 0.0, 40.0, 127.5, 56.0, 15.0, 96.0, 0.0, 0.0, 0.0, 1.6444991251500642E9, 0.0, 2022-02-11 00:18:45.150
30.0, -9373.740479199943, -10963.754172772668, -10772.892626868801, -17104.158354301257, -3166.0798986053346, -2044.4246583491158, -6156.184513114037, -6981.746194570804, -17169.58191032194, -14424.8547464436, -20075.129875556217, -12470.172342082542, -6754.853636604981, -10383.480534968441, -12073.115953578468, -12440.645687657081, 0.01, -0.018000000000000002, 0.984, 192.0, 0.0, 0.0, 0.0, 0.0, 0.0, 0.0, 0.0, 0.0, 0.0, 1.644499125150071E9, 0.0, 2022-02-11 00:18:45.150
32.0, -9381.116554870196, -10957.74155351419, -10780.693385683702, -17100.917351355238, -3173.5230295089523, -2051.554864830359, -6149.83661768873, -6986.5741713731495, -17171.906491745292, -14429.325095334661, -20082.01421284845, -12474.687394462515, -6759.793372129604, -10386.162744303077, -12077.385136769431, -12448.625260427627, 0.01, -0.018000000000000002, 0.984, 192.0, 0.0, 0.0, 0.0, 0.0, 0.0, 0.0, 0.0, 0.0, 0.0, 1.6444991251500773E9, 0.0, 2022-02-11 00:18:45.150
34.0, -9360.172970315572, -10941.603594017459, -10767.483504710615, -17095.44117396369, -3160.2460933024995, -2027.124408140708, -6134.145693081105, -6957.0475169476895, -17156.126160159845, -14409.812022425178, -20078.48263722451, -12461.902196634079, -6749.9586045692695, -10366.984947560424, -12074.792334412616, -12437.829367855713, 0.01, -0.018000000000000002, 0.984, 192.0, 0.0, 0.0, 0.0, 0.0, 0.0, 0.0, 0.0, 0.0, 0.0, 1.644499125150084E9, 0.0, 2022-02-11 00:18:45.150
36.0, -9370.544179742836, -10950.633698777403, -10779.106411827375, -17098.30219725397, -3166.7057474500834, -2039.1496466576634, -6134.480969247934, -6970.57032234315, -17159.121293916858, -14400.13371707603, -20068.580814430814, -12456.403667498073, -6744.974165555735, -10377.736136643427, -12064.801104641094, -12437.807016111257, 0.01, -0.016, 0.986, 192.0, 0.0, 40.0, 127.5, 72.0, 15.0, 112.0, 0.0, 0.0, 0.0, 1.6444991251500907E9, 0.0, 2022-02-11 00:18:45.150
38.0, -9375.23804607845, -10952.086562166996, -10773.138496057809, -17093.34010998489, -3178.7309859670386, -2046.7492397724677, -6163.761754484386, -6965.4964763517955, -17161.82585499595, -14418.171574851463, -20090.239654808003, -12473.122772350642, -6750.182122013823, -10386.945055359014, -12078.525075736652, -12441.159777779554, 0.01, -0.016, 0.986, 192.0, 0.0, 0.0, 0.0, 0.0, 0.0, 0.0, 0.0, 0.0, 0.0, 1.644499125150116E9, 0.0, 2022-02-11 00:18:45.150
40.0, -9366.118534340685, -10956.109876168952, -10768.668147166747, -17101.029110077514, -3168.8291631733377, -2048.7161932845347, -6133.676306447543, -6966.256435663276, -17163.43518059673, -14417.545726006714, -20075.040468578394, -12465.679641447025, -6754.406601715876, -10381.24536052291, -12078.43566875883, -12443.372600480629, 0.01, -0.016, 0.986, 192.0, 0.0, 0.0, 0.0, 0.0, 0.0, 0.0, 0.0, 0.0, 0.0, 1.644499125150123E9, 0.0, 2022-02-11 00:18:45.150
42.0, -9384.022281649386, -10952.578300545014, -10776.737126915114, -17093.80949661845, -3180.3179598233655, -2057.5227805999257, -6133.586899469722, -6983.355520171585, -17168.933709732737, -14416.070510872665, -20082.17067505964, -12472.049888616788, -6755.077154049534, -10391.594218205717, -12081.855485660493, -12452.045077329289, 0.01, -0.016, 0.986, 192.0, 0.0, 0.0, 0.0, 0.0, 0.0, 0.0, 0.0, 0.0, 0.0, 1.6444991251501298E9, 0.0, 2022-02-11 00:18:45.150
44.0, -9372.265264065894, -10940.910689939343, -10765.024812820533, -17090.94847332817, -3170.147916096201, -2041.1836554030963, -6142.996983885406, -6971.062060721167, -17161.44587534021, -14420.429101041449, -20078.862616880255, -12461.522216978337, -6753.378421470931, -10383.592293690717, -12084.314177550576, -12449.89930986158, 0.01, -0.016, 0.986, 192.0, 0.0, 0.0, 0.0, 0.0, 0.0, 0.0, 0.0, 0.0, 0.0, 1.6444991251501367E9, 0.0, 2022-02-11 00:18:45.150
46.0, -9379.037842635851, -10946.990364431187, -10774.881932125323, -17093.56362742944, -3179.4685935340635, -2051.6666235526354, -6143.444018774512, -6978.61695034706, -17168.97841322165, -14411.287237559229, -20070.100733053772, -12444.780760381313, -6755.412430216365, -10380.306587255787, -12082.660148460884, -12447.306507504763, 0.01, -0.014, 0.989, 192.0, 0.0, 40.0, 127.5, 80.0, 15.5, 0.0, 0.0, 0.0, 0.0, 1.6444991251501436E9, 0.0, 2022-02-11 00:18:45.150
48.0, -9383.75406071592, -10956.445152335782, -10775.776001903534, -17098.90569435426, -3196.187698386633, -2053.0524317088643, -6156.072754391761, -6981.075642237144, -17164.373953863855, -14413.835336427133, -20090.239654808003, -12466.484304247417, -6759.636909918418, -10378.361985488174, -12096.361767811986, -12453.073257574231, 0.01, -0.014, 0.989, 192.0, 0.0, 0.0, 0.0, 0.0, 0.0, 0.0, 0.0, 0.0, 0.0, 1.6444991251501508E9, 0.0, 2022-02-11 00:18:45.150
50.0, -9380.200133347527, -10959.619100048436, -10777.854714137879, -17102.929008356215, -3199.9651431995803, -2053.2983008978727, -6161.727745738954, -6985.52363938375, -17174.29812840201, -14425.57000226617, -20085.50108498348, -12465.098496091188, -6769.203456545289, -10389.135526315633, -12101.547372525618, -12450.79337963979, 0.01, -0.014, 0.989, 192.0, 0.0, 0.0, 0.0, 0.0, 0.0, 0.0, 0.0, 0.0, 0.0, 1.6444991251501584E9, 0.0, 2022-02-11 00:18:45.150
52.0, -9401.456642324525, -10962.569530316536, -10792.003368378088, -17108.71811017014, -3215.6113643182953, -2066.776402804423, -6169.707318509498, -6997.414767433974, -17186.68099483025, -14432.879022703055, -20095.380556032724, -12469.166513582053, -6777.361843271476, -10399.350273531709, -12106.509459794695, -12461.455161744972, 0.01, -0.014, 0.989, 192.0, 0.0, 0.0, 0.0, 0.0, 0.0, 0.0, 0.0, 0.0, 0.0, 1.6444991251501656E9, 0.0, 2022-02-11 00:18:45.150
54.0, -9378.881380424666, -10945.381038830405, -10778.36880426035, -17096.87168560883, -3197.975837943058, -2045.7434112719789, -6156.005699158394, -6975.66652007896, -17179.48373311564, -14420.47380453036, -20097.54867524489, -12471.13346709412, -6774.05378509209, -10397.048043852812, -12107.694102250827, -12456.381315753617, 0.01, -0.014, 0.989, 192.0, 0.0, 0.0, 0.0, 0.0, 0.0, 0.0, 0.0, 0.0, 0.0, 1.6444991251501727E9, 0.0, 2022-02-11 00:18:45.150
56.0, -9379.261360080405, -10942.967050429232, -10786.638949708815, -17096.223485019622, -3196.813547231382, -2050.3702223742275, -6159.000832915406, -6982.729671326837, -17174.879273757848, -14415.8022899392, -20080.471942481036, -12458.974118110433, -6771.48333447973, -10390.43192749404, -12096.495878278718, -12449.564033694749, 0.01, -0.012, 0.9895, 192.0, 0.0, 40.0, 127.5, 88.0, 15.0, 120.0, 0.0, 0.0, 0.0, 1.6444991251501799E9, 0.0, 2022-02-11 00:18:45.150
58.0, -9379.373118802681, -10946.342163841982, -10785.096679341397, -17095.977615830616, -3203.2061461455996, -2051.7113270415457, -6167.7850684863415, -6979.600427103094, -17168.486674843632, -14425.61470575508, -20095.760535688467, -12466.529007736328, -6774.72433742575, -10386.207447791989, -12107.582343528551, -12454.280251774819, 0.01, -0.012, 0.9895, 192.0, 0.0, 0.0, 0.0, 0.0, 0.0, 0.0, 0.0, 0.0, 0.0, 1.6444991251501865E9, 0.0, 2022-02-11 00:18:45.150
60.0, -9371.6617669656, -10941.983573673198, -10780.201647305686, -17102.4372699782, -3198.2440588765216, -2042.614167048236, -6191.254400164414, -6983.511982382773, -17176.01921272507, -14414.99762713881, -20085.590491961302, -12459.242339043896, -6775.752517670694, -10379.43486922203, -12106.420052816875, -12452.827388385223, 0.01, -0.012, 0.9895, 192.0, 0.0, 0.0, 0.0, 0.0, 0.0, 0.0, 0.0, 0.0, 0.0, 1.644499125150194E9, 0.0, 2022-02-11 00:18:45.150
62.0, -9388.492630540446, -10953.248852878673, -10787.622426464848, -17101.878476366815, -3203.876698479259, -2048.1350479286966, -6149.613100244177, -6973.207828188876, -17180.176637193756, -14422.172537108963, -20095.827590921832, -12460.136408822109, -6774.344357770009, -10389.336692015731, -12106.375349327964, -12454.459065730462, 0.01, -0.012, 0.9895, 192.0, 0.0, 0.0, 0.0, 0.0, 0.0, 0.0, 0.0, 0.0, 0.0, 1.6444991251502013E9, 0.0, 2022-02-11 00:18:45.150
64.0, -9379.864857180699, -10941.201262617262, -10775.641891436802, -17094.971787330127, -3189.9292099391473, -2041.8095042478449, -6118.432416729023, -6960.847313505092, -17169.738372533127, -14428.967467423376, -20097.302806055883, -12465.23260655792, -6771.416279246364, -10381.424174478552, -12096.205305600799, -12447.440617971495, 0.01, -0.012, 0.9895, 192.0, 0.0, 0.0, 0.0, 0.0, 0.0, 0.0, 0.0, 0.0, 0.0, 1.6444991251502204E9, 0.0, 2022-02-11 00:18:45.150
66.0, -9384.80459270532, -10940.955393428254, -10782.61563570686, -17097.05049956447, -3201.909744967192, -2046.6821845391019, -6146.349745553702, -6974.168953200455, -17181.562445349988, -14420.987894652832, -20079.086134324807, -12451.910966862557, -6774.187895558822, -10381.781802389838, -12093.076061377056, -12448.312336005252, 0.008, -0.012, 0.99175, 192.0, 0.0, 24.0, 127.5, 80.0, 15.5, 8.0, 0.0, 0.0, 0.0, 1.6444991251502273E9, 0.0, 2022-02-11 00:18:45.150
68.0, -9388.00089216243, -10945.135169641397, -10784.269664796551, -17099.553894943463, -3212.9515067281136, -2050.571388074325, -6154.642242746621, -6969.229217675832, -17176.667413314273, -14428.542784278725, -20095.514666499457, -12467.512484492361, -6779.82053516156, -10389.761375160382, -12110.376311585464, -12455.308432019763, 0.008, -0.012, 0.99175, 192.0, 0.0, 0.0, 0.0, 0.0, 0.0, 0.0, 0.0, 0.0, 0.0, 1.644499125150234E9, 0.0, 2022-02-11 00:18:45.150
70.0, -9372.309967554804, -10937.960259671243, -10773.47377222464, -17104.068947323438, -3211.364532871787, -2052.247768908473, -6178.066870935782, -6987.200020217899, -17177.11444820338, -14411.75662419279, -20082.97533786003, -12458.348269265685, -6782.480392751741, -10384.016976835368, -12107.716453995283, -12454.392010497095, 0.008, -0.012, 0.99175, 192.0, 0.0, 0.0, 0.0, 0.0, 0.0, 0.0, 0.0, 0.0, 0.0, 1.6444991251502426E9, 0.0, 2022-02-11 00:18:45.150
72.0, -9388.80555496282, -10950.49958831067, -10787.08598459792, -17106.840563635895, -3218.4723876085745, -2060.942597501588, -6169.930835954051, -6989.5693051301605, -17181.78596279454, -14418.685664973935, -20091.983090875518, -12469.568844982248, -6779.82053516156, -10392.19771530601, -12111.24802961922, -12459.84583614419, 0.008, -0.012, 0.99175, 192.0, 0.0, 0.0, 0.0, 0.0, 0.0, 0.0, 0.0, 0.0, 0.0, 1.6444991251502492E9, 0.0, 2022-02-11 00:18:45.150
74.0, -9384.446964794037, -10937.535576526592, -10780.402813005783, -17107.175839802723, -3207.7882537589376, -2051.510161341448, -6155.044574146817, -6981.276807937242, -17181.92007326127, -14431.13558663554, -20105.327082315336, -12483.628092244637, -6781.3628055289755, -10385.29102626932, -12114.041997676135, -12452.402705240573, 0.008, -0.012, 0.99175, 192.0, 0.0, 0.0, 0.0, 0.0, 0.0, 0.0, 0.0, 0.0, 0.0, 1.6444991251502557E9, 0.0, 2022-02-11 00:18:45.150
76.0, -9402.328360358282, -10968.671556552836, -10784.582589218926, -17111.44502299369, -3214.6725910511723, -2061.546094601881, -6165.773411485364, -6981.053290492689, -17190.458439643196, -14448.61465079959, -20091.625462964235, -12472.742792694902, -6780.804011917593, -10401.876020655158, -12113.326741853565, -12454.32495526373, 0.006, -0.012, 0.9918750000000001, 192.0, 0.0, 16.0, 127.5, 80.0, 15.5, 0.0, 0.0, 0.0, 0.0, 1.6444991251502628E9, 0.0, 2022-02-11 00:18:45.150
78.0, -9402.19424989155, -10951.863044722444, -10787.622426464848, -17109.99215960409, -3217.5783178303623, -2061.769612046434, -6166.309853352292, -6989.211677218876, -17193.990015267136, -14445.887737976043, -20110.98207366253, -12477.593121241704, -6782.860372407481, -10408.738006202937, -12119.58523030105, -12460.248167544385, 0.006, -0.012, 0.9918750000000001, 192.0, 0.0, 0.0, 0.0, 0.0, 0.0, 0.0, 0.0, 0.0, 0.0, 1.6444991251502697E9, 0.0, 2022-02-11 00:18:45.150
80.0, -9391.353653830725, -10950.566643544036, -10775.03839433651, -17113.456679994666, -3209.174061915167, -2051.845437508278, -6185.308836139302, -6984.137831227521, -17194.59351236743, -14422.485461531338, -20098.353338045283, -12478.66600497556, -6776.601883959996, -10403.306532300297, -12111.851526719514, -12456.89540587609, 0.006, -0.012, 0.9918750000000001, 192.0, 0.0, 0.0, 0.0, 0.0, 0.0, 0.0, 0.0, 0.0, 0.0, 1.6444991251502764E9, 0.0, 2022-02-11 00:18:45.150
82.0, -9404.38472084817, -10943.279974851606, -10789.298807298996, -17104.605389190365, -3222.003963232513, -2063.4906963694925, -6154.709297979987, -6984.696624838904, -17203.511858405098, -14440.322153606672, -20110.065652139863, -12475.603815985181, -6781.966302629269, -10397.137450830633, -12115.003122687713, -12458.661193688058, 0.006, -0.012, 0.9918750000000001, 192.0, 0.0, 0.0, 0.0, 0.0, 0.0, 0.0, 0.0, 0.0, 0.0, 1.644499125150283E9, 0.0, 2022-02-11 00:18:45.150
84.0, -9394.460546310014, -10947.146826642374, -10779.486391483117, -17103.599560689876, -3214.4714253510747, -2051.2419404079847, -6154.038745646328, -6976.806459046181, -17177.65089007031, -14421.457281286393, -20098.97918689003, -12458.974118110433, -6779.3064450390875, -10388.397918748607, -12115.338398854543, -12452.492112218395, 0.006, -0.012, 0.9918750000000001, 192.0, 0.0, 0.0, 0.0, 0.0, 0.0, 0.0, 0.0, 0.0, 0.0, 1.6444991251502895E9, 0.0, 2022-02-11 00:18:45.150
86.0, -9436.638288097178, -10991.73855683071, -10792.18218233373, -17114.95424687317, -3225.4461318786302, -2052.0689549528306, -6168.254455119903, -6989.278732452242, -17209.815050341494, -14459.298784649229, -20106.198800349095, -12467.154856581075, -6789.9905788887245, -10394.2540757959, -12111.471547063775, -12455.12961806412, 0.006, -0.012, 0.9918750000000001, 192.0, 0.0, 0.0, 127.5, 64.0, 15.0, 112.0, 0.0, 0.0, 0.0, 1.644499125150296E9, 0.0, 2022-02-11 00:18:45.150
88.0, -9461.135800020194, -11005.887211070922, -10792.316292800462, -17121.52565974303, -3229.290631924943, -2050.280815396406, -6168.276806864358, -6968.75983104227, -17208.45159392972, -14471.726354566379, -20133.13265241774, -12493.954598182989, -6793.633913234939, -10393.315302528776, -12121.775701257671, -12453.140312807598, 0.006, -0.012, 0.9918750000000001, 192.0, 0.0, 0.0, 0.0, 0.0, 0.0, 0.0, 0.0, 0.0, 0.0, 1.6444991251503026E9, 0.0, 2022-02-11 00:18:45.150
90.0, -9481.364128752248, -11038.252537042206, -10788.047109609499, -17128.365293546354, -3220.7522655430157, -2052.292472397384, -6167.338033597235, -6974.61598808956, -17215.626503899875, -14476.554331368725, -20127.924695959653, -12507.544458811815, -6795.86908768047, -10416.53876501784, -12115.628971532462, -12452.402705240573, 0.006, -0.012, 0.9918750000000001, 192.0, 0.0, 0.0, 0.0, 0.0, 0.0, 0.0, 0.0, 0.0, 0.0, 1.644499125150309E9, 0.0, 2022-02-11 00:18:45.150
92.0, -9505.906344164176, -11084.967682953797, -10799.692368470713, -17128.164127846256, -3226.1613877012, -2063.1777719471183, -6166.063984163283, -6978.661653835971, -17225.55067843803, -14480.48823839286, -20146.18607117964, -12514.585258315237, -6799.0877388820345, -10415.376474306164, -12118.691160522838, -12457.789475654303, 0.006, -0.012, 0.9918750000000001, 192.0, 0.0, 0.0, 0.0, 0.0, 0.0, 0.0, 0.0, 0.0, 0.0, 1.6444991251503155E9, 0.0, 2022-02-11 00:18:45.150
94.0, -9500.944256895096, -11088.834534744565, -10785.141382830308, -17124.67725571123, -3210.6716287936724, -2051.3313473858057, -6152.474123534456, -6970.704432809882, -17215.44768994423, -14488.49016290786, -20146.14136769073, -12516.105176938197, -6792.2034015898, -10411.084939370745, -12116.947724455325, -12454.213196541454, 0.006, -0.012, 0.9918750000000001, 192.0, 0.0, 0.0, 0.0, 0.0, 0.0, 0.0, 0.0, 0.0, 0.0, 1.6444991251503224E9, 0.0, 2022-02-11 00:18:45.150
96.0, -9519.272687348448, -11098.825764516088, -10793.344473045407, -17129.549936002488, -3219.96995448708, -2057.8804085112106, -6164.924045196062, -6977.879342780036, -17228.478756961675, -14503.734052626378, -20135.323123374357, -12508.796156501312, -6788.24714282121, -10419.355084819208, -12108.543468540129, -12454.07908607472, 0.007, -0.013000000000000001, 0.9919375, 192.0, 0.0, 32.0, 127.5, 72.0, 15.5, 0.0, 0.0, 0.0, 0.0, 1.644499125150329E9, 0.0, 2022-02-11 00:18:45.150
98.0, -9511.606039000279, -11075.088211904551, -10797.792470192013, -17127.62768597933, -3222.562756843896, -2054.393536376183, -6169.774373742864, -6981.7014910818925, -17218.196954512234, -14498.615503146113, -20151.66224857119, -12521.33548514074, -6795.310294069087, -10405.519355001374, -12118.668808778384, -12460.650498944582, 0.007, -0.013000000000000001, 0.9919375, 192.0, 0.0, 0.0, 0.0, 0.0, 0.0, 0.0, 0.0, 0.0, 0.0, 1.6444991251503358E9, 0.0, 2022-02-11 00:18:45.150
100.0, -9493.031739357917, -11067.66743274539, -10780.447516494694, -17125.146642344793, -3218.87471900877, -2042.1671321591298, -6180.838487248241, -6979.689834080915, -17214.128937021367, -14491.373537942594, -20135.434882096637, -12507.52210706736, -6795.3326458135425, -10409.430910281053, -12115.78543374365, -12456.18015005352, 0.007, -0.013000000000000001, 0.9919375, 192.0, 0.0, 0.0, 0.0, 0.0, 0.0, 0.0, 0.0, 0.0, 0.0, 1.6444991251503425E9, 0.0, 2022-02-11 00:18:45.150
102.0, -9505.302847063882, -11068.293281590139, -10796.384310291329, -17122.82206092144, -3228.105989468812, -2049.587911318292, -6178.782126758352, -6984.584866116627, -17218.532230679062, -14487.05965126272, -20135.971323963564, -12504.48226982144, -6798.238372592732, -10405.519355001374, -12119.451119834319, -12455.934280864512, 0.007, -0.013000000000000001, 0.9919375, 192.0, 0.0, 0.0, 0.0, 0.0, 0.0, 0.0, 0.0, 0.0, 0.0, 1.6444991251503506E9, 0.0, 2022-02-11 00:18:45.150
104.0, -9490.30482653437, -11060.179598352863, -10784.001443863088, -17123.82788942193, -3219.813492275893, -2040.4236960916157, -6175.228199389959, -6982.863781793569, -17215.671207388783, -14484.355090183628, -20141.35809437729, -12510.405482102095, -6796.807860947592, -10409.073282369767, -12124.547317570128, -12454.771990152836, 0.007, -0.013000000000000001, 0.9919375, 192.0, 0.0, 0.0, 0.0, 0.0, 0.0, 0.0, 0.0, 0.0, 0.0, 1.6444991256296356E9, 0.0, 2022-02-11 00:18:45.629
106.0, -9489.276646289427, -11060.313708819594, -10786.817763664456, -17129.05819762447, -3220.7969690319264, -2050.54903632987, -6179.072699436271, -6984.875438794546, -17216.07353878898, -14474.140342967552, -20128.63995178222, -12496.32388309525, -6792.24810507871, -10398.903238642602, -12117.685332022349, -12453.60969944116, 0.002, -0.012, 0.988, 192.0, 0.0, 8.0, 127.5, 80.0, 15.0, 112.0, 0.0, 0.0, 0.0, 1.644499125629825E9, 0.0, 2022-02-11 00:18:45.629
108.0, -9492.361187024258, -11043.482845244747, -10798.03833938102, -17128.231183079624, -3225.4461318786302, -2052.7618590309453, -6157.995004414917, -6971.889075266013, -17214.866544588393, -14473.134514467063, -20145.6049258238, -12505.689264022025, -6796.673750480861, -10413.208355093999, -12126.134291426455, -12458.504731476873, 0.002, -0.012, 0.988, 192.0, 0.0, 0.0, 0.0, 0.0, 0.0, 0.0, 0.0, 0.0, 0.0, 1.6444991256298332E9, 0.0, 2022-02-11 00:18:45.629
110.0, -9471.372898980726, -11044.823949912066, -10780.17929556123, -17127.270058068047, -3218.1147596972896, -2045.6093008052471, -6155.625719502655, -6979.421613147451, -17207.64693112933, -14479.482409892371, -20128.349379104304, -12505.443394833017, -6795.913791169381, -10406.592238735228, -12121.105148924013, -12452.760333151859, 0.002, -0.012, 0.988, 192.0, 0.0, 0.0, 0.0, 0.0, 0.0, 0.0, 0.0, 0.0, 0.0, 1.64449912562984E9, 0.0, 2022-02-11 00:18:45.629
112.0, -9490.818916656843, -11053.719944205279, -10794.70792945718, -17124.274924311034, -3231.101123225823, -2054.6617573096464, -6151.6471089896095, -6982.841430049113, -17211.379672453364, -14486.254988462328, -20131.54567856141, -12500.436604075028, -6801.457023794297, -10404.044139867323, -12121.01574194619, -12460.628147200126, 0.002, -0.012, 0.988, 192.0, 0.0, 0.0, 0.0, 0.0, 0.0, 0.0, 0.0, 0.0, 0.0, 1.644499125629847E9, 0.0, 2022-02-11 00:18:45.629
114.0, -9472.803410625866, -11031.32349626106, -10784.828458407934, -17122.28561905451, -3222.294535910432, -2045.9445769720767, -6158.620853259666, -6980.38273815903, -17207.46811717369, -14473.112162722608, -20135.010198951986, -12504.817545988268, -6806.419111063375, -10402.904200900102, -12127.520099582685, -12460.695202433491, 0.002, -0.012, 0.988, 192.0, 0.0, 0.0, 0.0, 0.0, 0.0, 0.0, 0.0, 0.0, 0.0, 1.644499125629854E9, 0.0, 2022-02-11 00:18:45.629
116.0, -9472.937521092597, -11036.307935274594, -10786.750708431091, -17125.906601656272, -3223.9485650001247, -2050.21376016304, -6168.097992908716, -6976.225313690343, -17213.681902132263, -14465.780790541266, -20123.32023660186, -12497.352063340195, -6800.786471460638, -10404.133546845145, -12119.942858212336, -12460.248167544385, 0.006, -0.014, 0.986, 192.0, 0.0, 24.0, 127.5, 72.0, 15.0, 104.0, 0.0, 0.0, 0.0, 1.6444991256298614E9, 0.0, 2022-02-11 00:18:45.629
118.0, -9475.552675193867, -11028.596583437513, -10797.904228914289, -17116.20594456267, -3227.837768535348, -2049.6996700405684, -6162.97944342845, -6981.612084104072, -17205.076480516967, -14443.697267019425, -20135.770158263465, -12492.278217348841, -6797.053730136601, -10406.100500357212, -12127.989486216245, -12461.477513489428, 0.006, -0.014, 0.986, 192.0, 0.0, 0.0, 0.0, 0.0, 0.0, 0.0, 0.0, 0.0, 0.0, 1.6444991256298685E9, 0.0, 2022-02-11 00:18:45.629
120.0, -9465.87436984472, -11029.222432282262, -10784.157906074275, -17117.56940097444, -3221.623983576773, -2042.6365187926913, -6170.735498754442, -6983.936665527423, -17206.127012506367, -14470.519360365792, -20128.12586165975, -12488.61253125817, -6792.762195201182, -10397.159802575088, -12126.983657715757, -12456.291908775796, 0.006, -0.014, 0.986, 192.0, 0.0, 0.0, 0.0, 0.0, 0.0, 0.0, 0.0, 0.0, 0.0, 1.644499125629875E9, 0.0, 2022-02-11 00:18:45.629
122.0, -9490.438937001103, -11050.724810448268, -10804.386234806329, -17124.096110355393, -3241.40527741972, -2058.5733125893253, -6182.894847738129, -6987.557648129184, -17216.341759722443, -14489.138363497063, -20136.798338508408, -12492.993473171411, -6806.0167796631795, -10402.881849155647, -12133.44331186334, -12462.237472800907, 0.006, -0.014, 0.986, 192.0, 0.0, 0.0, 0.0, 0.0, 0.0, 0.0, 0.0, 0.0, 0.0, 1.6444991256298816E9, 0.0, 2022-02-11 00:18:45.629
124.0, -9475.083288560307, -11034.251574784706, -10794.797336435002, -17124.18551733321, -3229.06711448039, -2055.9134549991436, -6169.036766175838, -6986.171839972954, -17209.211553241203, -14472.419258644493, -20136.70893153059, -12509.220839645963, -6806.77673897466, -10407.48630851344, -12135.58907933105, -12462.41628675655, 0.006, -0.014, 0.986, 192.0, 0.0, 0.0, 0.0, 0.0, 0.0, 0.0, 0.0, 0.0, 0.0, 1.6444991256298914E9, 0.0, 2022-02-11 00:18:45.629
126.0, -9482.884047375208, -11044.063990600585, -10800.787603949024, -17131.87451742584, -3235.4373616501525, -2053.030079964409, -6178.022167446872, -6991.916238297968, -17215.358282966412, -14470.228787687873, -20128.975227949053, -12495.675682506047, -6805.145061629422, -10430.955640191512, -12125.664904792895, -12461.030478600322, 0.002, -0.01, 0.984, 192.0, 0.0, 8.0, 127.5, 88.0, 15.0, 96.0, 0.0, 0.0, 0.0, 1.644499125629899E9, 0.0, 2022-02-11 00:18:45.629
128.0, -9494.819878914343, -11058.480865774258, -10810.465909298171, -17128.566459246453, -3244.199245476633, -2061.054356223864, -6174.848219734218, -6995.045482521711, -17215.559448666507, -14490.792392586756, -20150.052922970408, -12511.724235024958, -6810.509480298696, -10408.53684050284, -12138.092474710045, -12467.0430978588, 0.002, -0.01, 0.984, 192.0, 0.0, 0.0, 0.0, 0.0, 0.0, 0.0, 0.0, 0.0, 0.0, 1.644499125629907E9, 0.0, 2022-02-11 00:18:45.629
