%OpenBCI Raw EEG Data
%Number of channels = 16
%Sample Rate = 125 Hz
%Board = OpenBCI_GUI$BoardCytonSerialDaisy
Sample Index, EXG Channel 0, EXG Channel 1, EXG Channel 2, EXG Channel 3, EXG Channel 4, EXG Channel 5, EXG Channel 6, EXG Channel 7, EXG Channel 8, EXG Channel 9, EXG Channel 10, EXG Channel 11, EXG Channel 12, EXG Channel 13, EXG Channel 14, EXG Channel 15, Accel Channel 0, Accel Channel 1, Accel Channel 2, Other, Other, Other, Other, Other, Other, Other, Analog Channel 0, Analog Channel 1, Analog Channel 2, Timestamp, Other, Timestamp (Formatted)
188.0, -8949.660831649404, -10569.75997325897, -10725.126948967809, -17070.608385873842, -2386.1381275818503, -2098.471176442048, -5764.693708979334, -7240.847616296723, -16880.61855800373, -15648.657458860573, -20281.68234606771, -12327.948192113423, -6449.394696878755, -10589.205990935086, -11538.417522718612, -12343.147378343032, 0.0, 0.0, 0.0, 192.0, 0.0, 0.0, 0.0, 0.0, 0.0, 0.0, 0.0, 0.0, 0.0, 1.6444988720029426E9, 0.0, 2022-02-11 00:14:32.002
190.0, -8950.532549683161, -10575.549075072895, -10725.439873390183, -17069.244929462067, -2388.0380258605514, -2100.326371231839, -5767.465325291792, -7258.661956627603, -16878.29397658038, -15634.464101131452, -20268.539520327988, -12314.134814040044, -6448.344164889356, -10586.076746711344, -11536.741141884464, -12338.67702945197, 0.0, 0.0, 0.0, 192.0, 0.0, 0.0, 0.0, 0.0, 0.0, 0.0, 0.0, 0.0, 0.0, 1.644498872002952E9, 0.0, 2022-02-11 00:14:32.002
192.0, -8964.278872523175, -10569.223531392043, -10730.133739725798, -17070.407220173744, -2397.6045724874225, -2108.4400544691152, -5765.431316546359, -7264.763982863901, -16892.643796520686, -15638.263897688854, -20280.654165822765, -12321.712055410393, -6455.921406259705, -10598.996055006512, -11542.530243698387, -12344.35437254362, 0.012, -0.026000000000000002, 0.986, 192.0, 0.0, 48.0, 127.5, 24.0, 15.0, 104.0, 0.0, 0.0, 0.0, 1.644498872002962E9, 0.0, 2022-02-11 00:14:32.002
194.0, -8951.448971205828, -10559.27700510943, -10719.829585531901, -17066.294499193966, -2387.0992525934284, -2101.4663101990595, -5760.04454613263, -7249.363630934195, -16891.570912786832, -15622.818842270237, -20277.659032065756, -12314.671255906971, -6459.475333628098, -10591.798793291902, -11537.456397707034, -12339.906375397013, 0.012, -0.026000000000000002, 0.986, 192.0, 0.0, 0.0, 0.0, 0.0, 0.0, 0.0, 0.0, 0.0, 0.0, 1.6444988720029695E9, 0.0, 2022-02-11 00:14:32.002
196.0, -8955.762857885702, -10554.694897496092, -10726.155129212753, -17068.99906027306, -2395.8387846754536, -2095.520746173948, -5768.627616003468, -7265.166314264097, -16890.989767430994, -15639.828519800725, -20276.25087216507, -12311.385549472041, -6456.390792893266, -10583.66275831017, -11538.462226207523, -12340.956907386411, 0.012, -0.026000000000000002, 0.986, 192.0, 0.0, 0.0, 0.0, 0.0, 0.0, 0.0, 0.0, 0.0, 0.0, 1.6444988720029776E9, 0.0, 2022-02-11 00:14:32.002
198.0, -8939.647250133426, -10550.112789882754, -10720.477786121106, -17061.019487502515, -2393.3130375520036, -2078.488716899004, -5755.976528641764, -7254.191607736541, -16885.133610383702, -15637.57099361074, -20277.413162876746, -12310.066796549178, -6450.311118401422, -10567.815371491359, -11541.27854600889, -12338.073532351676, 0.012, -0.026000000000000002, 0.986, 192.0, 0.0, 0.0, 0.0, 0.0, 0.0, 0.0, 0.0, 0.0, 0.0, 1.644498872002985E9, 0.0, 2022-02-11 00:14:32.002
200.0, -8930.885366306946, -10558.85232196478, -10717.63911457528, -17058.203167701147, -2379.6337699453557, -2082.9814175345205, -5756.334156553049, -7249.251872211918, -16875.47765677901, -15620.51661259134, -20259.82233999042, -12306.91520058098, -6448.545330589453, -10561.601586532783, -11534.595374416755, -12330.63040144806, 0.012, -0.026000000000000002, 0.986, 192.0, 0.0, 0.0, 0.0, 0.0, 0.0, 0.0, 0.0, 0.0, 0.0, 1.6444988720029929E9, 0.0, 2022-02-11 00:14:32.002
202.0, -8958.19919803133, -10564.32849935633, -10721.841242532879, -17063.455827648144, -2382.4500897467246, -2092.0338740389197, -5749.293357049627, -7246.14497973263, -16875.701174223563, -15629.434958629008, -20269.277127895013, -12314.000703573312, -6443.873815998294, -10569.916435470157, -11532.449606949045, -12333.983163116356, 0.01, -0.022, 0.99, 192.0, 0.0, 40.0, 127.5, 40.0, 15.0, 120.0, 0.0, 0.0, 0.0, 1.6444988720029995E9, 0.0, 2022-02-11 00:14:32.002
204.0, -8937.38972394344, -10554.538435284905, -10708.094919692865, -17061.66768809172, -2372.4588599752024, -2087.742339103501, -5749.047487860619, -7240.937023274544, -16883.211360360547, -15634.844080787192, -20262.72806676961, -12311.586715172138, -6449.662917812218, -10561.825103977335, -11530.013266803417, -12331.703285181915, 0.01, -0.022, 0.99, 192.0, 0.0, 0.0, 0.0, 0.0, 0.0, 0.0, 0.0, 0.0, 0.0, 1.6444988720030065E9, 0.0, 2022-02-11 00:14:32.003
206.0, -8943.894081579934, -10556.818313219346, -10714.576925584905, -17059.074885734903, -2383.9700083696853, -2103.8132433668666, -5752.154380339906, -7268.25085499893, -16884.32894758331, -15637.012199999357, -20252.088636408884, -12302.400148201008, -6445.773714276996, -10581.76286003147, -11527.912202824618, -12336.464206750896, 0.01, -0.022, 0.99, 192.0, 0.0, 0.0, 0.0, 0.0, 0.0, 0.0, 0.0, 0.0, 0.0, 1.644498872003014E9, 0.0, 2022-02-11 00:14:32.003
208.0, -8935.445122175828, -10546.335345069809, -10712.185288928187, -17051.56469959792, -2373.4423367312356, -2088.971685048543, -5738.765685411177, -7252.247005968929, -16885.178313872613, -15630.306676662765, -20265.857310993353, -12300.723767366859, -6446.354859632834, -10572.889217482712, -11529.365066214212, -12337.023000362278, 0.01, -0.022, 0.99, 192.0, 0.0, 0.0, 0.0, 0.0, 0.0, 0.0, 0.0, 0.0, 0.0, 1.6444988720030205E9, 0.0, 2022-02-11 00:14:32.003
210.0, -8935.311011709096, -10543.094342123788, -10710.955942983144, -17053.486949621078, -2369.396670984825, -2085.1048332577748, -5741.649060445912, -7237.606613350704, -16882.49610453798, -15618.482603845909, -20258.794159745474, -12293.459450418884, -6444.924347987694, -10569.13412441422, -11523.263039977914, -12323.857822878103, 0.01, -0.022, 0.99, 192.0, 0.0, 0.0, 0.0, 0.0, 0.0, 0.0, 0.0, 0.0, 0.0, 1.6444988720030272E9, 0.0, 2022-02-11 00:14:32.003
212.0, -8940.898947822923, -10540.032153133412, -10715.649809318758, -17058.694906079163, -2376.7727466550764, -2092.0115222944646, -5750.813275672588, -7250.7717908348795, -16881.803200459864, -15616.672112545028, -20275.803837275966, -12307.921029081468, -6441.191606663658, -10572.822162249347, -11530.035618547872, -12330.540994470239, 0.01, -0.022, 0.992, 192.0, 0.0, 40.0, 127.5, 40.0, 15.5, 0.0, 0.0, 0.0, 0.0, 1.6444988720030339E9, 0.0, 2022-02-11 00:14:32.003
214.0, -8930.795959329123, -10548.123484626232, -10706.150317925254, -17055.69977232215, -2365.7756883830652, -2078.93575178811, -5742.878406390954, -7234.119741215675, -16871.968432899528, -15615.37571136662, -20262.526901069512, -12315.408863473996, -6437.101237428336, -10555.007821918467, -11531.890813337663, -12326.763549657291, 0.01, -0.022, 0.992, 192.0, 0.0, 0.0, 0.0, 0.0, 0.0, 0.0, 0.0, 0.0, 0.0, 1.6444988720030403E9, 0.0, 2022-02-11 00:14:32.003
216.0, -8947.559767670604, -10561.601586532783, -10713.481690106593, -17061.198301458156, -2377.6444646888335, -2089.418719937649, -5751.819104173077, -7242.144017475131, -16874.42712478961, -15631.446615629986, -20257.58716554489, -12310.916162838479, -6440.163426418713, -10553.107923639765, -11532.360199971225, -12324.573078700672, 0.01, -0.022, 0.992, 192.0, 0.0, 0.0, 0.0, 0.0, 0.0, 0.0, 0.0, 0.0, 0.0, 1.6444988720030484E9, 0.0, 2022-02-11 00:14:32.003
218.0, -8938.48495942175, -10552.258557350464, -10709.816004015924, -17053.84457753236, -2371.0283483300627, -2076.6558738536687, -5745.650022703412, -7239.305345929307, -16882.29493883788, -15631.558374352262, -20268.20424416116, -12316.168822785476, -6446.734839288573, -10561.0427929214, -11538.104598296237, -12323.969581600379, 0.01, -0.022, 0.992, 192.0, 0.0, 0.0, 0.0, 0.0, 0.0, 0.0, 0.0, 0.0, 0.0, 1.644498872003055E9, 0.0, 2022-02-11 00:14:32.003
220.0, -8926.794997071624, -10536.120597853733, -10703.02107370151, -17051.542347853465, -2365.9097988497974, -2079.539248888403, -5751.573234984068, -7253.677517614069, -16879.277453336414, -15620.963647480447, -20249.38407532979, -12303.383624957041, -6446.824246266395, -10558.829970220324, -11529.834452847774, -12321.019151332279, 0.01, -0.022, 0.992, 192.0, 0.0, 0.0, 0.0, 0.0, 0.0, 0.0, 0.0, 0.0, 0.0, 1.6444988720030696E9, 0.0, 2022-02-11 00:14:32.003
222.0, -8935.422770431373, -10544.323688068831, -10703.468108590616, -17055.453903133144, -2369.955464596208, -2088.3011327148834, -5752.959043140298, -7255.398601937128, -16878.115162624737, -15625.121071949134, -20261.72223826912, -12310.223258760365, -6441.526882830487, -10565.937824957113, -11530.28148773688, -12327.836433391147, 0.014, -0.028, 0.988, 192.0, 0.0, 56.0, 127.5, 16.0, 15.0, 112.0, 0.0, 0.0, 0.0, 1.6444988720030763E9, 0.0, 2022-02-11 00:14:32.003
224.0, -8928.493729650227, -10540.210967089053, -10694.125079408299, -17054.626888588296, -2355.9632725671854, -2082.355568689772, -5744.487731991736, -7224.977877733455, -16873.600110244766, -15622.863545759148, -20260.917575468728, -12304.903543580001, -6435.268394383001, -10566.451915079584, -11525.587621401266, -12319.543936198228, 0.014, -0.028, 0.988, 192.0, 0.0, 0.0, 0.0, 0.0, 0.0, 0.0, 0.0, 0.0, 0.0, 1.6444988720030828E9, 0.0, 2022-02-11 00:14:32.003
226.0, -8936.495654165228, -10541.037981633901, -10700.472974833605, -17059.320754923912, -2363.1605342817943, -2088.390539692705, -5737.335173766038, -7245.206206465507, -16870.560272998842, -15619.153156179567, -20253.228575376103, -12302.556610412194, -6433.636717037763, -10568.441220336106, -11523.419502189101, -12321.91322111049, 0.014, -0.028, 0.988, 192.0, 0.0, 0.0, 0.0, 0.0, 0.0, 0.0, 0.0, 0.0, 0.0, 1.64449887200309E9, 0.0, 2022-02-11 00:14:32.003
228.0, -8937.926165810368, -10535.986487387001, -10695.086204419877, -17049.12835945229, -2359.18192376875, -2085.149536746685, -5746.745258181722, -7254.48218041446, -16870.493217765477, -15620.002522468869, -20261.543424313477, -12304.590619157627, -6431.736818759063, -10560.819275476846, -11525.90054582364, -12327.232936290853, 0.014, -0.028, 0.988, 192.0, 0.0, 0.0, 0.0, 0.0, 0.0, 0.0, 0.0, 0.0, 0.0, 1.6444988720030963E9, 0.0, 2022-02-11 00:14:32.003
230.0, -8935.623936131471, -10543.94370841309, -10697.50019282105, -17049.5753943414, -2363.7416796376324, -2081.7297198450233, -5756.535322253147, -7260.114820017197, -16873.82362768932, -15615.979208466913, -20249.451130563157, -12292.587732385127, -6432.295612370445, -10554.493731795996, -11524.872365578696, -12324.148395556022, 0.014, -0.028, 0.988, 192.0, 0.0, 0.0, 0.0, 0.0, 0.0, 0.0, 0.0, 0.0, 0.0, 1.6444988720031044E9, 0.0, 2022-02-11 00:14:32.003
232.0, -8945.883386836456, -10551.364487572251, -10708.854879004346, -17052.682286820684, -2374.604627442912, -2084.3001704573835, -5768.068822392085, -7240.512340129893, -16881.95966267105, -15619.130804435112, -20264.33739237039, -12306.177593013954, -6439.247004896046, -10562.316842355352, -11526.124063268193, -12321.689703665937, 0.014, -0.034, 0.986, 192.0, 0.0, 56.0, 127.0, 120.0, 15.0, 104.0, 0.0, 0.0, 0.0, 1.644498872003112E9, 0.0, 2022-02-11 00:14:32.003
234.0, -8939.334325711052, -10554.717249240548, -10705.479765591594, -17057.219690945112, -2367.273255261571, -2080.1427459886963, -5738.385705755438, -7232.689229570536, -16881.847903948772, -15632.85477553067, -20261.163444657737, -12318.292238508731, -6446.377211377288, -10564.641423778705, -11528.940383069561, -12320.77328214327, 0.014, -0.034, 0.986, 192.0, 0.0, 0.0, 0.0, 0.0, 0.0, 0.0, 0.0, 0.0, 0.0, 1.6444988720031188E9, 0.0, 2022-02-11 00:14:32.003
236.0, -8944.38581995795, -10553.018516661945, -10712.297047650463, -17064.685173593185, -2372.1459355528277, -2083.2049349790736, -5751.103848350507, -7242.278127941862, -16882.898435938172, -15637.436883144008, -20256.804854488953, -12321.667351921482, -6445.505493343532, -10557.667679508648, -11525.297048723347, -12323.433139733452, 0.014, -0.034, 0.986, 192.0, 0.0, 0.0, 0.0, 0.0, 0.0, 0.0, 0.0, 0.0, 0.0, 1.6444988720031257E9, 0.0, 2022-02-11 00:14:32.003
238.0, -8937.81440708809, -10539.65217347767, -10711.470033105616, -17056.95147001165, -2358.5784266684564, -2078.3769581767274, -5749.829798916555, -7257.097334515731, -16877.668127735633, -15635.984019754413, -20268.159540672248, -12319.700398409415, -6440.565757818909, -10568.977662203033, -11531.80140635984, -12327.72467466887, 0.014, -0.034, 0.986, 192.0, 0.0, 0.0, 0.0, 0.0, 0.0, 0.0, 0.0, 0.0, 0.0, 1.6444988720031333E9, 0.0, 2022-02-11 00:14:32.003
240.0, -8929.052523261611, -10537.104074609766, -10710.330094138395, -17053.218728687614, -2353.348118465915, -2080.8803535557217, -5724.415865470871, -7232.063380725787, -16876.818761446328, -15619.980170724413, -20260.314078368436, -12308.837450604136, -6436.2742228834895, -10569.80467674788, -11526.861670835218, -12320.147433298522, 0.014, -0.034, 0.986, 192.0, 0.0, 0.0, 0.0, 0.0, 0.0, 0.0, 0.0, 0.0, 0.0, 1.64449887200314E9, 0.0, 2022-02-11 00:14:32.003
242.0, -8951.180750272364, -10553.689068995604, -10714.68868430718, -17054.738647310573, -2366.9379790947414, -2086.155365247174, -5741.425543001359, -7243.663936098092, -16885.5359417839, -15636.073426732235, -20274.77565703102, -12318.96279084239, -6437.771789761996, -10571.19048490411, -11526.794615601852, -12321.287372265742, 0.014, -0.03, 0.986, 192.0, 0.0, 56.0, 127.5, 8.0, 15.0, 104.0, 0.0, 0.0, 0.0, 1.6444988720031464E9, 0.0, 2022-02-11 00:14:32.003
244.0, -8950.934881083356, -10553.487903295507, -10701.814079500924, -17049.351876896846, -2355.5385894225346, -2078.287551198906, -5737.223415043762, -7244.222729709474, -16883.39017431619, -15632.363037152654, -20269.992383717585, -12303.584790657138, -6438.285879884467, -10571.324595370841, -11527.755740613431, -12323.29902926672, 0.014, -0.03, 0.986, 192.0, 0.0, 0.0, 0.0, 0.0, 0.0, 0.0, 0.0, 0.0, 0.0, 1.644498872003153E9, 0.0, 2022-02-11 00:14:32.003
246.0, -8956.947500341834, -10549.129313126721, -10705.971503969611, -17057.778484556497, -2367.7426418951322, -2085.5295164024255, -5757.094115864529, -7239.662973840592, -16884.97714817252, -15629.837290029203, -20259.5317673125, -12316.682912907949, -6436.587147305864, -10570.81050524837, -11524.358275456223, -12324.72954091186, 0.014, -0.03, 0.986, 192.0, 0.0, 0.0, 0.0, 0.0, 0.0, 0.0, 0.0, 0.0, 0.0, 1.6444988720031598E9, 0.0, 2022-02-11 00:14:32.003
248.0, -8934.327534953063, -10544.61426074675, -10697.790765498969, -17051.005905986538, -2357.930226079253, -2087.8317460813223, -5743.973641869265, -7252.247005968929, -16872.683688722096, -15626.19395568299, -20260.00115394606, -12315.565325685184, -6430.820397236395, -10571.52576107094, -11529.454473192034, -12329.557517714205, 0.014, -0.03, 0.986, 192.0, 0.0, 0.0, 0.0, 0.0, 0.0, 0.0, 0.0, 0.0, 0.0, 1.6444988720031664E9, 0.0, 2022-02-11 00:14:32.003
250.0, -8932.651154118914, -10550.291603838397, -10702.9763702126, -17048.860138518827, -2364.3898802268363, -2083.428452423627, -5744.532435480647, -7243.038087253343, -16868.705078209052, -15632.407740641564, -20245.4278165612, -12292.610084129583, -6434.486083327065, -10561.467476066051, -11524.09005452276, -12326.160052557, 0.014, -0.03, 0.986, 192.0, 0.0, 0.0, 0.0, 0.0, 0.0, 0.0, 0.0, 0.0, 0.0, 1.644498872003173E9, 0.0, 2022-02-11 00:14:32.003
252.0, -8945.190482758342, -10538.534586254906, -10717.370893641817, -17053.978687999093, -2378.0914995779394, -2080.6344843667134, -5752.176732084362, -7252.381116435661, -16878.71865972503, -15634.665266831551, -20263.24215689208, -12306.468165691873, -6443.337374131367, -10558.874673709235, -11533.678952894086, -12330.719808425882, 0.006, -0.026000000000000002, 0.988, 192.0, 0.0, 24.0, 127.5, 24.0, 15.0, 112.0, 0.0, 0.0, 0.0, 1.644498872003197E9, 0.0, 2022-02-11 00:14:32.003
254.0, -8930.43833141784, -10534.332458297307, -10711.246515661063, -17043.786292527475, -2368.077918061962, -2071.7831935624117, -5755.685955963845, -7245.899110543623, -16878.24927309147, -15616.80622301176, -20266.661973793744, -12313.82188961767, -6450.333470145878, -10567.033060435422, -11537.590508173766, -12326.562383957194, 0.006, -0.026000000000000002, 0.988, 192.0, 0.0, 0.0, 0.0, 0.0, 0.0, 0.0, 0.0, 0.0, 0.0, 1.6444988720032039E9, 0.0, 2022-02-11 00:14:32.003
0.0, -8951.359564228007, -10558.159417886665, -10719.203736687152, -17053.799874043452, -2378.85145888942, -2085.6636268691573, -5766.012461902197, -7258.192569994041, -16886.452363306566, -15624.450519615475, -20264.627965048312, -12308.368063970574, -6453.3733073918, -10567.971833702544, -11537.612859918221, -12328.350523513618, 0.006, -0.026000000000000002, 0.988, 192.0, 0.0, 0.0, 0.0, 0.0, 0.0, 0.0, 0.0, 0.0, 0.0, 1.6444988720032103E9, 0.0, 2022-02-11 00:14:32.003
2.0, -8949.638479904948, -10556.99712717499, -10714.465166862628, -17055.297440921957, -2367.1838482837497, -2085.440109424604, -5766.772421213677, -7257.589072893748, -16894.119011654737, -15641.61665935715, -20278.30723265496, -12308.502174437306, -6450.445228868155, -10588.691900812615, -11538.506929696434, -12337.402980018018, 0.006, -0.026000000000000002, 0.988, 192.0, 0.0, 0.0, 0.0, 0.0, 0.0, 0.0, 0.0, 0.0, 0.0, 1.6444988720032299E9, 0.0, 2022-02-11 00:14:32.003
4.0, -8950.532549683161, -10549.50929278246, -10710.307742393941, -17058.694906079163, -2361.6853191477444, -2079.7180628440456, -5749.181598327351, -7260.763020606401, -16889.939235441594, -15631.603077841173, -20264.024467948017, -12301.930761567446, -6448.1877026781685, -10566.608377290771, -11534.885947094674, -12333.133796827055, 0.007, -0.025, 0.988, 192.0, 0.0, 32.0, 127.5, 32.0, 15.0, 112.0, 0.0, 0.0, 0.0, 1.6444988720032368E9, 0.0, 2022-02-11 00:14:32.003
6.0, -8959.607357932015, -10539.696876966582, -10714.9792569851, -17065.75805732704, -2367.988511084141, -2078.198144221085, -5742.18550231284, -7231.884566770144, -16893.739031998997, -15642.555432624273, -20276.49674135408, -12320.259192020798, -6446.265452655012, -10550.85039744978, -11532.42725520459, -12330.764511914793, 0.007, -0.025, 0.988, 192.0, 0.0, 0.0, 0.0, 0.0, 0.0, 0.0, 0.0, 0.0, 0.0, 1.6444988720032437E9, 0.0, 2022-02-11 00:14:32.003
8.0, -8940.027229789166, -10547.587042759305, -10705.233896402586, -17054.783350799484, -2362.177057525761, -2079.9192285441436, -5748.287528549138, -7235.617308094181, -16884.843037705785, -15628.809109784259, -20267.109008682848, -12320.10272980961, -6442.532711330976, -10575.370261117252, -11531.197909259548, -12327.836433391147, 0.007, -0.025, 0.988, 192.0, 0.0, 0.0, 0.0, 0.0, 0.0, 0.0, 0.0, 0.0, 0.0, 1.6444988720032504E9, 0.0, 2022-02-11 00:14:32.003
10.0, -8941.569500156582, -10560.752220243481, -10707.938457481678, -17057.42085664521, -2369.7990023850207, -2088.479946670526, -5745.985298870242, -7249.765962334391, -16882.406697560156, -15629.077330717724, -20253.407389331747, -12303.204811001398, -6444.834941009873, -10574.587950061315, -11531.466130193012, -12328.417578746985, 0.007, -0.025, 0.988, 192.0, 0.0, 0.0, 0.0, 0.0, 0.0, 0.0, 0.0, 0.0, 0.0, 1.6444988720032573E9, 0.0, 2022-02-11 00:14:32.003
12.0, -8934.707514608803, -10543.89900492418, -10707.536126081483, -17050.80474028644, -2362.512333692591, -2078.9134000436547, -5742.699592435311, -7246.81553206629, -16881.222055104026, -15634.419397642541, -20261.72223826912, -12311.385549472041, -6443.985574720571, -10570.028194192433, -11532.583717415777, -12328.149357813521, 0.007, -0.025, 0.988, 192.0, 0.0, 0.0, 0.0, 0.0, 0.0, 0.0, 0.0, 0.0, 0.0, 1.644498872003264E9, 0.0, 2022-02-11 00:14:32.003
14.0, -8927.711418594292, -10531.337324540296, -10705.412710358229, -17049.530690852487, -2352.565807409979, -2083.070824512342, -5740.41971450087, -7255.6444711261365, -16879.299805080867, -15623.668208559538, -20253.183871887195, -12303.830659846148, -6439.5599293184205, -10563.501484811484, -11529.342714469758, -12324.997761845323, 0.006500000000000001, -0.026500000000000003, 0.991, 192.0, 0.0, 24.0, 127.5, 16.0, 15.5, 8.0, 0.0, 0.0, 0.0, 1.6444988720032709E9, 0.0, 2022-02-11 00:14:32.003
16.0, -8948.945575826834, -10536.70174320957, -10720.343675654374, -17056.37032465581, -2372.1906390417385, -2084.5013361574815, -5740.956156367798, -7239.774732562868, -16889.894531952683, -15634.598211598184, -20274.619194819832, -12318.091072808633, -6444.812589265417, -10569.75997325897, -11530.303839481336, -12328.171709557977, 0.006500000000000001, -0.026500000000000003, 0.991, 192.0, 0.0, 0.0, 0.0, 0.0, 0.0, 0.0, 0.0, 0.0, 0.0, 1.6444988720032773E9, 0.0, 2022-02-11 00:14:32.003
18.0, -8929.298392450619, -10544.99424040249, -10711.380626127795, -17051.944679253662, -2356.3879557118366, -2069.45861213906, -5735.167054553874, -7236.354915661206, -16891.369747086734, -15637.727455821927, -20277.92725299922, -12306.892848836524, -6449.282938156479, -10562.115676655254, -11529.342714469758, -12321.980276343857, 0.006500000000000001, -0.026500000000000003, 0.991, 192.0, 0.0, 0.0, 0.0, 0.0, 0.0, 0.0, 0.0, 0.0, 0.0, 1.644498872003284E9, 0.0, 2022-02-11 00:14:32.003
20.0, -8960.501427710227, -10542.379086301218, -10713.995780229066, -17054.04574323246, -2367.116793050384, -2078.801641321378, -5735.211758042784, -7237.383095906151, -16896.465944822543, -15634.911136020559, -20272.987517474594, -12306.781090114247, -6453.03803122497, -10563.389726089206, -11526.638153390664, -12320.147433298522, 0.006500000000000001, -0.026500000000000003, 0.991, 192.0, 0.0, 0.0, 0.0, 0.0, 0.0, 0.0, 0.0, 0.0, 0.0, 1.644498872003291E9, 0.0, 2022-02-11 00:14:32.003
22.0, -8959.696764909837, -10546.84943519228, -10710.553611582949, -17058.069057234414, -2358.243150501627, -2073.325463929828, -5739.190368555828, -7254.281014714363, -16894.81191573285, -15631.647781330084, -20279.313061155448, -12319.812157131691, -6443.337374131367, -10559.522874298438, -11527.37576095769, -12324.617782189582, 0.006500000000000001, -0.026500000000000003, 0.991, 192.0, 0.0, 0.0, 0.0, 0.0, 0.0, 0.0, 0.0, 0.0, 0.0, 1.6444988720032976E9, 0.0, 2022-02-11 00:14:32.003
24.0, -8954.421753218383, -10550.984507916512, -10704.965675469122, -17056.079751977893, -2358.757240624099, -2077.6617023541576, -5740.911452878887, -7232.309249914796, -16887.234674362502, -15609.407795597053, -20262.549252813966, -12318.895735609023, -6437.995307206548, -10573.090383182811, -11523.531260911377, -12322.606125188604, 0.00525, -0.02925, 0.9904999999999999, 192.0, 0.0, 16.0, 127.5, 0.0, 15.0, 120.0, 0.0, 0.0, 0.0, 1.6444988720033188E9, 0.0, 2022-02-11 00:14:32.003
26.0, -8961.909587610911, -10557.578272530827, -10712.40880637274, -17056.28091767799, -2366.8038686280097, -2087.2729524699394, -5743.61601395798, -7244.647412854125, -16892.263816864946, -15634.240583686898, -20271.624061062823, -12319.901564109512, -6445.617252065808, -10579.550037330395, -11523.911240567119, -12325.645962434526, 0.00525, -0.02925, 0.9904999999999999, 192.0, 0.0, 0.0, 0.0, 0.0, 0.0, 0.0, 0.0, 0.0, 0.0, 1.6444988720033255E9, 0.0, 2022-02-11 00:14:32.003
28.0, -8946.352773470018, -10544.971888658034, -10706.575001069905, -17052.570528098408, -2355.2256650001605, -2073.2360569520065, -5730.450836473803, -7217.512395085382, -16886.29590109538, -15633.458272630964, -20267.310174382947, -12308.81509885968, -6443.069153197904, -10575.169095417154, -11522.704246366531, -12323.902526367012, 0.00525, -0.02925, 0.9904999999999999, 192.0, 0.0, 0.0, 0.0, 0.0, 0.0, 0.0, 0.0, 0.0, 0.0, 1.6444988720033343E9, 0.0, 2022-02-11 00:14:32.003
30.0, -8943.134122268453, -10538.869862421736, -10712.431158117195, -17052.27995542049, -2361.953540081208, -2072.9454842740874, -5743.057220346596, -7234.723238315969, -16886.56412202884, -15638.152138966578, -20261.476369080112, -12304.970598813368, -6447.338336388867, -10565.42373483464, -11518.211545731014, -12319.320418753674, 0.00525, -0.02925, 0.9904999999999999, 192.0, 0.0, 0.0, 0.0, 0.0, 0.0, 0.0, 0.0, 0.0, 0.0, 1.6444988720033412E9, 0.0, 2022-02-11 00:14:32.003
32.0, -8938.0602762771, -10530.398551273174, -10713.369931384317, -17047.98842048507, -2361.7523743811103, -2064.7423940589897, -5743.884234891443, -7231.929270259056, -16884.15013362767, -15632.541851108295, -20269.05361045046, -12308.680988392949, -6442.108028186325, -10554.180807373621, -11518.077435264282, -12320.885040865547, 0.00525, -0.02925, 0.9904999999999999, 192.0, 0.0, 0.0, 0.0, 0.0, 0.0, 0.0, 0.0, 0.0, 0.0, 1.644498872003348E9, 0.0, 2022-02-11 00:14:32.003
34.0, -8934.036962275144, -10525.212946559543, -10710.911239494233, -17049.97772574159, -2355.918569078275, -2061.5237428574255, -5732.998935341709, -7235.9078807721, -16884.373651072223, -15615.196897410977, -20261.454017335658, -12296.76750859827, -6443.829112509384, -10544.077818879821, -11514.367045684701, -12318.046369319722, 0.004625000000000001, -0.029625, 0.99025, 192.0, 0.0, 16.0, 127.5, 8.0, 15.0, 120.0, 0.0, 0.0, 0.0, 1.6444988720033553E9, 0.0, 2022-02-11 00:14:32.003
36.0, -8943.357639713007, -10529.392722772685, -10721.863594277334, -17058.292574678966, -2366.7144616501882, -2074.264237196951, -5742.1631505683845, -7234.991459249432, -16889.20162787457, -15618.750824779372, -20272.518130841032, -12308.636284904038, -6442.488007842066, -10541.954403156567, -11515.37287418519, -12321.041503076733, 0.004625000000000001, -0.029625, 0.99025, 192.0, 0.0, 0.0, 0.0, 0.0, 0.0, 0.0, 0.0, 0.0, 0.0, 1.6444988720033624E9, 0.0, 2022-02-11 00:14:32.003
38.0, -8938.95434605531, -10544.055467135366, -10717.348541897361, -17054.492778121567, -2359.4277929577584, -2073.12429822973, -5730.137912051429, -7230.074075469265, -16886.20649411756, -15624.271705659832, -20272.741648285588, -12314.62655241806, -6440.0293159519815, -10568.038888935911, -11514.881135807174, -12323.276677522264, 0.004625000000000001, -0.029625, 0.99025, 192.0, 0.0, 0.0, 0.0, 0.0, 0.0, 0.0, 0.0, 0.0, 0.0, 1.6444988720033693E9, 0.0, 2022-02-11 00:14:32.003
40.0, -8954.48880845175, -10549.79986546038, -10723.942306511677, -17059.09723747936, -2370.8495343744203, -2083.2496384679844, -5738.318650522072, -7230.4093516360945, -16889.022813918928, -15619.577839324218, -20268.137188927794, -12312.905468095001, -6441.973917719593, -10580.488810597517, -11513.294161950847, -12325.087168823144, 0.004625000000000001, -0.029625, 0.99025, 192.0, 0.0, 0.0, 0.0, 0.0, 0.0, 0.0, 0.0, 0.0, 0.0, 1.6444988720033765E9, 0.0, 2022-02-11 00:14:32.003
42.0, -8945.324593225074, -10536.65703972066, -10720.634248332293, -17061.153597969245, -2376.8398018884423, -2077.326426187328, -5758.56933099858, -7229.068246968776, -16889.849828463775, -15634.866432531648, -20280.34124140039, -12327.76937815778, -6438.822321751395, -10571.23518839302, -11518.99385678695, -12330.116311325588, 0.004625000000000001, -0.029625, 0.99025, 192.0, 0.0, 0.0, 0.0, 0.0, 0.0, 0.0, 0.0, 0.0, 0.0, 1.6444988720033832E9, 0.0, 2022-02-11 00:14:32.003
44.0, -8930.95242154031, -10522.977772114013, -10716.968562241622, -17058.627850845798, -2372.011825086096, -2080.2992081998837, -5747.169941326373, -7239.707677329502, -16883.703098738562, -15623.310580648254, -20261.454017335658, -12306.781090114247, -6441.325717130389, -10574.923226228146, -11520.938458554561, -12328.618744447083, 0.0053125, -0.0258125, 0.9901249999999999, 192.0, 0.0, 24.0, 127.5, 40.0, 15.0, 120.0, 0.0, 0.0, 0.0, 1.6444988720033908E9, 0.0, 2022-02-11 00:14:32.003
46.0, -8934.193424486331, -10536.70174320957, -10725.618687345826, -17064.61811835982, -2380.460784490202, -2074.0407197523978, -5759.865732176988, -7244.468598898483, -16885.982976673007, -15640.543775623295, -20269.29947963947, -12308.524526181762, -6442.711525286619, -10556.751257985981, -11521.832528332774, -12335.570136972683, 0.0053125, -0.0258125, 0.9901249999999999, 192.0, 0.0, 0.0, 0.0, 0.0, 0.0, 0.0, 0.0, 0.0, 0.0, 1.644498872003398E9, 0.0, 2022-02-11 00:14:32.003
48.0, -8921.788206313635, -10519.669713934627, -10711.671198805714, -17051.967030998116, -2362.4452784592245, -2062.6860335691017, -5721.845414858511, -7227.5930318347255, -16867.72160145302, -15609.407795597053, -20260.761113257544, -12309.932686082446, -6435.201339149635, -10565.691955768103, -11523.553612655833, -12327.635267691048, 0.0053125, -0.0258125, 0.9901249999999999, 192.0, 0.0, 0.0, 0.0, 0.0, 0.0, 0.0, 0.0, 0.0, 0.0, 1.6444988720034056E9, 0.0, 2022-02-11 00:14:32.003
50.0, -8940.876596078468, -10528.118673338733, -10714.509870351538, -17055.18568219968, -2371.274217519071, -2067.446955138082, -5724.840548615522, -7217.825319507757, -16879.456267292055, -15611.486507831396, -20253.87677596531, -12297.728633609848, -6431.669763525697, -10565.13316215672, -11514.679970107076, -12320.505061209806, 0.0053125, -0.0258125, 0.9901249999999999, 192.0, 0.0, 0.0, 0.0, 0.0, 0.0, 0.0, 0.0, 0.0, 0.0, 1.6444988720034132E9, 0.0, 2022-02-11 00:14:32.003
52.0, -8931.220642473774, -10529.683295450604, -10714.956905240644, -17049.016600730014, -2373.3529297534146, -2059.2662166674395, -5726.159301538384, -7213.757302016891, -16879.277453336414, -15613.721682276928, -20264.873834237318, -12307.317531981174, -6432.139150159258, -10562.652118522183, -11521.340789954756, -12320.840337376636, 0.0053125, -0.0258125, 0.9901249999999999, 192.0, 0.0, 0.0, 0.0, 0.0, 0.0, 0.0, 0.0, 0.0, 0.0, 1.6444988720034206E9, 0.0, 2022-02-11 00:14:32.003
0.0, -4443.683259926232, -5254.492790042495, -5381.316588081907, -8572.206923032632, -1175.0535577599476, -945.1435142926591, -3071.9119992151263, -3600.8213282610573, -8442.902081358681, -7813.253440052681, -10127.217784788345, -6148.629623488143, -3218.718256797583, -5276.084575186322, -5758.770496698678, -6157.2797485923475, 0.008, -0.026000000000000002, 0.988, 192.0, 0.0, 32.0, 127.5, 24.0, 15.0, 112.0, 0.0, 0.0, 0.0, 1.6444988725549185E9, 0.0, 2022-02-11 00:14:32.554
2.0, -8881.219790127254, -10514.0817778208, -10757.581681916916, -17145.866709454862, -2344.697993361711, -1884.6767407270363, -6136.224405315448, -7184.141240613609, -17415.473451074773, -15817.882516131702, -19919.628789380648, -12126.380160615465, -6590.1212799693685, -10854.38708715285, -11597.62729378072, -12402.759480805336, 0.008, -0.026000000000000002, 0.988, 192.0, 0.0, 0.0, 0.0, 0.0, 0.0, 0.0, 0.0, 0.0, 0.0, 1.6444988725550292E9, 0.0, 2022-02-11 00:14:32.555
4.0, -8890.339301865019, -10533.952478641568, -10768.981071589122, -17157.199043893703, -2352.9457870657193, -1903.3180956027622, -6141.924100151551, -7194.691263996514, -17419.764986010192, -15830.46654826004, -19914.487888155923, -12125.083759437057, -6591.68590208124, -10854.901177275322, -11595.637988524199, -12402.334797660686, 0.008, -0.026000000000000002, 0.988, 192.0, 0.0, 0.0, 0.0, 0.0, 0.0, 0.0, 0.0, 0.0, 0.0, 1.644498872555062E9, 0.0, 2022-02-11 00:14:32.555
6.0, -8889.981673953733, -10534.958307142057, -10771.79739139049, -17152.058142668982, -2354.46570568868, -1895.4726332989496, -6148.294347321314, -7189.751528471891, -17425.844660502036, -15840.100150120277, -19936.61611516668, -12140.72998055577, -6593.854021293405, -10871.419116427795, -11602.209401394059, -12409.397948908561, 0.008, -0.026000000000000002, 0.988, 192.0, 0.0, 0.0, 0.0, 0.0, 0.0, 0.0, 0.0, 0.0, 0.0, 1.6444988725550835E9, 0.0, 2022-02-11 00:14:32.555
8.0, -8877.62115926995, -10517.926277867113, -10768.891664611301, -17150.314706601468, -2347.9613480521857, -1878.261790068363, -6133.206919813982, -7188.566886015759, -17425.755253524214, -15827.873745903224, -19920.813431836777, -12122.848584991525, -6594.2340009491445, -10866.725250092179, -11601.494145571489, -12399.719643559414, 0.012, -0.024, 0.99, 192.0, 0.0, 48.0, 127.5, 32.0, 15.0, 120.0, 0.0, 0.0, 0.0, 1.6444988725550904E9, 0.0, 2022-02-11 00:14:32.555
10.0, -8883.253798872685, -10510.46079521904, -10774.144324558298, -17152.95221244719, -2355.985624311641, -1890.3093803297736, -6133.296326791803, -7194.199525618497, -17426.53756458015, -15824.811556912848, -19927.451899940002, -12130.626992061972, -6594.859849793894, -10859.19271221074, -11596.129726902214, -12400.524306359805, 0.012, -0.024, 0.99, 192.0, 0.0, 0.0, 0.0, 0.0, 0.0, 0.0, 0.0, 0.0, 0.0, 1.6444988725550969E9, 0.0, 2022-02-11 00:14:32.555
12.0, -8869.529827777127, -10512.181879542099, -10759.88391159581, -17148.72773274514, -2335.846702557409, -1880.1169848581535, -6117.158367295071, -7181.481383023427, -17419.988503454748, -15824.61039121275, -19921.729853359444, -12131.409303117909, -6588.981341002148, -10867.48520940366, -11594.095718156781, -12398.110317958632, 0.012, -0.024, 0.99, 192.0, 0.0, 0.0, 0.0, 0.0, 0.0, 0.0, 0.0, 0.0, 0.0, 1.6444988725551035E9, 0.0, 2022-02-11 00:14:32.555
14.0, -8875.833019713524, -10518.663885434138, -10764.84599886489, -17153.086322913925, -2343.8262753279537, -1885.8390314387123, -6125.763788910364, -7190.578543016737, -17417.954494709313, -15824.23041155701, -19910.576332876248, -12124.457910592308, -6580.331215897944, -10866.300566947528, -11584.752688974464, -12395.584570835183, 0.012, -0.024, 0.99, 192.0, 0.0, 0.0, 0.0, 0.0, 0.0, 0.0, 0.0, 0.0, 0.0, 1.64449887255511E9, 0.0, 2022-02-11 00:14:32.555
16.0, -8874.357804579473, -10520.876708135213, -10767.08117331042, -17147.96777343366, -2352.3869934543363, -1886.8225081947458, -6135.352687281691, -7196.56881053076, -17419.87674473247, -15828.812519170348, -19923.160365004584, -12128.235355405255, -6583.795736288516, -10867.216988470196, -11596.129726902214, -12401.194858693465, 0.011, -0.023, 0.991, 192.0, 0.0, 40.0, 127.5, 40.0, 15.5, 0.0, 0.0, 0.0, 0.0, 1.6444988725551174E9, 0.0, 2022-02-11 00:14:32.555
18.0, -8864.455981785773, -10508.091510306778, -10757.291109238997, -17142.53629953102, -2342.686336360733, -1882.6650837260586, -6134.145693081105, -7190.556191272282, -17416.278113875167, -15822.978713867513, -19909.726966586946, -12117.953552955814, -6581.515858354075, -10858.365697665895, -11595.05684316836, -12394.466983612418, 0.011, -0.023, 0.991, 192.0, 0.0, 0.0, 0.0, 0.0, 0.0, 0.0, 0.0, 0.0, 0.0, 1.644498872555124E9, 0.0, 2022-02-11 00:14:32.555
20.0, -8877.576455781038, -10508.963228340535, -10765.27068200954, -17150.404113579287, -2349.9283015642527, -1891.292857085807, -6137.274937304847, -7193.394862818106, -17416.63574178645, -15816.899039375669, -19914.577295133746, -12125.486090837252, -6578.744242041617, -10859.460933144204, -11592.642854767188, -12396.702158057948, 0.011, -0.023, 0.991, 192.0, 0.0, 0.0, 0.0, 0.0, 0.0, 0.0, 0.0, 0.0, 0.0, 1.6444988725551307E9, 0.0, 2022-02-11 00:14:32.555
22.0, -8859.13626660541, -10507.957399840046, -10756.218225505141, -17142.826872208938, -2340.9652520376744, -1874.6631592110587, -6133.8551204031855, -7183.984778402421, -17416.278113875167, -15816.362597508742, -19919.18175449154, -12125.910773981903, -6579.168925186268, -10863.327784934972, -11591.257046610957, -12395.539867346271, 0.011, -0.023, 0.991, 192.0, 0.0, 0.0, 0.0, 0.0, 0.0, 0.0, 0.0, 0.0, 0.0, 1.644498872555138E9, 0.0, 2022-02-11 00:14:32.555
24.0, -8865.573569008538, -10494.903981078147, -10761.627347663325, -17149.264174612068, -2347.0672782739734, -1881.2792755698295, -6122.053399330784, -7190.109156383176, -17413.037110929145, -15815.982617853, -19904.98839676242, -12121.105148924013, -6578.699538552706, -10854.297680175028, -11587.4348983091, -12394.466983612418, 0.011, -0.023, 0.991, 192.0, 0.0, 0.0, 0.0, 0.0, 0.0, 0.0, 0.0, 0.0, 0.0, 1.6444988725551448E9, 0.0, 2022-02-11 00:14:32.555
26.0, -8870.80387721108, -10508.896173107169, -10761.873216852335, -17142.96098267567, -2345.6814701177445, -1889.1247378736423, -6111.995114325895, -7180.184981845019, -17415.1605266524, -15823.313990034341, -19916.65600736809, -12123.742654769738, -6580.465326364676, -10871.91085480581, -11591.927598944618, -12399.227905181397, 0.0095, -0.025500000000000002, 0.9915, 192.0, 0.0, 32.0, 127.5, 16.0, 15.5, 0.0, 0.0, 0.0, 0.0, 1.6444988725551512E9, 0.0, 2022-02-11 00:14:32.555
28.0, -8864.523037019138, -10517.0322080889, -10757.201702261174, -17144.994991421103, -2336.6066618688897, -1882.396862792595, -6105.691922389498, -7179.961464400467, -17413.14886965142, -15828.968981381535, -19907.71530958597, -12114.53373605415, -6577.336082140932, -10863.014860512598, -11583.836267451796, -12392.50003010035, 0.0095, -0.025500000000000002, 0.9915, 192.0, 0.0, 0.0, 0.0, 0.0, 0.0, 0.0, 0.0, 0.0, 0.0, 1.644498872555158E9, 0.0, 2022-02-11 00:14:32.555
30.0, -8868.523999276638, -10507.823289373313, -10764.868350609346, -17144.97263967665, -2342.1945979827165, -1894.489156542916, -6118.074788817738, -7185.012958647366, -17416.97101795328, -15830.80182442687, -19914.71140560048, -12127.855375749514, -6578.163096685779, -10867.641671614847, -11586.540828530888, -12397.484469113884, 0.0095, -0.025500000000000002, 0.9915, 192.0, 0.0, 0.0, 0.0, 0.0, 0.0, 0.0, 0.0, 0.0, 0.0, 1.644498872555165E9, 0.0, 2022-02-11 00:14:32.555
32.0, -8859.695060216793, -10504.381120727197, -10761.694402896692, -17139.67527624074, -2341.7475630936106, -1881.5921999922039, -6120.153501052082, -7178.821525433246, -17411.96422719529, -15822.37521676722, -19915.672530612057, -12124.547317570128, -6578.140744941324, -10867.664023359303, -11590.318273343835, -12392.20945742243, 0.0095, -0.025500000000000002, 0.9915, 192.0, 0.0, 0.0, 0.0, 0.0, 0.0, 0.0, 0.0, 0.0, 0.0, 1.6444988725551715E9, 0.0, 2022-02-11 00:14:32.555
34.0, -8868.099316131988, -10505.051673060856, -10767.774077388534, -17144.615011765363, -2347.491961418624, -1889.5941245072038, -6131.26231804637, -7194.624208763148, -17421.664884288894, -15825.146833079676, -19911.917437543565, -12109.929276696359, -6585.49446886712, -10858.902139532822, -11593.29105535639, -12391.963588233422, 0.0095, -0.025500000000000002, 0.9915, 192.0, 0.0, 0.0, 0.0, 0.0, 0.0, 0.0, 0.0, 0.0, 0.0, 1.644498872555178E9, 0.0, 2022-02-11 00:14:32.555
36.0, -8872.077926645032, -10517.121615066722, -10766.32121399894, -17147.25251761109, -2347.536664907535, -1900.8370519682232, -6129.11655057866, -7183.09070862421, -17421.240201144243, -15830.488900004495, -19923.205068493495, -12128.347114127531, -6582.722852554662, -10874.235436229163, -11592.329930344813, -12400.658416826536, 0.00675, -0.02875, 0.99175, 192.0, 0.0, 16.0, 127.5, 0.0, 15.5, 0.0, 0.0, 0.0, 0.0, 1.6444988725551853E9, 0.0, 2022-02-11 00:14:32.555
38.0, -8867.495819031694, -10509.477318463007, -10763.527245942027, -17146.984296677627, -2340.6523276153002, -1882.0615866257654, -6134.100989592193, -7187.181077859531, -17420.189669154843, -15822.531678978406, -19914.08555675573, -12123.407378602908, -6583.505163610597, -10871.709689105714, -11586.876104697718, -12395.226942923897, 0.00675, -0.02875, 0.99175, 192.0, 0.0, 0.0, 0.0, 0.0, 0.0, 0.0, 0.0, 0.0, 0.0, 1.6444988725551937E9, 0.0, 2022-02-11 00:14:32.555
40.0, -8878.85050521499, -10504.761100382937, -10775.127801314331, -17152.39341883581, -2350.0624120309844, -1883.9838366489216, -6132.469312246956, -7189.639769749614, -17425.55408782412, -15821.32468477782, -19927.6530656401, -12137.77955028767, -6585.49446886712, -10866.211159969707, -11590.3853285772, -12396.948027246955, 0.00675, -0.02875, 0.99175, 192.0, 0.0, 0.0, 0.0, 0.0, 0.0, 0.0, 0.0, 0.0, 0.0, 1.6444988725552008E9, 0.0, 2022-02-11 00:14:32.555
42.0, -8869.932159177322, -10514.394702243175, -10765.158923287265, -17149.197119378703, -2338.08187700294, -1875.0207871223436, -6117.4936434619, -7175.871095165146, -17423.564782567595, -15820.676484188616, -19925.887277828133, -12141.825216034082, -6586.522649112064, -10862.567825623491, -11591.324101844324, -12394.377576634595, 0.00675, -0.02875, 0.99175, 192.0, 0.0, 0.0, 0.0, 0.0, 0.0, 0.0, 0.0, 0.0, 0.0, 1.6444988725552073E9, 0.0, 2022-02-11 00:14:32.555
44.0, -8872.524961534138, -10504.403472471651, -10765.516551198549, -17151.72286650215, -2342.306356704993, -1882.195697092497, -6129.78710291232, -7183.247170835397, -17422.380140111465, -15819.782414410403, -19909.70461484249, -12124.279096636665, -6582.007596732092, -10875.956520552221, -11584.484468041, -12391.293035899764, 0.00675, -0.02875, 0.99175, 192.0, 0.0, 0.0, 0.0, 0.0, 0.0, 0.0, 0.0, 0.0, 0.0, 1.6444988725552144E9, 0.0, 2022-02-11 00:14:32.555
46.0, -8876.212999369263, -10519.401493001164, -10768.645795422291, -17147.923069944747, -2349.078935274951, -1883.9391331600111, -6128.73657092292, -7185.594104003204, -17426.3140471356, -15819.491841732484, -19926.62488539516, -12142.987506745758, -6585.695634567218, -10874.682471118269, -11592.486392556, -12399.45142262595, 0.007375, -0.028375, 0.9918750000000001, 192.0, 0.0, 32.0, 127.5, 16.0, 15.5, 0.0, 0.0, 0.0, 0.0, 1.6444988725552213E9, 0.0, 2022-02-11 00:14:32.555
48.0, -8863.60661549647, -10510.46079521904, -10763.281376753019, -17144.436197809722, -2346.016746284574, -1881.9274761590334, -6129.541233723311, -7183.224819090941, -17420.435538343852, -15817.949571365069, -19911.112774743175, -12122.625067546973, -6586.656759578796, -10869.407459426817, -11592.329930344813, -12394.712852801425, 0.007375, -0.028375, 0.9918750000000001, 192.0, 0.0, 0.0, 0.0, 0.0, 0.0, 0.0, 0.0, 0.0, 0.0, 1.644498872555228E9, 0.0, 2022-02-11 00:14:32.555
50.0, -8878.738746492714, -10513.277115020408, -10772.110315812864, -17150.87350021285, -2359.9642348246857, -1884.9896651494105, -6137.096123349205, -7189.170383116053, -17426.515212835697, -15825.102129590767, -19919.762899847377, -12128.30241063862, -6589.87541078036, -10869.541569893549, -11596.308540857857, -12398.959684247933, 0.007375, -0.028375, 0.9918750000000001, 192.0, 0.0, 0.0, 0.0, 0.0, 0.0, 0.0, 0.0, 0.0, 0.0, 1.6444988725552347E9, 0.0, 2022-02-11 00:14:32.555
52.0, -8866.288824831108, -10507.689178906581, -10765.114219798354, -17143.028037909036, -2344.899159061809, -1882.195697092497, -6120.77934989683, -7174.574693986738, -17423.341265123043, -15815.80380389736, -19922.33335045974, -12132.54924208513, -6590.858887536394, -10866.747601836634, -11595.079194912816, -12395.897495257557, 0.007375, -0.028375, 0.9918750000000001, 192.0, 0.0, 0.0, 0.0, 0.0, 0.0, 0.0, 0.0, 0.0, 0.0, 1.644498872555241E9, 0.0, 2022-02-11 00:14:32.555
54.0, -8861.930234662323, -10502.481222448496, -10766.924711099233, -17146.62666876634, -2348.9448248082194, -1872.8303161657234, -6123.327448764736, -7176.586350987715, -17419.295599376634, -15802.213943268533, -19913.70557709999, -12130.135253683955, -6583.706329310695, -10864.065392501998, -11586.898456442173, -12384.229884651886, 0.007375, -0.028375, 0.9918750000000001, 192.0, 0.0, 0.0, 0.0, 0.0, 0.0, 0.0, 0.0, 0.0, 0.0, 1.6444988725552478E9, 0.0, 2022-02-11 00:14:32.555
56.0, -8876.749441236192, -10509.522021951918, -10766.9917663326, -17144.59266002091, -2352.3869934543363, -1880.6757784695362, -6128.803626156286, -7179.983816144922, -17423.69889303433, -15823.448100501073, -19926.289609228326, -12126.626029804473, -6587.416718890277, -10862.299604690028, -11589.446555310078, -12391.673015555503, 0.0066875, -0.026187500000000002, 0.9909375, 192.0, 0.0, 24.0, 127.5, 32.0, 15.0, 120.0, 0.0, 0.0, 0.0, 1.6444988725552545E9, 0.0, 2022-02-11 00:14:32.555
58.0, -8865.819438197546, -10503.397643971162, -10757.60403366137, -17143.698590242697, -2335.5784816239457, -1879.6475982245922, -6113.11270154866, -7175.647577720592, -17418.692102276338, -15819.022455098922, -19912.23036196594, -12121.954515213314, -6579.370090886366, -10865.25003495813, -11582.226941851013, -12386.487410841872, 0.0066875, -0.026187500000000002, 0.9909375, 192.0, 0.0, 0.0, 0.0, 0.0, 0.0, 0.0, 0.0, 0.0, 0.0, 1.644498872555261E9, 0.0, 2022-02-11 00:14:32.555
60.0, -8873.441383056806, -10507.130385295199, -10764.577777931427, -17144.547956532, -2345.3461939509148, -1883.5591535042709, -6130.167082568059, -7184.543572013805, -17421.64253254444, -15812.093414317778, -19918.93588530253, -12129.531756583663, -6580.800602531505, -10873.319014706494, -11582.316348828836, -12388.990806220867, 0.0066875, -0.026187500000000002, 0.9909375, 192.0, 0.0, 0.0, 0.0, 0.0, 0.0, 0.0, 0.0, 0.0, 0.0, 1.6444988725552676E9, 0.0, 2022-02-11 00:14:32.555
62.0, -8857.169313093342, -10493.942856066567, -10754.228920248619, -17141.776340219538, -2330.303469932493, -1871.6680254540474, -6115.481986460923, -7178.598007988693, -17413.171221395878, -15811.26639977293, -19918.22062947996, -12130.135253683955, -6577.604303074397, -10862.523122134582, -11585.49029654149, -12388.432012609484, 0.0066875, -0.026187500000000002, 0.9909375, 192.0, 0.0, 0.0, 0.0, 0.0, 0.0, 0.0, 0.0, 0.0, 0.0, 1.6444988725552742E9, 0.0, 2022-02-11 00:14:32.555
64.0, -8864.366574807951, -10500.335454980786, -10762.588472674905, -17141.709284986173, -2337.567786880468, -1880.0946331136984, -6132.201091313493, -7181.280217323329, -17411.696006261827, -15808.003045082456, -19906.351853174194, -12113.662018020394, -6571.0999454379025, -10850.475531873171, -11585.24442735248, -12384.408698607529, 0.0066875, -0.026187500000000002, 0.9909375, 192.0, 0.0, 0.0, 0.0, 0.0, 0.0, 0.0, 0.0, 0.0, 0.0, 1.6444988725552807E9, 0.0, 2022-02-11 00:14:32.555
66.0, -8873.016699912156, -10511.533678952896, -10766.947062843688, -17144.503253043087, -2334.7514670790993, -1884.9673134049551, -6106.16130902306, -7175.245246320396, -17420.39083485494, -15812.562800951338, -19927.720120873466, -12128.168300171888, -6576.240846662623, -10858.231587199163, -11587.680767498108, -12388.744937031859, 0.01034375, -0.023093750000000003, 0.99046875, 192.0, 0.0, 56.0, 127.5, 48.0, 15.0, 120.0, 0.0, 0.0, 0.0, 1.6444988725552874E9, 0.0, 2022-02-11 00:14:32.555
68.0, -8860.477371272727, -10493.607579899739, -10757.045240049987, -17146.134930388325, -2324.5143681185687, -1866.907103885067, -6100.238096742403, -7156.715650166947, -17420.25672438821, -15808.159507293643, -19917.840649824222, -12129.35294262802, -6572.686919294229, -10851.81663654049, -11580.259988338947, -12382.128820673088, 0.01034375, -0.023093750000000003, 0.99046875, 192.0, 0.0, 0.0, 0.0, 0.0, 0.0, 0.0, 0.0, 0.0, 0.0, 1.644498872555294E9, 0.0, 2022-02-11 00:14:32.555
70.0, -8872.524961534138, -10507.59977192876, -10766.857655865868, -17148.01247692257, -2338.6183188698674, -1875.6466359670922, -6114.520861449345, -7179.425022533539, -17419.943799965837, -15799.621140911717, -19918.488850413425, -12137.73484679876, -6569.557675070486, -10851.57076735148, -11577.935406915594, -12383.268759640308, 0.01034375, -0.023093750000000003, 0.99046875, 192.0, 0.0, 0.0, 0.0, 0.0, 0.0, 0.0, 0.0, 0.0, 0.0, 1.6444988725553024E9, 0.0, 2022-02-11 00:14:32.555
72.0, -8863.651318985381, -10508.180917284599, -10758.475751695127, -17130.57811624743, -2335.3102606904818, -1865.297778284285, -6120.220556285448, -7171.400746274084, -17417.73097726476, -15813.233353284999, -19919.8523068252, -12128.92825948337, -6572.172829171757, -10867.90989254831, -11584.797392463373, -12383.224056151397, 0.01034375, -0.023093750000000003, 0.99046875, 192.0, 0.0, 0.0, 0.0, 0.0, 0.0, 0.0, 0.0, 0.0, 0.0, 1.6444988725553088E9, 0.0, 2022-02-11 00:14:32.555
74.0, -8867.160542864865, -10515.042902832378, -10760.643870907292, -17134.62378199384, -2342.8204468274653, -1873.6796824550252, -6121.427550486034, -7177.70393821048, -17418.15566040941, -15819.313027776841, -19908.832896808733, -12112.67854126436, -6574.340948383921, -10858.030421499065, -11582.472811040023, -12378.530189815783, 0.01034375, -0.023093750000000003, 0.99046875, 192.0, 0.0, 0.0, 0.0, 0.0, 0.0, 0.0, 0.0, 0.0, 0.0, 1.6444988725553155E9, 0.0, 2022-02-11 00:14:32.555
76.0, -8871.407374311373, -10515.646399932672, -10763.773115131035, -17140.63640125232, -2341.658156115789, -1875.490173755905, -6110.050512558283, -7166.125734582632, -17420.480241832764, -15824.096301090278, -19924.903801072098, -12128.324762383076, -6572.418698360765, -10860.734982578157, -11584.752688974464, -12386.755631775337, 0.009171875, -0.024546875000000003, 0.990234375, 192.0, 0.0, 32.0, 127.5, 24.0, 15.0, 120.0, 0.0, 0.0, 0.0, 1.644498872555322E9, 0.0, 2022-02-11 00:14:32.555
78.0, -8856.1411328484, -10502.235353259488, -10755.860597593857, -17135.428444794234, -2330.974022266152, -1871.109231842665, -6106.943620078996, -7173.345348041696, -17419.92144822138, -15814.865030630235, -19915.98545503443, -12125.262573392698, -6575.257369906589, -10859.05860174401, -11578.33773831579, -12379.804239249735, 0.009171875, -0.024546875000000003, 0.990234375, 192.0, 0.0, 0.0, 0.0, 0.0, 0.0, 0.0, 0.0, 0.0, 0.0, 1.6444988725553288E9, 0.0, 2022-02-11 00:14:32.555
80.0, -8867.093487631499, -10501.69891139256, -10764.13074304232, -17143.363314075865, -2341.3228799489593, -1878.7088249574692, -6121.718123163953, -7192.4337378065275, -17415.45109933032, -15800.962245579034, -19912.61034162168, -12119.026436689668, -6570.831724504438, -10856.555206365014, -11582.048127895372, -12386.68857654197, 0.009171875, -0.024546875000000003, 0.990234375, 192.0, 0.0, 0.0, 0.0, 0.0, 0.0, 0.0, 0.0, 0.0, 0.0, 1.6444988725553353E9, 0.0, 2022-02-11 00:14:32.555
82.0, -8863.696022474292, -10495.529829922894, -10759.325117984428, -17140.68110474123, -2335.3773159238476, -1868.9858161194106, -6112.643314915099, -7159.710783923958, -17418.35682610951, -15813.166298051632, -19920.7016731145, -12133.890346752447, -6573.759803028083, -10852.62129934088, -11584.462116296545, -12386.196838163953, 0.009171875, -0.024546875000000003, 0.990234375, 192.0, 0.0, 0.0, 0.0, 0.0, 0.0, 0.0, 0.0, 0.0, 0.0, 1.644498872555342E9, 0.0, 2022-02-11 00:14:32.555
84.0, -8870.289787088608, -10504.671693405115, -10761.98497557461, -17144.033866409525, -2341.9710805381633, -1874.2831795553184, -6130.792931412809, -7173.971196886444, -17417.12748016447, -15815.021492841423, -19907.961178774975, -12126.78249201566, -6572.06107044948, -10850.073200472976, -11585.19972386357, -12385.079250941188, 0.009171875, -0.024546875000000003, 0.990234375, 192.0, 0.0, 0.0, 0.0, 0.0, 0.0, 0.0, 0.0, 0.0, 0.0, 1.6444988725553484E9, 0.0, 2022-02-11 00:14:32.555
86.0, -8873.575493523538, -10516.026379588411, -10765.784772132012, -17143.63153500933, -2344.8097520839874, -1878.1500313460865, -6109.290553246803, -7168.897350895089, -17418.669750531884, -15814.909734119146, -19922.26629522637, -12136.907832253914, -6568.998881459103, -10852.934223763255, -11588.23956110949, -12389.482544598884, 0.008, -0.024, 0.99, 192.0, 0.0, 32.0, 127.5, 32.0, 15.0, 120.0, 0.0, 0.0, 0.0, 1.6444988725553548E9, 0.0, 2022-02-11 00:14:32.555
88.0, -8865.886493430913, -10500.089585791777, -10759.347469728884, -17144.1456251318, -2336.5843101244345, -1875.4007667780838, -6113.246812015393, -7171.020766618343, -17419.899096476925, -15804.784393880893, -19913.83968756672, -12128.235355405255, -6575.480887351142, -10841.71364804669, -11585.110316885748, -12384.83338175218, 0.008, -0.024, 0.99, 192.0, 0.0, 0.0, 0.0, 0.0, 0.0, 0.0, 0.0, 0.0, 0.0, 1.6444988725553615E9, 0.0, 2022-02-11 00:14:32.555
90.0, -8866.042955642099, -10495.730995622993, -10762.834341863912, -17145.57613677694, -2344.250958472605, -1876.9877406344106, -6136.291460548814, -7181.324920812241, -17421.463718588795, -15807.734824148993, -19920.03112078084, -12133.35390488552, -6574.340948383921, -10848.419171383282, -11585.043261652383, -12387.984977720378, 0.008, -0.024, 0.99, 192.0, 0.0, 0.0, 0.0, 0.0, 0.0, 0.0, 0.0, 0.0, 0.0, 1.644498872555368E9, 0.0, 2022-02-11 00:14:32.555
92.0, -8858.286900316109, -10501.207173014544, -10751.79258010299, -17138.15535761778, -2330.974022266152, -1878.9323424020224, -6102.49562293239, -7174.842914920201, -17400.229561356256, -15795.93310307659, -19908.765841575365, -12115.96424769929, -6559.8346662324275, -10853.00127899662, -11582.67397674012, -12388.633178309581, 0.008, -0.024, 0.99, 192.0, 0.0, 0.0, 0.0, 0.0, 0.0, 0.0, 0.0, 0.0, 0.0, 1.6444988725553746E9, 0.0, 2022-02-11 00:14:32.555
94.0, -8884.684310517825, -10528.364542527741, -10762.789638375001, -17146.514910044065, -2344.6756416172557, -1881.100461614187, -6088.816355325742, -7158.079106578721, -17435.63472457346, -15822.777548167414, -19915.69488235651, -12119.58523030105, -6578.565428085974, -10862.187845967752, -11580.617616250232, -12383.626387551592, 0.008, -0.024, 0.99, 192.0, 0.0, 0.0, 0.0, 0.0, 0.0, 0.0, 0.0, 0.0, 0.0, 1.6444988725553813E9, 0.0, 2022-02-11 00:14:32.555
96.0, -8871.832057456024, -10515.311123765841, -10761.582644174416, -17141.26225009707, -2346.3296707069485, -1879.267618568852, -6108.374131724136, -7172.138353841109, -17428.951552981325, -15819.357731265753, -19923.920324316066, -12125.284925137154, -6577.15726818529, -10859.371526166384, -11587.993691920483, -12389.527248087794, 0.004, -0.022, 0.992, 192.0, 0.0, 16.0, 127.5, 40.0, 15.5, 0.0, 0.0, 0.0, 0.0, 1.6444988725553875E9, 0.0, 2022-02-11 00:14:32.555
98.0, -8858.823342183035, -10507.55506843985, -10758.051068550476, -17142.044561153005, -2338.6853741032332, -1871.265694053852, -6110.855175358674, -7170.03728986231, -17418.15566040941, -15813.859202129746, -19909.41404216457, -12119.227602389767, -6570.742317526618, -10853.604776096914, -11589.267741354435, -12387.82851550919, 0.004, -0.022, 0.992, 192.0, 0.0, 0.0, 0.0, 0.0, 0.0, 0.0, 0.0, 0.0, 0.0, 1.6444988725553944E9, 0.0, 2022-02-11 00:14:32.555
100.0, -8875.90007494689, -10512.718321409026, -10768.556388444471, -17145.82200596595, -2341.9040253047974, -1881.905124414578, -6104.574335166733, -7167.444487505494, -17422.78247151166, -15813.65803642965, -19917.863001568676, -12126.469567593285, -6572.821029760961, -10858.38804941035, -11585.847924452773, -12389.370785876607, 0.004, -0.022, 0.992, 192.0, 0.0, 0.0, 0.0, 0.0, 0.0, 0.0, 0.0, 0.0, 0.0, 1.6444988725554008E9, 0.0, 2022-02-11 00:14:32.555
102.0, -8863.360746307462, -10495.909809578636, -10761.64969940778, -17147.2972211, -2334.170321723261, -1871.3551010316733, -6108.30707649077, -7162.415345003051, -17422.514250578195, -15806.594885181772, -19921.79690859281, -12135.343210142042, -6573.960968728182, -10859.527988377571, -11588.23956110949, -12389.661358554526, 0.004, -0.022, 0.992, 192.0, 0.0, 0.0, 0.0, 0.0, 0.0, 0.0, 0.0, 0.0, 0.0, 1.6444988725554094E9, 0.0, 2022-02-11 00:14:32.555
104.0, -8865.461810286262, -10499.374329969207, -10766.298862254485, -17152.39341883581, -2343.625109627856, -1881.7710139478463, -6111.458672458968, -7173.121830597142, -17419.385006354452, -15802.482164201996, -19908.721138086457, -12139.92531775538, -6573.692747794717, -10854.901177275322, -11584.752688974464, -12390.130745188088, 0.004, -0.022, 0.992, 192.0, 0.0, 0.0, 0.0, 0.0, 0.0, 0.0, 0.0, 0.0, 0.0, 1.644498872555416E9, 0.0, 2022-02-11 00:14:32.555
106.0, -8882.717357005758, -10524.855318648259, -10768.84696112239, -17150.806444979484, -2351.828199842954, -1883.6709122265474, -6099.142861264094, -7168.338557283707, -17428.54922158113, -15821.771719666925, -19930.625847652656, -12140.707628811317, -6581.091175209424, -10868.066354759498, -11588.820706465329, -12398.244428425363, 0.006, -0.024, 0.99, 192.0, 0.0, 24.0, 127.5, 32.0, 15.0, 120.0, 0.0, 0.0, 0.0, 1.6444988725554223E9, 0.0, 2022-02-11 00:14:32.555
108.0, -8875.676557502336, -10528.811577416847, -10764.756591887068, -17154.293317114512, -2349.235397486138, -1879.5134877578603, -6107.435358457013, -7171.6466154630925, -17430.538526837652, -15815.17795505261, -19918.533553902336, -12136.751370042726, -6580.755899042595, -10845.960479493198, -11590.67590125512, -12391.538905088772, 0.006, -0.024, 0.99, 192.0, 0.0, 0.0, 0.0, 0.0, 0.0, 0.0, 0.0, 0.0, 0.0, 1.644498872555429E9, 0.0, 2022-02-11 00:14:32.555
110.0, -8881.443307571806, -10518.328609267308, -10775.239560036607, -17149.73356124563, -2357.7514121236104, -1896.6349240106256, -6123.416855742557, -7185.907028425579, -17428.906849492414, -15818.486013231995, -19922.55686790429, -12142.585175345563, -6580.130050197846, -10866.814657070001, -11594.63216002371, -12397.193896435965, 0.006, -0.024, 0.99, 192.0, 0.0, 0.0, 0.0, 0.0, 0.0, 0.0, 0.0, 0.0, 0.0, 1.6444988725554357E9, 0.0, 2022-02-11 00:14:32.555
112.0, -8863.986595152212, -10495.663940389626, -10765.22597852063, -17146.760779233075, -2345.0332695285406, -1884.2073540934748, -6115.526689949834, -7170.350214284685, -17422.916581978392, -15804.158545036144, -19921.975722548454, -12140.461759622307, -6578.520724597064, -10874.704822862725, -11592.508744300456, -12397.9762074919, 0.006, -0.024, 0.99, 192.0, 0.0, 0.0, 0.0, 0.0, 0.0, 0.0, 0.0, 0.0, 0.0, 1.6444988725555072E9, 0.0, 2022-02-11 00:14:32.555
114.0, -8866.758211464668, -10512.383045242197, -10765.896530854288, -17147.073703655446, -2354.5104091775906, -1886.0401971388098, -6133.721009936454, -7187.3822435596285, -17421.083738933055, -15792.289768730376, -19909.034062508832, -12135.074989208579, -6576.933750740737, -10871.396764683339, -11589.111279143248, -12396.478640613395, 0.006, -0.024, 0.99, 192.0, 0.0, 0.0, 0.0, 0.0, 0.0, 0.0, 0.0, 0.0, 0.0, 1.6444988725555143E9, 0.0, 2022-02-11 00:14:32.555
116.0, -8870.558008022072, -10502.972960826512, -10769.517513456049, -17144.659715254274, -2358.2207987571715, -1885.816679694257, -6130.904690135085, -7179.380319044629, -17422.357788367008, -15815.401472497164, -19920.9028388146, -12141.244070678244, -6568.2836256365335, -10865.9652907807, -11595.079194912816, -12400.97134124891, 0.006, -0.028, 0.99, 192.0, 0.0, 24.0, 127.5, 16.0, 15.0, 120.0, 0.0, 0.0, 0.0, 1.6444988725555212E9, 0.0, 2022-02-11 00:14:32.555
118.0, -8860.052688128077, -10500.558972425339, -10761.336774985406, -17141.150491374792, -2346.4190776847695, -1875.333711544718, -6123.439207487012, -7186.488173781416, -17415.093471419033, -15808.807707882848, -19906.865943296667, -12124.368503614487, -6565.132029668335, -10847.681563816257, -11592.15111638917, -12396.076309213198, 0.006, -0.028, 0.99, 192.0, 0.0, 0.0, 0.0, 0.0, 0.0, 0.0, 0.0, 0.0, 0.0, 1.6444988725555284E9, 0.0, 2022-02-11 00:14:32.555
120.0, -8869.842752199502, -10507.80093762886, -10770.791562890001, -17147.118407144357, -2351.8058480984987, -1884.9002581715893, -6120.8240533857415, -7182.218990590452, -17413.59590454053, -15802.526867690905, -19908.31880668626, -12129.285887394653, -6562.449820333698, -10842.540662591537, -11595.05684316836, -12400.97134124891, 0.006, -0.028, 0.99, 192.0, 0.0, 0.0, 0.0, 0.0, 0.0, 0.0, 0.0, 0.0, 0.0, 1.6444988730346627E9, 0.0, 2022-02-11 00:14:33.034
122.0, -8857.057554371066, -10487.617312385717, -10762.789638375001, -17144.659715254274, -2336.472551402158, -1879.558191246771, -6095.186602495504, -7168.942054384, -17415.473451074773, -15805.879629359202, -19912.878562555143, -12137.399570631931, -6561.86867497786, -10845.938127748745, -11590.810011721851, -12398.467945869917, 0.006, -0.028, 0.99, 192.0, 0.0, 0.0, 0.0, 0.0, 0.0, 0.0, 0.0, 0.0, 0.0, 1.644498873034878E9, 0.0, 2022-02-11 00:14:33.034
124.0, -8861.416144539851, -10498.726129380004, -10769.070478566942, -17148.928898445236, -2350.442391686725, -1888.8565169401786, -6111.816300370253, -7179.469726022449, -17420.0108551992, -15796.089565287777, -19906.485963640924, -12138.941840999347, -6564.77440175705, -10852.844816785433, -11589.401851821167, -12395.226942923897, 0.006, -0.028, 0.99, 192.0, 0.0, 0.0, 0.0, 0.0, 0.0, 0.0, 0.0, 0.0, 0.0, 1.6444988730348876E9, 0.0, 2022-02-11 00:14:33.034
126.0, -8879.85633371548, -10503.531754437894, -10771.909150112766, -17147.83366296693, -2356.6114731563894, -1891.5610780192708, -6123.036876086817, -7187.896333682101, -17424.615314556995, -15810.953475350558, -19921.595742892714, -12142.249899178732, -6570.608207059885, -10858.231587199163, -11599.549543803876, -12406.782794807292, 0.006, -0.03, 0.992, 192.0, 0.0, 24.0, 127.5, 8.0, 15.5, 0.0, 0.0, 0.0, 0.0, 1.6444988730348947E9, 0.0, 2022-02-11 00:14:33.034
128.0, -8866.646452742392, -10494.83692584478, -10765.740068643103, -17142.938630931214, -2345.7485253511104, -1884.6320372381256, -6125.383809254624, -7189.2597900938745, -17418.625047042973, -15798.50355368895, -19910.285760198327, -12130.939916484347, -6567.456611091687, -10855.996412753631, -11600.644779282187, -12404.234695939387, 0.006, -0.03, 0.992, 192.0, 0.0, 0.0, 0.0, 0.0, 0.0, 0.0, 0.0, 0.0, 0.0, 1.644498873034902E9, 0.0, 2022-02-11 00:14:33.034
130.0, -8873.776659223635, -10501.453042203551, -10776.22303679264, -17143.944459431703, -2353.2363597436383, -1891.7622437193686, -6113.023294570839, -7175.602874231681, -17422.49189883374, -15813.680388174105, -19911.246885209905, -12130.269364150688, -6566.987224458126, -10849.62616558387, -11597.783755991908, -12402.982998249889, 0.006, -0.03, 0.992, 192.0, 0.0, 0.0, 0.0, 0.0, 0.0, 0.0, 0.0, 0.0, 0.0, 1.6444988730349088E9, 0.0, 2022-02-11 00:14:33.034
132.0, -8863.740725963204, -10500.827193358802, -10766.969414588144, -17141.44106405271, -2344.496827661613, -1883.9838366489216, -6119.281783018325, -7173.837086419712, -17420.502593577217, -15807.824231126813, -19916.633655623635, -12132.25866940721, -6566.830762246938, -10848.95561325021, -11596.800279235875, -12402.558315105238, 0.006, -0.03, 0.992, 192.0, 0.0, 0.0, 0.0, 0.0, 0.0, 0.0, 0.0, 0.0, 0.0, 1.6444988730349157E9, 0.0, 2022-02-11 00:14:33.034
134.0, -8870.021566155145, -10500.380158469696, -10768.176408788731, -17148.750084489595, -2348.542493408024, -1886.1743076055418, -6111.816300370253, -7176.184019587519, -17426.850489002525, -15804.046786313867, -19914.42083292256, -12129.419997861385, -6569.088288436925, -10846.72043880468, -11588.574837276321, -12399.049091225756, 0.006, -0.03, 0.992, 192.0, 0.0, 0.0, 0.0, 0.0, 0.0, 0.0, 0.0, 0.0, 0.0, 1.6444988730349324E9, 0.0, 2022-02-11 00:14:33.034
136.0, -8867.205246353775, -10494.389890955674, -10769.65162392278, -17145.3973228213, -2349.145990508317, -1889.4376622960167, -6112.620963170643, -7173.837086419712, -17427.744558780738, -15800.962245579034, -19922.445109182016, -12137.757198543215, -6565.780230257539, -10855.90700577581, -11588.373671576222, -12403.228867438898, 0.01, -0.028, 0.992, 192.0, 0.0, 40.0, 127.5, 16.0, 15.5, 0.0, 0.0, 0.0, 0.0, 1.6444988730349393E9, 0.0, 2022-02-11 00:14:33.034
138.0, -8847.245138555187, -10486.231504229487, -10762.901397097277, -17139.362351818367, -2346.3743741958588, -1873.4338132660168, -6101.646256643088, -7168.852647406179, -17417.30629412011, -15796.69306238807, -19908.005882263886, -12121.887459979947, -6561.8910267223155, -10841.646592813326, -11589.155982632159, -12396.746861546859, 0.01, -0.028, 0.992, 192.0, 0.0, 0.0, 0.0, 0.0, 0.0, 0.0, 0.0, 0.0, 0.0, 1.644498873034946E9, 0.0, 2022-02-11 00:14:33.034
140.0, -8863.092525373999, -10477.581379125284, -10770.36687974535, -17142.62570650884, -2356.298548734015, -1883.4250430375391, -6124.087408076216, -7184.99060690291, -17421.933105222357, -15791.798030352358, -19907.55884737478, -12137.98071598777, -6566.048451191003, -10852.040153985043, -11589.714776243542, -12399.965512748422, 0.01, -0.028, 0.992, 192.0, 0.0, 0.0, 0.0, 0.0, 0.0, 0.0, 0.0, 0.0, 0.0, 1.6444988730349536E9, 0.0, 2022-02-11 00:14:33.034
142.0, -8862.71254571826, -10502.347111981764, -10763.147266286287, -17141.843395452906, -2347.6707753742667, -1879.7370052024135, -6100.975704309429, -7171.870132907646, -17421.955456966814, -15802.817440368824, -19914.08555675573, -12126.111939682001, -6567.009576202581, -10853.381258652362, -11588.4854302985, -12401.798355793759, 0.01, -0.028, 0.992, 192.0, 0.0, 0.0, 0.0, 0.0, 0.0, 0.0, 0.0, 0.0, 0.0, 1.6444988730349605E9, 0.0, 2022-02-11 00:14:33.034
144.0, -8859.315080561051, -10492.311178721331, -10760.755629629568, -17143.989162920614, -2350.2635777310825, -1874.618455722148, -6112.129224792627, -7168.025632861332, -17421.82134650008, -15800.202286267555, -19900.629806593635, -12116.992427944235, -6563.165076156268, -10840.327839890462, -11581.042299394883, -12396.12101270211, 0.01, -0.028, 0.992, 192.0, 0.0, 0.0, 0.0, 0.0, 0.0, 0.0, 0.0, 0.0, 0.0, 1.644498873034968E9, 0.0, 2022-02-11 00:14:33.034
146.0, -8862.846656184991, -10497.340321223775, -10763.147266286287, -17143.832700709427, -2352.722269621166, -1874.394938277595, -6109.603477669177, -7167.019804360843, -17418.334474365052, -15797.07304204381, -19913.169135233064, -12131.945744984836, -6559.1864656432235, -10833.063522942486, -11584.998558163472, -12396.88097201359, 0.008, -0.026000000000000002, 0.994, 192.0, 0.0, 32.0, 127.5, 24.0, 15.5, 8.0, 0.0, 0.0, 0.0, 1.6444988730349753E9, 0.0, 2022-02-11 00:14:33.034
148.0, -8860.32090906154, -10502.213001515032, -10758.788676117501, -17141.86574719736, -2346.150856751306, -1880.2510953248855, -6100.5733729092335, -7177.078089365732, -17420.368483110487, -15805.209077025544, -19907.916475286063, -12127.743617027238, -6561.533398811031, -10856.510502876105, -11582.115183128737, -12396.612751080127, 0.008, -0.026000000000000002, 0.994, 192.0, 0.0, 0.0, 0.0, 0.0, 0.0, 0.0, 0.0, 0.0, 0.0, 1.644498873034983E9, 0.0, 2022-02-11 00:14:33.034
150.0, -8870.379194066429, -10491.193591498566, -10771.909150112766, -17150.91820370176, -2359.5171999355794, -1884.6320372381256, -6116.443111472501, -7181.235513834419, -17427.990427969748, -15812.920428862624, -19914.398481178105, -12134.985582230758, -6566.316672124466, -10850.900215017822, -11588.351319831769, -12404.391158150573, 0.008, -0.026000000000000002, 0.994, 192.0, 0.0, 0.0, 0.0, 0.0, 0.0, 0.0, 0.0, 0.0, 0.0, 1.64449887303499E9, 0.0, 2022-02-11 00:14:33.034
152.0, -8845.993440865688, -10469.847675543748, -10763.147266286287, -17145.866709454862, -2351.9399585652304, -1871.1986388204862, -6099.478137430923, -7148.266690762841, -17423.74359652324, -15794.346129220265, -19921.50633591489, -12147.033172492167, -6568.529494825541, -10842.33949689144, -11589.066575654339, -12398.825573781201, 0.008, -0.026000000000000002, 0.994, 192.0, 0.0, 0.0, 0.0, 0.0, 0.0, 0.0, 0.0, 0.0, 0.0, 1.644498873034997E9, 0.0, 2022-02-11 00:14:33.034
154.0, -8865.148885863888, -10512.003065586456, -10766.589434932404, -17142.29043034201, -2351.917606820775, -1874.685510955514, -6102.696788632487, -7159.934301368511, -17419.36265461, -15787.55119890585, -19909.458745653483, -12121.082797179557, -6566.070802935458, -10843.121807947375, -11580.774078461418, -12387.135611431077, 0.006, -0.026000000000000002, 0.991, 192.0, 0.0, 16.0, 127.5, 24.0, 15.0, 112.0, 0.0, 0.0, 0.0, 1.644498873035004E9, 0.0, 2022-02-11 00:14:33.035
156.0, -8881.979749438733, -10521.36844651323, -10771.50681871257, -17146.40315132179, -2356.3209004784703, -1888.4988890288937, -6094.069015272738, -7169.903179395578, -17427.722207036284, -15811.869896873224, -19914.04085326682, -12127.967134471792, -6569.647082048307, -10848.821502783478, -11587.72547098702, -12400.211381937432, 0.006, -0.026000000000000002, 0.991, 192.0, 0.0, 0.0, 0.0, 0.0, 0.0, 0.0, 0.0, 0.0, 0.0, 1.6444988730350108E9, 0.0, 2022-02-11 00:14:33.035
158.0, -8863.919539918845, -10505.699873650059, -10765.181275031719, -17141.10578788588, -2344.943862550719, -1883.8050226932792, -6092.34793094968, -7166.818638660746, -17422.134270922455, -15806.237257270486, -19902.97673976144, -12116.411282588397, -6565.579064557442, -10847.167473693786, -11582.3834040622, -12399.965512748422, 0.006, -0.026000000000000002, 0.991, 192.0, 0.0, 0.0, 0.0, 0.0, 0.0, 0.0, 0.0, 0.0, 0.0, 1.6444988730350175E9, 0.0, 2022-02-11 00:14:33.035
160.0, -8869.418069054851, -10498.592018913272, -10773.294958268996, -17150.49352055711, -2359.919531335775, -1890.9352291745222, -6112.240983514904, -7183.582447002226, -17426.850489002525, -15806.907809604147, -19907.335329930225, -12128.816500761093, -6568.641253547818, -10836.729209033158, -11584.77504071892, -12403.11710871662, 0.006, -0.026000000000000002, 0.991, 192.0, 0.0, 0.0, 0.0, 0.0, 0.0, 0.0, 0.0, 0.0, 0.0, 1.6444988730350244E9, 0.0, 2022-02-11 00:14:33.035
162.0, -8859.918577661345, -10487.483201918985, -10766.634138421314, -17143.855052453884, -2347.983699796641, -1885.8837349276228, -6131.664649446565, -7196.702920997492, -17424.145927923433, -15794.41318445363, -19913.102079999695, -12135.49967235323, -6565.9366924687265, -10852.107209218408, -11588.194857620581, -12404.525268617304, 0.006, -0.026000000000000002, 0.991, 192.0, 0.0, 0.0, 0.0, 0.0, 0.0, 0.0, 0.0, 0.0, 0.0, 1.6444988730350313E9, 0.0, 2022-02-11 00:14:33.035
164.0, -8873.173162123343, -10504.93991433858, -10773.56317920246, -17149.711209501173, -2357.4384877012358, -1893.6397902536144, -6106.608343912166, -7178.463897521961, -17432.393721627443, -15809.299446260864, -19907.447088652505, -12126.380160615465, -6570.384689615333, -10847.748619049624, -11589.58066577681, -12403.653550583549, 0.005, -0.027000000000000003, 0.9904999999999999, 192.0, 0.0, 16.0, 127.5, 16.0, 15.0, 120.0, 0.0, 0.0, 0.0, 1.644498873035038E9, 0.0, 2022-02-11 00:14:33.035
166.0, -8875.251874357686, -10513.098301064767, -10779.486391483117, -17147.945421689205, -2366.1556680388057, -1896.0537786547875, -6108.798814868786, -7179.313263811263, -17442.58611709906, -15814.708568419048, -19928.211859251485, -12139.21006193281, -6583.125183954858, -10862.120790734387, -11598.051976925371, -12405.776966306803, 0.005, -0.027000000000000003, 0.9904999999999999, 192.0, 0.0, 0.0, 0.0, 0.0, 0.0, 0.0, 0.0, 0.0, 0.0, 1.6444988730350473E9, 0.0, 2022-02-11 00:14:33.035
168.0, -8854.867083414447, -10482.476411160995, -10765.315385498452, -17141.418712308256, -2354.6221678998672, -1874.3055312997737, -6109.648181158088, -7170.5960834736925, -17430.87380300448, -15804.113841547232, -19913.593818377714, -12129.35294262802, -6576.374957129355, -10851.950747007222, -11596.666168769141, -12399.898457515057, 0.005, -0.027000000000000003, 0.9904999999999999, 192.0, 0.0, 0.0, 0.0, 0.0, 0.0, 0.0, 0.0, 0.0, 0.0, 1.644498873035054E9, 0.0, 2022-02-11 00:14:33.035
170.0, -8886.405394840884, -10511.623085930716, -10778.637025193813, -17150.940555446214, -2364.523990693568, -1886.5319355168267, -6123.573317953744, -7192.411386062073, -17433.131329194468, -15796.514248432428, -19912.0515480103, -12124.748483270227, -6573.424526861254, -10836.326877632962, -11598.521363558933, -12399.965512748422, 0.005, -0.027000000000000003, 0.9904999999999999, 192.0, 0.0, 0.0, 0.0, 0.0, 0.0, 0.0, 0.0, 0.0, 0.0, 1.644498873035061E9, 0.0, 2022-02-11 00:14:33.035
172.0, -8883.723185506247, -10516.965152855535, -10771.50681871257, -17151.879328713338, -2348.0507550300067, -1881.8157174367568, -6094.560753650756, -7170.104345095676, -17444.083683977566, -15819.313027776841, -19925.864926083676, -12149.715381826805, -6575.235018162134, -10842.540662591537, -11599.169564148136, -12404.726434317403, 0.005, -0.027000000000000003, 0.9904999999999999, 192.0, 0.0, 0.0, 0.0, 0.0, 0.0, 0.0, 0.0, 0.0, 0.0, 1.6444988730350676E9, 0.0, 2022-02-11 00:14:33.035
174.0, -8888.417051841861, -10521.591963957782, -10771.842094879401, -17150.15824439028, -2346.1285050068504, -1877.9041621570782, -6091.699730360477, -7169.634958462115, -17444.97775375578, -15810.84171662828, -19919.60643763619, -12135.253803164222, -6576.039680962525, -10835.164586921286, -11590.228866366013, -12394.869315012613, 0.0055, -0.026500000000000003, 0.98925, 192.0, 0.0, 24.0, 127.5, 24.0, 15.0, 112.0, 0.0, 0.0, 0.0, 1.6444988730350745E9, 0.0, 2022-02-11 00:14:33.035
176.0, -8889.981673953733, -10519.580306956805, -10772.534998957515, -17143.475072798145, -2349.1906939972278, -1874.8643249111565, -6093.8231460837305, -7166.393955516095, -17442.675524076883, -15820.184745810599, -19934.17977502105, -12142.808692790115, -6575.436183862232, -10839.679639301257, -11588.194857620581, -12398.087966214176, 0.0055, -0.026500000000000003, 0.98925, 192.0, 0.0, 0.0, 0.0, 0.0, 0.0, 0.0, 0.0, 0.0, 0.0, 1.6444988730350811E9, 0.0, 2022-02-11 00:14:33.035
178.0, -8866.445287042296, -10494.680463633593, -10762.499065697082, -17136.076645383437, -2343.3568886943926, -1864.6719294395364, -6096.68416937401, -7155.754525155369, -17436.528794351674, -15799.285864744887, -19913.683225355533, -12131.565765329095, -6570.742317526618, -10835.388104365838, -11584.484468041, -12388.186143420477, 0.0055, -0.026500000000000003, 0.98925, 192.0, 0.0, 0.0, 0.0, 0.0, 0.0, 0.0, 0.0, 0.0, 0.0, 1.644498873035088E9, 0.0, 2022-02-11 00:14:33.035
180.0, -8878.582284281527, -10497.094452034766, -10769.495161711593, -17139.80938670747, -2356.0303278005517, -1875.043138866799, -6111.570431181244, -7170.4172695180505, -17428.54922158113, -15786.768887849914, -19911.0010160209, -12131.074026951079, -6571.815201260472, -10826.04507518352, -11590.117107643737, -12388.744937031859, 0.0055, -0.026500000000000003, 0.98925, 192.0, 0.0, 0.0, 0.0, 0.0, 0.0, 0.0, 0.0, 0.0, 0.0, 1.6444988730350947E9, 0.0, 2022-02-11 00:14:33.035
182.0, -8871.429726055829, -10507.756234139948, -10758.878083095322, -17134.601430249386, -2343.17807473875, -1873.5008684993827, -6086.91645704704, -7170.149048584587, -17425.956419224312, -15791.663919885626, -19917.70653935749, -12122.15568091341, -6571.837553004927, -10830.649534541313, -11589.111279143248, -12389.482544598884, 0.0055, -0.026500000000000003, 0.98925, 192.0, 0.0, 0.0, 0.0, 0.0, 0.0, 0.0, 0.0, 0.0, 0.0, 1.644498873035102E9, 0.0, 2022-02-11 00:14:33.035
184.0, -8867.115839375954, -10490.880667076191, -10759.280414495519, -17140.72580823014, -2347.1566852517944, -1880.1393366026089, -6104.954314822473, -7172.250112563385, -17427.498689591728, -15796.98363506599, -19906.307149685283, -12126.134291426455, -6572.441050105221, -10830.068389185475, -11583.880970940707, -12391.0248149663, 0.00575, -0.026250000000000002, 0.990625, 192.0, 0.0, 24.0, 127.5, 24.0, 15.5, 0.0, 0.0, 0.0, 0.0, 1.6444988730351088E9, 0.0, 2022-02-11 00:14:33.035
186.0, -8868.546351021094, -10493.115841521721, -10761.336774985406, -17133.841470937907, -2350.0400602865293, -1876.9653888899552, -6123.506262720378, -7187.13637437062, -17426.06817794659, -15797.005986810445, -19915.89604805661, -12126.35780887101, -6570.876427993349, -10849.424999883771, -11589.848886710273, -12398.780870292292, 0.00575, -0.026250000000000002, 0.990625, 192.0, 0.0, 0.0, 0.0, 0.0, 0.0, 0.0, 0.0, 0.0, 0.0, 1.6444988730351157E9, 0.0, 2022-02-11 00:14:33.035
188.0, -8867.607577753972, -10493.786393855382, -10751.45730393616, -17133.48384302662, -2333.142141478317, -1867.4882492409051, -6096.5277071628225, -7159.911949624056, -17423.229506400767, -15800.045824056368, -19901.56857986076, -12111.762119741694, -6567.277797136045, -10820.94887744771, -11584.842095952285, -12390.756594032837, 0.00575, -0.026250000000000002, 0.990625, 192.0, 0.0, 0.0, 0.0, 0.0, 0.0, 0.0, 0.0, 0.0, 0.0, 1.6444988730351224E9, 0.0, 2022-02-11 00:14:33.035
190.0, -8877.755269736681, -10509.41026322964, -10762.253196508074, -17145.01734316556, -2345.36854569537, -1879.558191246771, -6097.175907752026, -7179.737946955914, -17428.906849492414, -15806.192553781577, -19910.93396078753, -12120.166375656889, -6568.864770992372, -10827.028551939555, -11582.539866273388, -12392.321216144708, 0.00575, -0.026250000000000002, 0.990625, 192.0, 0.0, 0.0, 0.0, 0.0, 0.0, 0.0, 0.0, 0.0, 0.0, 1.6444988730351293E9, 0.0, 2022-02-11 00:14:33.035
192.0, -8863.696022474292, -10494.881629333691, -10755.100638282376, -17142.20102336419, -2336.427847913247, -1877.0771476122318, -6108.105910790671, -7178.463897521961, -17424.54825932363, -15798.83882985578, -19918.98058879144, -12124.100282681024, -6566.339023868922, -10825.620392038869, -11584.752688974464, -12397.328006902697, 0.00575, -0.026250000000000002, 0.990625, 192.0, 0.0, 0.0, 0.0, 0.0, 0.0, 0.0, 0.0, 0.0, 0.0, 1.6444988730351362E9, 0.0, 2022-02-11 00:14:33.035
194.0, -8862.734897462715, -10478.184876225576, -10755.36885921584, -17141.1951948637, -2340.8534933153983, -1871.9585981319665, -6114.900841105085, -7184.074185380243, -17418.245067387234, -15783.952568048546, -19903.826106050743, -12123.385026858454, -6565.757878513084, -10818.020798924064, -11584.77504071892, -12394.154059190043, 0.009875, -0.026125000000000002, 0.9923124999999999, 192.0, 0.0, 56.0, 127.5, 24.0, 15.5, 8.0, 0.0, 0.0, 0.0, 1.6444988730351431E9, 0.0, 2022-02-11 00:14:33.035
196.0, -8864.076002130032, -10492.087661276777, -10763.393135475295, -17140.412883807767, -2352.074069031962, -1880.6981302139916, -6110.944582336496, -7180.9449411565, -17420.279076132665, -15790.903960574147, -19910.151649731597, -12123.49678558073, -6571.658739049285, -10818.959572191188, -11589.312444843346, -12401.865411027124, 0.009875, -0.026125000000000002, 0.9923124999999999, 192.0, 0.0, 0.0, 0.0, 0.0, 0.0, 0.0, 0.0, 0.0, 0.0, 1.64449887303515E9, 0.0, 2022-02-11 00:14:33.035
198.0, -8857.057554371066, -10480.464754160019, -10750.831455091413, -17136.233107594624, -2339.400629925803, -1872.3385777877068, -6092.750262349876, -7167.51154273886, -17422.804823256116, -15790.367518707219, -19901.70269032749, -12109.661055762894, -6574.720928039662, -10824.882784471845, -11588.396023320678, -12394.779908034792, 0.009875, -0.026125000000000002, 0.9923124999999999, 192.0, 0.0, 0.0, 0.0, 0.0, 0.0, 0.0, 0.0, 0.0, 0.0, 1.6444988730351589E9, 0.0, 2022-02-11 00:14:33.035
200.0, -8868.121667876443, -10483.683405361582, -10756.575853416427, -17137.10482562838, -2349.5483219085127, -1882.2180488369524, -6098.829936841719, -7179.13444985562, -17417.73097726476, -15789.026414039901, -19896.002995491388, -12108.319951095576, -6568.574198314453, -10830.582479307948, -11582.226941851013, -12395.048128968256, 0.009875, -0.026125000000000002, 0.9923124999999999, 192.0, 0.0, 0.0, 0.0, 0.0, 0.0, 0.0, 0.0, 0.0, 0.0, 1.6444988730351655E9, 0.0, 2022-02-11 00:14:33.035
202.0, -8858.37630729393, -10492.847620588258, -10751.926690569722, -17136.836604694916, -2344.8321038284425, -1880.362854047162, -6091.677378616021, -7184.096537124698, -17415.1605266524, -15798.12357403321, -19910.822202065254, -12114.153756398411, -6574.005672217092, -10827.028551939555, -11588.038395409394, -12398.535001103282, 0.009875, -0.026125000000000002, 0.9923124999999999, 192.0, 0.0, 0.0, 0.0, 0.0, 0.0, 0.0, 0.0, 0.0, 0.0, 1.6444988730351725E9, 0.0, 2022-02-11 00:14:33.035
204.0, -8870.625063255437, -10494.300483977853, -10755.257100493563, -17140.949325674694, -2346.7096503626885, -1878.328845301729, -6096.035968784806, -7168.629129961626, -17419.87674473247, -15795.798992609858, -19902.9990915059, -12114.198459887322, -6578.096041452413, -10826.201537394707, -11584.663281996642, -12396.098660957654, 0.0109375, -0.0240625, 0.99015625, 192.0, 0.0, 48.0, 127.5, 40.0, 15.0, 112.0, 0.0, 0.0, 0.0, 1.644498873035179E9, 0.0, 2022-02-11 00:14:33.035
206.0, -8865.506513775172, -10477.60373086974, -10757.581681916916, -17142.558651275474, -2346.240263729127, -1870.1481068310866, -6097.310018218758, -7167.690356694503, -17420.63670404395, -15781.69504185856, -19910.41987066506, -12123.07210243608, -6573.87156175036, -10813.014008166076, -11584.752688974464, -12394.69050105697, 0.0109375, -0.0240625, 0.99015625, 192.0, 0.0, 0.0, 0.0, 0.0, 0.0, 0.0, 0.0, 0.0, 0.0, 1.6444988730351858E9, 0.0, 2022-02-11 00:14:33.035
208.0, -8851.782542679613, -10480.017719270912, -10748.015135290043, -17126.130119100824, -2336.8078275689877, -1858.815772392246, -6095.521878662334, -7159.934301368511, -17410.44430857233, -15777.202341223043, -19898.014652492366, -12116.232468632756, -6570.630558804341, -10815.80797622299, -11581.221113350524, -12383.805201507235, 0.0109375, -0.0240625, 0.99015625, 192.0, 0.0, 0.0, 0.0, 0.0, 0.0, 0.0, 0.0, 0.0, 0.0, 1.6444988730351927E9, 0.0, 2022-02-11 00:14:33.035
210.0, -8872.36849932295, -10507.488013206485, -10760.755629629568, -17136.814252950462, -2349.3024527195043, -1881.6592552255697, -6106.317771234247, -7181.079051623232, -17420.659055788405, -15795.55312342085, -19907.156515974584, -12112.186802886345, -6577.313730396478, -10836.326877632962, -11583.255122095958, -12388.610826565127, 0.0109375, -0.0240625, 0.99015625, 192.0, 0.0, 0.0, 0.0, 0.0, 0.0, 0.0, 0.0, 0.0, 0.0, 1.6444988730352E9, 0.0, 2022-02-11 00:14:33.035
212.0, -8864.791257952602, -10484.309254206331, -10757.60403366137, -17133.148566859792, -2347.983699796641, -1873.4114615215615, -6109.245849757892, -7181.302569067785, -17426.045826202135, -15800.246989756464, -19918.04181552432, -12124.63672454795, -6584.823916533461, -10836.595098566426, -11587.948988431572, -12394.26581791232, 0.0109375, -0.0240625, 0.99015625, 192.0, 0.0, 0.0, 0.0, 0.0, 0.0, 0.0, 0.0, 0.0, 0.0, 1.6444988730352092E9, 0.0, 2022-02-11 00:14:33.035
214.0, -8863.763077707657, -10488.377271697196, -10758.69926913968, -17130.734578458618, -2353.5269324215574, -1865.074260839732, -6125.607326699177, -7180.430851034028, -17418.49093657624, -15791.730975118993, -19901.5462281163, -12105.101299894011, -6583.952198499704, -10812.365807576873, -11587.367843075734, -12388.83434400968, 0.01246875, -0.02403125, 0.989078125, 192.0, 0.0, 56.0, 127.5, 32.0, 15.0, 112.0, 0.0, 0.0, 0.0, 1.6444988730352163E9, 0.0, 2022-02-11 00:14:33.035
216.0, -8878.336415092519, -10498.502611935452, -10767.014118077055, -17137.238936095113, -2357.572598167968, -1875.5795807337263, -6117.806567884275, -7181.369624301151, -17423.341265123043, -15795.083736787288, -19913.616170122168, -12118.489994822741, -6580.7335472981395, -10821.462967570182, -11591.167639633137, -12392.097698700154, 0.01246875, -0.02403125, 0.989078125, 192.0, 0.0, 0.0, 0.0, 0.0, 0.0, 0.0, 0.0, 0.0, 0.0, 1.6444988730352232E9, 0.0, 2022-02-11 00:14:33.035
218.0, -8866.378231808929, -10492.065309532323, -10756.039411549498, -17132.88034592633, -2349.078935274951, -1860.7380224154024, -6099.187564753004, -7166.952749127478, -17419.608523799005, -15793.764983864427, -19906.21774270746, -12120.322837868076, -6576.620826318363, -10808.677769741747, -11585.49029654149, -12387.157963175532, 0.01246875, -0.02403125, 0.989078125, 192.0, 0.0, 0.0, 0.0, 0.0, 0.0, 0.0, 0.0, 0.0, 0.0, 1.6444988730352297E9, 0.0, 2022-02-11 00:14:33.035
220.0, -8869.641586499403, -10495.283960733886, -10762.432010463717, -17131.427482536732, -2356.946749323219, -1874.0149586218547, -6108.7317596354205, -7169.456144506472, -17422.603657556017, -15793.385004208685, -19909.861077053676, -12113.796128487127, -6579.280683908544, -10825.262764127585, -11583.702156985064, -12387.31442538672, 0.01246875, -0.02403125, 0.989078125, 192.0, 0.0, 0.0, 0.0, 0.0, 0.0, 0.0, 0.0, 0.0, 0.0, 1.6444988730352364E9, 0.0, 2022-02-11 00:14:33.035
222.0, -8855.090600859, -10479.369518681708, -10755.279452238019, -17128.231183079624, -2345.7708770955655, -1859.3075107702628, -6106.898916590085, -7168.025632861332, -17414.109994663002, -15795.977806565501, -19912.878562555143, -12117.104186666511, -6575.413832117776, -10821.865298970379, -11587.278436097913, -12387.292073642264, 0.01246875, -0.02403125, 0.989078125, 192.0, 0.0, 0.0, 0.0, 0.0, 0.0, 0.0, 0.0, 0.0, 0.0, 1.6444988730352433E9, 0.0, 2022-02-11 00:14:33.035
224.0, -8860.767943950646, -10494.144021766666, -10755.637080149303, -17127.828851679427, -2341.926377049253, -1864.2248945504302, -6086.558829135755, -7165.65634794907, -17412.567724295586, -15791.84273384127, -19898.729908314934, -12117.461814577797, -6574.9220937397595, -10816.098548900909, -11579.343566816278, -12382.240579395364, 0.016, -0.03, 0.99, 192.0, 0.0, 64.0, 127.5, 8.0, 15.0, 120.0, 0.0, 0.0, 0.0, 1.64449887303525E9, 0.0, 2022-02-11 00:14:33.035
226.0, -8864.791257952602, -10484.309254206331, -10756.374687716328, -17129.125252857837, -2343.89333056132, -1873.5008684993827, -6085.463593657446, -7170.909007896067, -17415.227581885767, -15796.626007154706, -19909.12346948665, -12116.500689566219, -6570.898779737804, -10832.95176422021, -11579.00829064945, -12388.297902142753, 0.016, -0.03, 0.99, 192.0, 0.0, 0.0, 0.0, 0.0, 0.0, 0.0, 0.0, 0.0, 0.0, 1.6444988730352569E9, 0.0, 2022-02-11 00:14:33.035
228.0, -8851.380211279418, -10480.911789049123, -10750.74204811359, -17127.91825865725, -2338.5959671254122, -1867.1082695851649, -6086.245904713382, -7157.475609478428, -17404.230523613754, -15778.252873212443, -19891.957329744975, -12106.867087705981, -6569.200047159201, -10816.478528556649, -11578.628310993709, -12384.006367207334, 0.016, -0.03, 0.99, 192.0, 0.0, 0.0, 0.0, 0.0, 0.0, 0.0, 0.0, 0.0, 0.0, 1.6444988730352635E9, 0.0, 2022-02-11 00:14:33.035
230.0, -8861.617310239948, -10496.379196212196, -10759.123952284332, -17135.607258749875, -2348.497789919113, -1873.6796824550252, -6099.053454286272, -7170.216103817953, -17409.393776582932, -15780.800972080347, -19897.724079814445, -12110.130442396456, -6568.82006750346, -10806.442595296216, -11582.539866273388, -12386.420355608507, 0.016, -0.03, 0.99, 192.0, 0.0, 0.0, 0.0, 0.0, 0.0, 0.0, 0.0, 0.0, 0.0, 1.6444988730352724E9, 0.0, 2022-02-11 00:14:33.035
232.0, -8868.881627187924, -10498.256742746442, -10758.31928948394, -17132.366255803856, -2344.1615514947835, -1876.518354000849, -6096.483003673912, -7172.384223030117, -17415.1605266524, -15798.883533344691, -19915.605475378692, -12119.361712856498, -6574.117430939368, -10832.66119154229, -11587.032566908905, -12394.35522489014, 0.016, -0.03, 0.99, 192.0, 0.0, 0.0, 0.0, 0.0, 0.0, 0.0, 0.0, 0.0, 0.0, 1.6444988730352793E9, 0.0, 2022-02-11 00:14:33.035
234.0, -8865.171237608343, -10488.623140886206, -10758.475751695127, -17132.522718015043, -2344.7203451061664, -1871.3551010316733, -6100.662779887054, -7175.13348759812, -17419.83204124356, -15801.789260123882, -19906.061280496273, -12121.35101811302, -6573.223361161156, -10830.873051985867, -11580.751726716964, -12389.25902715433, 0.01, -0.024, 0.99, 192.0, 0.0, 40.0, 127.5, 32.0, 15.0, 120.0, 0.0, 0.0, 0.0, 1.6444988730352862E9, 0.0, 2022-02-11 00:14:33.035
236.0, -8879.18578138182, -10504.179955027099, -10761.694402896692, -17137.797729706494, -2351.1576475092947, -1876.4512987674832, -6109.3799602246245, -7176.541647498804, -17419.49676507673, -15804.046786313867, -19916.834821323733, -12127.721265282782, -6571.546980327008, -10836.058656699499, -11584.395061063178, -12392.991768478367, 0.01, -0.024, 0.99, 192.0, 0.0, 0.0, 0.0, 0.0, 0.0, 0.0, 0.0, 0.0, 0.0, 1.6444988730352929E9, 0.0, 2022-02-11 00:14:33.035
238.0, -8862.667842229348, -10483.906922806134, -10754.631251648814, -17134.95905816067, -2347.17903699625, -1865.0295573508213, -6105.311942733758, -7176.318130054251, -17417.194535397834, -15792.736803619482, -19907.670606097057, -12123.183861158355, -6574.810335017483, -10830.358961863394, -11585.222075608024, -12389.773117276802, 0.01, -0.024, 0.99, 192.0, 0.0, 0.0, 0.0, 0.0, 0.0, 0.0, 0.0, 0.0, 0.0, 1.6444988730352995E9, 0.0, 2022-02-11 00:14:33.035
240.0, -8873.933121434822, -10494.188725255577, -10759.280414495519, -17137.48480528412, -2360.0759935469623, -1873.3220545437403, -6119.997038840895, -7187.896333682101, -17423.363616867497, -15787.148867505655, -19909.011710764375, -12120.25578263471, -6583.773384544062, -10835.09753168792, -11587.39019482019, -12391.091870199665, 0.01, -0.024, 0.99, 192.0, 0.0, 0.0, 0.0, 0.0, 0.0, 0.0, 0.0, 0.0, 0.0, 1.6444988735151236E9, 0.0, 2022-02-11 00:14:33.515
242.0, -8861.70671721777, -10489.852486831247, -10754.005402804065, -17132.00862789257, -2356.1197347783727, -1862.5038102273716, -6102.137995021105, -7164.784629915313, -17418.848564487525, -15778.744611590459, -19915.09138525622, -12121.954515213314, -6573.268064650067, -10825.396874594317, -11589.223037865524, -12392.298864400253, 0.01, -0.024, 0.99, 192.0, 0.0, 0.0, 0.0, 0.0, 0.0, 0.0, 0.0, 0.0, 0.0, 1.644498873515314E9, 0.0, 2022-02-11 00:14:33.515
244.0, -8862.71254571826, -10493.473469433007, -10756.262928994052, -17135.4955000276, -2357.7067086346997, -1867.3541387741732, -6122.5451377088, -7175.669929465048, -17418.73680576525, -15780.420992424608, -19903.22260895045, -12109.437538318341, -6574.408003617287, -10814.645685511314, -11587.300787842369, -12386.30859688623, 0.01, -0.028, 0.986, 192.0, 0.0, 40.0, 127.5, 16.0, 15.0, 104.0, 0.0, 0.0, 0.0, 1.6444988735153217E9, 0.0, 2022-02-11 00:14:33.515
246.0, -8876.414165069362, -10493.093489777266, -10761.247368007585, -17140.43523555222, -2364.2781215045597, -1879.7593569468686, -6107.725931134932, -7192.344330828707, -17422.916581978392, -15784.287844215376, -19919.137051002628, -12125.508442581708, -6574.966797228671, -10831.744770019624, -11593.358110589757, -12397.640931325072, 0.01, -0.028, 0.986, 192.0, 0.0, 0.0, 0.0, 0.0, 0.0, 0.0, 0.0, 0.0, 0.0, 1.644498873515329E9, 0.0, 2022-02-11 00:14:33.515
248.0, -8864.344223063496, -10490.143059509166, -10753.379553959317, -17139.541165774008, -2351.8729033318646, -1869.164630075053, -6074.801811552265, -7168.874999150634, -17420.189669154843, -15771.681460342583, -19912.78915557732, -12130.895212995436, -6576.039680962525, -10839.992563723632, -11583.4339360516, -12394.958721990433, 0.01, -0.028, 0.986, 192.0, 0.0, 0.0, 0.0, 0.0, 0.0, 0.0, 0.0, 0.0, 0.0, 1.6444988735153377E9, 0.0, 2022-02-11 00:14:33.515
250.0, -8868.412240554362, -10509.231449273999, -10760.308594740462, -17137.663619239764, -2361.886484847842, -1877.2112580789637, -6088.570486136733, -7178.1062696106765, -17419.83204124356, -15787.484143672484, -19910.41987066506, -12120.389893101441, -6578.990111230625, -10835.09753168792, -11581.601093006266, -12390.935407988478, 0.01, -0.028, 0.986, 192.0, 0.0, 0.0, 0.0, 0.0, 0.0, 0.0, 0.0, 0.0, 0.0, 1.6444988735153449E9, 0.0, 2022-02-11 00:14:33.515
252.0, -8863.338394563007, -10503.285885248886, -10754.9888795601, -17129.929915658227, -2358.4443162017246, -1864.3590050171622, -6082.624922111621, -7169.254978806374, -17409.214962627288, -15784.466658171019, -19914.89021955612, -12113.617314531484, -6573.8045065169945, -10845.37933413736, -11587.72547098702, -12391.136573688576, 0.01, -0.028, 0.986, 192.0, 0.0, 0.0, 0.0, 0.0, 0.0, 0.0, 0.0, 0.0, 0.0, 1.6444988735153527E9, 0.0, 2022-02-11 00:14:33.515
254.0, -8857.392830537896, -10486.007986784934, -10751.233786491608, -17134.802595949484, -2354.689223133233, -1861.3191677712402, -6092.526744905323, -7166.885693894112, -17406.376291081466, -15773.402544665641, -19896.919417014054, -12115.226640132267, -6569.825896003949, -10820.032455925042, -11581.623444750721, -12383.872256740602, 0.008, -0.028, 0.99, 192.0, 0.0, 32.0, 127.5, 16.0, 15.0, 120.0, 0.0, 0.0, 0.0, 1.64449887351536E9, 0.0, 2022-02-11 00:14:33.515
0.0, -8852.520150246639, -10474.049803501344, -10757.60403366137, -17137.261287839567, -2359.494848191124, -1862.324996271729, -6089.665721615043, -7166.639824705104, -17404.34228233603, -15771.301480686841, -19905.144858973606, -12116.992427944235, -6567.970701214159, -10805.414415051273, -11582.763383717942, -12387.582646320183, 0.008, -0.028, 0.99, 192.0, 0.0, 0.0, 0.0, 0.0, 0.0, 0.0, 0.0, 0.0, 0.0, 1.6444988735153668E9, 0.0, 2022-02-11 00:14:33.515
2.0, -8843.825321653525, -10483.683405361582, -10747.523396912027, -17125.86189816736, -2345.502656162102, -1854.36777524564, -6078.221628453926, -7160.314281024252, -17397.904979932904, -15758.40452413613, -19891.242073922407, -12104.095471393523, -6567.076631435947, -10817.752577990601, -11576.10256387026, -12381.88295148408, 0.008, -0.028, 0.99, 192.0, 0.0, 0.0, 0.0, 0.0, 0.0, 0.0, 0.0, 0.0, 0.0, 1.6444988735153737E9, 0.0, 2022-02-11 00:14:33.515
4.0, -8862.980766651723, -10474.69800409055, -10754.966527815644, -17129.169956346745, -2361.6853191477444, -1859.8663043816455, -6094.15842225056, -7172.9430166415, -17407.62798877096, -15767.099352729245, -19892.806696034277, -12100.295674836121, -6569.311805881478, -10823.116996659875, -11575.342604558778, -12383.045242195754, 0.008, -0.028, 0.99, 192.0, 0.0, 0.0, 0.0, 0.0, 0.0, 0.0, 0.0, 0.0, 0.0, 1.644498873515381E9, 0.0, 2022-02-11 00:14:33.515
6.0, -8857.325775304529, -10493.160545010633, -10753.044277792487, -17130.10872961387, -2356.2314935006493, -1853.1831327895086, -6093.353759450169, -7170.730193940425, -17410.1090324055, -15770.921501031102, -19910.84455380971, -12120.367541356987, -6575.100907695402, -10826.670924028269, -11583.277473840413, -12386.554466075238, 0.008, -0.028, 0.99, 192.0, 0.0, 0.0, 0.0, 0.0, 0.0, 0.0, 0.0, 0.0, 0.0, 1.6444988735153937E9, 0.0, 2022-02-11 00:14:33.515
8.0, -8852.922481646834, -10493.495821177463, -10751.636117891803, -17128.05236912398, -2353.2810632325486, -1854.9712723459331, -6098.919343819541, -7180.9449411565, -17407.180953881856, -15769.803913808337, -19898.864018781667, -12101.212096358788, -6573.0445472055135, -10822.424092581761, -11581.556389517355, -12384.274588140797, 0.006, -0.026000000000000002, 0.99, 192.0, 0.0, 24.0, 127.5, 24.0, 15.0, 120.0, 0.0, 0.0, 0.0, 1.6444988735154033E9, 0.0, 2022-02-11 00:14:33.515
10.0, -8857.482237515716, -10495.26160898943, -10755.614728404847, -17132.612124992862, -2358.5113714350905, -1853.0043188338661, -6092.169116994038, -7166.840990405201, -17408.656169015907, -15770.206245208532, -19911.17982997654, -12110.711587752294, -6573.8045065169945, -10826.916793217277, -11583.09865988477, -12386.06272769722, 0.006, -0.026000000000000002, 0.99, 192.0, 0.0, 0.0, 0.0, 0.0, 0.0, 0.0, 0.0, 0.0, 0.0, 1.644498873515411E9, 0.0, 2022-02-11 00:14:33.515
12.0, -8837.790350650592, -10486.49972516295, -10740.951984042167, -17129.505232513577, -2344.3850689393366, -1846.8575891086566, -6099.411082197557, -7171.244284062896, -17399.357843322498, -15771.59205336476, -19897.27704492534, -12110.666884263383, -6567.724832025151, -10803.04513013901, -11577.354261559756, -12383.559332318227, 0.006, -0.026000000000000002, 0.99, 192.0, 0.0, 0.0, 0.0, 0.0, 0.0, 0.0, 0.0, 0.0, 0.0, 1.6444988735154176E9, 0.0, 2022-02-11 00:14:33.515
14.0, -8859.538598005605, -10480.1741814821, -10752.194911503186, -17135.71901747215, -2356.7679353675767, -1859.6651386815477, -6097.310018218758, -7184.543572013805, -17402.218866612777, -15766.540559117862, -19897.724079814445, -12108.409358073397, -6568.082459936436, -10824.122825160364, -11576.124915614715, -12387.113259686621, 0.006, -0.026000000000000002, 0.99, 192.0, 0.0, 0.0, 0.0, 0.0, 0.0, 0.0, 0.0, 0.0, 0.0, 1.644498873515425E9, 0.0, 2022-02-11 00:14:33.515
16.0, -8857.415182282351, -10489.36074845323, -10752.060801036454, -17128.67821796873, -2354.8456853444204, -1854.881865368112, -6086.469422157935, -7161.543626969294, -17402.956474179802, -15779.728088346494, -19907.044757252308, -12114.01964593168, -6573.3351198834325, -10835.566918321481, -11579.857656938751, -12392.611788822627, 0.006, -0.026000000000000002, 0.99, 192.0, 0.0, 0.0, 0.0, 0.0, 0.0, 0.0, 0.0, 0.0, 0.0, 1.6444988735154326E9, 0.0, 2022-02-11 00:14:33.515
18.0, -8841.098408829977, -10473.69217559006, -10750.384420202307, -17128.432348779723, -2355.9632725671854, -1854.9042171125673, -6075.96410226394, -7152.357059998162, -17401.995349168224, -15773.782524321381, -19899.26635018186, -12100.67565449186, -6575.056204206491, -10821.373560592361, -11579.745898216475, -12380.295977627753, 0.008, -0.024, 0.992, 192.0, 0.0, 32.0, 127.5, 32.0, 15.5, 0.0, 0.0, 0.0, 0.0, 1.6444988735154397E9, 0.0, 2022-02-11 00:14:33.515
20.0, -8856.454057270772, -10487.796126341358, -10757.156998772263, -17132.63447673732, -2362.266464503582, -1862.3026445272737, -6077.886352287096, -7167.757411927869, -17400.743651478726, -15757.778675291382, -19911.98449277693, -12123.362675113998, -6575.9726257291595, -10835.902194488312, -11583.746860473975, -12386.06272769722, 0.008, -0.024, 0.992, 192.0, 0.0, 0.0, 0.0, 0.0, 0.0, 0.0, 0.0, 0.0, 0.0, 1.6444988735154471E9, 0.0, 2022-02-11 00:14:33.515
22.0, -8851.201397323775, -10501.117766036721, -10748.104542267865, -17131.650999981284, -2356.142086522828, -1851.5291036998158, -6081.127355233116, -7160.18017055752, -17399.760174722695, -15777.314099945319, -19899.93690251552, -12096.697043978817, -6573.580989072441, -10821.731188503647, -11585.15502037466, -12383.40287010704, 0.008, -0.024, 0.992, 192.0, 0.0, 0.0, 0.0, 0.0, 0.0, 0.0, 0.0, 0.0, 0.0, 1.6444988735154548E9, 0.0, 2022-02-11 00:14:33.515
24.0, -8846.954565877268, -10484.152791995144, -10753.357202214862, -17130.935744158716, -2362.534685437046, -1860.425097993028, -6093.7113873614535, -7174.127659097631, -17405.750442236716, -15777.783486578881, -19896.762954802867, -12105.458927805297, -6575.100907695402, -10829.956630463199, -11584.305654085358, -12387.113259686621, 0.008, -0.024, 0.992, 192.0, 0.0, 0.0, 0.0, 0.0, 0.0, 0.0, 0.0, 0.0, 0.0, 1.6444988735154629E9, 0.0, 2022-02-11 00:14:33.515
26.0, -8836.18102504981, -10494.255780488942, -10750.786751602502, -17133.975581404637, -2356.2538452451045, -1841.5602256727489, -6084.167192479038, -7164.963443870955, -17403.559971280094, -15770.116838230711, -19904.921341529054, -12106.39770107242, -6576.01732921807, -10813.975133177655, -11585.19972386357, -12387.806163764735, 0.008, -0.024, 0.992, 192.0, 0.0, 0.0, 0.0, 0.0, 0.0, 0.0, 0.0, 0.0, 0.0, 1.6444988735154693E9, 0.0, 2022-02-11 00:14:33.515
28.0, -8852.877778157923, -10502.056539303845, -10746.450513178172, -17135.271982583046, -2355.918569078275, -1847.6622519090477, -6083.161363978549, -7162.4376967475055, -17400.766003223183, -15761.936099760069, -19895.690071069013, -12102.620256259474, -6572.955140227693, -10821.172394892263, -11578.807124949351, -12382.553503817739, 0.006, -0.024, 0.994, 192.0, 0.0, 24.0, 127.5, 32.0, 15.5, 8.0, 0.0, 0.0, 0.0, 1.6444988735154765E9, 0.0, 2022-02-11 00:14:33.515
30.0, -8860.164446850355, -10493.40641419964, -10751.949042314178, -17134.601430249386, -2367.854400617409, -1854.5465892012824, -6097.310018218758, -7169.7690689288465, -17409.48318356075, -15787.618254139217, -19911.269236954362, -12111.136270896945, -6575.994977473614, -10827.542642062026, -11586.20555236406, -12389.527248087794, 0.006, -0.024, 0.994, 192.0, 0.0, 0.0, 0.0, 0.0, 0.0, 0.0, 0.0, 0.0, 0.0, 1.6444988735154836E9, 0.0, 2022-02-11 00:14:33.515
32.0, -8835.733990160703, -10479.794201826358, -10740.594356130881, -17130.689874969707, -2356.700880134211, -1848.1763420315199, -6099.835765342208, -7165.768106671347, -17398.620235755472, -15765.400620150642, -19900.182771704527, -12108.766985984683, -6571.368166371366, -10814.109243644387, -11590.273569854924, -12386.77798351979, 0.006, -0.024, 0.994, 192.0, 0.0, 0.0, 0.0, 0.0, 0.0, 0.0, 0.0, 0.0, 0.0, 1.6444988735154903E9, 0.0, 2022-02-11 00:14:33.515
34.0, -8852.028411868621, -10494.814574100325, -10749.535053913005, -17134.95905816067, -2363.0264238150626, -1854.8595136236565, -6088.995169281384, -7172.741850941402, -17401.749479979215, -15768.954547519035, -19896.718251313956, -12106.196535372323, -6571.591683815919, -10830.761293263591, -11589.24538960998, -12387.560294575727, 0.006, -0.024, 0.994, 192.0, 0.0, 0.0, 0.0, 0.0, 0.0, 0.0, 0.0, 0.0, 0.0, 1.6444988735154977E9, 0.0, 2022-02-11 00:14:33.515
36.0, -8845.792275165591, -10475.033280257378, -10742.181329987208, -17131.293372070002, -2356.633824900845, -1852.266711266841, -6104.663742144554, -7190.153859872086, -17406.041014914634, -15766.540559117862, -19907.156515974584, -12100.385081813942, -6568.954177970193, -10824.86043272739, -11592.24052336699, -12394.109355701132, 0.006, -0.024, 0.994, 192.0, 0.0, 0.0, 0.0, 0.0, 0.0, 0.0, 0.0, 0.0, 0.0, 1.6444988735155044E9, 0.0, 2022-02-11 00:14:33.515
38.0, -8837.94681286178, -10505.968094583523, -10744.617670132837, -17136.747197717097, -2353.6833946327442, -1851.9314351000114, -6095.007788539861, -7159.800190901779, -17399.87193344497, -15757.376343891186, -19891.979681489433, -12099.848639947015, -6561.376936599843, -10831.677714786258, -11588.798354720873, -12392.20945742243, 0.006, -0.024, 0.99, 192.0, 0.0, 24.0, 127.5, 32.0, 15.0, 120.0, 0.0, 0.0, 0.0, 1.6444988735155194E9, 0.0, 2022-02-11 00:14:33.515
40.0, -8861.684365473315, -10510.974885341511, -10754.497141182082, -17140.837566952418, -2359.539551680035, -1865.230723050919, -6057.076878199206, -7158.146161812087, -17411.606599284005, -15779.526922646395, -19908.832896808733, -12119.07114017858, -6569.49061983712, -10844.48526435915, -11584.283302340902, -12390.667187055014, 0.006, -0.024, 0.99, 192.0, 0.0, 0.0, 0.0, 0.0, 0.0, 0.0, 0.0, 0.0, 0.0, 1.6444988735155263E9, 0.0, 2022-02-11 00:14:33.515
42.0, -8849.413257767352, -10496.781527612393, -10744.841187577389, -17137.238936095113, -2347.760182352088, -1851.3502897441733, -6061.591930579178, -7154.41342048805, -17405.370462580977, -15777.403506923141, -19898.66285308157, -12104.58720977154, -6570.831724504438, -10822.222926881663, -11577.935406915594, -12385.63804455257, 0.006, -0.024, 0.99, 192.0, 0.0, 0.0, 0.0, 0.0, 0.0, 0.0, 0.0, 0.0, 0.0, 1.6444988735155406E9, 0.0, 2022-02-11 00:14:33.515
44.0, -8864.455981785773, -10505.0293213164, -10752.8878155813, -17144.123273387348, -2354.018670799574, -1870.7292521869247, -6073.617169096133, -7152.6923361649915, -17410.019625427678, -15770.541521375362, -19901.613283349667, -12122.02157044668, -6573.87156175036, -10827.542642062026, -11577.644834237675, -12384.185181162977, 0.006, -0.024, 0.99, 192.0, 0.0, 0.0, 0.0, 0.0, 0.0, 0.0, 0.0, 0.0, 0.0, 1.6444988735155475E9, 0.0, 2022-02-11 00:14:33.515
46.0, -8860.253853828175, -10521.547260468873, -10748.08219052341, -17135.406093049776, -2347.5813683964457, -1862.324996271729, -6076.522895875322, -7156.872112378134, -17411.29367486163, -15786.657129127638, -19907.290626441318, -12126.581326315561, -6570.2505791486, -10855.549377864525, -11580.483505783499, -12388.11908818711, 0.009000000000000001, -0.027, 0.991, 192.0, 0.0, 48.0, 127.5, 8.0, 15.5, 0.0, 0.0, 0.0, 0.0, 1.6444988735155544E9, 0.0, 2022-02-11 00:14:33.515
48.0, -8856.297595059586, -10518.261554033943, -10746.808141089457, -17135.2943343275, -2345.7485253511104, -1855.105382812665, -6080.993244766384, -7159.040231590299, -17409.214962627288, -15789.495800673461, -19893.70076581249, -12101.435613803342, -6571.368166371366, -10834.71755203218, -11579.544732516377, -12381.681785783981, 0.009000000000000001, -0.027, 0.991, 192.0, 0.0, 0.0, 0.0, 0.0, 0.0, 0.0, 0.0, 0.0, 0.0, 1.644498873515562E9, 0.0, 2022-02-11 00:14:33.515
50.0, -8872.323795834041, -10520.094397079278, -10754.921824326733, -17139.943497174205, -2363.3616999818923, -1861.5426852157934, -6098.628771141622, -7168.584426472715, -17416.68044527536, -15789.78637335138, -19910.688091598524, -12116.053654677113, -6576.330253640444, -10833.555261320504, -11585.333834330302, -12387.202666664441, 0.009000000000000001, -0.027, 0.991, 192.0, 0.0, 0.0, 0.0, 0.0, 0.0, 0.0, 0.0, 0.0, 0.0, 1.6444988735155697E9, 0.0, 2022-02-11 00:14:33.515
52.0, -8852.184874079809, -10511.712492908537, -10746.875196322822, -17133.595601748897, -2351.0235370425626, -1852.0208420778326, -6091.118585004639, -7159.2637490348525, -17420.882573232957, -15784.734879104482, -19910.84455380971, -12118.557050056106, -6578.297207152511, -10835.8574909994, -11587.39019482019, -12384.788678263269, 0.009000000000000001, -0.027, 0.991, 192.0, 0.0, 0.0, 0.0, 0.0, 0.0, 0.0, 0.0, 0.0, 0.0, 1.6444988735155768E9, 0.0, 2022-02-11 00:14:33.515
54.0, -8866.266473086653, -10513.902963865157, -10754.854769093368, -17136.501328528087, -2359.4501447022135, -1853.6748711675252, -6102.696788632487, -7164.829333404224, -17421.530773822164, -15776.442381911564, -19908.005882263886, -12107.470584806275, -6580.487678109131, -10829.531947318548, -11584.976206419016, -12380.228922394386, 0.009000000000000001, -0.027, 0.991, 192.0, 0.0, 0.0, 0.0, 0.0, 0.0, 0.0, 0.0, 0.0, 0.0, 1.6444988735155845E9, 0.0, 2022-02-11 00:14:33.515
56.0, -8865.975900408734, -10521.144929068676, -10751.390248702795, -17136.1437006168, -2354.08572603294, -1851.9314351000114, -6091.073881515727, -7162.594158958693, -17418.088605176046, -15774.922463288602, -19915.784289334333, -12112.343265097532, -6578.163096685779, -10824.502804816104, -11588.351319831769, -12383.69344278496, 0.006500000000000001, -0.028499999999999998, 0.9915, 192.0, 0.0, 16.0, 127.5, 8.0, 15.5, 0.0, 0.0, 0.0, 0.0, 1.6444988735155911E9, 0.0, 2022-02-11 00:14:33.515
58.0, -8869.485124288216, -10518.306257522852, -10748.41746669024, -17143.005686164583, -2347.0672782739734, -1859.4416212369945, -6086.067090757739, -7155.776876899824, -17419.34030286554, -15776.844713311759, -19900.8980275271, -12114.287866865143, -6578.364262385877, -10835.008124710099, -11582.696328484575, -12384.051070696243, 0.006500000000000001, -0.028499999999999998, 0.9915, 192.0, 0.0, 0.0, 0.0, 0.0, 0.0, 0.0, 0.0, 0.0, 0.0, 1.6444988735155983E9, 0.0, 2022-02-11 00:14:33.515
60.0, -8878.0458424146, -10525.972905871024, -10755.592376660392, -17143.4974245426, -2352.3199382209705, -1863.6437491945924, -6093.018483283339, -7170.126696840131, -17421.575477311075, -15786.366556449719, -19911.8503823102, -12122.468605335785, -6579.9065327532935, -10826.201537394707, -11582.696328484575, -12390.220152165908, 0.006500000000000001, -0.028499999999999998, 0.9915, 192.0, 0.0, 0.0, 0.0, 0.0, 0.0, 0.0, 0.0, 0.0, 0.0, 1.6444988735156052E9, 0.0, 2022-02-11 00:14:33.515
62.0, -8884.550200051093, -10543.988411902, -10749.624460890826, -17133.774415704538, -2344.8321038284425, -1860.9168363710448, -6093.130242005616, -7155.5086559663605, -17427.074006447077, -15778.722259846005, -19915.627827123146, -12116.232468632756, -6584.756861300095, -10849.760276050602, -11581.86931393973, -12388.074384698199, 0.006500000000000001, -0.028499999999999998, 0.9915, 192.0, 0.0, 0.0, 0.0, 0.0, 0.0, 0.0, 0.0, 0.0, 0.0, 1.644498873515614E9, 0.0, 2022-02-11 00:14:33.515
64.0, -8914.00979924319, -10578.767726274458, -10758.162827272752, -17140.032904152027, -2355.069202788973, -1869.231685308419, -6092.079710016216, -7166.930397383023, -17438.294582163642, -15808.539486949383, -19918.019463779863, -12119.384064600954, -6586.857925278893, -10839.836101512445, -11584.462116296545, -12385.526285830294, 0.006500000000000001, -0.028499999999999998, 0.9915, 192.0, 0.0, 0.0, 0.0, 0.0, 0.0, 0.0, 0.0, 0.0, 0.0, 1.644498873515621E9, 0.0, 2022-02-11 00:14:33.515
66.0, -8920.223584201764, -10578.544208829906, -10751.949042314178, -17140.47993904113, -2344.7874003395323, -1860.55920845976, -6078.087517987195, -7166.505714238372, -17445.69300957835, -15811.60167593976, -19934.023312809863, -12129.084721694557, -6587.886105523838, -10840.931336990756, -11584.596226763277, -12391.695367299959, 0.00525, -0.028249999999999997, 0.99275, 192.0, 0.0, 16.0, 127.5, 16.0, 15.5, 8.0, 0.0, 0.0, 0.0, 1.6444988735156276E9, 0.0, 2022-02-11 00:14:33.515
68.0, -8940.8095408451, -10605.500412643005, -10754.295975481984, -17142.558651275474, -2340.7417345931217, -1856.8041153912684, -6063.894160258074, -7155.016917588344, -17446.92235552339, -15811.735786406492, -19924.903801072098, -12129.934087983858, -6585.807393289494, -10838.047961956021, -11575.141438858682, -12388.432012609484, 0.00525, -0.028249999999999997, 0.99275, 192.0, 0.0, 0.0, 0.0, 0.0, 0.0, 0.0, 0.0, 0.0, 0.0, 1.6444988735156348E9, 0.0, 2022-02-11 00:14:33.515
70.0, -8974.650081950436, -10627.53923267594, -10765.404792476273, -17140.614049507865, -2353.102249276906, -1849.942129843489, -6070.890256272585, -7137.359039468652, -17460.06518126311, -15819.827117899315, -19944.193356537027, -12143.345134657042, -6589.607189846896, -10834.941069476732, -11579.4329737941, -12383.291111384764, 0.00525, -0.028249999999999997, 0.99275, 192.0, 0.0, 0.0, 0.0, 0.0, 0.0, 0.0, 0.0, 0.0, 0.0, 1.644498873515646E9, 0.0, 2022-02-11 00:14:33.515
72.0, -8998.857021195534, -10664.933701149666, -10758.341641228395, -17141.597526263897, -2339.9370717927304, -1840.912025083545, -6072.700747573465, -7141.494112192883, -17467.64242263346, -15827.426711014119, -19949.915403117586, -12147.189634703354, -6589.674245080262, -10828.257897884596, -11580.975244161516, -12377.747878759847, 0.00525, -0.028249999999999997, 0.99275, 192.0, 0.0, 0.0, 0.0, 0.0, 0.0, 0.0, 0.0, 0.0, 0.0, 1.644498873515653E9, 0.0, 2022-02-11 00:14:33.515
74.0, -9047.337954919096, -10692.314588107418, -10767.349394243884, -17149.68885775672, -2346.2849672180378, -1850.2774060103186, -6070.7561458058535, -7149.4066297300615, -17478.192446016365, -15835.048655873377, -19955.078656086764, -12157.203216219332, -6583.236942677134, -10823.698142015714, -11580.550561016866, -12379.826590994191, 0.00525, -0.028249999999999997, 0.99275, 192.0, 0.0, 0.0, 0.0, 0.0, 0.0, 0.0, 0.0, 0.0, 0.0, 1.6444988735156605E9, 0.0, 2022-02-11 00:14:33.515
76.0, -9075.255283743774, -10724.165823956231, -10765.293033753996, -17155.63442178183, -2335.153798479295, -1846.2540920083634, -6048.404401350546, -7149.473684963427, -17496.006786347247, -15850.650173503182, -19979.732630220966, -12185.165248532921, -6584.645102577818, -10829.017857196077, -11579.857656938751, -12383.089945684666, 0.006625000000000001, -0.028124999999999997, 0.993375, 192.0, 0.0, 32.0, 127.5, 16.0, 15.5, 8.0, 0.0, 0.0, 0.0, 1.644498873515669E9, 0.0, 2022-02-11 00:14:33.515
78.0, -9083.525429192237, -10731.608954859848, -10760.152132529276, -17156.72965726014, -2330.7728565660545, -1853.1384293005979, -6052.047735696761, -7147.149103540076, -17497.616111948028, -15854.405266571674, -19972.602423739725, -12184.40528922144, -6579.839477519927, -10836.013953210588, -11571.274587067914, -12379.580721805183, 0.006625000000000001, -0.028124999999999997, 0.993375, 192.0, 0.0, 0.0, 0.0, 0.0, 0.0, 0.0, 0.0, 0.0, 0.0, 1.6444988735156767E9, 0.0, 2022-02-11 00:14:33.515
80.0, -9083.905408847977, -10764.734240142614, -10770.031603578522, -17149.800616478995, -2342.596929382912, -1855.5077142128605, -6068.364509149135, -7138.320164480229, -17497.012614847736, -15852.99710667099, -19982.66070874461, -12172.044774537657, -6580.867657764871, -10845.915776004289, -11576.281377825902, -12383.112297429121, 0.006625000000000001, -0.028124999999999997, 0.993375, 192.0, 0.0, 0.0, 0.0, 0.0, 0.0, 0.0, 0.0, 0.0, 0.0, 1.644498873515684E9, 0.0, 2022-02-11 00:14:33.515
82.0, -9065.55462665017, -10747.143417256286, -10758.766324373046, -17146.62666876634, -2335.17615022375, -1844.4436007074835, -6062.463648612935, -7134.74388536738, -17491.916417111923, -15851.588946770305, -19978.771505209388, -12175.084611783579, -6585.025082233558, -10825.620392038869, -11578.33773831579, -12375.758573503324, 0.006625000000000001, -0.028124999999999997, 0.993375, 192.0, 0.0, 0.0, 0.0, 0.0, 0.0, 0.0, 0.0, 0.0, 0.0, 1.644498873515692E9, 0.0, 2022-02-11 00:14:33.515
84.0, -9070.404955196971, -10730.64782984827, -10765.65066166528, -17148.39245657831, -2341.6805078602442, -1861.2521125378744, -6061.904855001552, -7148.803132629769, -17489.390669988476, -15853.220624115542, -19960.107798589208, -12166.501541912741, -6583.795736288516, -10843.23356666965, -11580.43880229459, -12378.552541560239, 0.006625000000000001, -0.028124999999999997, 0.993375, 192.0, 0.0, 0.0, 0.0, 0.0, 0.0, 0.0, 0.0, 0.0, 0.0, 1.6444988735157E9, 0.0, 2022-02-11 00:14:33.515
86.0, -9056.03278351221, -10710.061873204932, -10764.376612231328, -17150.11354090137, -2339.5570921369904, -1856.5805979467152, -6058.038003210784, -7144.5339494388045, -17485.50146645325, -15861.244900374997, -19970.099028360728, -12173.140010015966, -6584.935675255737, -10845.915776004289, -11586.563180275343, -12384.788678263269, 0.0073125, -0.0270625, 0.9946875, 192.0, 0.0, 32.0, 127.5, 24.0, 15.5, 16.0, 0.0, 0.0, 0.0, 1.644498873515708E9, 0.0, 2022-02-11 00:14:33.515
88.0, -9023.242774396274, -10686.190210126664, -10762.27554825253, -17146.738427488617, -2341.36758343787, -1851.0820688107096, -6067.559846348745, -7148.177283785019, -17475.800809359647, -15853.466493304551, -19952.687019430046, -12153.336364428564, -6585.919152011771, -10841.847758513422, -11578.29303482688, -12376.898512470545, 0.0073125, -0.0270625, 0.9946875, 192.0, 0.0, 0.0, 0.0, 0.0, 0.0, 0.0, 0.0, 0.0, 0.0, 1.644498873515716E9, 0.0, 2022-02-11 00:14:33.515
90.0, -9025.16502441943, -10677.674195489191, -10774.70311816968, -17153.488654314122, -2355.5609411669902, -1856.2900252687962, -6072.231360939903, -7154.346365254684, -17482.662794907428, -15846.537452523406, -19963.840539913243, -12167.909701813425, -6592.848192792916, -10846.273403915573, -11581.57874126181, -12384.49810558535, 0.0073125, -0.0270625, 0.9946875, 192.0, 0.0, 0.0, 0.0, 0.0, 0.0, 0.0, 0.0, 0.0, 0.0, 1.6444988735157232E9, 0.0, 2022-02-11 00:14:33.515
92.0, -8990.139840857964, -10654.786009166957, -10765.024812820533, -17144.324439087446, -2342.753391594099, -1851.4396967219946, -6072.365471406636, -7150.725382652925, -17472.582158158082, -15828.611353470249, -19957.738513676944, -12154.07397199559, -6593.138765470835, -10836.617450310881, -11582.986901162494, -12384.49810558535, 0.0073125, -0.0270625, 0.9946875, 192.0, 0.0, 0.0, 0.0, 0.0, 0.0, 0.0, 0.0, 0.0, 0.0, 1.6444988735157316E9, 0.0, 2022-02-11 00:14:33.515
94.0, -8988.8210879351, -10657.311756290408, -10767.885836110812, -17150.96290719067, -2342.976909038652, -1858.2569787808632, -6057.4345061104905, -7150.36775474164, -17469.31880346761, -15830.734769193503, -19943.61221118119, -12144.999163746736, -6588.40019564631, -10831.230679897151, -11577.823648193318, -12381.391213106062, 0.0073125, -0.0270625, 0.9946875, 192.0, 0.0, 0.0, 0.0, 0.0, 0.0, 0.0, 0.0, 0.0, 0.0, 1.6444988735157394E9, 0.0, 2022-02-11 00:14:33.515
96.0, -8974.046584850143, -10621.571316906371, -10763.974280831133, -17146.53726178852, -2341.36758343787, -1851.618510677637, -6073.304244673758, -7144.288080249797, -17456.98064052828, -15825.28094354641, -19947.14378680513, -12152.755219072727, -6585.382710144843, -10827.564993806482, -11580.483505783499, -12386.643873053059, 0.006656250000000001, -0.02553125, 0.99234375, 192.0, 0.0, 24.0, 127.5, 32.0, 15.0, 120.0, 0.0, 0.0, 0.0, 1.6444988735157588E9, 0.0, 2022-02-11 00:14:33.515
98.0, -8955.092305552043, -10608.62965686675, -10764.153094786776, -17142.782168720027, -2345.659118373289, -1848.2210455204304, -6078.981587765406, -7132.687524877492, -17454.857224805026, -15807.89128636018, -19935.47617619946, -12136.103169453523, -6588.847230535416, -10828.123787417864, -11577.890703426685, -12373.433992079974, 0.006656250000000001, -0.02553125, 0.99234375, 192.0, 0.0, 0.0, 0.0, 0.0, 0.0, 0.0, 0.0, 0.0, 0.0, 1.6444988735157664E9, 0.0, 2022-02-11 00:14:33.515
100.0, -8949.124389782475, -10597.409081150185, -10770.746859401092, -17149.10771240088, -2348.564845152479, -1859.5086764703606, -6058.753259033354, -7142.119961037632, -17452.197367214845, -15822.844603400781, -19945.556812948802, -12150.564748116107, -6589.808355546994, -10832.258860142096, -11581.288168583891, -12377.993747948856, 0.006656250000000001, -0.02553125, 0.99234375, 192.0, 0.0, 0.0, 0.0, 0.0, 0.0, 0.0, 0.0, 0.0, 0.0, 1.644498873515774E9, 0.0, 2022-02-11 00:14:33.515
102.0, -8934.573404142071, -10603.511107386483, -10759.36982147334, -17139.563517518465, -2339.043002014518, -1853.9654438454443, -6042.928223958997, -7137.1355220240985, -17438.07106471909, -15814.485050974496, -19938.31484774528, -12144.820349791093, -6586.008558989592, -10835.611621810393, -11575.253197580958, -12378.26196888232, 0.006656250000000001, -0.02553125, 0.99234375, 192.0, 0.0, 0.0, 0.0, 0.0, 0.0, 0.0, 0.0, 0.0, 0.0, 1.6444988735157833E9, 0.0, 2022-02-11 00:14:33.515
104.0, -8932.986430285744, -10591.642331080715, -10762.767286630546, -17142.49159604211, -2350.241225986627, -1859.240455536897, -6054.841703753675, -7144.51159769435, -17438.74161705275, -15810.014702083434, -19924.881449327644, -12127.83302400506, -6588.020215990569, -10832.012990953088, -11575.29790106987, -12376.853808981636, 0.006656250000000001, -0.02553125, 0.99234375, 192.0, 0.0, 0.0, 0.0, 0.0, 0.0, 0.0, 0.0, 0.0, 0.0, 1.644498873994462E9, 0.0, 2022-02-11 00:14:33.994
106.0, -8917.72018882277, -10583.61805482126, -10757.715792383648, -17140.25642159658, -2340.2276444706495, -1850.1879990324974, -6067.91747426003, -7147.439676217995, -17428.83979425905, -15800.492858945474, -19924.814394094275, -12137.824253776582, -6582.834611276939, -10820.94887744771, -11575.946101659072, -12379.446611338451, 0.005328125, -0.024765625, 0.991171875, 192.0, 0.0, 16.0, 127.5, 32.0, 15.0, 120.0, 0.0, 0.0, 0.0, 1.6444988739946585E9, 0.0, 2022-02-11 00:14:33.994
108.0, -8909.628857329948, -10571.928092471135, -10753.13368477031, -17142.73746523112, -2339.087705503429, -1856.0218043353325, -6060.966081734429, -7146.03151631731, -17423.408320356408, -15800.515210689928, -19913.526763144346, -12120.322837868076, -6582.700500810207, -10818.512537302082, -11572.012194634939, -12374.68568976947, 0.005328125, -0.024765625, 0.991171875, 192.0, 0.0, 0.0, 0.0, 0.0, 0.0, 0.0, 0.0, 0.0, 0.0, 1.6444988739946651E9, 0.0, 2022-02-11 00:14:33.994
110.0, -8905.806709028091, -10568.910606969668, -10755.950004571678, -17142.62570650884, -2336.8078275689877, -1869.0975748416872, -6060.742564289876, -7151.865321620146, -17425.97877096877, -15811.199344539566, -19917.57242889076, -12127.140119926944, -6574.20683791719, -10832.012990953088, -11570.492276011977, -12384.565160818716, 0.005328125, -0.024765625, 0.991171875, 192.0, 0.0, 0.0, 0.0, 0.0, 0.0, 0.0, 0.0, 0.0, 0.0, 1.6444988739946735E9, 0.0, 2022-02-11 00:14:33.994
112.0, -8887.724147763747, -10550.023382904934, -10748.015135290043, -17137.663619239764, -2327.5542053644904, -1849.360984487651, -6054.707593286943, -7145.718591894936, -17415.58520979705, -15794.659053642637, -19906.485963640924, -12127.49774783823, -6569.825896003949, -10824.435749582739, -11565.820761420819, -12379.536018316272, 0.005328125, -0.024765625, 0.991171875, 192.0, 0.0, 0.0, 0.0, 0.0, 0.0, 0.0, 0.0, 0.0, 0.0, 1.6444988739946804E9, 0.0, 2022-02-11 00:14:33.994
114.0, -8893.826174000045, -10563.345022600297, -10758.431048206217, -17142.603354764386, -2342.9322055497414, -1858.2793305253185, -6072.276064428815, -7162.482400236417, -17419.072081932078, -15795.977806565501, -19906.374204918648, -12123.1615094139, -6577.805468774494, -10828.883746729345, -11566.021927120915, -12379.111335171621, 0.005328125, -0.024765625, 0.991171875, 192.0, 0.0, 0.0, 0.0, 0.0, 0.0, 0.0, 0.0, 0.0, 0.0, 1.6444988739946876E9, 0.0, 2022-02-11 00:14:33.994
116.0, -8889.33347336453, -10560.41694407665, -10758.162827272752, -17137.5965640064, -2345.8155805844763, -1864.0237288503324, -6066.15168644806, -7158.526141467827, -17417.93214296486, -15800.917542090125, -19916.879524812644, -12130.314067639598, -6580.353567642399, -10836.460988099694, -11569.19587483357, -12386.375652119596, 0.005328125, -0.024765625, 0.991171875, 192.0, 0.0, 0.0, 127.5, 32.0, 15.5, 0.0, 0.0, 0.0, 0.0, 1.6444988739946945E9, 0.0, 2022-02-11 00:14:33.994
118.0, -8881.286845360619, -10548.794036959891, -10755.592376660392, -17137.864784939862, -2355.8738655893644, -1851.909083355556, -6087.96698903644, -7149.6972024079805, -17418.759157509703, -15790.859257085236, -19901.210951949473, -12114.310218609598, -6581.471154865165, -10826.514461817082, -11570.425220778612, -12378.463134582416, 0.005328125, -0.024765625, 0.991171875, 192.0, 0.0, 0.0, 0.0, 0.0, 0.0, 0.0, 0.0, 0.0, 0.0, 1.6444988739947028E9, 0.0, 2022-02-11 00:14:33.994
120.0, -8877.218827869752, -10537.75227519897, -10759.660394151259, -17144.994991421103, -2368.2120285286937, -1862.2802927828186, -6104.5072799333675, -7174.842914920201, -17418.267419131687, -15791.194533252066, -19909.525800886848, -12121.753349513216, -6586.433242134242, -10809.102452886398, -11584.77504071892, -12386.152134675043, 0.005328125, -0.024765625, 0.991171875, 192.0, 0.0, 0.0, 0.0, 0.0, 0.0, 0.0, 0.0, 0.0, 0.0, 1.6444988739947095E9, 0.0, 2022-02-11 00:14:33.994
122.0, -8866.914673675856, -10529.37037102823, -10750.56323415795, -17135.562555260964, -2359.89717959132, -1862.4814584829162, -6100.238096742403, -7180.274388822841, -17406.19747712582, -15777.068230756311, -19902.261483938873, -12120.658114034906, -6583.706329310695, -10825.799205994512, -11585.736165730497, -12388.566123076216, 0.005328125, -0.024765625, 0.991171875, 192.0, 0.0, 0.0, 0.0, 0.0, 0.0, 0.0, 0.0, 0.0, 0.0, 1.6444988739947164E9, 0.0, 2022-02-11 00:14:33.994
124.0, -8876.011833669167, -10535.919432153634, -10757.13464702781, -17137.462453539665, -2361.0371185585404, -1872.1821155765197, -6082.133183733605, -7179.179153344531, -17409.12555564947, -15781.046841269355, -19894.41602163506, -12107.649398761916, -6583.0804804659465, -10823.206403637696, -11582.919845929127, -12389.21432366542, 0.005328125, -0.024765625, 0.991171875, 192.0, 0.0, 0.0, 0.0, 0.0, 0.0, 0.0, 0.0, 0.0, 0.0, 1.644498873994723E9, 0.0, 2022-02-11 00:14:33.994
