%OpenBCI Raw EEG Data
%Number of channels = 16
%Sample Rate = 125 Hz
%Board = OpenBCI_GUI$BoardCytonSerialDaisy
Sample Index, EXG Channel 0, EXG Channel 1, EXG Channel 2, EXG Channel 3, EXG Channel 4, EXG Channel 5, EXG Channel 6, EXG Channel 7, EXG Channel 8, EXG Channel 9, EXG Channel 10, EXG Channel 11, EXG Channel 12, EXG Channel 13, EXG Channel 14, EXG Channel 15, Accel Channel 0, Accel Channel 1, Accel Channel 2, Other, Other, Other, Other, Other, Other, Other, Analog Channel 0, Analog Channel 1, Analog Channel 2, Timestamp, Other, Timestamp (Formatted)
0.0, -9660.62511928381, -11071.355470580516, -10866.814657070001, -17028.743568509053, -3136.9332238356146, -2059.8920655121883, -6195.568286844288, -6861.650271612439, 0.0, 0.0, 0.0, 0.0, 0.0, 0.0, 0.0, 0.0, 0.0, 0.0, 0.0, 192.0, 0.0, 0.0, 0.0, 0.0, 0.0, 0.0, 0.0, 0.0, 0.0, 1.6444991570902114E9, 0.0, 2022-02-11 00:19:17.090
146.0, -9686.977825996617, -11083.648930030935, -10875.397726940839, -17031.71635052161, -3154.1217153217453, -2076.7452808314897, -6196.305894411314, -6869.629844382983, -17394.552218264605, -14187.18864765032, -20498.024880650628, -12477.391955541607, -7164.292891537296, -10258.355469507631, -12120.725169268271, -12351.216358091398, 0.0, 0.0, 0.0, 192.0, 0.0, 0.0, 0.0, 0.0, 0.0, 0.0, 0.0, 0.0, 0.0, 1.6444991570902197E9, 0.0, 2022-02-11 00:19:17.090
148.0, -9669.923444977218, -11077.56925553909, -10867.775782081579, -17033.303324377935, -3137.4249622136313, -2064.876504525722, -6192.751967042919, -6861.292643701154, -17394.26164558669, -14197.470450099761, -20509.938360445307, -12484.343348067207, -7167.377432272128, -10264.368088766108, -12125.150814670422, -12349.718791212892, 0.0, 0.0, 0.0, 192.0, 0.0, 0.0, 0.0, 0.0, 0.0, 0.0, 0.0, 0.0, 0.0, 1.644499157090227E9, 0.0, 2022-02-11 00:19:17.090
150.0, -9678.640625314787, -11090.95795046782, -10871.977910039177, -17037.863080246818, -3145.5162937064524, -2066.4634783820484, -6202.9443625145395, -6861.873789056992, -17395.602750254006, -14195.972883221255, -20500.52827602962, -12481.370566054651, -7158.861417634656, -10246.88902460206, -12116.031302932657, -12349.405866790517, 0.005, -0.006, 0.494, 192.0, 0.0, 40.0, 127.5, 80.0, 15.0, 112.0, 0.0, 0.0, 0.0, 1.6444991570902343E9, 0.0, 2022-02-11 00:19:17.090
152.0, -9693.951570266672, -11103.67609306289, -10876.090631018953, -17035.18087091218, -3149.651366430684, -2065.9493882595766, -6189.823888519274, -6863.88544605797, -17392.07117463007, -14196.576380321549, -20511.748851746186, -12485.304473078784, -7159.710783923958, -10250.88998685956, -12127.140119926944, -12349.450570279429, 0.005, -0.006, 0.494, 192.0, 0.0, 0.0, 0.0, 0.0, 0.0, 0.0, 0.0, 0.0, 0.0, 1.644499157090241E9, 0.0, 2022-02-11 00:19:17.090
154.0, -9682.932160250206, -11099.585723827568, -10875.062450774009, -17044.769769283506, -3147.237378029511, -2063.803620791867, -6198.809289790308, -6861.292643701154, -17395.49099153173, -14197.358691377485, -20498.963653917748, -12479.448316031494, -7164.114077581654, -10239.803521609727, -12122.558012313606, -12345.851939422124, 0.005, -0.006, 0.494, 192.0, 0.0, 0.0, 0.0, 0.0, 0.0, 0.0, 0.0, 0.0, 0.0, 1.6444991570902476E9, 0.0, 2022-02-11 00:19:17.090
156.0, -9699.58420986941, -11104.748976796744, -10889.278160247584, -17045.976763484094, -3154.836971144315, -2070.4644406395487, -6195.6129903331985, -6868.668719371405, -17400.318968334075, -14198.968016978268, -20507.92670344433, -12484.052775389287, -7166.75158342738, -10241.479902443874, -12125.039055948146, -12351.39517204704, 0.005, -0.006, 0.494, 192.0, 0.0, 0.0, 0.0, 0.0, 0.0, 0.0, 0.0, 0.0, 0.0, 1.6444991570902543E9, 0.0, 2022-02-11 00:19:17.090
158.0, -9693.705701077664, -11111.499203622247, -10873.721346106691, -17046.51320535102, -3137.6037761692737, -2066.843458037789, -6187.879286751662, -6863.97485303579, -17394.283997331142, -14209.406281638896, -20514.766337247653, -12497.37441508465, -7165.857513649168, -10257.84137938516, -12124.390855358943, -12351.082247624667, 0.005, -0.006, 0.494, 192.0, 0.0, 0.0, 0.0, 0.0, 0.0, 0.0, 0.0, 0.0, 0.0, 1.6444991570902607E9, 0.0, 2022-02-11 00:19:17.090
160.0, -9709.06134951846, -11122.96564852782, -10881.097421776942, -17048.70367630764, -3139.5707296813407, -2076.3653011757497, -6194.7859757883525, -6865.8300478255815, -17405.281055603155, -14213.921334018867, -20501.19882836328, -12486.131487623632, -7162.884731636612, -10257.573158451696, -12117.551221555617, -12354.323250570686, 0.006500000000000001, -0.007, 0.741, 192.0, 0.0, 32.0, 127.5, 96.0, 15.0, 112.0, 0.0, 0.0, 0.0, 1.6444991570902674E9, 0.0, 2022-02-11 00:19:17.090
162.0, -9721.287753735514, -11131.280497465194, -10888.495849191648, -17047.451978618144, -3142.722325649539, -2076.7452808314897, -6198.809289790308, -6878.2129142538215, -17408.656169015907, -14225.365427179984, -20522.455337340278, -12496.547400539805, -7168.115039839154, -10260.344774764155, -12128.503576338719, -12357.139570372054, 0.006500000000000001, -0.007, 0.741, 192.0, 0.0, 0.0, 0.0, 0.0, 0.0, 0.0, 0.0, 0.0, 0.0, 1.644499157090274E9, 0.0, 2022-02-11 00:19:17.090
164.0, -9729.244974761603, -11157.029707077707, -10885.947750323743, -17054.649240332754, -3137.4473139580864, -2069.793888305889, -6192.573153087277, -6863.639576868961, -17412.880648717957, -14217.654075342904, -20510.117174400948, -12492.345272582206, -7162.325938025229, -10251.940518848958, -12123.362675113998, -12355.68670698246, 0.006500000000000001, -0.007, 0.741, 192.0, 0.0, 0.0, 0.0, 0.0, 0.0, 0.0, 0.0, 0.0, 0.0, 1.6444991570902803E9, 0.0, 2022-02-11 00:19:17.090
166.0, -9768.561693258489, -11187.383376048014, -10899.24703827465, -17056.929118267195, -3145.136314050712, -2078.287551198906, -6197.535240356355, -6870.83683858357, -17426.82813725807, -14236.138968007443, -20525.78574726412, -12507.253886133896, -7166.997452616389, -10254.756838650328, -12125.597849559528, -12357.564253516704, 0.006500000000000001, -0.007, 0.741, 192.0, 0.0, 0.0, 0.0, 0.0, 0.0, 0.0, 0.0, 0.0, 0.0, 1.644499157090287E9, 0.0, 2022-02-11 00:19:17.090
168.0, -9800.658798296308, -11219.212260152372, -10889.367567225405, -17062.159426469734, -3135.010973812458, -2073.057242996364, -6193.5119263544, -6866.791172837159, -17436.707608307315, -14242.95625006631, -20546.639924840918, -12519.837918262234, -7168.629129961626, -10256.41086774002, -12123.608544303006, -12357.005459905322, 0.006500000000000001, -0.007, 0.741, 192.0, 0.0, 0.0, 0.0, 0.0, 0.0, 0.0, 0.0, 0.0, 0.0, 1.6444991570902936E9, 0.0, 2022-02-11 00:19:17.090
170.0, -9836.198071980247, -11252.315193690682, -10898.196506285252, -17070.206054473645, -3141.4482762155862, -2075.2030104640735, -6202.184403203059, -6871.529742661684, -17458.098227751045, -14252.969831582288, -20540.33673290452, -12527.48221486595, -7169.724365439936, -10255.226225283888, -12118.937029711848, -12360.335869829163, 0.00625, -0.0075, 0.8634999999999999, 192.0, 0.0, 24.0, 127.5, 96.0, 15.0, 104.0, 0.0, 0.0, 0.0, 1.6444991570903E9, 0.0, 2022-02-11 00:19:17.090
172.0, -9881.058023102049, -11287.385080741058, -10907.8748116344, -17071.43540041869, -3147.3491367517877, -2076.544115131392, -6196.976446744972, -6867.349966448542, -17469.631727889984, -14259.518892707694, -20570.936271063838, -12544.983630774455, -7173.501810252883, -10257.260234029322, -12129.285887394653, -12365.879102454079, 0.00625, -0.0075, 0.8634999999999999, 192.0, 0.0, 0.0, 0.0, 0.0, 0.0, 0.0, 0.0, 0.0, 0.0, 1.6444991570903065E9, 0.0, 2022-02-11 00:19:17.090
174.0, -9897.732424465708, -11300.796127414242, -10900.25286677514, -17073.60351963085, -3127.14315976419, -2069.391556905694, -6179.27386513637, -6861.471457656796, -17487.736640898784, -14263.475151476283, -20574.177274009857, -12549.72220059898, -7172.250112563385, -10266.849132400648, -12122.245087891233, -12358.346564572641, 0.00625, -0.0075, 0.8634999999999999, 192.0, 0.0, 0.0, 0.0, 0.0, 0.0, 0.0, 0.0, 0.0, 0.0, 1.6444991570903132E9, 0.0, 2022-02-11 00:19:17.090
176.0, -9928.77899751413, -11339.53170055529, -10920.145919340363, -17071.793028329972, -3142.0294215714243, -2083.9201908016435, -6189.265094907892, -6875.59776015255, -17500.834763149593, -14270.694764935348, -20588.057707316602, -12555.041915779342, -7175.066432364754, -10271.811219669726, -12123.094454180535, -12364.426239064484, 0.00625, -0.0075, 0.8634999999999999, 192.0, 0.0, 0.0, 0.0, 0.0, 0.0, 0.0, 0.0, 0.0, 0.0, 1.6444991570903232E9, 0.0, 2022-02-11 00:19:17.090
178.0, -9906.159032125359, -11324.734845725876, -10907.763052912123, -17064.104028237347, -3139.3472122367875, -2070.6879580841014, -6199.211621190503, -6866.657062370427, -17494.486867724285, -14279.367241784006, -20591.656338173907, -12545.453017408016, -7177.122792854642, -10268.503161490342, -12130.939916484347, -12365.722640242891, 0.00625, -0.0075, 0.8634999999999999, 192.0, 0.0, 0.0, 0.0, 0.0, 0.0, 0.0, 0.0, 0.0, 0.0, 1.6444991570903296E9, 0.0, 2022-02-11 00:19:17.090
180.0, -9893.574999997021, -11303.23246755987, -10914.15565182634, -17073.648223119762, -3147.952633852081, -2080.187449477607, -6196.261190922402, -6879.665777643416, -17496.587931703085, -14273.622843458992, -20570.042201285625, -12531.594935845726, -7179.425022533539, -10260.635347442074, -12126.35780887101, -12364.87327395359, 0.01, -0.01, 0.99, 192.0, 0.0, 40.0, 127.5, 88.0, 15.0, 120.0, 0.0, 0.0, 0.0, 1.644499157090336E9, 0.0, 2022-02-11 00:19:17.090
182.0, -9901.979255912216, -11304.528868738278, -10917.933096639288, -17068.552025383953, -3150.7913053979046, -2085.4624611690597, -6192.237876920447, -6885.1419550349665, -17494.59862644656, -14279.121372594998, -20590.538750951142, -12554.796046590334, -7179.335615555718, -10267.229112056388, -12134.605602575017, -12373.746916502347, 0.01, -0.01, 0.99, 192.0, 0.0, 0.0, 0.0, 0.0, 0.0, 0.0, 0.0, 0.0, 0.0, 1.6444991570903428E9, 0.0, 2022-02-11 00:19:17.090
184.0, -9862.61783392642, -11272.834095100654, -10900.319922008506, -17066.361554427334, -3130.8088458548605, -2073.973664519032, -6189.779185030364, -6873.004957795734, -17486.708460653837, -14263.63161368747, -20565.124817505457, -12544.760113329901, -7173.926493397534, -10279.500219762353, -12126.670733293384, -12369.433029822474, 0.01, -0.01, 0.99, 192.0, 0.0, 0.0, 0.0, 0.0, 0.0, 0.0, 0.0, 0.0, 0.0, 1.64449915709035E9, 0.0, 2022-02-11 00:19:17.090
186.0, -9856.582862923487, -11268.542560165235, -10915.653218704847, -17068.03793526148, -3140.3306889928213, -2081.416795422649, -6193.333112398757, -6883.689091645371, -17468.201216244845, -14268.191369556353, -20556.720561590264, -12526.923421254567, -7164.203484559475, -10263.183446309979, -12124.726131525771, -12369.433029822474, 0.01, -0.01, 0.99, 192.0, 0.0, 0.0, 0.0, 0.0, 0.0, 0.0, 0.0, 0.0, 0.0, 1.6444991570903563E9, 0.0, 2022-02-11 00:19:17.090
188.0, -9828.553775376533, -11254.595071625123, -10900.655198175335, -17070.00488877355, -3133.938090078603, -2072.02906275142, -6194.450699621523, -6866.031213525679, -17462.88150106448, -14265.643270688448, -20562.509663404187, -12527.683380566048, -7166.237493304908, -10266.916187634015, -12130.247012406233, -12367.35431758813, 0.01, -0.01, 0.99, 192.0, 0.0, 0.0, 0.0, 0.0, 0.0, 0.0, 0.0, 0.0, 0.0, 1.644499157090363E9, 0.0, 2022-02-11 00:19:17.090
190.0, -9808.37015013339, -11223.526146832246, -10902.331579009484, -17077.202150488156, -3138.1178662917455, -2077.0358535094088, -6194.584810088255, -6872.177943250888, -17457.65119286194, -14257.283718262162, -20541.946058505306, -12536.020581247876, -7160.649557191081, -10253.348678749642, -12121.976866957768, -12366.773172232291, 0.012, -0.016, 0.994, 192.0, 0.0, 48.0, 127.5, 64.0, 15.5, 8.0, 0.0, 0.0, 0.0, 1.6444991570903697E9, 0.0, 2022-02-11 00:19:17.090
192.0, -9798.289513384047, -11220.687475286422, -10903.449166232249, -17068.99906027306, -3140.911834348659, -2083.383748934716, -6194.473051365978, -6883.331463734086, -17438.786320541658, -14257.887215362456, -20551.24438419871, -12532.600764346214, -7154.078144321221, -10260.680050930983, -12128.995314716734, -12373.813971735713, 0.012, -0.016, 0.994, 192.0, 0.0, 0.0, 0.0, 0.0, 0.0, 0.0, 0.0, 0.0, 0.0, 1.644499157090376E9, 0.0, 2022-02-11 00:19:17.090
194.0, -9781.369242831379, -11195.921742429942, -10895.737814395168, -17072.19535973017, -3127.3890289531982, -2067.581065604814, -6197.6022955897215, -6870.076879272089, -17440.529756609172, -14241.43633144335, -20534.480575857233, -12513.914705981579, -7156.9391676115, -10251.448780470942, -12118.668808778384, -12367.309614099218, 0.012, -0.016, 0.994, 192.0, 0.0, 0.0, 0.0, 0.0, 0.0, 0.0, 0.0, 0.0, 0.0, 1.6444991570903828E9, 0.0, 2022-02-11 00:19:17.090
196.0, -9775.93776892874, -11175.536951486702, -10909.484137235182, -17071.211882974134, -3142.0294215714243, -2081.6850163561126, -6203.145528214637, -6882.303283489142, -17436.417035629398, -14246.286659990152, -20531.97718047824, -12517.312171138785, -7157.229740289419, -10271.610053969629, -12123.250916391722, -12374.909207214023, 0.012, -0.016, 0.994, 192.0, 0.0, 0.0, 0.0, 0.0, 0.0, 0.0, 0.0, 0.0, 0.0, 1.6444991570903893E9, 0.0, 2022-02-11 00:19:17.090
198.0, -9743.080704579437, -11153.676945409412, -10896.20720102873, -17070.116647495826, -3130.942956321592, -2066.776402804423, -6177.88805698014, -6868.333443204576, -17417.55216330912, -14227.287677203141, -20523.97525596324, -12518.273296150363, -7155.195731543986, -10275.856885416137, -12126.201346659822, -12371.332928101174, 0.012, -0.016, 0.994, 192.0, 0.0, 0.0, 0.0, 0.0, 0.0, 0.0, 0.0, 0.0, 0.0, 1.6444991570903957E9, 0.0, 2022-02-11 00:19:17.090
200.0, -9745.82996914744, -11176.520428242735, -10896.900105106844, -17070.966013785128, -3131.2111772550556, -2072.1408214736966, -6180.279693636858, -6873.451992684841, -17420.83786974405, -14236.608354641005, -20510.944188945796, -12506.203354144496, -7148.132580296109, -10251.068800815201, -12119.719340767782, -12368.047221666244, 0.008, -0.014, 0.992, 192.0, 0.0, 32.0, 127.5, 72.0, 15.5, 0.0, 0.0, 0.0, 0.0, 1.6444991570904024E9, 0.0, 2022-02-11 00:19:17.090
202.0, -9744.622974946855, -11163.243492036283, -10899.716424908213, -17069.3790399288, -3136.9555755800698, -2068.229266194018, -6184.303007638813, -6874.1672485074105, -17417.038073186646, -14240.788130854145, -20527.417424609357, -12512.081862936242, -7149.250167518875, -10251.180559537479, -12124.25674489221, -12373.746916502347, 0.008, -0.014, 0.992, 192.0, 0.0, 0.0, 0.0, 0.0, 0.0, 0.0, 0.0, 0.0, 0.0, 1.6444991570904088E9, 0.0, 2022-02-11 00:19:17.090
204.0, -9724.327590981435, -11148.804265118155, -10884.24901774514, -17063.545234625966, -3123.1869009956004, -2062.417812635638, -6180.145583170126, -6871.082707772578, -17406.599808526018, -14224.784281824146, -20503.903389442374, -12504.459918076984, -7137.046115046277, -10248.297184502744, -12119.004084945213, -12365.767343731803, 0.008, -0.014, 0.992, 192.0, 0.0, 0.0, 0.0, 0.0, 0.0, 0.0, 0.0, 0.0, 0.0, 1.6444991570904155E9, 0.0, 2022-02-11 00:19:17.090
206.0, -9717.823233344941, -11134.342686455571, -10891.982721326676, -17064.81928405992, -3123.3880666956984, -2063.4683446250374, -6181.017301203883, -6871.283873472676, -17404.54344803613, -14228.986409781744, -20501.645863252386, -12498.0002639294, -7133.961574311445, -10235.31082097421, -12117.417111088886, -12368.337794344163, 0.008, -0.014, 0.992, 192.0, 0.0, 0.0, 0.0, 0.0, 0.0, 0.0, 0.0, 0.0, 0.0, 1.644499157090422E9, 0.0, 2022-02-11 00:19:17.090
208.0, -9690.129421964815, -11098.468136604803, -10881.969139810699, -17057.577318856398, -3108.144176977179, -2050.1467049296743, -6165.035803918338, -6864.712460602816, -17384.717450704273, -14213.04961598511, -20500.997662663183, -12497.173249384554, -7126.429036430006, -10232.606259895118, -12116.746558755227, -12365.63323326507, 0.008, -0.014, 0.992, 192.0, 0.0, 0.0, 0.0, 0.0, 0.0, 0.0, 0.0, 0.0, 0.0, 1.6444991570904305E9, 0.0, 2022-02-11 00:19:17.090
210.0, -9705.038035516505, -11111.119223966507, -10883.801982856034, -17057.867891534315, -3119.431807927109, -2060.584969590303, -6188.326321640769, -6870.434507183374, -17393.0546513861, -14204.868877514467, -20485.15027584437, -12481.594083499203, -7127.054885274754, -10238.976507064881, -12113.282038364654, -12361.319346585196, 0.01, -0.016, 0.994, 192.0, 0.0, 40.0, 127.5, 64.0, 15.5, 8.0, 0.0, 0.0, 0.0, 1.644499157090437E9, 0.0, 2022-02-11 00:19:17.090
212.0, -9706.803823328475, -11121.758654327234, -10886.215971257207, -17056.169158955712, -3121.398761439176, -2061.8366672798, -6170.154353398604, -6870.792135094659, -17390.864180429482, -14213.67546482986, -20500.2377033517, -12487.80786845778, -7132.016972543833, -10242.93276583347, -12121.462776835297, -12366.01321292081, 0.01, -0.016, 0.994, 192.0, 0.0, 0.0, 0.0, 0.0, 0.0, 0.0, 0.0, 0.0, 0.0, 1.6444991570904436E9, 0.0, 2022-02-11 00:19:17.090
214.0, -9689.481221375612, -11114.606096101536, -10877.878770575378, -17060.684211335687, -3109.9323165336036, -2052.6948037975794, -6179.4079756031015, -6870.300396716642, -17389.38896529543, -14198.945665233812, -20491.87815092542, -12481.191752099008, -7124.082103262199, -10228.560594148707, -12115.740730254738, -12362.25811985232, 0.01, -0.016, 0.994, 192.0, 0.0, 0.0, 0.0, 0.0, 0.0, 0.0, 0.0, 0.0, 0.0, 1.64449915709045E9, 0.0, 2022-02-11 00:19:17.090
216.0, -9689.81649754244, -11103.966665740809, -10888.87582884739, -17061.153597969245, -3122.181072495112, -2064.541228358892, -6199.524545612878, -6881.342158477564, -17391.288863574133, -14196.218752410265, -20489.598272990977, -12485.192714356508, -7126.36198119664, -10235.333172718665, -12116.835965733047, -12371.69055601246, 0.01, -0.016, 0.994, 192.0, 0.0, 0.0, 0.0, 0.0, 0.0, 0.0, 0.0, 0.0, 0.0, 1.6444991570904565E9, 0.0, 2022-02-11 00:19:17.090
218.0, -9690.799974298474, -11113.264991434216, -10882.01384329961, -17056.99617350056, -3117.6436683706843, -2058.997995733976, -6188.214562918492, -6882.280931744687, -17383.264587314676, -14206.522906604161, -20494.068621882037, -12491.227685359441, -7125.937298051989, -10234.953193062925, -12127.318933882587, -12369.902416456034, 0.01, -0.016, 0.994, 192.0, 0.0, 0.0, 0.0, 0.0, 0.0, 0.0, 0.0, 0.0, 0.0, 1.6444991570904632E9, 0.0, 2022-02-11 00:19:17.090
220.0, -9691.06819523194, -11103.921962251898, -10888.406442213827, -17057.13028396729, -3125.5785376523186, -2064.5635801033472, -6194.9647897439945, -6884.404347467941, -17396.228599098755, -14208.646322327415, -20482.892749654384, -12476.117906107655, -7127.8595480751455, -10235.132007018568, -12123.474433836274, -12369.678899011482, 0.004, -0.014, 0.99, 192.0, 0.0, 16.0, 127.5, 72.0, 15.0, 120.0, 0.0, 0.0, 0.0, 1.6444991570904696E9, 0.0, 2022-02-11 00:19:17.090
222.0, -9683.178029439216, -11084.654758531424, -10886.528895679581, -17052.95050775415, -3125.4444271855864, -2064.094193469786, -6193.780147287864, -6884.873734101503, -17388.070212372568, -14207.28286591564, -20493.621586992933, -12478.218970086453, -7118.248297959363, -10232.06981802819, -12128.63768680545, -12371.847018223647, 0.004, -0.014, 0.99, 192.0, 0.0, 0.0, 0.0, 0.0, 0.0, 0.0, 0.0, 0.0, 0.0, 1.6444991570904763E9, 0.0, 2022-02-11 00:19:17.090
224.0, -9665.944834464173, -11080.385575340459, -10875.19656124074, -17061.779446813995, -3118.314220704344, -2053.6335770647024, -6199.278676423869, -6875.463649685818, -17379.844770413016, -14197.157525677387, -20474.980232117206, -12473.458048517472, -7122.137501494587, -10223.754969090816, -12124.25674489221, -12371.556445545728, 0.004, -0.014, 0.99, 192.0, 0.0, 0.0, 0.0, 0.0, 0.0, 0.0, 0.0, 0.0, 0.0, 1.6444991570904973E9, 0.0, 2022-02-11 00:19:17.090
226.0, -9674.170276423727, -11079.491505562248, -10891.669796904302, -17060.684211335687, -3125.0644475298463, -2060.227341679018, -6193.89190601014, -6880.761013121726, -17385.343299549022, -14189.960263962777, -20486.71489795624, -12480.655310232081, -7122.606888128149, -10230.393437194043, -12120.032265190157, -12376.183256647975, 0.004, -0.014, 0.99, 192.0, 0.0, 0.0, 0.0, 0.0, 0.0, 0.0, 0.0, 0.0, 0.0, 1.644499157090504E9, 0.0, 2022-02-11 00:19:17.090
228.0, -9672.091564189383, -11079.133877650962, -10883.10907877792, -17052.07878972039, -3109.105301988757, -2053.164190431141, -6182.827792504763, -6880.381033465986, -17376.044973855613, -14195.078813443044, -20488.301871812568, -12481.817600943757, -7117.309524692241, -10231.063989527702, -12127.006009460212, -12372.741088001858, 0.004, -0.014, 0.99, 192.0, 0.0, 0.0, 0.0, 0.0, 0.0, 0.0, 0.0, 0.0, 0.0, 1.6444991570905108E9, 0.0, 2022-02-11 00:19:17.090
230.0, -9677.657148558754, -11093.975435969287, -10886.238323001662, -17060.08071423539, -3113.6650578576396, -2056.114620699241, -6188.661597807598, -6880.023405554701, -17384.605691981997, -14197.783374522136, -20470.28636578159, -12476.699051463493, -7118.31535319273, -10237.903623331025, -12116.835965733047, -12373.724564757893, 0.008, -0.014, 0.99, 192.0, 0.0, 32.0, 127.5, 72.0, 15.0, 120.0, 0.0, 0.0, 0.0, 1.6444991570905175E9, 0.0, 2022-02-11 00:19:17.090
232.0, -9687.424860885723, -11097.507011593225, -10900.006997586132, -17060.10306597985, -3129.020706298436, -2064.965911503543, -6200.709188069009, -6885.41017596843, -17383.331642548044, -14209.249819427709, -20484.546778744076, -12482.778725955335, -7120.595231127171, -10238.30595473122, -12128.905907738914, -12383.045242195754, 0.008, -0.014, 0.99, 192.0, 0.0, 0.0, 0.0, 0.0, 0.0, 0.0, 0.0, 0.0, 0.0, 1.6444991570905244E9, 0.0, 2022-02-11 00:19:17.090
234.0, -9663.217921640626, -11082.017252685697, -10884.718404378702, -17062.070019491915, -3124.8632818297488, -2056.6510625661685, -6204.03959799285, -6885.745452135259, -17382.57168323656, -14202.231371668742, -20479.495284497178, -12474.195656084497, -7120.774045082813, -10223.285582457254, -12127.1624716714, -12377.434954337474, 0.008, -0.014, 0.99, 192.0, 0.0, 0.0, 0.0, 0.0, 0.0, 0.0, 0.0, 0.0, 0.0, 1.6444991570905316E9, 0.0, 2022-02-11 00:19:17.090
236.0, -9680.29465440448, -11086.733470765766, -10895.313131250517, -17066.85329280535, -3133.401648211676, -2066.418774893138, -6206.5876968607545, -6893.903838861446, -17384.87391291546, -14205.472374614761, -20486.62549097842, -12477.928397408534, -7121.779873583302, -10233.1650535065, -12127.318933882587, -12385.995672463856, 0.008, -0.014, 0.99, 192.0, 0.0, 0.0, 0.0, 0.0, 0.0, 0.0, 0.0, 0.0, 0.0, 1.6444991570905385E9, 0.0, 2022-02-11 00:19:17.090
238.0, -9667.800029253964, -11081.19023814085, -10887.19944801324, -17064.685173593185, -3120.7058573610616, -2055.0193852209313, -6190.896772253129, -6889.455841714841, -17378.01192736768, -14201.493764101717, -20489.978252646717, -12486.71263297947, -7125.0432282737775, -10236.40605645252, -12127.341285627042, -12385.25806489683, 0.008, -0.014, 0.99, 192.0, 0.0, 0.0, 0.0, 0.0, 0.0, 0.0, 0.0, 0.0, 0.0, 1.6444991570905452E9, 0.0, 2022-02-11 00:19:17.090
240.0, -9666.81655249793, -11088.409851599914, -10888.048814302543, -17073.827037075407, -3113.9109270466483, -2054.2370741649956, -6200.619781091187, -6885.45487945734, -17382.929311147847, -14192.173086663854, -20470.643993692876, -12474.799153184791, -7111.40866415604, -10219.150509733023, -12119.339361112043, -12379.06663168271, 0.008, -0.01, 0.994, 192.0, 0.0, 32.0, 127.5, 88.0, 15.5, 8.0, 0.0, 0.0, 0.0, 1.644499157090554E9, 0.0, 2022-02-11 00:19:17.090
242.0, -9681.769869538532, -11091.293226634649, -10894.374357983394, -17067.590900372375, -3113.039209012891, -2057.5898358332915, -6193.13194669866, -6883.689091645371, -17378.414258767876, -14211.52969736215, -20488.368927045933, -12483.114002122165, -7108.659399588037, -10244.877367601082, -12124.189689658844, -12381.570027061705, 0.008, -0.01, 0.994, 192.0, 0.0, 0.0, 0.0, 0.0, 0.0, 0.0, 0.0, 0.0, 0.0, 1.644499157090561E9, 0.0, 2022-02-11 00:19:17.090
244.0, -9667.19653215367, -11093.394290613449, -10890.48515444817, -17068.127342239302, -3108.3900461661874, -2055.086440454297, -6187.991045473939, -6883.5549811786395, -17383.711622203784, -14220.850374800013, -20479.003546119162, -12478.844818931202, -7115.387274669084, -10236.763684363805, -12115.941895954837, -12377.189085148464, 0.008, -0.01, 0.994, 192.0, 0.0, 0.0, 0.0, 0.0, 0.0, 0.0, 0.0, 0.0, 0.0, 1.6444991570905676E9, 0.0, 2022-02-11 00:19:17.090
246.0, -9682.887456761297, -11089.058052189119, -10893.212067271717, -17071.256586463045, -3125.131502763212, -2071.067937739842, -6201.312685169302, -6893.121527805511, -17392.24998858571, -14220.559802122094, -20482.780990932108, -12483.315167822262, -7115.700199091459, -10233.969716306892, -12119.317009367587, -12380.49714332785, 0.008, -0.01, 0.994, 192.0, 0.0, 0.0, 0.0, 0.0, 0.0, 0.0, 0.0, 0.0, 0.0, 1.6444991570905745E9, 0.0, 2022-02-11 00:19:17.090
248.0, -9668.828209498908, -11081.391403840948, -10888.227628258184, -17068.03793526148, -3112.1227874902233, -2061.2108184350514, -6187.476955351467, -6884.761975379226, -17386.885569916438, -14215.932991019845, -20492.615758492444, -12491.741775481913, -7117.488338647883, -10235.064951785202, -12123.452082091819, -12381.391213106062, 0.006, -0.012, 0.991, 192.0, 0.0, 16.0, 127.5, 72.0, 15.0, 112.0, 0.0, 0.0, 0.0, 1.6444991570905812E9, 0.0, 2022-02-11 00:19:17.090
250.0, -9661.742706506575, -11083.067784675097, -10890.954541081732, -17080.599615645366, -3113.4191886686313, -2065.4352981371044, -6194.562458343799, -6896.720158662815, -17385.946796649314, -14189.200304651298, -20473.43796174979, -12485.080955634232, -7114.984943268889, -10229.365256949099, -12117.171241899878, -12380.228922394386, 0.006, -0.012, 0.991, 192.0, 0.0, 0.0, 0.0, 0.0, 0.0, 0.0, 0.0, 0.0, 0.0, 1.6444991570905888E9, 0.0, 2022-02-11 00:19:17.090
252.0, -9676.696023547176, -11096.344720881549, -10896.184849284275, -17077.96210979964, -3120.527043405419, -2060.450859123571, -6197.222315933981, -6894.619094684017, -17378.68247970134, -14212.110842717988, -20491.3864125474, -12501.755356997892, -7118.69533284847, -10227.688876114951, -12125.664904792895, -12389.996634721356, 0.006, -0.012, 0.991, 192.0, 0.0, 0.0, 0.0, 0.0, 0.0, 0.0, 0.0, 0.0, 0.0, 1.6444991570905955E9, 0.0, 2022-02-11 00:19:17.090
254.0, -9670.884569988797, -11098.691654049357, -10886.73006137968, -17077.604481888353, -3106.5795548653073, -2051.353699130261, -6194.204830432514, -6890.0146353262235, -17382.325814047555, -14228.38291268145, -20482.557473487555, -12482.868132933156, -7114.984943268889, -10228.180614492967, -12122.379198357965, -12381.279454383786, 0.006, -0.012, 0.991, 192.0, 0.0, 0.0, 0.0, 0.0, 0.0, 0.0, 0.0, 0.0, 0.0, 1.6444991570906024E9, 0.0, 2022-02-11 00:19:17.090
0.0, -9678.685328803698, -11092.790793513155, -10893.145012038352, -17072.776505086007, -3117.040171270391, -2064.921208014632, -6216.288353954358, -6893.501507461251, -17390.59595949602, -14220.448043399818, -20485.10557235546, -12491.294740592808, -7114.046170001766, -10236.987201808359, -12122.692122780338, -12384.185181162977, 0.006, -0.012, 0.991, 192.0, 0.0, 0.0, 0.0, 0.0, 0.0, 0.0, 0.0, 0.0, 0.0, 1.6444991570906096E9, 0.0, 2022-02-11 00:19:17.090
2.0, -9671.778639767008, -11084.67711027588, -10889.524029436592, -17068.306156194943, -3108.010066510447, -2056.449896866071, -6193.802499032319, -6888.450013214352, -17382.303462303098, -14216.000046253212, -20485.329089800012, -12488.478420791438, -7110.156966466542, -10234.081475029168, -12129.822329261582, -12383.827553251691, 0.004, -0.014, 0.9904999999999999, 192.0, 0.0, 8.0, 127.5, 64.0, 15.0, 120.0, 0.0, 0.0, 0.0, 1.6444991570906167E9, 0.0, 2022-02-11 00:19:17.090
4.0, -9673.790296767986, -11083.24659863074, -10895.737814395168, -17072.485932408086, -3108.7029705885616, -2057.45572536656, -6184.705339039009, -6895.669626673416, -17388.91957866187, -14202.745461791214, -20473.035630349594, -12474.687394462515, -7108.592344354671, -10227.331248203665, -12120.479300079263, -12381.771192761802, 0.004, -0.014, 0.9904999999999999, 192.0, 0.0, 0.0, 0.0, 0.0, 0.0, 0.0, 0.0, 0.0, 0.0, 1.6444991570906236E9, 0.0, 2022-02-11 00:19:17.090
6.0, -9670.191665910681, -11081.972549196786, -10894.977855083687, -17071.502455652055, -3115.117921247235, -2060.0485277233756, -6193.288408909847, -6896.004902840245, -17385.20918908229, -14211.105014217499, -20486.849008422974, -12490.04304290331, -7109.21819319942, -10234.684972129462, -12130.649343806428, -12387.582646320183, 0.004, -0.014, 0.9904999999999999, 192.0, 0.0, 0.0, 0.0, 0.0, 0.0, 0.0, 0.0, 0.0, 0.0, 1.6444991570906303E9, 0.0, 2022-02-11 00:19:17.090
8.0, -9648.331659833391, -11061.47599953127, -10881.857381088423, -17073.29059520848, -3101.8409850407825, -2047.486847339493, -6194.584810088255, -6885.007844568235, -17378.570720979063, -14205.897057759412, -20474.175569316812, -12477.079031119232, -7106.223059442408, -10215.328361431166, -12118.646457033929, -12382.017061950812, 0.004, -0.014, 0.9904999999999999, 192.0, 0.0, 0.0, 0.0, 0.0, 0.0, 0.0, 0.0, 0.0, 0.0, 1.6444991570906372E9, 0.0, 2022-02-11 00:19:17.090
0.0, -4721.180167338868, -5514.443578057716, -5411.804367518946, -8626.432255081208, -1302.1455767328237, -1002.9227737096279, -3002.4204257035767, -3480.1666116913098, -8686.916075577268, -7105.708969319937, -10244.385629223065, -6245.166807790614, -3550.574606725527, -5108.714712704982, -6059.557921833744, -6194.048368221327, 0.004, -0.012, 0.988, 192.0, 0.0, 16.0, 127.5, 80.0, 15.0, 112.0, 0.0, 0.0, 0.0, 1.6444991571969736E9, 0.0, 2022-02-11 00:19:17.196
2.0, -9453.022116782919, -11029.334191004538, -10832.594136308926, -17250.875204905893, -2610.750807613231, -2010.9193934106106, -6006.696046196944, -6967.709299052871, -17208.92098056328, -14583.350966376182, -20144.733207790043, -12496.94973194, -6378.02557683296, -10008.59707696403, -12176.470419939807, -12582.847485881744, 0.004, -0.012, 0.988, 192.0, 0.0, 0.0, 0.0, 0.0, 0.0, 0.0, 0.0, 0.0, 0.0, 1.6444991576753192E9, 0.0, 2022-02-11 00:19:17.675
4.0, -9450.451666170558, -11033.759836406689, -10813.930429688744, -17255.79258868606, -2597.675037106876, -2004.3926840296608, -5989.775775644276, -6964.5577030846725, -17206.21641948419, -14587.083707700218, -20143.190937422627, -12500.838935475223, -6369.755431384496, -10013.849736911028, -12174.659928638928, -12581.171105047597, 0.004, -0.012, 0.988, 192.0, 0.0, 0.0, 0.0, 0.0, 0.0, 0.0, 0.0, 0.0, 0.0, 1.6444991576753323E9, 0.0, 2022-02-11 00:19:17.675
6.0, -9461.672241887121, -11034.162167806884, -10826.447406583717, -17258.83242593198, -2601.6759993643764, -2006.1808235860854, -6001.532793227768, -6968.0445752197, -17223.65078015933, -14574.365565105149, -20149.337667147836, -12504.57167679926, -6373.063489563881, -10017.336609046055, -12168.244977980254, -12581.618139936703, 0.005, -0.011, 0.989, 192.0, 0.0, 24.0, 127.5, 88.0, 15.0, 120.0, 0.0, 0.0, 0.0, 1.6444991576753473E9, 0.0, 2022-02-11 00:19:17.675
8.0, -9451.837474326787, -11020.080568800042, -10823.340514104428, -17248.707085693728, -2592.042397504139, -1997.8436229042559, -5993.888496624052, -6959.863836749058, -17215.82766959997, -14593.230437425429, -20169.27542320197, -12513.355912370196, -6373.443469219622, -10005.110204829003, -12176.336309473076, -12580.545256202848, 0.005, -0.011, 0.989, 192.0, 0.0, 0.0, 0.0, 0.0, 0.0, 0.0, 0.0, 0.0, 0.0, 1.6444991576753542E9, 0.0, 2022-02-11 00:19:17.675
10.0, -9440.706305588044, -11011.117519273463, -10814.600982022403, -17250.964611883715, -2579.614827586988, -1985.7960326428454, -5991.4521564784245, -6953.13596166801, -17209.50212591912, -14575.416097094549, -20143.88384150074, -12499.743699996914, -6356.612605644776, -9990.961550588794, -12169.004937291735, -12573.504456699427, 0.005, -0.011, 0.989, 192.0, 0.0, 0.0, 0.0, 0.0, 0.0, 0.0, 0.0, 0.0, 0.0, 1.6444991576753614E9, 0.0, 2022-02-11 00:19:17.675
12.0, -9448.797637080865, -11018.851222854999, -10825.553336805504, -17254.809111930026, -2596.1551184839154, -1993.4403292465604, -5986.691234909444, -6956.131095425021, -17211.871410831383, -14575.46080058346, -20152.578670093855, -12497.821449973757, -6365.620358660264, -9991.632102922453, -12165.965100045813, -12577.371308490196, 0.005, -0.011, 0.989, 192.0, 0.0, 0.0, 0.0, 0.0, 0.0, 0.0, 0.0, 0.0, 0.0, 1.644499157675368E9, 0.0, 2022-02-11 00:19:17.675
14.0, -9434.805445051843, -11025.288525258127, -10814.824499466957, -17253.736228196172, -2591.3494934260243, -1985.3042942648285, -5984.545467441734, -6952.823037245636, -17201.276683959568, -14572.309204615261, -20143.21328916708, -12491.250037103897, -6360.501809179999, -9991.743861644729, -12167.820294835603, -12577.460715468016, 0.005, -0.011, 0.989, 192.0, 0.0, 0.0, 0.0, 0.0, 0.0, 0.0, 0.0, 0.0, 0.0, 1.6444991576753747E9, 0.0, 2022-02-11 00:19:17.675
16.0, -9443.030887011397, -11026.473167714259, -10820.166566391776, -17262.252242833645, -2606.70514186682, -1998.0894920932642, -5998.448252492935, -6958.098048937089, -17216.811146356005, -14578.344175618193, -20136.172489663662, -12490.266560347864, -6366.045041804915, -9996.527134958165, -12162.902911055437, -12577.706584657024, 0.005, -0.011, 0.989, 192.0, 0.0, 0.0, 127.5, 112.0, 15.0, 72.0, 0.0, 0.0, 0.0, 1.6444991576753817E9, 0.0, 2022-02-11 00:19:17.675
18.0, -9454.385573194691, -11028.685990415333, -10824.301639116007, -17254.250318318645, -2604.3358569545576, -1998.15654732663, -5995.18489780246, -6958.433325103918, -17212.318445720488, -14586.591969322202, -20153.025704982963, -12505.309284366285, -6372.147068041214, -10010.184050820357, -12167.127390757489, -12577.795991634846, 0.005, -0.011, 0.989, 192.0, 0.0, 0.0, 0.0, 0.0, 0.0, 0.0, 0.0, 0.0, 0.0, 1.6444991576753883E9, 0.0, 2022-02-11 00:19:17.675
20.0, -9449.11056150324, -11034.922127118365, -10818.736054746634, -17252.618640973407, -2597.4962231512336, -1993.1050530797309, -6003.499746739834, -6952.957147712368, -17222.175565025278, -14586.390803622104, -20148.04126596943, -12504.594028543715, -6367.989643572527, -10005.289018784646, -12161.382992432475, -12572.990366576954, 0.005, -0.011, 0.989, 192.0, 0.0, 0.0, 0.0, 0.0, 0.0, 0.0, 0.0, 0.0, 0.0, 1.6444991576753953E9, 0.0, 2022-02-11 00:19:17.675
22.0, -9461.001689553463, -11033.357505006494, -10828.123787417864, -17249.84702466095, -2599.485528407756, -2005.7337886969792, -5986.400662231525, -6954.298252379686, -17221.2144400137, -14581.004033208375, -20156.490225373534, -12498.581409285238, -6363.83221910384, -10009.98288512026, -12164.892216311959, -12574.219712521997, 0.005, -0.011, 0.989, 192.0, 0.0, 0.0, 0.0, 0.0, 0.0, 0.0, 0.0, 0.0, 0.0, 1.644499157675402E9, 0.0, 2022-02-11 00:19:17.675
24.0, -9441.019230010419, -11026.383760736438, -10825.709799016691, -17254.004449129636, -2588.2873044356475, -1992.0098176014208, -5990.289865766748, -6950.029069188723, -17218.420471956786, -14583.17215242054, -20160.021800997474, -12498.447298818506, -6367.788477872429, -10004.774928662173, -12162.813504077614, -12577.304253256829, 0.005, -0.011, 0.989, 192.0, 0.0, 0.0, 0.0, 0.0, 0.0, 0.0, 0.0, 0.0, 0.0, 1.6444991576754086E9, 0.0, 2022-02-11 00:19:17.675
26.0, -9451.502198159957, -11035.838548641033, -10824.793377494023, -17258.2736323206, -2600.1560807414153, -1998.7153409380128, -6002.717435683899, -6962.858970506069, -17219.001617312624, -14585.340271632705, -20142.743902533522, -12492.881714449135, -6359.898312079706, -9991.006254077703, -12161.49475115475, -12576.879570112178, 0.0045000000000000005, -0.0095, 0.9864999999999999, 192.0, 0.0, 16.0, 127.5, 96.0, 15.0, 96.0, 0.0, 0.0, 0.0, 1.6444991576754153E9, 0.0, 2022-02-11 00:19:17.675
28.0, -9453.089172016284, -11034.877423629454, -10823.988714693633, -17249.869376405404, -2603.3300284540687, -1999.8552799052336, -6002.7844909172645, -6964.71416529586, -17217.68286438976, -14601.142954962606, -20156.959612007096, -12510.42783384655, -6368.727251139552, -10003.903210628416, -12171.93301581538, -12579.9194073581, 0.0045000000000000005, -0.0095, 0.9864999999999999, 192.0, 0.0, 0.0, 0.0, 0.0, 0.0, 0.0, 0.0, 0.0, 0.0, 1.644499157675422E9, 0.0, 2022-02-11 00:19:17.675
30.0, -9440.81806431032, -11031.591717194524, -10815.226830867152, -17256.46314101972, -2599.329066196569, -1991.58513445677, -6011.725188699387, -6957.740421025804, -17217.68286438976, -14587.687204800512, -20138.005332708995, -12499.006092429889, -6365.396841215711, -9993.241428523235, -12163.662870366916, -12572.141000287653, 0.0045000000000000005, -0.0095, 0.9864999999999999, 192.0, 0.0, 0.0, 0.0, 0.0, 0.0, 0.0, 0.0, 0.0, 0.0, 1.6444991576754289E9, 0.0, 2022-02-11 00:19:17.675
32.0, -9459.772343608422, -11039.571289965068, -10823.407569337794, -17258.743018954163, -2605.9228308108845, -2002.9174688956107, -5997.397720503535, -6958.366269870552, -17219.828631857472, -14597.812545038767, -20146.387236879735, -12503.074109920753, -6367.363794727778, -9999.544620459632, -12168.982585547279, -12577.594825934748, 0.0045000000000000005, -0.0095, 0.9864999999999999, 192.0, 0.0, 0.0, 0.0, 0.0, 0.0, 0.0, 0.0, 0.0, 0.0, 1.6444991576754355E9, 0.0, 2022-02-11 00:19:17.675
34.0, -9444.975488779008, -11024.41680722437, -10814.04218841102, -17253.69152470726, -2585.716853823287, -1993.194460057552, -5986.847697120631, -6943.502359807773, -17213.54779166553, -14587.284873400316, -20149.784702036945, -12507.298589622807, -6361.529989424943, -10001.511573971698, -12166.076858768089, -12575.404354978127, 0.0045000000000000005, -0.0095, 0.9864999999999999, 192.0, 0.0, 0.0, 0.0, 0.0, 0.0, 0.0, 0.0, 0.0, 0.0, 1.6444991576754425E9, 0.0, 2022-02-11 00:19:17.675
36.0, -9455.078477272806, -11036.822025397067, -10822.960534448688, -17255.837292174972, -2594.6351998609543, -2000.5705357278034, -5993.083833823662, -6954.253548890776, -17220.812108613507, -14590.83880076871, -20143.302696144903, -12491.786478970824, -6357.059640533882, -9998.98582684825, -12154.252785951232, -12576.72310790099, 0.00425, -0.01075, 0.98625, 192.0, 0.0, 16.0, 127.5, 80.0, 15.0, 104.0, 0.0, 0.0, 0.0, 1.6444991576754491E9, 0.0, 2022-02-11 00:19:17.675
38.0, -9458.118314518728, -11032.12815906145, -10820.345380347417, -17253.378600284886, -2596.557449884111, -2000.7493496834459, -5997.420072247991, -6964.423592617941, -17220.83446035796, -14600.673568329046, -20161.161739964693, -12503.387034343128, -6364.6592336486865, -10006.428957751867, -12162.992318033257, -12579.651186424637, 0.00425, -0.01075, 0.98625, 192.0, 0.0, 0.0, 0.0, 0.0, 0.0, 0.0, 0.0, 0.0, 0.0, 1.6444991576754577E9, 0.0, 2022-02-11 00:19:17.675
40.0, -9447.881215558198, -11037.716095175278, -10815.986790178633, -17257.93835615377, -2593.674074849376, -1996.4578147480267, -6003.90207814003, -6953.985327957312, -17218.331064978967, -14589.788268779312, -20140.776949021452, -12491.965292926467, -6357.774896356452, -10005.825460651573, -12160.466570909808, -12577.34895674574, 0.00425, -0.01075, 0.98625, 192.0, 0.0, 0.0, 0.0, 0.0, 0.0, 0.0, 0.0, 0.0, 0.0, 1.6444991576754644E9, 0.0, 2022-02-11 00:19:17.675
42.0, -9458.96768080803, -11033.08928407303, -10825.9556682057, -17255.613774730416, -2607.5992116450325, -2008.0136666314206, -5995.18489780246, -6961.47316234984, -17224.25427725962, -14597.097289216197, -20147.97421073606, -12505.577505299749, -6362.513466180977, -10013.872088655484, -12163.126428499989, -12579.762945146913, 0.00425, -0.01075, 0.98625, 192.0, 0.0, 0.0, 0.0, 0.0, 0.0, 0.0, 0.0, 0.0, 0.0, 1.644499157675471E9, 0.0, 2022-02-11 00:19:17.675
44.0, -9442.986183522486, -11026.741388647722, -10814.46687155567, -17256.1725683418, -2595.4398626613456, -1994.0438263468536, -6009.355903787125, -6963.775392028737, -17213.83836434345, -14590.525876346335, -20143.21328916708, -12493.932246438533, -6355.8526463332955, -9994.873105868472, -12164.646347122949, -12576.544293945348, 0.00425, -0.01075, 0.98625, 192.0, 0.0, 0.0, 0.0, 0.0, 0.0, 0.0, 0.0, 0.0, 0.0, 1.6444991576754777E9, 0.0, 2022-02-11 00:19:17.675
46.0, -9455.145532506172, -11034.51979571817, -10823.027589682055, -17264.1744928568, -2599.686694107854, -2007.097245108753, -6016.597868990644, -6971.978482243834, -17217.347588222932, -14587.284873400316, -20135.948972219107, -12492.14410688211, -6347.649556118197, -10005.177260062368, -12165.898044812448, -12581.10404981423, 0.004125, -0.011375, 0.9881249999999999, 192.0, 0.0, 16.0, 127.5, 80.0, 15.0, 120.0, 0.0, 0.0, 0.0, 1.6444991576754844E9, 0.0, 2022-02-11 00:19:17.675
48.0, -9458.073611029818, -11035.61503119648, -10824.882784471845, -17262.296946322556, -2594.1434614829377, -2000.3470182832502, -5992.346226256636, -6961.741383283304, -17217.68286438976, -14597.678434572033, -20159.574766108366, -12510.316075124274, -6354.6233003882535, -10016.308428801112, -12164.60164363404, -12583.540389959859, 0.004125, -0.011375, 0.9881249999999999, 192.0, 0.0, 0.0, 0.0, 0.0, 0.0, 0.0, 0.0, 0.0, 0.0, 1.6444991576754916E9, 0.0, 2022-02-11 00:19:17.675
50.0, -9442.092113744273, -11031.65877242789, -10814.04218841102, -17266.633184746886, -2584.8898392784404, -1993.5073844799263, -5985.573647686679, -6957.762772770259, -17218.420471956786, -14583.686242543012, -20144.956725234595, -12503.23057213194, -6346.68843110662, -10008.015931608192, -12154.476303395784, -12575.404354978127, 0.004125, -0.011375, 0.9881249999999999, 192.0, 0.0, 0.0, 0.0, 0.0, 0.0, 0.0, 0.0, 0.0, 0.0, 1.6444991576754987E9, 0.0, 2022-02-11 00:19:17.675
52.0, -9461.985166309496, -11039.884214387443, -10830.247203141118, -17265.537949268575, -2600.1784324858704, -2007.454873020038, -5997.867107137097, -6964.423592617941, -17219.314541735, -14593.31984440325, -20152.243393927027, -12505.957484955488, -6352.388125942723, -10018.610658480007, -12158.83489356457, -12581.282863769873, 0.004125, -0.011375, 0.9881249999999999, 192.0, 0.0, 0.0, 0.0, 0.0, 0.0, 0.0, 0.0, 0.0, 0.0, 1.6444991576755056E9, 0.0, 2022-02-11 00:19:17.675
54.0, -9440.236918954482, -11035.637382940935, -10822.401740837306, -17253.378600284886, -2592.2435632042366, -1993.9767711134878, -6001.108110083117, -6955.684060535916, -17216.140594022345, -14595.130335704129, -20150.522309603966, -12508.61734254567, -6352.969271298561, -10014.02855086667, -12163.282890711176, -12577.72893640148, 0.004125, -0.011375, 0.9881249999999999, 192.0, 0.0, 0.0, 0.0, 0.0, 0.0, 0.0, 0.0, 0.0, 0.0, 1.6444991576755123E9, 0.0, 2022-02-11 00:19:17.675
56.0, -9454.653794128155, -11035.503272474203, -10827.922621717766, -17259.32416431, -2599.999618530228, -2005.5773264857921, -6014.541508500756, -6965.541179840706, -17224.12016679289, -14590.727042046434, -20139.189975165125, -12488.254903346886, -6360.97119581356, -10011.100472343025, -12159.796018576148, -12575.471410211494, 0.0060625, -0.0136875, 0.9900625, 192.0, 0.0, 32.0, 127.5, 64.0, 15.5, 0.0, 0.0, 0.0, 0.0, 1.6444991576755192E9, 0.0, 2022-02-11 00:19:17.675
58.0, -9463.750954121466, -11045.449798756814, -10832.012990953088, -17262.386353300375, -2600.424301674879, -2000.615239216714, -6007.433653763968, -6957.0922204366, -17221.862640602903, -14606.999112009897, -20155.819673039874, -12501.487136064427, -6364.9498063266055, -9993.3084837566, -12165.361602945519, -12581.461677725516, 0.0060625, -0.0136875, 0.9900625, 192.0, 0.0, 0.0, 0.0, 0.0, 0.0, 0.0, 0.0, 0.0, 0.0, 1.644499157675526E9, 0.0, 2022-02-11 00:19:17.675
60.0, -9446.361296935236, -11041.247670799217, -10823.251107126607, -17261.64874573335, -2583.884010777952, -1987.6512274326358, -5999.4987844823345, -6954.208845401865, -17217.414643456297, -14595.242094426405, -20142.6544955557, -12499.162554641076, -6352.656346876186, -9998.538791959143, -12161.092419754556, -12574.353822988729, 0.0060625, -0.0136875, 0.9900625, 192.0, 0.0, 0.0, 0.0, 0.0, 0.0, 0.0, 0.0, 0.0, 0.0, 1.6444991576755323E9, 0.0, 2022-02-11 00:19:17.675
62.0, -9470.098849546774, -11037.202005052806, -10836.081008443953, -17261.26876607761, -2597.4515196623233, -1999.7211694385016, -6006.964267130407, -6954.924101224435, -17228.3669982394, -14594.437431626015, -20160.13355971975, -12505.66691227757, -6361.015899302471, -10009.960533375805, -12156.063277252111, -12577.974805590487, 0.0060625, -0.0136875, 0.9900625, 192.0, 0.0, 0.0, 0.0, 0.0, 0.0, 0.0, 0.0, 0.0, 0.0, 1.6444991576755393E9, 0.0, 2022-02-11 00:19:17.675
64.0, -9447.970622536019, -11026.830795625543, -10823.295810615518, -17255.74788519715, -2586.3650544124907, -1989.4617187335157, -5993.374406501581, -6951.303118622675, -17221.817937113992, -14597.65608282758, -20161.251146942515, -12505.689264022025, -6363.809867359384, -10000.282228026656, -12163.014669777713, -12572.92331134359, 0.0060625, -0.0136875, 0.9900625, 192.0, 0.0, 0.0, 0.0, 0.0, 0.0, 0.0, 0.0, 0.0, 0.0, 1.644499157675546E9, 0.0, 2022-02-11 00:19:17.675
66.0, -9455.860788328742, -11032.955173606299, -10828.749636262613, -17257.13369335338, -2594.411682416401, -1998.2012508155408, -6004.125595584584, -6951.772505256236, -17221.147384780335, -14588.335405389716, -20143.570917078367, -12494.37928132764, -6358.7360213680295, -9996.370672746978, -12153.828102806581, -12571.761020631913, 0.00503125, -0.01384375, 0.99303125, 192.0, 0.0, 16.0, 127.5, 72.0, 15.5, 16.0, 0.0, 0.0, 0.0, 1.6444991576755526E9, 0.0, 2022-02-11 00:19:17.675
68.0, -9459.906454075153, -11044.488673745236, -10836.818616010978, -17255.50201600814, -2600.13372899696, -1997.7989194153452, -5998.224735048382, -6952.42070584544, -17222.063806303002, -14603.445184641503, -20157.85368178531, -12500.14603139711, -6365.9556348270935, -10006.898344385427, -12163.88638781147, -12574.577340433281, 0.00503125, -0.01384375, 0.99303125, 192.0, 0.0, 0.0, 0.0, 0.0, 0.0, 0.0, 0.0, 0.0, 0.0, 1.64449915767556E9, 0.0, 2022-02-11 00:19:17.675
70.0, -9447.05420101335, -11033.290449773127, -10829.487243829637, -17261.492283522162, -2590.0307405031613, -1990.9816373564765, -6000.95164787193, -6949.85025523308, -17222.84611735894, -14588.111887945162, -20143.973248478564, -12493.127583638143, -6359.607739401787, -9994.850754124016, -12158.074934253089, -12570.799895620334, 0.00503125, -0.01384375, 0.99303125, 192.0, 0.0, 0.0, 0.0, 0.0, 0.0, 0.0, 0.0, 0.0, 0.0, 1.6444991576755693E9, 0.0, 2022-02-11 00:19:17.675
72.0, -9460.465247686536, -11041.404133010405, -10831.52125257507, -17259.502978265642, -2595.8645458059964, -1997.3965880151497, -6000.99635136084, -6953.672403534938, -17224.656608659818, -14589.855324012677, -20149.315315403383, -12503.76701399887, -6356.232625989035, -9997.55531520311, -12160.175998231889, -12573.8173811218, 0.00503125, -0.01384375, 0.99303125, 192.0, 0.0, 0.0, 0.0, 0.0, 0.0, 0.0, 0.0, 0.0, 0.0, 1.6444991576755764E9, 0.0, 2022-02-11 00:19:17.675
74.0, -9452.44097142708, -11032.172862550362, -10824.94983970521, -17249.824672916493, -2590.231906203259, -1981.5268494518816, -5999.767005415798, -6949.447923832885, -17216.27470448908, -14591.866981013654, -20150.254088670503, -12499.698996508003, -6359.428925446145, -9999.723434415273, -12156.130332485478, -12570.084639797764, 0.00503125, -0.01384375, 0.99303125, 192.0, 0.0, 0.0, 0.0, 0.0, 0.0, 0.0, 0.0, 0.0, 0.0, 1.6444991576755843E9, 0.0, 2022-02-11 00:19:17.675
76.0, -9456.151361006661, -11026.473167714259, -10828.52611881806, -17256.08316136398, -2590.9918655147394, -1984.9466663535436, -5998.917639126496, -6954.0523831906785, -17220.722701635685, -14584.625015810136, -20142.05099845541, -12492.345272582206, -6354.600948643798, -9990.045129066126, -12152.665812094905, -12568.363555474705, 0.00503125, -0.01384375, 0.99303125, 192.0, 0.0, 0.0, 127.5, 72.0, 15.5, 0.0, 0.0, 0.0, 0.0, 1.6444991576755917E9, 0.0, 2022-02-11 00:19:17.675
78.0, -9460.82287559782, -11035.95030736331, -10835.723380532669, -17253.780931685083, -2594.6351998609543, -1993.9767711134878, -5997.174203058983, -6959.774429771237, -17217.861678345405, -14589.095364701196, -20163.75454232151, -12503.923476210055, -6358.937187068127, -9992.637931422942, -12162.277062210687, -12574.465581711005, 0.00503125, -0.01384375, 0.99303125, 192.0, 0.0, 0.0, 0.0, 0.0, 0.0, 0.0, 0.0, 0.0, 0.0, 1.6444991576755989E9, 0.0, 2022-02-11 00:19:17.675
80.0, -9456.7325063625, -11045.494502245725, -10823.742845504625, -17255.680829963785, -2589.874278291974, -1987.6065239437253, -6006.561935730211, -6954.499418079784, -17224.991884826646, -14594.169210692551, -20148.309486902894, -12487.606702757681, -6356.54555041141, -10000.304579771111, -12159.348983687041, -12573.482104954972, 0.00503125, -0.01384375, 0.99303125, 192.0, 0.0, 0.0, 0.0, 0.0, 0.0, 0.0, 0.0, 0.0, 0.0, 1.6444991576756055E9, 0.0, 2022-02-11 00:19:17.675
82.0, -9471.059974558351, -11057.296223318128, -10837.153892177808, -17257.312507309023, -2597.8091475736082, -1991.3169135233063, -6005.824328163187, -6944.642298774994, -17226.80237612753, -14605.099213731197, -20151.12580670426, -12496.413290073073, -6362.6699283921635, -10000.84102163804, -12159.818370320603, -12576.20901777852, 0.00503125, -0.01384375, 0.99303125, 192.0, 0.0, 0.0, 0.0, 0.0, 0.0, 0.0, 0.0, 0.0, 0.0, 1.6444991576756124E9, 0.0, 2022-02-11 00:19:17.675
84.0, -9461.739297120488, -11046.276813301662, -10821.462967570182, -17253.915042151813, -2588.7343393247534, -1976.967093582999, -5993.039130334751, -6938.450865560873, -17221.59441966944, -14600.718271817956, -20151.930469504652, -12502.939999454022, -6356.165570755669, -9996.661245424897, -12161.807675577125, -12573.213884021508, 0.00503125, -0.01384375, 0.99303125, 192.0, 0.0, 0.0, 0.0, 0.0, 0.0, 0.0, 0.0, 0.0, 0.0, 1.6444991576756196E9, 0.0, 2022-02-11 00:19:17.675
86.0, -9476.379689738715, -11064.649947243923, -10828.86139498489, -17259.83825443247, -2596.3115806951023, -1982.5997331857366, -6014.787377689765, -6947.168045898444, -17228.299943006034, -14590.905856002077, -20140.03934145443, -12495.295702850308, -6356.076163777848, -9993.084966312048, -12159.818370320603, -12574.644395666648, -0.002, -0.012, 0.984, 192.0, 127.5, 120.0, 127.5, 80.0, 15.0, 96.0, 0.0, 0.0, 0.0, 1.6444991576756265E9, 0.0, 2022-02-11 00:19:17.675
88.0, -9504.297018563393, -11082.732508508267, -10835.455159599205, -17257.98305964268, -2593.5623161270996, -1981.2809802628733, -5992.189764045449, -6937.400333571474, -17233.35143725293, -14607.759071321378, -20165.90030978922, -12511.299551880307, -6362.915797581172, -9998.963475103794, -12163.1711319889, -12577.617177679203, -0.002, -0.012, 0.984, 192.0, 0.0, 0.0, 0.0, 0.0, 0.0, 0.0, 0.0, 0.0, 0.0, 1.6444991576756332E9, 0.0, 2022-02-11 00:19:17.675
90.0, -9522.916021694664, -11110.761596055221, -10830.515424074581, -17263.347478311953, -2587.884973035452, -1976.8553348607225, -6013.71449395591, -6949.045592432689, -17243.677943191284, -14606.507373631881, -20165.341516177836, -12507.700921023003, -6358.646614390209, -9990.201591277313, -12159.393687175952, -12573.213884021508, -0.002, -0.012, 0.984, 192.0, 0.0, 0.0, 0.0, 0.0, 0.0, 0.0, 0.0, 0.0, 0.0, 1.6444991576756399E9, 0.0, 2022-02-11 00:19:17.675
92.0, -9578.370699688281, -11159.846026879077, -10845.401685881816, -17269.31539408152, -2595.2386969612476, -1989.2605530334179, -5989.70872041091, -6947.525673809729, -17266.83435044698, -14635.408179212593, -20184.3628507093, -12531.661991079092, -6368.391974972722, -10003.947914117327, -12166.859169824025, -12581.618139936703, -0.002, -0.012, 0.984, 192.0, 0.0, 0.0, 0.0, 0.0, 0.0, 0.0, 0.0, 0.0, 0.0, 1.6444991576756463E9, 0.0, 2022-02-11 00:19:17.675
94.0, -9600.722444143586, -11193.150126117484, -10836.013953210588, -17269.717725481718, -2579.078385720061, -1973.1225935366863, -5980.432746461957, -6935.701600992871, -17270.65649874884, -14647.925156107565, -20193.99645256954, -12547.95641278701, -6367.49790519451, -10006.540716474143, -12162.567634888606, -12576.164314289608, -0.002, -0.012, 0.984, 192.0, 0.0, 0.0, 0.0, 0.0, 0.0, 0.0, 0.0, 0.0, 0.0, 1.6444991576756535E9, 0.0, 2022-02-11 00:19:17.675
96.0, -9635.658220727233, -11220.84393749761, -10842.942993991732, -17274.188074372778, -2582.1629264548933, -1972.4743929474823, -5986.691234909444, -6929.487816034296, -17288.381432101898, -14652.149635809617, -20193.4153072137, -12551.420933177584, -6361.194713258114, -9998.561143703597, -12157.918472041902, -12573.280939254873, 0.002, -0.012, 0.99, 192.0, 0.0, 8.0, 127.5, 80.0, 15.0, 120.0, 0.0, 0.0, 0.0, 1.6444991576756601E9, 0.0, 2022-02-11 00:19:17.675
98.0, -9669.319947876924, -11240.692286573922, -10844.328802147962, -17271.17058887131, -2582.9899409997392, -1968.9428173235437, -5983.919618596986, -6927.99024915579, -17296.85274325046, -14660.263319046893, -20221.80202267194, -12565.770753117891, -6372.772916885962, -9999.321103015078, -12158.41021041992, -12572.58803517676, 0.002, -0.012, 0.99, 192.0, 0.0, 0.0, 0.0, 0.0, 0.0, 0.0, 0.0, 0.0, 0.0, 1.6444991576756668E9, 0.0, 2022-02-11 00:19:17.675
100.0, -9666.503628075556, -11248.850673300109, -10840.283136401551, -17271.84114120497, -2566.002615213706, -1960.0915265192423, -5978.666958649988, -6922.804644442159, -17301.680720052806, -14655.18947305554, -20213.017787101006, -12551.86796806669, -6365.754469126996, -9993.93433260135, -12151.324707427586, -12566.15073277363, 0.002, -0.012, 0.99, 192.0, 0.0, 0.0, 0.0, 0.0, 0.0, 0.0, 0.0, 0.0, 0.0, 1.6444991576756735E9, 0.0, 2022-02-11 00:19:17.675
102.0, -9681.456945116157, -11272.588225911644, -10852.308374918506, -17274.90333019535, -2582.967589255284, -1980.1857447845632, -5991.206287289416, -6949.939662210902, -17305.972254988224, -14659.749228924422, -20225.6241709738, -12561.680383882569, -6364.078088292848, -10007.926524630371, -12153.537530128662, -12575.627872422681, 0.002, -0.012, 0.99, 192.0, 0.0, 0.0, 0.0, 0.0, 0.0, 0.0, 0.0, 0.0, 0.0, 1.644499157675682E9, 0.0, 2022-02-11 00:19:17.675
104.0, -9663.039107684983, -11262.440533928935, -10841.758351535602, -17271.930548182794, -2577.2231909302704, -1980.2975035068398, -6002.248049050338, -6948.553854054672, -17295.735156027695, -14661.80558941431, -20223.43370001718, -12576.745459645446, -6372.124716296758, -10016.755463690217, -12163.97579478929, -12582.288692270362, 0.002, -0.012, 0.99, 192.0, 0.0, 0.0, 0.0, 0.0, 0.0, 0.0, 0.0, 0.0, 0.0, 1.6444991576756887E9, 0.0, 2022-02-11 00:19:17.675
106.0, -9667.755325765052, -11258.081943760151, -10848.665040572292, -17277.09380115197, -2581.2465049322254, -1981.39273898515, -5997.218906547893, -6940.149598139477, -17296.80803976155, -14662.029106858863, -20203.42888872968, -12558.72995361447, -6368.548437183909, -10020.398798036433, -12159.997184276246, -12585.149715560641, 0.002, -0.008, 0.988, 192.0, 0.0, 8.0, 127.5, 96.0, 15.0, 112.0, 0.0, 0.0, 0.0, 1.6444991576756957E9, 0.0, 2022-02-11 00:19:17.675
108.0, -9645.135360376282, -11216.977085706842, -10846.586328337948, -17264.12978936789, -2581.8500020325187, -1974.709567393013, -6000.169336815994, -6938.316755094142, -17296.450411850263, -14668.019374372885, -20217.935170881174, -12563.15559901662, -6377.377376243756, -10008.395911263933, -12163.97579478929, -12578.95828234652, 0.002, -0.008, 0.988, 192.0, 0.0, 0.0, 0.0, 0.0, 0.0, 0.0, 0.0, 0.0, 0.0, 1.6444991576757028E9, 0.0, 2022-02-11 00:19:17.675
110.0, -9616.167499562205, -11205.465937312358, -10835.164586921286, -17263.302774823045, -2577.2231909302704, -1968.2052097565188, -6007.590115975156, -6934.740475981293, -17283.46404832173, -14646.785217140345, -20193.99645256954, -12538.948659771522, -6371.163591285181, -9999.030530337159, -12161.047716265646, -12573.01271832141, 0.002, -0.008, 0.988, 192.0, 0.0, 0.0, 0.0, 0.0, 0.0, 0.0, 0.0, 0.0, 0.0, 1.6444991576757095E9, 0.0, 2022-02-11 00:19:17.675
112.0, -9614.222897794592, -11194.334768573615, -10843.94882249222, -17262.073428878, -2582.095871221527, -1987.3159512658062, -5987.719415154388, -6945.670479019938, -17280.60302503145, -14653.870720132676, -20192.789458368952, -12546.704715097514, -6368.794306372918, -10010.005236864716, -12162.1205999995, -12577.281901512373, 0.002, -0.008, 0.988, 192.0, 0.0, 0.0, 0.0, 0.0, 0.0, 0.0, 0.0, 0.0, 0.0, 1.6444991576757164E9, 0.0, 2022-02-11 00:19:17.675
114.0, -9591.37941496127, -11177.749774187778, -10837.958554978199, -17263.19101610077, -2573.3786908839575, -1979.8057651288232, -5993.910848368508, -6939.881377206013, -17262.721629467207, -14644.37122873917, -20194.62230141429, -12546.592956375236, -6364.323957481856, -10013.98384737776, -12161.69591685485, -12580.880532369678, 0.002, -0.008, 0.988, 192.0, 0.0, 0.0, 0.0, 0.0, 0.0, 0.0, 0.0, 0.0, 0.0, 1.644499157675723E9, 0.0, 2022-02-11 00:19:17.675
116.0, -9589.591275404844, -11175.849875909076, -10841.065447457488, -17270.56709177102, -2576.262065918692, -1985.1478320536414, -5992.860316379109, -6944.284670863709, -17272.668155749816, -14624.99226629642, -20181.121847763283, -12539.462749893994, -6368.637844161731, -10000.148117559924, -12158.611376120018, -12581.707546914524, 0.006, -0.008, 0.99, 192.0, 0.0, 24.0, 127.5, 96.0, 15.0, 120.0, 0.0, 0.0, 0.0, 1.6444991576757298E9, 0.0, 2022-02-11 00:19:17.675
118.0, -9576.716670598587, -11151.821750619622, -10841.959517235699, -17263.1239608674, -2581.7605950546977, -1989.3723117556945, -5986.959455842907, -6946.676307520427, -17263.79451320106, -14641.42079847107, -20195.00228107003, -12554.930157057066, -6371.968254085571, -10006.02662635167, -12163.819332578103, -12583.607445193225, 0.006, -0.008, 0.99, 192.0, 0.0, 0.0, 0.0, 0.0, 0.0, 0.0, 0.0, 0.0, 0.0, 1.644499157675737E9, 0.0, 2022-02-11 00:19:17.675
120.0, -9555.035478476939, -11155.174512287917, -10835.231642154651, -17265.716763224216, -2571.903475749907, -1967.8028783563232, -5990.826307633675, -6941.602461529072, -17255.79258868606, -14625.640466885623, -20176.09270526084, -12538.792197560335, -6366.626187160753, -9997.018873336181, -12156.130332485478, -12574.689099155557, 0.006, -0.008, 0.99, 192.0, 0.0, 0.0, 0.0, 0.0, 0.0, 0.0, 0.0, 0.0, 0.0, 1.6444991576757436E9, 0.0, 2022-02-11 00:19:17.675
122.0, -9553.113228453783, -11134.409741688936, -10837.824444511467, -17260.307641066032, -2584.353397411513, -1986.1983640430408, -5999.476432737879, -6941.893034206991, -17256.619603230905, -14627.249792486406, -20179.356059951315, -12532.9583922575, -6370.917722096172, -10001.64568443843, -12158.41021041992, -12576.946625345545, 0.006, -0.008, 0.99, 192.0, 0.0, 0.0, 0.0, 0.0, 0.0, 0.0, 0.0, 0.0, 0.0, 1.6444991581556685E9, 0.0, 2022-02-11 00:19:18.155
124.0, -9529.68860026462, -11121.468081649315, -10828.19084265123, -17252.12690259539, -2577.8266880305637, -1971.2003435135298, -5985.975979086874, -6937.0874091491, -17240.347533267442, -14618.152632493095, -20174.03634477095, -12526.275220665362, -6362.714631881075, -10001.355111760511, -12166.009803534724, -12574.264416010907, 0.006, -0.008, 0.99, 192.0, 0.0, 0.0, 0.0, 0.0, 0.0, 0.0, 0.0, 0.0, 0.0, 1.6444991581556787E9, 0.0, 2022-02-11 00:19:18.155
126.0, -9529.465082820068, -11125.692561351367, -10829.129615918353, -17259.055943376534, -2579.659531075899, -1981.9962360854431, -5993.106185568116, -6945.6034237865715, -17241.018085601103, -14611.491812645414, -20156.37846665126, -12515.52403158236, -6357.1490475117025, -9995.566009946586, -12160.801847076636, -12576.700756156535, 0.006, -0.008, 0.988, 192.0, 0.0, 24.0, 127.5, 96.0, 15.0, 112.0, 0.0, 0.0, 0.0, 1.644499158155686E9, 0.0, 2022-02-11 00:19:18.155
128.0, -9523.005428672484, -11104.860735519022, -10830.649534541313, -17252.149254339845, -2581.93940901034, -1979.1799162840746, -6000.973999616385, -6945.066981919645, -17238.60409719993, -14616.699769103501, -20170.23654821355, -12528.331581155251, -6370.0013005735045, -9994.135498301446, -12163.662870366916, -12583.339224259762, 0.006, -0.008, 0.988, 192.0, 0.0, 0.0, 0.0, 0.0, 0.0, 0.0, 0.0, 0.0, 0.0, 1.644499158155693E9, 0.0, 2022-02-11 00:19:18.155
130.0, -9494.931637636619, -11092.611979557512, -10821.798243737012, -17247.79066417106, -2570.27179840467, -1969.9933493129433, -5992.770909401287, -6938.584976027606, -17227.875259861383, -14598.103117716684, -20154.70208581711, -12511.008979202388, -6365.9556348270935, -9996.460079724799, -12152.397591161442, -12572.096296798742, 0.006, -0.008, 0.988, 192.0, 0.0, 0.0, 0.0, 0.0, 0.0, 0.0, 0.0, 0.0, 0.0, 1.6444991581557002E9, 0.0, 2022-02-11 00:19:18.155
132.0, -9501.301884806382, -11078.105697406017, -10831.700066530713, -17246.851890903938, -2580.352435154013, -1983.3373407527615, -6001.912772883507, -6943.636470274505, -17228.903440106325, -14595.845591526699, -20154.724437561566, -12510.316075124274, -6362.558169669887, -10002.78562340565, -12156.040925507657, -12577.125439301186, 0.006, -0.008, 0.988, 192.0, 0.0, 0.0, 0.0, 0.0, 0.0, 0.0, 0.0, 0.0, 0.0, 1.6444991581557071E9, 0.0, 2022-02-11 00:19:18.155
134.0, -9488.471983489035, -11078.485677061759, -10820.814766980979, -17247.36598102641, -2572.3952141279237, -1971.6920818915466, -5986.937104098452, -6944.239967374799, -17219.046320801535, -14590.101193201685, -20156.42317014017, -12510.0031507019, -6361.8429138473175, -10000.081062326559, -12162.299413955143, -12576.410183478616, 0.006, -0.008, 0.988, 192.0, 0.0, 0.0, 0.0, 0.0, 0.0, 0.0, 0.0, 0.0, 0.0, 1.644499158155722E9, 0.0, 2022-02-11 00:19:18.155
136.0, -9485.700367176578, -11086.778174254678, -10823.765197249078, -17250.495225250153, -2578.1843159418486, -1974.6648639041025, -5998.47060423739, -6943.904691207968, -17230.08808256246, -14597.924303761043, -20147.437768869135, -12502.71648200947, -6364.547474926409, -9989.64279766593, -12155.951518529835, -12576.074907311788, 0.004, -0.012, 0.988, 192.0, 0.0, 16.0, 127.5, 80.0, 15.0, 112.0, 0.0, 0.0, 0.0, 1.6444991581557288E9, 0.0, 2022-02-11 00:19:18.155
138.0, -9482.21349504155, -11065.544017022135, -10827.944973462221, -17243.253260046633, -2580.6653595763873, -1973.8825528481666, -6013.513328255812, -6943.0776766631225, -17214.732434121663, -14596.493792115903, -20153.629202083255, -12506.650389033603, -6362.580521414343, -9986.111222041991, -12166.143914001455, -12577.371308490196, 0.004, -0.012, 0.988, 192.0, 0.0, 0.0, 0.0, 0.0, 0.0, 0.0, 0.0, 0.0, 0.0, 1.6444991581557355E9, 0.0, 2022-02-11 00:19:18.155
140.0, -9469.808276868855, -11058.033830885153, -10822.647610026313, -17245.533137981074, -2568.8859902484405, -1974.351939481728, -5997.643589692544, -6948.397391843485, -17217.07936728947, -14584.312091387761, -20141.916887988675, -12495.80979297278, -6365.419192960167, -9982.110259784491, -12156.867940052503, -12574.420878222094, 0.004, -0.012, 0.988, 192.0, 0.0, 0.0, 0.0, 0.0, 0.0, 0.0, 0.0, 0.0, 0.0, 1.644499158155743E9, 0.0, 2022-02-11 00:19:18.155
142.0, -9481.967625852541, -11065.678127488867, -10834.471682843172, -17242.627411201884, -2584.9568945118067, -1985.3489977537392, -5996.928333869974, -6945.625775531027, -17220.700349891227, -14581.719289030945, -20146.78956827993, -12498.603761029693, -6366.313262738378, -9993.464945967788, -12158.723134842294, -12577.125439301186, 0.004, -0.012, 0.988, 192.0, 0.0, 0.0, 0.0, 0.0, 0.0, 0.0, 0.0, 0.0, 0.0, 1.64449915815575E9, 0.0, 2022-02-11 00:19:18.155
144.0, -9465.181465766605, -11049.450761014314, -10818.624296024358, -17238.55939371102, -2576.753804296709, -1974.9330848375662, -6010.920525898997, -6951.7054500228705, -17214.531268421564, -14591.97873973593, -20147.884803758243, -12500.637769775125, -6362.334652225334, -9997.756480903206, -12165.495713412252, -12577.77363989039, 0.003, -0.011, 0.985, 192.0, 0.0, 8.0, 127.5, 88.0, 15.0, 88.0, 0.0, 0.0, 0.0, 1.6444991581557572E9, 0.0, 2022-02-11 00:19:18.155
146.0, -9462.007518053952, -11048.936670891842, -10821.7535402481, -17246.203690314735, -2578.787813042142, -1984.7678523979012, -6011.769892188298, -6969.229217675832, -17218.80045161253, -14579.8417424967, -20132.015065194973, -12491.80883071528, -6361.999376058505, -9991.922675600372, -12161.181826732378, -12582.109878314719, 0.003, -0.011, 0.985, 192.0, 0.0, 0.0, 0.0, 0.0, 0.0, 0.0, 0.0, 0.0, 0.0, 1.6444991581557653E9, 0.0, 2022-02-11 00:19:18.155
148.0, -9463.058050043352, -11053.451723271815, -10824.502804816104, -17246.673076948297, -2581.4029671434128, -1983.96318959751, -6006.830156663676, -6962.300176894686, -17207.378710195866, -14589.296530401294, -20145.873146757265, -12495.921551695055, -6361.664099891675, -9983.138440029436, -12167.216797735311, -12589.173029562597, 0.003, -0.011, 0.985, 192.0, 0.0, 0.0, 0.0, 0.0, 0.0, 0.0, 0.0, 0.0, 0.0, 1.644499158155772E9, 0.0, 2022-02-11 00:19:18.155
150.0, -9446.6295178687, -11043.415790011382, -10814.645685511314, -17247.611850215417, -2575.0550717181054, -1974.6425121596471, -6016.821386435197, -6957.2263309033315, -17204.204762483212, -14575.013765694353, -20128.59524829331, -12490.624188259148, -6355.204445744092, -9980.098602783513, -12165.093382012055, -12584.859142882722, 0.003, -0.011, 0.985, 192.0, 0.0, 0.0, 0.0, 0.0, 0.0, 0.0, 0.0, 0.0, 0.0, 1.644499158155779E9, 0.0, 2022-02-11 00:19:18.155
152.0, -9462.052221542863, -11040.800635910111, -10831.923583975266, -17241.532175723576, -2586.4097579014015, -1981.1021663072308, -6012.060464866217, -6965.027089718234, -17212.296093976034, -14590.615283324158, -20137.200669908605, -12490.646540003603, -6362.893445836717, -9991.83326862255, -12162.50057965524, -12588.055442339832, 0.003, -0.011, 0.985, 192.0, 0.0, 0.0, 0.0, 0.0, 0.0, 0.0, 0.0, 0.0, 0.0, 1.6444991581557856E9, 0.0, 2022-02-11 00:19:18.155
154.0, -9444.640212612177, -11028.32836250405, -10817.462005312682, -17236.346571009944, -2577.2455426747256, -1971.0215295578873, -6007.299543297237, -6961.026127460734, -17204.11535550539, -14584.200332665485, -20142.22981241105, -12491.227685359441, -6361.664099891675, -9992.906152356405, -12166.83681807957, -12583.026299837387, 0.0025, -0.0115, 0.9855, 192.0, 0.0, 8.0, 127.5, 80.0, 15.0, 104.0, 0.0, 0.0, 0.0, 1.6444991581557925E9, 0.0, 2022-02-11 00:19:18.155
156.0, -9450.116390003728, -11039.28071728715, -10821.708836759191, -17243.320315279998, -2580.1959729428263, -1971.6697301470913, -6009.691179953955, -6960.400278615985, -17209.83740208595, -14578.388879107104, -20131.210402394583, -12481.549380010294, -6363.675756892652, -9984.658358652398, -12160.444219165352, -12580.969939347498, 0.0025, -0.0115, 0.9855, 192.0, 0.0, 0.0, 0.0, 0.0, 0.0, 0.0, 0.0, 0.0, 0.0, 1.644499158155799E9, 0.0, 2022-02-11 00:19:18.155
158.0, -9451.658660371144, -11034.631554440446, -10826.067426927975, -17240.615754200906, -2585.6945020788316, -1965.5453521663371, -6004.4832234958685, -6952.867740734547, -17204.897666561326, -14586.03317571082, -20142.140405433227, -12495.385109828128, -6364.100440037303, -9984.54659993012, -12165.451009923341, -12578.555950946326, 0.0025, -0.0115, 0.9855, 192.0, 0.0, 0.0, 0.0, 0.0, 0.0, 0.0, 0.0, 0.0, 0.0, 1.6444991581558058E9, 0.0, 2022-02-11 00:19:18.155
160.0, -9436.213604952527, -11027.546051448113, -10817.66317101278, -17248.595326971452, -2579.8383450315414, -1960.5609131528038, -6015.122653856594, -6954.56647331315, -17205.858791572904, -14560.485131798403, -20133.892611729218, -12488.724289980448, -6362.44641094761, -9975.382384703444, -12164.176960489389, -12576.432535223072, 0.0025, -0.0115, 0.9855, 192.0, 0.0, 0.0, 0.0, 0.0, 0.0, 0.0, 0.0, 0.0, 0.0, 1.6444991581558125E9, 0.0, 2022-02-11 00:19:18.155
162.0, -9452.373916193714, -11038.453702742303, -10826.112130416886, -17246.49426299265, -2589.829574803063, -1966.7523463669238, -5993.843793135142, -6947.503322065273, -17208.78687009655, -14571.16926564804, -20137.424187353157, -12500.347197097206, -6363.921626081661, -9980.657396394898, -12163.908739555925, -12580.791125391857, 0.0025, -0.0115, 0.9855, 192.0, 0.0, 0.0, 0.0, 0.0, 0.0, 0.0, 0.0, 0.0, 0.0, 1.6444991581558192E9, 0.0, 2022-02-11 00:19:18.155
164.0, -9440.460436399037, -11041.202967310306, -10815.271534356063, -17239.676980933786, -2576.3738246409685, -1962.907846320611, -5993.307351268215, -6958.790953015203, -17199.175619980768, -14591.688167058011, -20140.329914132348, -12493.306397593786, -6356.143219011214, -9987.54173368713, -12160.332460443076, -12580.545256202848, 0.0032500000000000003, -0.012750000000000001, 0.98775, 192.0, 0.0, 16.0, 127.5, 72.0, 15.0, 120.0, 0.0, 0.0, 0.0, 1.6444991581558263E9, 0.0, 2022-02-11 00:19:18.155
166.0, -9436.459474141535, -11029.937688104832, -10816.567935534471, -17244.974344369693, -2580.3747868984688, -1965.7241661219796, -6004.349113029136, -6954.857045991069, -17202.48367816015, -14578.74650701839, -20122.09089065682, -12476.497885763394, -6354.891521321717, -9979.137477771936, -12154.386896417964, -12580.567607947303, 0.0032500000000000003, -0.012750000000000001, 0.98775, 192.0, 0.0, 0.0, 0.0, 0.0, 0.0, 0.0, 0.0, 0.0, 0.0, 1.6444991581558352E9, 0.0, 2022-02-11 00:19:18.155
168.0, -9443.701439345055, -11027.389589236927, -10819.741883247123, -17241.040437345557, -2583.235810188748, -1967.422898700583, -5999.096453082139, -6948.352688354575, -17202.215457226688, -14574.656137783068, -20141.4027978662, -12492.993473171411, -6360.367698713267, -9984.188972018836, -12166.83681807957, -12582.44515448155, 0.0032500000000000003, -0.012750000000000001, 0.98775, 192.0, 0.0, 0.0, 0.0, 0.0, 0.0, 0.0, 0.0, 0.0, 0.0, 1.644499158155842E9, 0.0, 2022-02-11 00:19:18.155
170.0, -9435.498349129957, -11028.551879948602, -10815.785624478534, -17246.56131822602, -2574.7197955512756, -1963.5336951653596, -6002.42686300598, -6949.13499941051, -17203.578913638463, -14577.986547706909, -20133.914963473675, -12489.975987669945, -6357.886655078728, -9978.511628927186, -12156.577367374584, -12576.343128245251, 0.0032500000000000003, -0.012750000000000001, 0.98775, 192.0, 0.0, 0.0, 0.0, 0.0, 0.0, 0.0, 0.0, 0.0, 0.0, 1.6444991581558487E9, 0.0, 2022-02-11 00:19:18.155
172.0, -9455.01142203944, -11037.760798664189, -10827.721456017669, -17250.85285316144, -2585.8286125455634, -1975.4248232155828, -6003.2538775508265, -6964.334185640119, -17215.69355913324, -14576.220759894939, -20145.381408379246, -12503.275275620852, -6362.759335369985, -9996.527134958165, -12162.321765699598, -12582.713375415013, 0.0032500000000000003, -0.012750000000000001, 0.98775, 192.0, 0.0, 0.0, 0.0, 0.0, 0.0, 0.0, 0.0, 0.0, 0.0, 1.6444991581558554E9, 0.0, 2022-02-11 00:19:18.155
174.0, -9442.226224211005, -11039.683048687346, -10817.037322168031, -17241.4204170013, -2578.8995717644184, -1959.6668433745915, -5999.007046104318, -6952.487761078806, -17203.78007933856, -14586.569617577747, -20144.68850430113, -12502.627075031647, -6358.02076554546, -9986.245332508723, -12165.339251201065, -12581.148753303141, 0.003625, -0.012375, 0.988875, 192.0, 0.0, 16.0, 127.5, 80.0, 15.0, 120.0, 0.0, 0.0, 0.0, 1.6444991581558638E9, 0.0, 2022-02-11 00:19:18.155
176.0, -9436.146549719162, -11035.927955618854, -10822.312333859485, -17248.774140927093, -2567.455478603301, -1957.744593351435, -6007.813633419709, -6950.833731989113, -17205.702329361717, -14578.522989573836, -20126.31537035887, -12488.366662069162, -6356.791419600418, -9978.288111482634, -12165.003975034235, -12575.180837533575, 0.003625, -0.012375, 0.988875, 192.0, 0.0, 0.0, 0.0, 0.0, 0.0, 0.0, 0.0, 0.0, 0.0, 1.6444991581558707E9, 0.0, 2022-02-11 00:19:18.155
178.0, -9443.813198067332, -11030.56353694958, -10815.942086689722, -17249.735265938674, -2585.359225912002, -1962.8184393427898, -6011.85929916612, -6955.773467513736, -17201.343739192933, -14573.918530216042, -20141.089873443827, -12498.46965056296, -6347.716611351563, -9966.709907854785, -12168.915530313914, -12580.567607947303, 0.003625, -0.012375, 0.988875, 192.0, 0.0, 0.0, 0.0, 0.0, 0.0, 0.0, 0.0, 0.0, 0.0, 1.6444991581558776E9, 0.0, 2022-02-11 00:19:18.155
180.0, -9433.129064217695, -11025.84731886951, -10809.773005220057, -17247.99182987116, -2569.6012460710103, -1964.4724684324824, -6012.127520099583, -6957.80747625917, -17206.03760552855, -14562.139160888097, -20133.22205939556, -12488.657234747081, -6350.801152086396, -9982.043204551126, -12165.361602945519, -12579.58413119127, 0.003625, -0.012375, 0.988875, 192.0, 0.0, 0.0, 0.0, 0.0, 0.0, 0.0, 0.0, 0.0, 0.0, 1.6444991581558845E9, 0.0, 2022-02-11 00:19:18.155
182.0, -9453.759724349944, -11035.860900385487, -10823.47462457116, -17250.60698397243, -2589.494298636234, -1980.5657244403035, -6007.545412486245, -6962.791915272703, -17209.569181152485, -14579.774687263332, -20138.407664109192, -12504.594028543715, -6351.225835231046, -9992.704986656307, -12160.757143587727, -12588.457773740027, 0.003625, -0.012375, 0.988875, 192.0, 0.0, 0.0, 0.0, 0.0, 0.0, 0.0, 0.0, 0.0, 0.0, 1.6444991581558917E9, 0.0, 2022-02-11 00:19:18.155
184.0, -9437.82293055331, -11032.061103828086, -10815.316237844972, -17240.41458850081, -2578.4748886197676, -1965.5900556552479, -6003.633857206566, -6956.779296014225, -17202.707195604708, -14589.162419934562, -20147.817748524874, -12503.789365743323, -6355.629128888742, -9988.212286020791, -12168.021460535701, -12582.646320181648, 0.0068125, -0.0121875, 0.9894375, 192.0, 0.0, 40.0, 127.5, 80.0, 15.0, 120.0, 0.0, 0.0, 0.0, 1.6444991581558983E9, 0.0, 2022-02-11 00:19:18.155
186.0, -9434.559575862835, -11028.574231693057, -10813.818670966468, -17236.771254154595, -2578.6984060643204, -1962.9525498095215, -6019.928278914485, -6959.260339648765, -17202.0589950155, -14574.298509871784, -20124.46017556908, -12481.817600943757, -6347.157817740181, -9975.337681214534, -12162.1205999995, -12575.270244511396, 0.0068125, -0.0121875, 0.9894375, 192.0, 0.0, 0.0, 0.0, 0.0, 0.0, 0.0, 0.0, 0.0, 0.0, 1.6444991581559052E9, 0.0, 2022-02-11 00:19:18.155
188.0, -9441.622727110711, -11025.333228747038, -10822.04411292602, -17244.124978080392, -2580.017158987184, -1965.3665382106947, -5998.515307726301, -6962.166066427954, -17200.226151970168, -14578.7912105073, -20139.882879243243, -12492.121755137654, -6352.477532920544, -9975.091812025525, -12166.88152156848, -12578.175971290586, 0.0068125, -0.0121875, 0.9894375, 192.0, 0.0, 0.0, 0.0, 0.0, 0.0, 0.0, 0.0, 0.0, 0.0, 1.6444991581559124E9, 0.0, 2022-02-11 00:19:18.155
190.0, -9427.6752385706, -11028.887156115432, -10801.256990582586, -17249.735265938674, -2570.361205382491, -1965.254779488418, -5991.250990778326, -6953.068906434644, -17197.45453565771, -14565.335460345204, -20125.443652325113, -12494.558095283282, -6337.568919368854, -9974.577721903053, -12150.229471949277, -12571.023413064888, 0.0068125, -0.0121875, 0.9894375, 192.0, 0.0, 0.0, 0.0, 0.0, 0.0, 0.0, 0.0, 0.0, 0.0, 1.6444991581559193E9, 0.0, 2022-02-11 00:19:18.155
192.0, -9450.429314426103, -11034.028057340152, -10823.139348404331, -17255.92669915279, -2592.1765079708707, -1981.7280151519794, -5992.346226256636, -6946.3633830980525, -17209.993864297136, -14569.06820166924, -20136.731283275043, -12501.777708742346, -6347.135465995725, -10000.684559426853, -12153.69399233985, -12576.477238711983, 0.0068125, -0.0121875, 0.9894375, 192.0, 0.0, 0.0, 0.0, 0.0, 0.0, 0.0, 0.0, 0.0, 0.0, 1.644499158155926E9, 0.0, 2022-02-11 00:19:18.155
194.0, -9433.44198864007, -11034.050409084608, -10817.99844717961, -17259.07829512099, -2585.515688123189, -1968.4957824344376, -5987.272380265282, -6946.989231942801, -17204.92001830578, -14584.26738789885, -20145.247297912516, -12514.987589715432, -6349.638861374719, -9987.094698798026, -12164.646347122949, -12578.77946839088, 0.0064062500000000005, -0.01209375, 0.98971875, 192.0, 0.0, 24.0, 127.5, 80.0, 15.0, 120.0, 0.0, 0.0, 0.0, 1.644499158155933E9, 0.0, 2022-02-11 00:19:18.155
196.0, -9439.76753232092, -11037.202005052806, -10823.18405189324, -17258.65361197634, -2591.5953626150326, -1974.3072359928176, -6007.724226441887, -6958.94741522639, -17208.183372996256, -14574.387916849604, -20134.294943129415, -12502.112984909176, -6349.236529974524, -9982.266721995678, -12153.872806295492, -12576.276073011884, 0.0064062500000000005, -0.01209375, 0.98971875, 192.0, 0.0, 0.0, 0.0, 0.0, 0.0, 0.0, 0.0, 0.0, 0.0, 1.6444991581559398E9, 0.0, 2022-02-11 00:19:18.155
198.0, -9448.44000916958, -11034.139816062429, -10826.08977867243, -17251.03166711708, -2592.757653326709, -1983.5385064528593, -6010.026456120784, -6965.362365885064, -17205.747032850628, -14592.492829858404, -20148.734170047544, -12504.57167679926, -6357.529027167443, -9993.956684345805, -12165.562768645617, -12584.479163226983, 0.0064062500000000005, -0.01209375, 0.98971875, 192.0, 0.0, 0.0, 0.0, 0.0, 0.0, 0.0, 0.0, 0.0, 0.0, 1.6444991581559489E9, 0.0, 2022-02-11 00:19:18.155
200.0, -9436.884157286186, -11042.454664999803, -10816.702046001203, -17246.874242648395, -2579.771289798175, -1968.3840237121613, -5993.620275690589, -6948.956185454868, -17203.35539619391, -14576.824256995233, -20132.730321017545, -12495.362758083673, -6348.007184029482, -9991.855620367005, -12156.018573763202, -12577.483067212472, 0.0064062500000000005, -0.01209375, 0.98971875, 192.0, 0.0, 0.0, 0.0, 0.0, 0.0, 0.0, 0.0, 0.0, 0.0, 1.644499158155956E9, 0.0, 2022-02-11 00:19:18.155
202.0, -9446.495407401968, -11051.529473248658, -10825.061598427486, -17246.293097292557, -2597.5632783845995, -1976.4977069494375, -6004.907906640519, -6955.684060535916, -17211.424375942275, -14577.561864562258, -20136.373655363757, -12494.602798772192, -6347.180169484636, -9992.369710489478, -12153.761047573214, -12575.225541022486, 0.0064062500000000005, -0.01209375, 0.98971875, 192.0, 0.0, 0.0, 0.0, 0.0, 0.0, 0.0, 0.0, 0.0, 0.0, 1.6444991581559632E9, 0.0, 2022-02-11 00:19:18.155
204.0, -9432.100883972751, -11037.984316108743, -10813.841022710923, -17248.148292082347, -2584.979246256262, -1971.356805724717, -5994.46964197989, -6953.694755279393, -17200.472021159178, -14590.704690301978, -20142.6544955557, -12496.480345306438, -6348.834198574329, -9986.178277275358, -12164.534588400673, -12574.06325031081, 0.004203125, -0.013046875, 0.990859375, 192.0, 0.0, 8.0, 127.5, 72.0, 15.5, 0.0, 0.0, 0.0, 0.0, 1.64449915815597E9, 0.0, 2022-02-11 00:19:18.155
206.0, -9441.376857921703, -11033.670429428868, -10819.18308963574, -17261.112303866423, -2585.4709846342785, -1977.77175638339, -6004.349113029136, -6963.082487950622, -17207.982207296158, -14572.063335426252, -20130.27162912746, -12496.368586584162, -6347.515445651466, -9990.581570933053, -12149.000126004235, -12579.360613746718, 0.004203125, -0.013046875, 0.990859375, 192.0, 0.0, 0.0, 0.0, 0.0, 0.0, 0.0, 0.0, 0.0, 0.0, 1.6444991581559772E9, 0.0, 2022-02-11 00:19:18.155
208.0, -9451.6810121156, -11038.587813209035, -10827.09560717292, -17261.112303866423, -2596.9597812843062, -1980.6551314181247, -6011.546374743745, -6959.796781515692, -17206.708157862206, -14590.615283324158, -20148.62241132527, -12513.490022836928, -6351.024669530949, -9984.524248185666, -12160.846550565548, -12585.77556440539, 0.004203125, -0.013046875, 0.990859375, 192.0, 0.0, 0.0, 0.0, 0.0, 0.0, 0.0, 0.0, 0.0, 0.0, 1.6444991581559849E9, 0.0, 2022-02-11 00:19:18.155
210.0, -9437.264136941927, -11043.818121411578, -10816.210307623185, -17257.066638120014, -2585.850964290019, -1970.6415499021473, -6010.697008454444, -6955.415839602451, -17211.31261722, -14579.282948885317, -20141.26868739947, -12506.270409377863, -6352.857512576284, -9987.385271475945, -12162.165303488411, -12582.668671926103, 0.004203125, -0.013046875, 0.990859375, 192.0, 0.0, 0.0, 0.0, 0.0, 0.0, 0.0, 0.0, 0.0, 0.0, 1.6444991581559916E9, 0.0, 2022-02-11 00:19:18.155
212.0, -9457.06778252933, -11053.675240716368, -10831.409493852794, -17255.010277630125, -2593.8305370605635, -1977.7494046389347, -6012.395741033047, -6964.468296106851, -17216.632332400364, -14590.347062390694, -20139.391140865224, -12497.28500810683, -6354.042155032415, -9980.903265583906, -12161.271233710198, -12583.316872515306, 0.004203125, -0.013046875, 0.990859375, 192.0, 0.0, 0.0, 0.0, 0.0, 0.0, 0.0, 0.0, 0.0, 0.0, 1.6444991581559987E9, 0.0, 2022-02-11 00:19:18.155
214.0, -9451.926881304607, -11057.072705873574, -10818.46783381317, -17252.79745492905, -2593.450557404823, -1969.9933493129433, -6025.918546428507, -6961.495514094296, -17210.12797476387, -14588.60362632318, -20150.634068326246, -12495.09453715021, -6357.037288789426, -9981.015024306182, -12166.367431446008, -12579.941759102556, 0.0061015625, -0.0105234375, 0.9914296874999999, 192.0, 0.0, 32.0, 127.5, 96.0, 15.5, 0.0, 0.0, 0.0, 0.0, 1.6444991581560056E9, 0.0, 2022-02-11 00:19:18.156
216.0, -9462.007518053952, -11066.303976333616, -10823.09464491542, -17263.1239608674, -2587.03560674615, -1975.4024714711277, -5993.083833823662, -6952.934795967913, -17219.471003946186, -14587.843667011699, -20139.480547843046, -12495.228647616941, -6357.573730656354, -9973.415431191377, -12156.68912609686, -12577.259549767918, 0.0061015625, -0.0105234375, 0.9914296874999999, 192.0, 0.0, 0.0, 0.0, 0.0, 0.0, 0.0, 0.0, 0.0, 0.0, 1.644499158156013E9, 0.0, 2022-02-11 00:19:18.156
218.0, -9481.297073518881, -11074.060031659608, -10829.889575229834, -17259.637088732372, -2591.1483277259267, -1984.0749483197867, -5984.120784297083, -6956.868702992047, -17225.79654762704, -14604.428661397536, -20162.256975443004, -12516.66397054958, -6354.511541665976, -10003.098547828025, -12160.31010869862, -12582.601616692737, 0.0061015625, -0.0105234375, 0.9914296874999999, 192.0, 0.0, 0.0, 0.0, 0.0, 0.0, 0.0, 0.0, 0.0, 0.0, 1.64449915815602E9, 0.0, 2022-02-11 00:19:18.156
220.0, -9478.167829295138, -11085.727642265278, -10821.597078036915, -17260.486455021673, -2587.840269546541, -1975.938913338055, -5996.637761192055, -6954.030031446223, -17233.329085508478, -14602.282893929827, -20154.903251517208, -12514.361740870685, -6354.01980328796, -9996.907114613905, -12155.102152240534, -12576.656052667626, 0.0061015625, -0.0105234375, 0.9914296874999999, 192.0, 0.0, 0.0, 0.0, 0.0, 0.0, 0.0, 0.0, 0.0, 0.0, 1.6444991581560276E9, 0.0, 2022-02-11 00:19:18.156
222.0, -9517.797472214399, -11118.540003125669, -10834.38227586535, -17264.398010301353, -2601.2736679641807, -1989.2605530334179, -5993.419109990491, -6962.076659450133, -17244.303792036033, -14617.07974875924, -20161.27349868697, -12517.133357183142, -6361.015899302471, -10003.322065272578, -12157.829065064081, -12583.719203915502, 0.0061015625, -0.0105234375, 0.9914296874999999, 192.0, 0.0, 0.0, 0.0, 0.0, 0.0, 0.0, 0.0, 0.0, 0.0, 1.6444991581560345E9, 0.0, 2022-02-11 00:19:18.156
224.0, -9539.45631259159, -11144.982116816296, -10830.895403730323, -17258.139521853867, -2586.208592201304, -1975.1566022821191, -5988.032339576762, -6951.5266360672285, -17243.297963535544, -14622.980609295442, -20174.773952337975, -12527.19164218803, -6359.741849868518, -10002.942085616838, -12164.556940145128, -12582.847485881744, 0.01, -0.012, 0.994, 192.0, 0.0, 40.0, 127.5, 80.0, 15.5, 8.0, 0.0, 0.0, 0.0, 1.6444991581560411E9, 0.0, 2022-02-11 00:19:18.156
226.0, -9587.959598059608, -11173.368832274537, -10830.046037441021, -17265.04621089056, -2588.9578567693065, -1974.6201604151918, -5995.3860635025585, -6952.755982012271, -17268.89071093687, -14619.963123793976, -20173.254033715017, -12522.318961896774, -6354.3997829437, -9986.915884842383, -12156.130332485478, -12575.516113700405, 0.01, -0.012, 0.994, 192.0, 0.0, 0.0, 0.0, 0.0, 0.0, 0.0, 0.0, 0.0, 0.0, 1.6444991581560478E9, 0.0, 2022-02-11 00:19:18.156
228.0, -9626.695171200654, -11224.286106143727, -10836.215118910684, -17267.66136499183, -2588.935505024851, -1978.3529017392282, -5997.107147825617, -6951.325470367131, -17284.022841933114, -14643.812435127787, -20203.160667796215, -12548.24698546493, -6363.273425492457, -9995.655416924408, -12164.869864567503, -12582.735727159468, 0.01, -0.012, 0.994, 192.0, 0.0, 0.0, 0.0, 0.0, 0.0, 0.0, 0.0, 0.0, 0.0, 1.6444991581560545E9, 0.0, 2022-02-11 00:19:18.156
230.0, -9633.80302593744, -11242.74864706381, -10821.105339658898, -17271.885844693883, -2574.876257762463, -1965.0536137883205, -6002.382159517069, -6946.5421970536945, -17283.821676233016, -14641.979592082453, -20196.365737481803, -12549.901014554622, -6354.936224810627, -9984.54659993012, -12158.164341230911, -12576.141962545153, 0.01, -0.012, 0.994, 192.0, 0.0, 0.0, 0.0, 0.0, 0.0, 0.0, 0.0, 0.0, 0.0, 1.6444991581560636E9, 0.0, 2022-02-11 00:19:18.156
232.0, -9661.027450684005, -11242.055742985696, -10834.941069476732, -17276.110324395933, -2587.0132550016947, -1979.068157561798, -5990.066348322195, -6951.951319211879, -17296.919798483825, -14641.241984515427, -20205.239380030558, -12554.751343101425, -6352.611643387276, -9988.16758253188, -12161.0700680101, -12578.734764901968, 0.01, -0.012, 0.994, 192.0, 0.0, 0.0, 0.0, 0.0, 0.0, 0.0, 0.0, 0.0, 0.0, 1.6444991581560705E9, 0.0, 2022-02-11 00:19:18.156
234.0, -9653.360802335836, -11248.18012096645, -10833.845833998423, -17269.002469659146, -2579.771289798175, -1967.847581845234, -5980.723319139876, -6941.4907028067955, -17290.348385613965, -14641.152577537607, -20214.917685379707, -12554.237252978952, -6354.6233003882535, -9989.620445921475, -12157.873768552992, -12575.113782300208, 0.006, -0.014, 0.992, 192.0, 0.0, 24.0, 127.5, 72.0, 15.5, 0.0, 0.0, 0.0, 0.0, 1.6444991581560776E9, 0.0, 2022-02-11 00:19:18.156
236.0, -9658.635814027288, -11263.89339731853, -10832.504729331104, -17271.930548182794, -2580.1959729428263, -1974.5307534373705, -5992.99442684584, -6938.316755094142, -17302.84301076448, -14648.841577630232, -20207.072223075895, -12554.572529145782, -6352.902216065195, -9988.97224533227, -12153.090495239556, -12568.140038030153, 0.006, -0.014, 0.992, 192.0, 0.0, 0.0, 0.0, 0.0, 0.0, 0.0, 0.0, 0.0, 0.0, 1.6444991581560845E9, 0.0, 2022-02-11 00:19:18.156
238.0, -9647.996383666561, -11247.04018199923, -10839.210252667697, -17262.207539344734, -2585.1804119563594, -1982.331512252273, -5994.223772790882, -6945.737534253304, -17295.22106590522, -14651.970821853974, -20217.309322036424, -12553.946680301033, -6358.7360213680295, -10002.673864683375, -12162.679393610882, -12575.806686378322, 0.006, -0.014, 0.992, 192.0, 0.0, 0.0, 0.0, 0.0, 0.0, 0.0, 0.0, 0.0, 0.0, 1.644499158156092E9, 0.0, 2022-02-11 00:19:18.156
240.0, -9631.299630558447, -11243.106274975094, -10831.923583975266, -17269.248338848156, -2572.819897272575, -1964.1371922656529, -5984.389005230547, -6929.756036967759, -17292.874132737415, -14639.498548447913, -20202.311301506914, -12542.457883651005, -6356.59025390032, -9995.811879135596, -12158.164341230911, -12567.357726974216, 0.006, -0.014, 0.992, 192.0, 0.0, 0.0, 0.0, 0.0, 0.0, 0.0, 0.0, 0.0, 0.0, 1.6444991581560988E9, 0.0, 2022-02-11 00:19:18.156
242.0, -9632.596031736855, -11224.040236954717, -10844.261746914595, -17275.37271682891, -2588.421414902379, -1983.0914715637532, -6002.560973472711, -6945.938699953402, -17294.23758914919, -14638.693885647523, -20203.540647451955, -12550.079828510265, -6358.423096945656, -9990.335701744045, -12159.907777298426, -12576.074907311788, 0.006, -0.014, 0.992, 192.0, 0.0, 0.0, 0.0, 0.0, 0.0, 0.0, 0.0, 0.0, 0.0, 1.6444991586355023E9, 0.0, 2022-02-11 00:19:18.635
244.0, -9608.165575047204, -11212.685550771423, -10836.282174144051, -17266.767295213616, -2578.9442752533287, -1976.8776866051778, -5985.8195168756865, -6944.441133074896, -17281.631205276397, -14645.868795617676, -20207.496906220545, -12546.72706684197, -6358.199579501103, -9999.924600115372, -12159.818370320603, -12576.410183478616, 0.006, -0.016, 0.99, 192.0, 0.0, 24.0, 127.5, 64.0, 15.0, 120.0, 0.0, 0.0, 0.0, 1.6444991586356852E9, 0.0, 2022-02-11 00:19:18.635
246.0, -9600.096595298839, -11206.404710579482, -10843.412380625294, -17273.741039483673, -2589.784871314153, -1982.8679541192002, -6017.4025317910355, -6956.265205891754, -17291.37656585891, -14646.449940973514, -20195.829295614876, -12536.221746947975, -6364.97215807106, -10001.131594315959, -12159.594852876051, -12577.326605001284, 0.006, -0.016, 0.99, 192.0, 0.0, 0.0, 0.0, 0.0, 0.0, 0.0, 0.0, 0.0, 0.0, 1.6444991586356952E9, 0.0, 2022-02-11 00:19:18.635
248.0, -9592.251132995027, -11178.979120132819, -10855.996412753631, -17268.801303959048, -2590.6565893479096, -1982.2644570189068, -5991.720377411888, -6950.140827910999, -17285.542760556076, -14646.964031095986, -20205.239380030558, -12545.855348808213, -6365.396841215711, -9996.907114613905, -12167.708536113327, -12583.49568647095, 0.006, -0.016, 0.99, 192.0, 0.0, 0.0, 0.0, 0.0, 0.0, 0.0, 0.0, 0.0, 0.0, 1.6444991586357024E9, 0.0, 2022-02-11 00:19:18.635
250.0, -9563.462086136591, -11169.501980483768, -10836.617450310881, -17273.80809471704, -2578.1843159418486, -1972.228523758474, -6008.23831656436, -6955.885226236013, -17273.942205183772, -14629.440263443026, -20189.391993211746, -12535.640601592137, -6363.809867359384, -9987.899361598416, -12159.863073809514, -12578.623006179692, 0.006, -0.016, 0.99, 192.0, 0.0, 0.0, 0.0, 0.0, 0.0, 0.0, 0.0, 0.0, 0.0, 1.644499158635712E9, 0.0, 2022-02-11 00:19:18.635
252.0, -9572.380432174257, -11171.848913651576, -10847.994488238632, -17285.31924311152, -2585.7615573121975, -1980.4092622291164, -6007.433653763968, -6953.180665156921, -17278.70312675275, -14633.08359778924, -20188.207350755616, -12533.383075402151, -6365.1286202822475, -9983.250198751712, -12162.813504077614, -12586.15554406113, 0.006, -0.016, 0.99, 192.0, 0.0, 0.0, 0.0, 0.0, 0.0, 0.0, 0.0, 0.0, 0.0, 1.6444991586357198E9, 0.0, 2022-02-11 00:19:18.635
254.0, -9551.816827275376, -11153.364020987037, -10841.937165491243, -17278.814885475025, -2576.5749903410665, -1983.7173204085018, -6003.142118828549, -6949.246758132787, -17264.867396934915, -14629.753187865399, -20194.734060136565, -12543.128435984665, -6367.6543674056975, -9996.50478321371, -12164.512236656217, -12587.139020817163, 0.012, -0.018000000000000002, 0.992, 192.0, 0.0, 48.0, 127.5, 56.0, 15.5, 0.0, 0.0, 0.0, 0.0, 1.644499158635729E9, 0.0, 2022-02-11 00:19:18.635
0.0, -9548.441713862625, -11143.305735982149, -10846.072238215476, -17283.061716921537, -2585.649798589921, -1985.4607564760158, -6012.216927077405, -6963.104839695077, -17270.209463859734, -14627.60742039769, -20181.52417916348, -12533.04779923532, -6362.35700396979, -10003.679693183863, -12157.292623197154, -12586.06613708331, 0.012, -0.018000000000000002, 0.992, 192.0, 0.0, 0.0, 0.0, 0.0, 0.0, 0.0, 0.0, 0.0, 0.0, 1.6444991586357372E9, 0.0, 2022-02-11 00:19:18.635
2.0, -9550.609833074788, -11137.829558590598, -10857.181055209763, -17274.45629530624, -2600.1560807414153, -1997.2624775484178, -6025.158587117027, -6973.0737177221445, -17270.231815604187, -14620.946600550009, -20195.65048165923, -12541.407351661606, -6372.236475019035, -10012.620390965985, -12173.698803627349, -12596.794974421857, 0.012, -0.018000000000000002, 0.992, 192.0, 0.0, 0.0, 0.0, 0.0, 0.0, 0.0, 0.0, 0.0, 0.0, 1.6444991586357443E9, 0.0, 2022-02-11 00:19:18.635
4.0, -9521.753730982988, -11126.452520662848, -10843.837063769945, -17273.741039483673, -2591.8635835484965, -1979.358730239717, -6014.630915478578, -6957.651014047982, -17268.22015860321, -14605.36743466466, -20181.211254741105, -12529.180947444553, -6368.861361606284, -10017.224850323779, -12180.31491998612, -12590.536485974371, 0.012, -0.018000000000000002, 0.992, 192.0, 0.0, 0.0, 0.0, 0.0, 0.0, 0.0, 0.0, 0.0, 0.0, 1.644499158635766E9, 0.0, 2022-02-11 00:19:18.635
6.0, -9524.45829206208, -11117.556526369635, -10854.364735408395, -17269.69537373726, -2596.3786359284686, -1982.778547141379, -6019.86122368112, -6958.679194292927, -17266.70023998025, -14615.828051069744, -20176.18211223866, -12525.805834031802, -6371.610626174286, -9997.331797758556, -12171.731850115282, -12588.63658769567, 0.012, -0.018000000000000002, 0.992, 192.0, 0.0, 0.0, 0.0, 0.0, 0.0, 0.0, 0.0, 0.0, 0.0, 1.644499158635781E9, 0.0, 2022-02-11 00:19:18.635
8.0, -9503.157079596172, -11106.023026230696, -10840.640764312837, -17267.124923124902, -2583.1240514664714, -1972.4967446919377, -6012.306334055225, -6951.124304667032, -17249.93643163877, -14617.057397014785, -20178.082010517363, -12519.681456051047, -6365.061565048882, -9993.777870390162, -12173.207065249333, -12585.73086091648, 0.004, -0.014, 0.988, 192.0, 0.0, 16.0, 127.5, 72.0, 15.0, 112.0, 0.0, 0.0, 0.0, 1.6444991586357884E9, 0.0, 2022-02-11 00:19:18.635
10.0, -9507.940352909607, -11104.346645396548, -10843.926470747767, -17277.719649996718, -2582.5652578550885, -1975.5812854267701, -6013.423921277991, -6958.209807659365, -17257.4242660313, -14616.967990036965, -20165.09564698883, -12516.082825193744, -6363.362832470279, -9986.670015653375, -12165.361602945519, -12586.535523716871, 0.004, -0.014, 0.988, 192.0, 0.0, 0.0, 0.0, 0.0, 0.0, 0.0, 0.0, 0.0, 0.0, 1.6444991586358058E9, 0.0, 2022-02-11 00:19:18.635
12.0, -9507.31450406486, -11101.977360484287, -10850.944918506733, -17281.98883318768, -2591.4389004038458, -1975.0895470487533, -6017.737807957865, -6957.583958814616, -17256.105513108436, -14622.287705217328, -20177.590272139343, -12532.556060857303, -6369.151934284203, -9981.93144582885, -12178.862056596525, -12595.275055798897, 0.004, -0.014, 0.988, 192.0, 0.0, 0.0, 0.0, 0.0, 0.0, 0.0, 0.0, 0.0, 0.0, 1.6444991586358125E9, 0.0, 2022-02-11 00:19:18.635
14.0, -9487.44380324409, -11091.919075479398, -10838.830273011956, -17281.51944655412, -2575.6585688183986, -1977.2800180053734, -6016.731979457376, -6962.94837748389, -17248.662382204817, -14612.184716723528, -20169.007202268505, -12530.097368967221, -6365.441544704622, -9997.97999834776, -12172.469457682308, -12595.431518010082, 0.004, -0.014, 0.988, 192.0, 0.0, 0.0, 0.0, 0.0, 0.0, 0.0, 0.0, 0.0, 0.0, 1.64449915863582E9, 0.0, 2022-02-11 00:19:18.635
16.0, -9500.45251851708, -11092.522572579692, -10849.782627795057, -17283.799324488562, -2590.6565893479096, -1989.998160600443, -6025.918546428507, -6975.1300782120325, -17251.903385150836, -14615.112795247174, -20165.587385366845, -12527.661028821592, -6363.8992743372055, -9996.661245424897, -12172.26829198221, -12597.39847152215, 0.004, -0.014, 0.988, 192.0, 0.0, 0.0, 0.0, 0.0, 0.0, 0.0, 0.0, 0.0, 0.0, 1.644499158635827E9, 0.0, 2022-02-11 00:19:18.635
18.0, -9483.308730519859, -11080.13970615145, -10847.189825438241, -17272.332879582988, -2586.1191852234824, -1981.4150907296053, -6029.628936008088, -6964.624758318038, -17244.08027459148, -14608.206106210484, -20174.4610279156, -12532.489005623938, -6365.933283082639, -10006.719530429786, -12185.724042144304, -12597.286712799872, 0.01, -0.01, 0.986, 192.0, 0.0, 40.0, 127.5, 88.0, 15.0, 104.0, 0.0, 0.0, 0.0, 1.644499158635834E9, 0.0, 2022-02-11 00:19:18.635
20.0, -9481.431183985613, -11084.654758531424, -10849.693220817235, -17277.31731859652, -2598.971438285284, -1987.6288756881806, -6036.468569811413, -6965.183551929421, -17250.22700431669, -14606.865001543165, -20161.027629497963, -12520.262601406885, -6370.314224995879, -10008.731187430762, -12185.545228188663, -12594.850372654246, 0.01, -0.01, 0.986, 192.0, 0.0, 0.0, 0.0, 0.0, 0.0, 0.0, 0.0, 0.0, 0.0, 1.6444991586358411E9, 0.0, 2022-02-11 00:19:18.635
22.0, -9489.83543990081, -11082.263121874705, -10848.039191727543, -17273.741039483673, -2602.0112755312057, -1993.2838670353733, -6048.136180417083, -6974.750098556292, -17248.684733949274, -14620.700731361001, -20168.403705168213, -12524.598839831215, -6371.990605830027, -10000.304579771111, -12192.675434669905, -12601.175916335096, 0.01, -0.01, 0.986, 192.0, 0.0, 0.0, 0.0, 0.0, 0.0, 0.0, 0.0, 0.0, 0.0, 1.644499158635848E9, 0.0, 2022-02-11 00:19:18.635
24.0, -9463.102753532261, -11069.075592646073, -10839.925508490267, -17279.463086064232, -2590.3213131810803, -1989.841698389256, -6027.840796451664, -6974.705395067382, -17244.370847269398, -14611.89414404561, -20160.044152741928, -12519.18971767303, -6371.565922685376, -9998.114108814492, -12188.786231134682, -12604.7745471924, 0.01, -0.01, 0.986, 192.0, 0.0, 0.0, 0.0, 0.0, 0.0, 0.0, 0.0, 0.0, 0.0, 1.6444991586358547E9, 0.0, 2022-02-11 00:19:18.635
26.0, -9475.172695538127, -11074.484714804259, -10850.76610455109, -17285.431001833796, -2600.3125429526026, -2001.5093089949262, -6035.865072711119, -6983.5790376161385, -17243.543832724554, -14606.105042231686, -20154.769141050478, -12514.495851337417, -6367.967291828071, -10001.131594315959, -12185.433469466385, -12610.764814706423, 0.01, -0.01, 0.986, 192.0, 0.0, 0.0, 0.0, 0.0, 0.0, 0.0, 0.0, 0.0, 0.0, 1.644499158635862E9, 0.0, 2022-02-11 00:19:18.635
28.0, -9469.048317557374, -11063.688822232345, -10846.8098457825, -17280.60302503145, -2598.971438285284, -1991.451023990038, -6041.117732658116, -6988.094089996111, -17239.632277444874, -14611.871792301154, -20164.402742910712, -12528.935078255545, -6371.655329663197, -10000.081062326559, -12197.771632405715, -12611.63653274018, 0.008, -0.01, 0.988, 192.0, 0.0, 32.0, 127.5, 88.0, 15.0, 112.0, 0.0, 0.0, 0.0, 1.6444991586358688E9, 0.0, 2022-02-11 00:19:18.635
30.0, -9463.236863998993, -11069.343813579539, -10844.887595759345, -17275.573882529006, -2598.7702725851864, -1988.9252768665883, -6042.414133836524, -6976.784107301725, -17239.855794889427, -14599.354815406183, -20144.532042089944, -12523.548307841815, -6368.548437183909, -9983.473716196266, -12193.211876536832, -12607.054425126842, 0.008, -0.01, 0.988, 192.0, 0.0, 0.0, 0.0, 0.0, 0.0, 0.0, 0.0, 0.0, 0.0, 1.644499158635876E9, 0.0, 2022-02-11 00:19:18.635
32.0, -9470.545884435878, -11068.449743801326, -10845.915776004289, -17261.402876544344, -2603.4417871763453, -1999.8776316496887, -6035.172168633005, -6977.678177079938, -17235.16192855381, -14596.762013049367, -20155.55145210641, -12509.33259836824, -6366.626187160753, -9999.768137904184, -12194.59768469306, -12607.993198393966, 0.008, -0.01, 0.988, 192.0, 0.0, 0.0, 0.0, 0.0, 0.0, 0.0, 0.0, 0.0, 0.0, 1.644499158635883E9, 0.0, 2022-02-11 00:19:18.635
34.0, -9453.044468527374, -11059.486694274747, -10836.706857288702, -17263.61569924542, -2593.1152812379937, -1990.8698786342002, -6044.381087348591, -6973.654863077983, -17232.613829685906, -14604.40630965308, -20147.057789213395, -12498.871981963157, -6365.150972026703, -10001.533925716154, -12191.446088724862, -12602.069986113309, 0.008, -0.01, 0.988, 192.0, 0.0, 0.0, 0.0, 0.0, 0.0, 0.0, 0.0, 0.0, 0.0, 1.64449915863589E9, 0.0, 2022-02-11 00:19:18.635
36.0, -9464.309747732848, -11063.889987932444, -10845.804017282011, -17274.344536583965, -2596.6021533730213, -2000.6822944500798, -6060.697860800965, -6981.679139337438, -17239.74403616715, -14598.907780517076, -20146.767216535478, -12500.458955819484, -6369.777783128951, -10005.087853084548, -12192.27310326971, -12603.053462869342, 0.005, -0.01, 0.988, 192.0, 0.0, 8.0, 127.5, 88.0, 15.0, 112.0, 0.0, 0.0, 0.0, 1.6444991586358967E9, 0.0, 2022-02-11 00:19:18.635
38.0, -9448.44000916958, -11050.478941259258, -10837.265650900084, -17272.690507494273, -2588.8908015359407, -1987.2488960324404, -6044.29168037077, -6966.345842641097, -17226.93648659426, -14600.919437518054, -20149.94116424813, -12516.99924671641, -6363.809867359384, -9995.141326801935, -12197.145783560967, -12602.8746489137, 0.005, -0.01, 0.988, 192.0, 0.0, 0.0, 0.0, 0.0, 0.0, 0.0, 0.0, 0.0, 0.0, 1.644499158635906E9, 0.0, 2022-02-11 00:19:18.635
40.0, -9449.267023714427, -11050.210720325795, -10840.126674190364, -17278.814885475025, -2583.0569962331056, -1989.0817390777754, -6003.499746739834, -6962.367232128052, -17233.88787911986, -14593.386899636615, -20137.64770479771, -12512.774767014358, -6356.433791689133, -9994.828402379562, -12180.516085686219, -12595.900904643644, 0.005, -0.01, 0.988, 192.0, 0.0, 0.0, 0.0, 0.0, 0.0, 0.0, 0.0, 0.0, 0.0, 1.644499158635913E9, 0.0, 2022-02-11 00:19:18.635
42.0, -9464.645023899679, -11062.8618076875, -10849.648517328325, -17272.13171388289, -2591.260086448203, -1995.675503692091, -6012.552203244234, -6972.961958999867, -17234.849004131436, -14597.276103171838, -20155.909080017696, -12521.514299096383, -6360.457105691088, -9991.229771522258, -12184.472344454807, -12604.662788470125, 0.005, -0.01, 0.988, 192.0, 0.0, 0.0, 0.0, 0.0, 0.0, 0.0, 0.0, 0.0, 0.0, 1.644499158635919E9, 0.0, 2022-02-11 00:19:18.635
44.0, -9448.887044058687, -11058.95025240782, -10846.273403915573, -17270.075353393004, -2579.726586309265, -1983.650265175136, -6015.748502701343, -6957.3380896256085, -17234.469024475697, -14604.31690267526, -20154.74678930602, -12509.042025690322, -6365.240379004524, -9983.943102829828, -12184.2264752658, -12597.77845117789, 0.005, -0.01, 0.988, 192.0, 0.0, 0.0, 0.0, 0.0, 0.0, 0.0, 0.0, 0.0, 0.0, 1.6444991586359267E9, 0.0, 2022-02-11 00:19:18.635
46.0, -9451.658660371144, -11043.415790011382, -10840.461950357194, -17269.002469659146, -2586.3874061569463, -1978.6881779060577, -6018.765988202809, -6951.2360633893095, -17232.345608752443, -14607.692016088013, -20144.800263023408, -12505.19752564401, -6360.479457435544, -9976.745841115218, -12183.377108976498, -12592.97282612, 0.0055, -0.01, 0.988, 192.0, 0.0, 24.0, 127.5, 88.0, 15.0, 112.0, 0.0, 0.0, 0.0, 1.6444991586359336E9, 0.0, 2022-02-11 00:19:18.635
48.0, -9437.331192175292, -11040.219490554273, -10836.170415421775, -17265.78381845758, -2575.815031029586, -1977.2353145164627, -6017.469587024401, -6953.627700046027, -17221.63912315835, -14586.234341410916, -20146.07431245736, -12509.042025690322, -6358.177227756647, -9964.653547364896, -12189.993225335267, -12588.904808629133, 0.0055, -0.01, 0.988, 192.0, 0.0, 0.0, 0.0, 0.0, 0.0, 0.0, 0.0, 0.0, 0.0, 1.6444991586359403E9, 0.0, 2022-02-11 00:19:18.635
50.0, -9439.454607898548, -11053.362316293993, -10834.203461909707, -17267.102571380445, -2556.6372342869327, -1981.9962360854431, -6007.3665985306025, -6955.393487857997, -17222.332027236465, -14582.300434386783, -20127.969399448564, -12491.18298187053, -6352.20931198708, -9979.472753938766, -12177.677414140393, -12590.625892952192, 0.0055, -0.01, 0.988, 192.0, 0.0, 0.0, 0.0, 0.0, 0.0, 0.0, 0.0, 0.0, 0.0, 1.6444991586359477E9, 0.0, 2022-02-11 00:19:18.635
52.0, -9453.066820271828, -11054.010516883198, -10840.551357335014, -17264.62152774591, -2576.262065918692, -1994.2896955358622, -6005.287886296259, -6965.6752903074375, -17223.06963480349, -14600.807678795778, -20146.07431245736, -12513.355912370196, -6351.4493526756, -9996.393024491434, -12179.89023684147, -12595.990311621466, 0.0055, -0.01, 0.988, 192.0, 0.0, 0.0, 0.0, 0.0, 0.0, 0.0, 0.0, 0.0, 0.0, 1.644499158635955E9, 0.0, 2022-02-11 00:19:18.635
54.0, -9441.332154432792, -11044.399266767416, -10833.175281664764, -17265.2250248462, -2572.2164001722813, -1983.806727386323, -6004.23735430686, -6949.604386044072, -17227.137652294357, -14598.55015260579, -20142.341571133325, -12509.131432668142, -6349.705916608085, -9996.527134958165, -12184.137068287977, -12592.68225344208, 0.0055, -0.01, 0.988, 192.0, 0.0, 0.0, 0.0, 0.0, 0.0, 0.0, 0.0, 0.0, 0.0, 1.6444991586359615E9, 0.0, 2022-02-11 00:19:18.635
56.0, -9447.612994624735, -11043.013458611185, -10843.032400969554, -17268.980117914693, -2579.324254909069, -1988.1876692995631, -6018.162491102516, -6952.3536506120745, -17231.183318040767, -14600.181829951029, -20138.6535332982, -12501.353025597695, -6360.792381857918, -9988.704024398807, -12180.091402541568, -12592.324625530795, 0.00775, -0.009000000000000001, 0.987, 192.0, 0.0, 40.0, 127.5, 96.0, 15.0, 104.0, 0.0, 0.0, 0.0, 1.6444991586359692E9, 0.0, 2022-02-11 00:19:18.635
58.0, -9434.827796796299, -11031.301144516605, -10828.302601373507, -17265.85087369095, -2569.645949559921, -1977.4141284721052, -6011.099339854639, -6952.733630267815, -17218.37576846788, -14588.961254234464, -20143.548565333913, -12509.28789487933, -6354.511541665976, -9978.422221949366, -12185.656986910939, -12591.341148774762, 0.00775, -0.009000000000000001, 0.987, 192.0, 0.0, 0.0, 0.0, 0.0, 0.0, 0.0, 0.0, 0.0, 0.0, 1.6444991586359763E9, 0.0, 2022-02-11 00:19:18.635
60.0, -9431.139758961173, -11026.719036903267, -10829.509595574093, -17269.494208037166, -2558.872408732463, -1968.4957824344376, -5997.084796081162, -6942.027144673722, -17220.767405124596, -14583.149800676085, -20127.634123281732, -12500.034272674833, -6345.7049543505855, -9969.861503822984, -12169.094344269555, -12586.982558605976, 0.00775, -0.009000000000000001, 0.987, 192.0, 0.0, 0.0, 0.0, 0.0, 0.0, 0.0, 0.0, 0.0, 0.0, 1.6444991586359837E9, 0.0, 2022-02-11 00:19:18.635
62.0, -9436.168901463616, -11031.144682305418, -10835.186938665742, -17260.732324210683, -2570.003577471206, -1975.871858104689, -6008.28302005327, -6953.605348301572, -17221.236791758158, -14593.900989759088, -20144.12971068975, -12499.900162208101, -6348.565977640865, -9963.178332230847, -12174.659928638928, -12586.893151628155, 0.00775, -0.009000000000000001, 0.987, 192.0, 0.0, 0.0, 0.0, 0.0, 0.0, 0.0, 0.0, 0.0, 0.0, 1.6444991586359909E9, 0.0, 2022-02-11 00:19:18.635
64.0, -9430.804482794343, -11026.383760736438, -10826.46975832817, -17257.536024753575, -2559.0959261770163, -1974.351939481728, -6014.742674200854, -6954.253548890776, -17212.653721887316, -14576.421925595037, -20129.802242493897, -12493.03817666032, -6345.168512483659, -9980.50093418371, -12180.560789175128, -12585.976730105487, 0.00775, -0.009000000000000001, 0.987, 192.0, 0.0, 0.0, 0.0, 0.0, 0.0, 0.0, 0.0, 0.0, 0.0, 1.6444991586359975E9, 0.0, 2022-02-11 00:19:18.635
66.0, -9454.20675923905, -11045.382743523449, -10844.842892270433, -17265.35913531293, -2578.743109553231, -1988.835869888767, -6026.946726673452, -6964.222426917842, -17230.155137795824, -14590.324710646239, -20136.12778617475, -12492.054699904287, -6353.729230610041, -9984.613655163486, -12179.26438799672, -12593.553971475838, 0.008875000000000001, -0.0085, 0.9875, 192.0, 0.0, 40.0, 127.5, 96.0, 15.0, 112.0, 0.0, 0.0, 0.0, 1.6444991586360044E9, 0.0, 2022-02-11 00:19:18.636
68.0, -9447.702401602555, -11045.114522589985, -10832.057694441997, -17260.799379444048, -2574.295112406625, -1982.0856430632643, -6013.4686247669015, -6952.241891889798, -17228.523460450586, -14596.136164204618, -20151.684600315642, -12499.654293019092, -6355.87499807775, -9986.558256931097, -12189.36737649052, -12592.123459830698, 0.008875000000000001, -0.0085, 0.9875, 192.0, 0.0, 0.0, 0.0, 0.0, 0.0, 0.0, 0.0, 0.0, 0.0, 1.6444991586360116E9, 0.0, 2022-02-11 00:19:18.636
70.0, -9440.236918954482, -11041.046505099119, -10833.085874686942, -17268.08604813648, -2571.5011443497115, -1979.224619772985, -6007.165432830505, -6956.37696461403, -17232.904402363827, -14585.7426030329, -20137.71476003108, -12491.317092337262, -6354.1539137546915, -9987.564085431586, -12176.872751340003, -12585.663805683114, 0.008875000000000001, -0.0085, 0.9875, 192.0, 0.0, 0.0, 0.0, 0.0, 0.0, 0.0, 0.0, 0.0, 0.0, 1.6444991586360226E9, 0.0, 2022-02-11 00:19:18.636
72.0, -9443.321459689316, -11035.056237585097, -10837.444464855727, -17264.822693446004, -2574.4068711289015, -1983.2702855193957, -5994.581400702167, -6962.054307705678, -17227.584687183462, -14609.636617855624, -20150.23173692605, -12505.555153555293, -6356.009108544482, -9981.663224895385, -12181.320748486609, -12592.592846464258, 0.008875000000000001, -0.0085, 0.9875, 192.0, 0.0, 0.0, 0.0, 0.0, 0.0, 0.0, 0.0, 0.0, 0.0, 1.6444991586360292E9, 0.0, 2022-02-11 00:19:18.636
74.0, -9416.566421576312, -11016.280772242639, -10820.14421464732, -17265.515597524118, -2555.609054041988, -1964.1371922656529, -5994.134365813061, -6942.742400496292, -17212.98899805415, -14585.02734721033, -20130.964533205573, -12490.244208603408, -6346.554320639887, -9971.336718957034, -12174.682280383382, -12585.39558474965, 0.008875000000000001, -0.0085, 0.9875, 192.0, 0.0, 0.0, 0.0, 0.0, 0.0, 0.0, 0.0, 0.0, 0.0, 1.644499158636036E9, 0.0, 2022-02-11 00:19:18.636
76.0, -9442.785017822387, -11030.787054394134, -10836.595098566426, -17267.996641158657, -2569.8694670044742, -1975.2236575154852, -6007.232488063871, -6953.381830857019, -17218.286361490056, -14579.260597140861, -20124.862506969275, -12489.596008014203, -6347.537797395921, -9969.280358467146, -12171.485980926274, -12588.9718638625, 0.0104375, -0.01025, 0.98775, 192.0, 0.0, 48.0, 127.5, 80.0, 15.0, 112.0, 0.0, 0.0, 0.0, 1.6444991586360433E9, 0.0, 2022-02-11 00:19:18.636
78.0, -9436.77239856391, -11031.189385794329, -10827.386179850839, -17261.626393988896, -2562.6051500564995, -1964.3383579657507, -6000.95164787193, -6935.969821926335, -17225.908306349316, -14590.592931579702, -20146.52134734647, -12497.888505207124, -6352.54458815391, -9977.550503915609, -12178.146800773955, -12584.613273693714, 0.0104375, -0.01025, 0.98775, 192.0, 0.0, 0.0, 0.0, 0.0, 0.0, 0.0, 0.0, 0.0, 0.0, 1.6444991586360502E9, 0.0, 2022-02-11 00:19:18.636
80.0, -9438.404075909148, -11038.788978909133, -10827.050903684009, -17270.65649874884, -2560.7052517777984, -1963.8913230766445, -6016.910793413019, -6946.206920886865, -17228.143480794846, -14590.369414135148, -20132.260934383983, -12496.815621473268, -6346.442561917611, -9958.730335084241, -12171.50833267073, -12581.193456792053, 0.0104375, -0.01025, 0.98775, 192.0, 0.0, 0.0, 0.0, 0.0, 0.0, 0.0, 0.0, 0.0, 0.0, 1.644499158636057E9, 0.0, 2022-02-11 00:19:18.636
82.0, -9438.784055564887, -11031.010571838686, -10830.783645008045, -17261.06760037751, -2571.0764612050607, -1980.4092622291164, -6009.467662509402, -6953.13596166801, -17218.711044634707, -14589.900027501588, -20140.151100176707, -12499.363720341173, -6344.319146194357, -9975.181219003347, -12182.952425831847, -12588.167201062108, 0.0104375, -0.01025, 0.98775, 192.0, 0.0, 0.0, 0.0, 0.0, 0.0, 0.0, 0.0, 0.0, 0.0, 1.6444991586360638E9, 0.0, 2022-02-11 00:19:18.636
84.0, -9417.169918676605, -11024.550917691102, -10815.986790178633, -17249.37763802739, -2561.420507600368, -1966.9758638114768, -6004.773796173787, -6945.156388897466, -17210.843230586437, -14582.725117531434, -20130.226925638548, -12482.488153277416, -6344.341497938812, -9972.610768390987, -12176.291605984165, -12582.176933548086, 0.0104375, -0.01025, 0.98775, 192.0, 0.0, 0.0, 0.0, 0.0, 0.0, 0.0, 0.0, 0.0, 0.0, 1.6444991586360707E9, 0.0, 2022-02-11 00:19:18.636
86.0, -9434.000782251453, -11021.734597889734, -10827.8555664844, -17255.99375438616, -2566.2037809138037, -1972.8096691143119, -6000.057578093717, -6934.740475981293, -17216.051187044526, -14577.941844217998, -20123.7002162576, -12476.050850874288, -6343.8274078163395, -9978.556332416098, -12173.296472227154, -12580.500552713938, 0.01021875, -0.011125, 0.9878750000000001, 192.0, 0.0, 40.0, 127.5, 80.0, 15.0, 112.0, 0.0, 0.0, 0.0, 1.6444991586360776E9, 0.0, 2022-02-11 00:19:18.636
88.0, -9427.228203681494, -11023.500385701704, -10821.7535402481, -17250.159949083325, -2559.6100162994885, -1967.065270789298, -5991.787432645254, -6934.248737603276, -17213.100756776425, -14586.882542000121, -20137.804167008897, -12487.986682413422, -6343.670945605153, -9967.648681121907, -12176.828047851091, -12578.980634090976, 0.01021875, -0.011125, 0.9878750000000001, 192.0, 0.0, 0.0, 0.0, 0.0, 0.0, 0.0, 0.0, 0.0, 0.0, 1.6444991586360843E9, 0.0, 2022-02-11 00:19:18.636
90.0, -9426.468244370013, -11032.999877095208, -10815.495051800615, -17260.486455021673, -2559.453554088301, -1969.099279534731, -6014.6979707119435, -6948.37504009903, -17217.280532989567, -14591.039966468808, -20121.420338323158, -12478.800115442291, -6340.072314747848, -9965.078230509547, -12165.339251201065, -12576.566645689803, 0.01021875, -0.011125, 0.9878750000000001, 192.0, 0.0, 0.0, 0.0, 0.0, 0.0, 0.0, 0.0, 0.0, 0.0, 1.6444991586360912E9, 0.0, 2022-02-11 00:19:18.636
92.0, -9439.812235809832, -11028.618935181968, -10828.436711840239, -17259.03359163208, -2563.521571579167, -1982.331512252273, -6016.597868990644, -6958.120400681544, -17217.392291711843, -14594.191562437007, -20138.832347253843, -12497.866153462668, -6340.6534601036865, -9971.359070701488, -12175.97868156179, -12587.675462684092, 0.01021875, -0.011125, 0.9878750000000001, 192.0, 0.0, 0.0, 0.0, 0.0, 0.0, 0.0, 0.0, 0.0, 0.0, 1.644499158636099E9, 0.0, 2022-02-11 00:19:18.636
94.0, -9421.528508845391, -11032.642249183924, -10818.28901985753, -17259.65944047683, -2553.418583085368, -1975.1789540265745, -6005.466700251902, -6938.875548705524, -17216.92290507828, -14587.687204800512, -20134.518460573967, -12492.211162115475, -6339.960556025571, -9979.4056987054, -12168.088515769066, -12580.746421902946, 0.01021875, -0.011125, 0.9878750000000001, 192.0, 0.0, 0.0, 0.0, 0.0, 0.0, 0.0, 0.0, 0.0, 0.0, 1.6444991586361067E9, 0.0, 2022-02-11 00:19:18.636
96.0, -9436.10184623025, -11027.747217148211, -10828.168490906775, -17259.771199199105, -2563.812144257086, -1982.1750500410856, -6013.401569533536, -6951.034897689212, -17222.868469103392, -14589.385937379115, -20131.679789028145, -12489.104269636187, -6340.027611258938, -9974.801239347606, -12165.607472134529, -12583.719203915502, 0.008109375, -0.0145625, 0.9859375, 192.0, 0.0, 24.0, 127.5, 56.0, 15.0, 96.0, 0.0, 0.0, 0.0, 1.644499158636114E9, 0.0, 2022-02-11 00:19:18.636
98.0, -9439.476959643001, -11022.159281034385, -10832.415322353283, -17255.524367752598, -2562.493391334223, -1975.9836168269655, -5992.927371612474, -6946.050458675678, -17217.25818124511, -14583.440373354004, -20142.296867644414, -12493.216990615963, -6339.602928114286, -9980.031547550148, -12170.16722800341, -12586.088488827765, 0.008109375, -0.0145625, 0.9859375, 192.0, 0.0, 0.0, 0.0, 0.0, 0.0, 0.0, 0.0, 0.0, 0.0, 1.6444991586361217E9, 0.0, 2022-02-11 00:19:18.636
100.0, -9428.524604859902, -11033.46926372877, -10816.456176812193, -17254.540890996563, -2558.850056988008, -1973.256704003418, -6019.5706510032005, -6951.504284322773, -17222.287323747554, -14587.955425733975, -20127.097681414805, -12470.574673482737, -6336.339573423812, -9978.176352760358, -12162.008841277224, -12580.187628291564, 0.008109375, -0.0145625, 0.9859375, 192.0, 0.0, 0.0, 0.0, 0.0, 0.0, 0.0, 0.0, 0.0, 0.0, 1.644499158636129E9, 0.0, 2022-02-11 00:19:18.636
102.0, -9440.01340150993, -11035.503272474203, -10833.845833998423, -17254.719704952207, -2573.7586705396975, -1977.972922083488, -6009.400607276036, -6945.357554597564, -17220.320370235488, -14598.639559583613, -20141.22398391056, -12486.332653323729, -6339.334707180823, -9970.330890456546, -12170.770725103705, -12584.434459738071, 0.008109375, -0.0145625, 0.9859375, 192.0, 0.0, 0.0, 0.0, 0.0, 0.0, 0.0, 0.0, 0.0, 0.0, 1.6444991586361384E9, 0.0, 2022-02-11 00:19:18.636
104.0, -9419.427444866591, -11014.380873963937, -10822.021761181566, -17251.07637060599, -2560.7946587556194, -1965.4335934440605, -6005.980790374374, -6946.743362753793, -17217.50405043412, -14591.17407693554, -20137.31242863088, -12484.678624234037, -6337.278346690935, -9963.871236308962, -12171.106001270533, -12577.952453846032, 0.008109375, -0.0145625, 0.9859375, 192.0, 0.0, 0.0, 0.0, 0.0, 0.0, 0.0, 0.0, 0.0, 0.0, 1.6444991586361456E9, 0.0, 2022-02-11 00:19:18.636
106.0, -9440.035753254384, -11030.18355729384, -10833.599964809415, -17258.40774278733, -2571.612903071988, -1977.1682592830969, -6007.6571712085215, -6955.326432624631, -17225.997713327135, -14583.507428587369, -20131.56803030587, -12483.069298633254, -6336.428980401633, -9962.820704319562, -12169.74254485876, -12579.070041068799, 0.006, -0.016, 0.988, 192.0, 0.0, 24.0, 127.5, 64.0, 15.0, 112.0, 0.0, 0.0, 0.0, 1.6444991591152613E9, 0.0, 2022-02-11 00:19:19.115
108.0, -9433.687857829078, -11030.675295671857, -10828.682581029247, -17253.915042151813, -2560.2805686331476, -1970.6862533910578, -6002.985656617362, -6945.290499364198, -17224.25427725962, -14582.211027408961, -20145.98490547954, -12495.206295872485, -6344.430904916633, -9970.956739301293, -12166.278024468187, -12579.96411084701, 0.006, -0.016, 0.988, 192.0, 0.0, 0.0, 0.0, 0.0, 0.0, 0.0, 0.0, 0.0, 0.0, 1.6444991591154273E9, 0.0, 2022-02-11 00:19:19.115
110.0, -9432.749084561954, -11037.47022598627, -10834.71755203218, -17260.374696299397, -2561.264045389181, -1968.6075411567142, -6013.423921277991, -6944.105856908066, -17228.79168138405, -14584.200332665485, -20130.003408193996, -12486.578522512738, -6334.909061778672, -9965.234692720735, -12162.21000697732, -12574.48793345546, 0.006, -0.016, 0.988, 192.0, 0.0, 0.0, 0.0, 0.0, 0.0, 0.0, 0.0, 0.0, 0.0, 1.644499159115435E9, 0.0, 2022-02-11 00:19:19.115
112.0, -9437.644116597667, -11034.27392652916, -10834.583441565448, -17259.27946082109, -2568.5283623371556, -1972.072061547287, -6023.7951307052535, -6955.885226236013, -17228.79168138405, -14599.243056683907, -20146.18607117964, -12499.788403485823, -6334.462026889566, -9957.54569262811, -12171.061297781624, -12583.942721360056, 0.006, -0.016, 0.988, 192.0, 0.0, 0.0, 0.0, 0.0, 0.0, 0.0, 0.0, 0.0, 0.0, 1.6444991591154425E9, 0.0, 2022-02-11 00:19:19.115
114.0, -9422.243764667961, -11021.75694963419, -10824.279287371552, -17253.55741424053, -2559.006519199195, -1965.3218347217842, -6003.656208951022, -6947.99506044329, -17219.40394871282, -14589.542399590302, -20137.491242586522, -12492.881714449135, -6331.243375688002, -9969.59328288952, -12167.619129135506, -12581.215808536508, 0.006, -0.016, 0.988, 192.0, 0.0, 0.0, 0.0, 0.0, 0.0, 0.0, 0.0, 0.0, 0.0, 1.6444991591154497E9, 0.0, 2022-02-11 00:19:19.115
116.0, -9438.940517776075, -11030.205909038295, -10831.52125257507, -17260.28528932158, -2562.068708189572, -1975.4695267044935, -6005.846679907641, -6951.593691300594, -17229.305771506522, -14589.095364701196, -20136.239544897027, -12486.600874257192, -6332.629183844231, -9975.36003295899, -12163.148780244444, -12585.686157427568, 0.008, -0.012, 0.99, 192.0, 0.0, 32.0, 127.5, 80.0, 15.0, 120.0, 0.0, 0.0, 0.0, 1.6444991591154566E9, 0.0, 2022-02-11 00:19:19.115
118.0, -9439.521663131913, -11025.422635724859, -10827.743807762125, -17255.144388096858, -2559.1182779214714, -1966.1488492666304, -5994.42493849098, -6948.486798821306, -17222.712006892205, -14583.954463476475, -20146.856623513297, -12499.721348252458, -6337.747733324496, -9979.606864405498, -12166.099210512544, -12587.697814428546, 0.008, -0.012, 0.99, 192.0, 0.0, 0.0, 0.0, 0.0, 0.0, 0.0, 0.0, 0.0, 0.0, 1.6444991591154764E9, 0.0, 2022-02-11 00:19:19.115
120.0, -9421.05912221183, -11030.228260782751, -10822.334685603939, -17259.65944047683, -2558.201856398804, -1963.0643085317981, -6009.646476465044, -6955.102915180078, -17223.02493131458, -14579.238245396406, -20126.136556403228, -12488.657234747081, -6332.048038488393, -9977.997538804715, -12161.338288943565, -12585.529695216383, 0.008, -0.012, 0.99, 192.0, 0.0, 0.0, 0.0, 0.0, 0.0, 0.0, 0.0, 0.0, 0.0, 1.6444991591154833E9, 0.0, 2022-02-11 00:19:19.115
122.0, -9434.134892718184, -11022.427501967848, -10837.220947411173, -17259.681792221283, -2563.678033790354, -1976.520058693893, -5990.46867972239, -6966.368194385553, -17218.35341672342, -14577.092477928696, -20138.13944317573, -12501.196563386507, -6331.5563001103765, -9978.39987020491, -12168.960233802823, -12592.235218552974, 0.008, -0.012, 0.99, 192.0, 0.0, 0.0, 0.0, 0.0, 0.0, 0.0, 0.0, 0.0, 0.0, 1.64449915911549E9, 0.0, 2022-02-11 00:19:19.115
124.0, -9422.467282112513, -11025.713208402778, -10821.507671059093, -17252.12690259539, -2554.4914668192228, -1965.3665382106947, -5981.952665084918, -6935.2098626148545, -17213.816012598993, -14579.327652374228, -20131.92565821715, -12484.477458533938, -6330.192843698603, -9962.26191070818, -12162.008841277224, -12584.099183571243, 0.008, -0.012, 0.99, 192.0, 0.0, 0.0, 0.0, 0.0, 0.0, 0.0, 0.0, 0.0, 0.0, 1.6444991591154969E9, 0.0, 2022-02-11 00:19:19.115
126.0, -9435.34188691877, -11034.028057340152, -10834.561089820992, -17255.591422985963, -2567.589589070033, -1978.5987709282365, -5998.09062458165, -6947.570377298639, -17225.88595460486, -14588.581274578724, -20131.56803030587, -12484.388051556118, -6331.15396871018, -9962.932463041838, -12159.125466242489, -12580.67936666958, 0.01, -0.012, 0.986, 192.0, 0.0, 40.0, 127.5, 80.0, 15.0, 104.0, 0.0, 0.0, 0.0, 1.6444991591155035E9, 0.0, 2022-02-11 00:19:19.115
128.0, -9434.850148540754, -11029.267135771172, -10829.263726385085, -17252.79745492905, -2564.326234379558, -1974.2848842483622, -6002.829194406176, -6956.444019847396, -17220.633294657862, -14585.36262337716, -20144.174414178662, -12491.741775481913, -6337.770085068952, -9964.83236132054, -12169.675489625393, -12587.049613839343, 0.01, -0.012, 0.986, 192.0, 0.0, 0.0, 0.0, 0.0, 0.0, 0.0, 0.0, 0.0, 0.0, 1.64449915911551E9, 0.0, 2022-02-11 00:19:19.115
130.0, -9427.921107759608, -11024.930897346843, -10822.334685603939, -17254.250318318645, -2560.593493055522, -1969.903942335122, -6003.4326915064685, -6945.648127275483, -17223.337855736954, -14584.781478021323, -20126.203611636593, -12485.438583545516, -6328.181186697625, -9971.761402101685, -12163.729925600283, -12582.914541115111, 0.01, -0.012, 0.986, 192.0, 0.0, 0.0, 0.0, 0.0, 0.0, 0.0, 0.0, 0.0, 0.0, 1.644499159115517E9, 0.0, 2022-02-11 00:19:19.115
