%OpenBCI Raw EEG Data
%Number of channels = 16
%Sample Rate = 125 Hz
%Board = OpenBCI_GUI$BoardCytonSerialDaisy
Sample Index, EXG Channel 0, EXG Channel 1, EXG Channel 2, EXG Channel 3, EXG Channel 4, EXG Channel 5, EXG Channel 6, EXG Channel 7, EXG Channel 8, EXG Channel 9, EXG Channel 10, EXG Channel 11, EXG Channel 12, EXG Channel 13, EXG Channel 14, EXG Channel 15, Accel Channel 0, Accel Channel 1, Accel Channel 2, Other, Other, Other, Other, Other, Other, Other, Analog Channel 0, Analog Channel 1, Analog Channel 2, Timestamp, Other, Timestamp (Formatted)
0.0, -9252.102285874163, -11092.924903979887, -10753.871292337333, -17157.713134016172, -2546.2436731152147, -1707.2709449852641, -5587.0196923040985, -6644.324260273488, 0.0, 0.0, 0.0, 0.0, 0.0, 0.0, 0.0, 0.0, 0.0, 0.0, 0.0, 192.0, 0.0, 0.0, 0.0, 0.0, 0.0, 0.0, 0.0, 0.0, 0.0, 1.6444990897854624E9, 0.0, 2022-02-11 00:18:09.785
10.0, -9244.055657870253, -11102.424395373393, -10751.524359169527, -17146.805482721982, -2542.555635280089, -1700.9230495599568, -5592.831145862478, -6639.049248582036, -17051.6764583202, -14641.197281026518, -19966.321583547782, -12606.428576282095, -6394.163536329692, -10002.293885027633, -11837.640325741808, -12251.61698479855, 0.0, 0.0, 0.0, 192.0, 0.0, 0.0, 0.0, 0.0, 0.0, 0.0, 0.0, 0.0, 0.0, 1.644499089785472E9, 0.0, 2022-02-11 00:18:09.785
12.0, -9248.369544550127, -11108.526421609691, -10752.954870814667, -17154.02509618105, -2542.26506260217, -1708.209718252387, -5596.340369741961, -6641.1279608163795, -17060.23717644658, -14644.32652525026, -19954.18458630855, -12605.534506503882, -6395.102309596814, -9994.31431225709, -11831.001857638581, -12250.432342342418, 0.0, 0.0, 0.0, 192.0, 0.0, 0.0, 0.0, 0.0, 0.0, 0.0, 0.0, 0.0, 0.0, 1.64449908978548E9, 0.0, 2022-02-11 00:18:09.785
14.0, -9248.436599783492, -11096.657645303923, -10760.666222651747, -17149.800616478995, -2546.847170215508, -1712.076570043155, -5597.636770920369, -6643.69841142874, -17061.600632858353, -14645.064132817286, -19971.328374305773, -12612.932933918588, -6394.297646796424, -10003.567934461587, -11845.329325834433, -12257.00375521228, 0.004, -0.004, 0.495, 192.0, 0.0, 32.0, 127.5, 96.0, 15.0, 120.0, 0.0, 0.0, 0.0, 1.6444990897854888E9, 0.0, 2022-02-11 00:18:09.785
16.0, -9229.348210018661, -11079.983243940263, -10744.975298044123, -17146.269040855055, -2529.5469200071, -1694.6422093680155, -5601.145994799852, -6634.64595492434, -17052.70463856514, -14629.999057054409, -19956.66562994309, -12602.584076235782, -6384.194658302625, -9991.341530244534, -11841.77539846604, -12249.582976053116, 0.004, -0.004, 0.495, 192.0, 0.0, 0.0, 0.0, 0.0, 0.0, 0.0, 0.0, 0.0, 0.0, 1.6444990897854967E9, 0.0, 2022-02-11 00:18:09.785
18.0, -9239.808826423745, -11090.846191745542, -10748.439818434694, -17147.00664842208, -2536.878292188441, -1702.7782443497474, -5596.58623893097, -6641.239719538656, -17054.023391488005, -14626.020446541364, -19955.548042720326, -12602.025282624398, -6380.2160477895795, -9982.624349906964, -11833.617011739852, -12249.605327797572, 0.004, -0.004, 0.495, 192.0, 0.0, 0.0, 0.0, 0.0, 0.0, 0.0, 0.0, 0.0, 0.0, 1.6444990897855055E9, 0.0, 2022-02-11 00:18:09.785
20.0, -9228.767064662823, -11094.847154003044, -10745.9364230557, -17149.82296822345, -2529.815140940564, -1697.7714535917585, -5574.413308431305, -6631.963745589704, -17040.053551203437, -14616.99034178142, -19959.28078404436, -12609.893096672666, -6375.5221814539655, -9985.910056341894, -11835.449854785187, -12249.448865586384, 0.004, -0.004, 0.495, 192.0, 0.0, 0.0, 0.0, 0.0, 0.0, 0.0, 0.0, 0.0, 0.0, 1.6444990897855127E9, 0.0, 2022-02-11 00:18:09.785
22.0, -9235.360829277139, -11088.789831255655, -10747.210472489653, -17158.87542472785, -2535.425428798846, -1706.399226951507, -5590.640674905858, -6636.367039247399, -17050.67062981971, -14631.6530861441, -19949.133092061653, -12609.624875739202, -6377.2209140325685, -9987.519381942677, -11829.303125059978, -12250.745266764792, 0.004, -0.004, 0.495, 192.0, 0.0, 0.0, 0.0, 0.0, 0.0, 0.0, 0.0, 0.0, 0.0, 1.6444990897855203E9, 0.0, 2022-02-11 00:18:09.785
24.0, -9240.97111713542, -11089.750956267233, -10751.345545213884, -17149.10771240088, -2538.9346526783293, -1713.238860754831, -5588.740776627157, -6639.496283471141, -17046.55790883993, -14635.13995827913, -19960.174853822573, -12616.084529886786, -6378.562018699887, -9994.247257023724, -11840.210776354168, -12258.389563368508, 0.006, -0.006, 0.7424999999999999, 192.0, 0.0, 32.0, 127.5, 96.0, 15.0, 120.0, 0.0, 0.0, 0.0, 1.6444990897855277E9, 0.0, 2022-02-11 00:18:09.785
26.0, -9220.429863980993, -11081.838438730054, -10738.046257262977, -17143.184500120224, -2519.913318146863, -1686.1261947305436, -5574.972102042688, -6630.488530455653, -17043.00398147154, -14615.269257458362, -19952.37409500767, -12599.499535500949, -6368.7719546284625, -9976.4552684373, -11829.079607615426, -12246.18551089591, 0.006, -0.006, 0.7424999999999999, 192.0, 0.0, 0.0, 0.0, 0.0, 0.0, 0.0, 0.0, 0.0, 0.0, 1.644499089785535E9, 0.0, 2022-02-11 00:18:09.785
28.0, -9232.142178075574, -11075.267025860194, -10748.663335879248, -17137.618915750852, -2535.760704965676, -1702.3312094606413, -5616.5463467295585, -6637.059943325513, -17041.461711104123, -14615.001036524896, -19943.18752803654, -12590.82705865229, -6364.279253992946, -9973.840114336028, -11827.447930270187, -12247.28074637422, 0.006, -0.006, 0.7424999999999999, 192.0, 0.0, 0.0, 0.0, 0.0, 0.0, 0.0, 0.0, 0.0, 0.0, 1.6444990897855422E9, 0.0, 2022-02-11 00:18:09.785
30.0, -9225.995448350364, -11086.174677154384, -10741.22020497563, -17137.1942326062, -2535.0901526320163, -1701.1689187489653, -5582.661102135313, -6634.064809568502, -17038.4218738582, -14607.826126554744, -19951.457673485, -12591.005872607931, -6372.571751185865, -9995.476602968765, -11838.981430409125, -12250.007659197767, 0.006, -0.006, 0.7424999999999999, 192.0, 0.0, 0.0, 0.0, 0.0, 0.0, 0.0, 0.0, 0.0, 0.0, 1.644499089785549E9, 0.0, 2022-02-11 00:18:09.785
32.0, -9228.677657685, -11093.215476657806, -10749.758571357557, -17147.900718200293, -2544.4331818143346, -1710.109616531088, -5576.268503221096, -6641.977327105681, -17053.576356598896, -14602.595818352202, -19946.272068771374, -12600.885343657177, -6378.852591377806, -9995.811879135596, -11829.213718082157, -12249.426513841929, 0.006, -0.006, 0.7424999999999999, 192.0, 0.0, 0.0, 0.0, 0.0, 0.0, 0.0, 0.0, 0.0, 0.0, 1.644499089785556E9, 0.0, 2022-02-11 00:18:09.785
34.0, -9237.238375811385, -11089.14745916694, -10755.815894104946, -17145.643192010306, -2545.841341715019, -1710.62370665356, -5586.907933581821, -6644.793646907049, -17055.655068833243, -14633.865908845177, -19966.634507970157, -12616.911544431632, -6389.715539183086, -9999.522268715176, -11842.982392666627, -12256.310851134163, 0.007, -0.007, 0.86525, 192.0, 0.0, 32.0, 127.5, 96.0, 15.0, 112.0, 0.0, 0.0, 0.0, 1.6444990897855628E9, 0.0, 2022-02-11 00:18:09.785
36.0, -9231.628087953102, -11082.28547361916, -10742.673068365226, -17140.368180318856, -2528.6975537177987, -1696.117424502066, -5581.364700956906, -6634.154216546323, -17048.435455374176, -14624.120548262663, -19948.060208327795, -12602.472317513504, -6380.417213489677, -9982.490239440232, -11836.634497241319, -12249.337106864108, 0.007, -0.007, 0.86525, 192.0, 0.0, 0.0, 0.0, 0.0, 0.0, 0.0, 0.0, 0.0, 0.0, 1.64449908978557E9, 0.0, 2022-02-11 00:18:09.785
38.0, -9241.708724702445, -11098.758709282722, -10754.385382459806, -17142.87157569785, -2543.1814841248374, -1711.406017709496, -5599.9390005992655, -6644.681888184773, -17059.454865390642, -14638.51507169188, -19953.04464734133, -12599.566590734315, -6384.462879236088, -9988.97224533227, -11837.953250164182, -12253.740400521803, 0.007, -0.007, 0.86525, 192.0, 0.0, 0.0, 0.0, 0.0, 0.0, 0.0, 0.0, 0.0, 0.0, 1.644499089785612E9, 0.0, 2022-02-11 00:18:09.785
40.0, -9233.617393209624, -11088.454555088825, -10749.17742600172, -17138.37887506233, -2534.6654694873655, -1702.3535612050964, -5595.021616819098, -6636.769370647594, -17048.770731541008, -14632.413045455582, -19960.89010964514, -12600.818288423812, -6378.226742533057, -9988.704024398807, -11841.037790899014, -12251.61698479855, 0.007, -0.007, 0.86525, 192.0, 0.0, 0.0, 0.0, 0.0, 0.0, 0.0, 0.0, 0.0, 0.0, 1.644499089785628E9, 0.0, 2022-02-11 00:18:09.785
42.0, -9226.01780009482, -11079.871485217987, -10746.115237011343, -17151.432293824233, -2535.134856120927, -1696.2068314798871, -5594.1275470408855, -6637.037591581058, -17054.604536843843, -14624.925211063053, -19950.451844984513, -12605.288637314874, -6381.892428623728, -9968.855675322495, -11833.549956506486, -12246.140807406999, 0.007, -0.007, 0.86525, 192.0, 0.0, 0.0, 0.0, 0.0, 0.0, 0.0, 0.0, 0.0, 0.0, 1.6444990897856348E9, 0.0, 2022-02-11 00:18:09.785
44.0, -9237.081913600197, -11084.85592423152, -10756.59820516088, -17143.408017564776, -2551.071649917561, -1710.7801688647473, -5595.960390086221, -6642.692582928251, -17053.442246132166, -14618.622019126657, -19967.752095192922, -12616.442157798072, -6388.486193238044, -10000.081062326559, -11845.910471190271, -12250.477045831329, 0.0085, -0.0105, 0.9276249999999999, 192.0, 0.0, 40.0, 127.5, 72.0, 15.0, 120.0, 0.0, 0.0, 0.0, 1.644499089785642E9, 0.0, 2022-02-11 00:18:09.785
46.0, -9237.528948489304, -11089.236866144762, -10743.03069627651, -17146.58196527743, -2537.079457888539, -1703.113520516577, -5587.578485915481, -6641.17266430529, -17051.922327509204, -14624.612286640679, -19954.74337991993, -12608.730805960991, -6384.686396680641, -9990.73803314424, -11843.72000023365, -12247.95129870788, 0.0085, -0.0105, 0.9276249999999999, 192.0, 0.0, 0.0, 0.0, 0.0, 0.0, 0.0, 0.0, 0.0, 0.0, 1.6444990897856493E9, 0.0, 2022-02-11 00:18:09.785
48.0, -9257.98079466591, -11103.184354684872, -10757.894606339289, -17152.01343918007, -2552.5021615627006, -1718.0668375571775, -5606.689227424768, -6647.185283563767, -17064.349897426357, -14640.124397292662, -19958.52082473288, -12612.105919373742, -6385.267542036479, -9997.22003903628, -11843.161206622268, -12254.276842388732, 0.0085, -0.0105, 0.9276249999999999, 192.0, 0.0, 0.0, 0.0, 0.0, 0.0, 0.0, 0.0, 0.0, 0.0, 1.644499089785656E9, 0.0, 2022-02-11 00:18:09.785
50.0, -9244.279175314805, -11094.914209236409, -10751.971394058633, -17144.77147397655, -2541.996841668706, -1703.113520516577, -5598.508488954126, -6635.718838658195, -17059.588975857376, -14644.37122873917, -19972.177740595074, -12617.760910720935, -6387.949751371116, -10000.483393726754, -11849.531453792031, -12251.505226076273, 0.0085, -0.0105, 0.9276249999999999, 192.0, 0.0, 0.0, 0.0, 0.0, 0.0, 0.0, 0.0, 0.0, 0.0, 1.6444990897856631E9, 0.0, 2022-02-11 00:18:09.785
52.0, -9238.892404901077, -11103.094947707052, -10752.530187670016, -17149.06300891197, -2541.1921788683153, -1705.0581222841886, -5585.052738792031, -6641.150312560834, -17063.277013692503, -14634.894089090121, -19960.554833478313, -12611.614180995724, -6384.194658302625, -9993.688463412342, -11837.685029230719, -12246.341973107097, 0.0085, -0.0105, 0.9276249999999999, 192.0, 0.0, 0.0, 0.0, 0.0, 0.0, 0.0, 0.0, 0.0, 0.0, 1.64449908978567E9, 0.0, 2022-02-11 00:18:09.785
54.0, -9246.894329416076, -11091.360281868016, -10756.821722605435, -17148.705381000684, -2545.5507690371, -1711.8977560875126, -5596.653294164335, -6645.263033540611, -17061.019487502515, -14639.47619670346, -19972.28949931735, -12624.242916612973, -6383.568809457875, -9999.49991697072, -11842.82593045544, -12252.958089465868, 0.009250000000000001, -0.009250000000000001, 0.9588125, 192.0, 0.0, 40.0, 127.5, 96.0, 15.0, 120.0, 0.0, 0.0, 0.0, 1.6444990897856784E9, 0.0, 2022-02-11 00:18:09.785
56.0, -9236.076085099709, -11086.934636465865, -10737.353353184862, -17148.705381000684, -2540.968661423762, -1703.4487966834065, -5604.901087868344, -6643.765466662106, -17055.208033944135, -14632.971839066964, -19959.057266599808, -12608.037901882875, -6385.960446114594, -9980.478582439255, -11838.735561220117, -12249.493569075295, 0.009250000000000001, -0.009250000000000001, 0.9588125, 192.0, 0.0, 0.0, 0.0, 0.0, 0.0, 0.0, 0.0, 0.0, 0.0, 1.6444990897856855E9, 0.0, 2022-02-11 00:18:09.785
58.0, -9256.326765576216, -11107.788814042666, -10755.905301082767, -17153.935689203227, -2559.3417953660246, -1723.1853870374428, -5600.922477355299, -6655.120152845401, -17063.634641603785, -14642.985420582942, -19953.42462699707, -12609.714282717025, -6390.274332794468, -9996.102451813515, -11839.920203676249, -12258.322508135141, 0.009250000000000001, -0.009250000000000001, 0.9588125, 192.0, 0.0, 0.0, 0.0, 0.0, 0.0, 0.0, 0.0, 0.0, 0.0, 1.6444990897856936E9, 0.0, 2022-02-11 00:18:09.785
60.0, -9249.554187006259, -11102.469098862302, -10753.111333025854, -17149.77826473454, -2558.000690698706, -1717.53039569025, -5623.363628788427, -6654.606062722929, -17065.24396720457, -14640.258507759394, -19968.824978926776, -12619.772567721911, -6398.611533476297, -10008.820594408584, -11848.68208750273, -12259.887130247012, 0.009250000000000001, -0.009250000000000001, 0.9588125, 192.0, 0.0, 0.0, 0.0, 0.0, 0.0, 0.0, 0.0, 0.0, 0.0, 1.6444990897857003E9, 0.0, 2022-02-11 00:18:09.785
62.0, -9252.25874808535, -11110.96276175532, -10752.709001625659, -17153.801578736493, -2560.973472711262, -1722.1572067924985, -5620.547308987058, -6660.46221977022, -17070.451923662655, -14641.376094982159, -19956.687981687544, -12609.624875739202, -6397.985684631549, -10005.55723971811, -11842.647116499797, -12259.171874424443, 0.009250000000000001, -0.009250000000000001, 0.9588125, 192.0, 0.0, 0.0, 0.0, 0.0, 0.0, 0.0, 0.0, 0.0, 0.0, 1.6444990897857072E9, 0.0, 2022-02-11 00:18:09.785
64.0, -9258.092553388185, -11102.290284906661, -10761.202664518674, -17154.91916595926, -2565.8014495136085, -1726.8957766170236, -5609.572602459503, -6663.122077360401, -17073.737630097585, -14659.413952757592, -19978.168008109096, -12627.126291647708, -6404.959428901605, -10014.810861922606, -11848.078590402436, -12265.00567972728, 0.008625, -0.009625000000000002, 0.97540625, 192.0, 0.0, 32.0, 127.5, 88.0, 15.5, 0.0, 0.0, 0.0, 0.0, 1.644499089785715E9, 0.0, 2022-02-11 00:18:09.785
66.0, -9236.92545138901, -11086.487601576759, -10751.881987080811, -17156.752009004595, -2554.066783674572, -1716.949250334412, -5622.8271869215, -6656.327147045988, -17063.098199736858, -14639.27503100336, -19964.80166492482, -12624.555841035348, -6393.425928762666, -10013.290943299646, -11846.715133990661, -12262.882264004025, 0.008625, -0.009625000000000002, 0.97540625, 192.0, 0.0, 0.0, 0.0, 0.0, 0.0, 0.0, 0.0, 0.0, 0.0, 1.6444990897857225E9, 0.0, 2022-02-11 00:18:09.785
68.0, -9260.26067260035, -11117.44476764736, -10751.680821380714, -17156.23791888212, -2562.2922256341253, -1727.3428115061297, -5611.114872826919, -6659.791667436561, -17067.255624205547, -14646.807568884798, -19961.89593814563, -12616.151585120153, -6396.421062519677, -10010.631085709463, -11842.445950799698, -12263.217540170854, 0.008625, -0.009625000000000002, 0.97540625, 192.0, 0.0, 0.0, 0.0, 0.0, 0.0, 0.0, 0.0, 0.0, 0.0, 1.6444990897857292E9, 0.0, 2022-02-11 00:18:09.785
70.0, -9247.967213149932, -11106.715930308812, -10752.217263247641, -17151.655811268785, -2560.3252721220583, -1717.105712545599, -5614.020599606109, -6656.528312746086, -17059.119589223814, -14649.221557285973, -19969.070848115785, -12617.202117109551, -6394.07412935187, -9995.521306457676, -11845.86576770136, -12259.75301978028, 0.008625, -0.009625000000000002, 0.97540625, 192.0, 0.0, 0.0, 0.0, 0.0, 0.0, 0.0, 0.0, 0.0, 0.0, 1.644499089785736E9, 0.0, 2022-02-11 00:18:09.785
72.0, -9246.849625927165, -11094.824802258589, -10755.70413538267, -17157.10963691588, -2562.2922256341253, -1721.7548753923031, -5629.867986424922, -6665.98310065068, -17070.80955157394, -14635.385827468137, -19959.817225911287, -12609.200192594551, -6397.806870675907, -10006.183088562857, -11844.703476989685, -12262.792857026203, 0.008625, -0.009625000000000002, 0.97540625, 192.0, 0.0, 0.0, 0.0, 0.0, 0.0, 0.0, 0.0, 0.0, 0.0, 1.6444990897857451E9, 0.0, 2022-02-11 00:18:09.785
74.0, -9247.40841953855, -11091.203819656828, -10761.22501626313, -17154.20391013669, -2560.884065733441, -1723.0512765707108, -5611.450148993748, -6661.825676181994, -17064.394600915268, -14642.538385693835, -19971.261319072404, -12628.847375970767, -6398.544478242931, -10014.564992733598, -11851.140779392814, -12269.118400707055, 0.004, -0.006, 0.99, 192.0, 0.0, 16.0, 127.5, 104.0, 15.0, 120.0, 0.0, 0.0, 0.0, 1.644499089785755E9, 0.0, 2022-02-11 00:18:09.785
76.0, -9237.7301141894, -11098.892819749453, -10752.038449291998, -17152.16990139126, -2552.07747841805, -1713.4176747104734, -5609.818471648511, -6649.643975453851, -17062.964089270128, -14643.633621172146, -19966.008659125408, -12612.620009496213, -6396.0634346083925, -10009.044111853136, -11843.742351978106, -12259.708316291371, 0.004, -0.006, 0.99, 192.0, 0.0, 0.0, 0.0, 0.0, 0.0, 0.0, 0.0, 0.0, 0.0, 1.6444990897857616E9, 0.0, 2022-02-11 00:18:09.785
78.0, -9250.671774229024, -11096.456479603825, -10756.79937086098, -17153.265136869566, -2557.88893197643, -1720.4361224694399, -5615.96520137372, -6656.304795301533, -17064.349897426357, -14650.04857183082, -19957.917327632586, -12610.183669350585, -6395.437585763644, -10005.870164140482, -11840.523700776543, -12257.607252312571, 0.004, -0.006, 0.99, 192.0, 0.0, 0.0, 0.0, 0.0, 0.0, 0.0, 0.0, 0.0, 0.0, 1.6444990897857685E9, 0.0, 2022-02-11 00:18:09.785
80.0, -9240.92641364651, -11085.526476565181, -10750.049144035476, -17150.58292753493, -2554.938501708329, -1715.0046485668004, -5607.53859371407, -6653.823751666993, -17054.626888588296, -14630.267277987872, -19963.684077702055, -12617.11271013173, -6391.973065373071, -10018.208327079812, -11850.403171825788, -12260.28946164721, 0.004, -0.006, 0.99, 192.0, 0.0, 0.0, 0.0, 0.0, 0.0, 0.0, 0.0, 0.0, 0.0, 1.644499089785776E9, 0.0, 2022-02-11 00:18:09.785
82.0, -9241.418152024526, -11099.965703483309, -10754.36303071535, -17155.746180504106, -2557.196027898315, -1709.3943607085182, -5602.978837845188, -6654.360193533921, -17063.880510792795, -14648.349839252216, -19950.921231618075, -12615.59279150877, -6391.235457806046, -9994.291960512634, -11841.14954962129, -12258.166045923954, 0.004, -0.006, 0.99, 192.0, 0.0, 0.0, 0.0, 0.0, 0.0, 0.0, 0.0, 0.0, 0.0, 1.6444990897857833E9, 0.0, 2022-02-11 00:18:09.785
84.0, -9253.577501008212, -11098.781061027177, -10754.9888795601, -17153.10867465838, -2566.0249669581613, -1715.4293317114511, -5607.4491867362485, -6657.1541615908345, -17060.10306597985, -14647.23225202945, -19965.516920747392, -12617.716207232024, -6393.7165014405855, -9995.342492502034, -11849.509102047576, -12260.71414479186, 0.006, -0.004, 0.99, 192.0, 0.0, 24.0, 127.5, 112.0, 15.0, 120.0, 0.0, 0.0, 0.0, 1.6444990897861881E9, 0.0, 2022-02-11 00:18:09.786
86.0, -9236.612526966635, -11083.134839908462, -10746.674030622726, -17151.16407289077, -2551.295167362114, -1704.0299420392446, -5613.752378672645, -6649.4651614982085, -17061.08654273588, -14639.453844959004, -19962.119455590186, -12607.188535593574, -6394.118832840781, -9995.945989602327, -11845.239918856612, -12255.394429611497, 0.006, -0.004, 0.99, 192.0, 0.0, 0.0, 0.0, 0.0, 0.0, 0.0, 0.0, 0.0, 0.0, 1.6444990897862031E9, 0.0, 2022-02-11 00:18:09.786
88.0, -9248.280137572305, -11089.90741847842, -10755.279452238019, -17153.15337814729, -2560.45938258879, -1711.0930932871215, -5616.5463467295585, -6653.667289455806, -17064.707525337642, -14637.553946680302, -19955.480987486957, -12611.97180890701, -6393.962370629593, -10000.014007093192, -11844.882290945327, -12259.32833663563, 0.006, -0.004, 0.99, 192.0, 0.0, 0.0, 0.0, 0.0, 0.0, 0.0, 0.0, 0.0, 0.0, 1.6444990897862108E9, 0.0, 2022-02-11 00:18:09.786
90.0, -9239.182977578996, -11093.550752824636, -10745.981126544611, -17146.671372255252, -2549.842303972519, -1707.4274071964512, -5593.233477262674, -6643.117266072902, -17056.95147001165, -14649.020391585875, -19964.19816782453, -12615.235163597485, -6392.151879328714, -10004.238486795246, -11846.62572701284, -12257.271976145743, 0.006, -0.004, 0.99, 192.0, 0.0, 0.0, 0.0, 0.0, 0.0, 0.0, 0.0, 0.0, 0.0, 1.6444990897862186E9, 0.0, 2022-02-11 00:18:09.786
92.0, -9240.524082246315, -11088.231037644273, -10743.321268954429, -17151.946383946703, -2548.769420238664, -1711.562479920683, -5596.161555786319, -6652.393240021854, -17059.43251364619, -14633.08359778924, -19948.32842926126, -12608.730805960991, -6388.285027537946, -10003.970265861783, -11835.226337340635, -12257.383734868019, 0.006, -0.004, 0.99, 192.0, 0.0, 0.0, 0.0, 0.0, 0.0, 0.0, 0.0, 0.0, 0.0, 1.6444990897862265E9, 0.0, 2022-02-11 00:18:09.786
94.0, -9247.207253838451, -11081.927845707876, -10759.258062751063, -17148.168939133757, -2559.9229407218627, -1711.2942589872193, -5611.53955597157, -6654.136676089368, -17060.90772878024, -14635.743455379423, -19962.43238001256, -12623.058274156843, -6392.26363805099, -10008.060635097103, -11841.350715321389, -12263.28459540422, 0.008, -0.006, 0.99, 192.0, 0.0, 32.0, 127.5, 104.0, 15.0, 120.0, 0.0, 0.0, 0.0, 1.644499089786235E9, 0.0, 2022-02-11 00:18:09.786
96.0, -9239.004163623353, -11089.10275567803, -10743.611841632348, -17152.39341883581, -2553.3738795964578, -1701.7277123603478, -5622.1789863322965, -6656.79653367955, -17059.61132760183, -14646.494644462426, -19957.067961343284, -12611.100090873253, -6391.660140950697, -9999.902248370916, -11842.647116499797, -12257.47314184584, 0.008, -0.006, 0.99, 192.0, 0.0, 0.0, 0.0, 0.0, 0.0, 0.0, 0.0, 0.0, 0.0, 1.6444990897862437E9, 0.0, 2022-02-11 00:18:09.786
98.0, -9256.080896387208, -11104.860735519022, -10756.50879818306, -17159.948308461702, -2560.3476238665135, -1712.0318665542445, -5615.093483339963, -6656.1036296014345, -17071.39069692978, -14656.597632956224, -19960.197205567027, -12608.999026894455, -6396.108138097303, -9995.141326801935, -11840.188424609712, -12262.301118648187, 0.008, -0.006, 0.99, 192.0, 0.0, 0.0, 0.0, 0.0, 0.0, 0.0, 0.0, 0.0, 0.0, 1.6444990897862508E9, 0.0, 2022-02-11 00:18:09.786
100.0, -9250.470608528925, -11093.886028991465, -10748.640984134792, -17151.52170080205, -2551.5633882955776, -1708.8579188415908, -5606.3315995134835, -6653.55553073353, -17062.85233054785, -14647.008734584897, -19966.679211459068, -12612.731768218491, -6391.637789206242, -10002.048015838625, -11844.479959545131, -12261.00471746978, 0.008, -0.006, 0.99, 192.0, 0.0, 0.0, 0.0, 0.0, 0.0, 0.0, 0.0, 0.0, 0.0, 1.644499089786258E9, 0.0, 2022-02-11 00:18:09.786
102.0, -9241.239338068885, -11076.026985171675, -10747.568100400937, -17154.360372347877, -2552.099830162505, -1706.4439304404177, -5608.63382919238, -6648.45933299772, -17063.969917770617, -14622.08653951723, -19946.76380714939, -12608.484936771982, -6387.12273682627, -10005.668998440386, -11837.3944565528, -12257.674307545938, 0.008, -0.006, 0.99, 192.0, 0.0, 0.0, 0.0, 0.0, 0.0, 0.0, 0.0, 0.0, 0.0, 1.6444990897862651E9, 0.0, 2022-02-11 00:18:09.786
104.0, -9252.392858552083, -11078.038642172653, -10759.749801129079, -17157.020229938058, -2559.811181999586, -1718.6032794241048, -5600.5201459551035, -6654.203731322734, -17062.874682292306, -14634.067074545273, -19962.6111939682, -12631.730751005502, -6391.146050828225, -10021.225812581279, -11841.3954188103, -12262.56933958165, 0.006, -0.006, 0.996, 192.0, 0.0, 24.0, 127.5, 104.0, 15.5, 16.0, 0.0, 0.0, 0.0, 1.6444990897862833E9, 0.0, 2022-02-11 00:18:09.786
106.0, -9241.976945635908, -11115.746035068756, -10753.983051059611, -17157.82489273845, -2550.043469672617, -1712.657715398993, -5597.301494753539, -6652.013260366114, -17065.04280150447, -14659.413952757592, -19966.008659125408, -12615.995122908966, -6393.805908418407, -10017.761292190706, -11841.685991488219, -12260.244758158298, 0.006, -0.006, 0.996, 192.0, 0.0, 0.0, 0.0, 0.0, 0.0, 0.0, 0.0, 0.0, 0.0, 1.6444990897862904E9, 0.0, 2022-02-11 00:18:09.786
108.0, -9260.864169700644, -11108.928753009886, -10766.231807021119, -17167.77141902106, -2562.135763422938, -1717.105712545599, -5618.893279897366, -6659.74696394765, -17075.078734764902, -14665.918310394087, -19964.399333524627, -12615.63749499768, -6394.856440407806, -10014.117957844492, -11843.183558366723, -12264.513941349262, 0.006, -0.006, 0.996, 192.0, 0.0, 0.0, 0.0, 0.0, 0.0, 0.0, 0.0, 0.0, 0.0, 1.644499089786297E9, 0.0, 2022-02-11 00:18:09.786
110.0, -9258.204312110462, -11100.993883728253, -10761.292071496497, -17160.238881139623, -2555.4078883418906, -1719.4526457134064, -5608.589125703469, -6657.243568568656, -17071.927138796706, -14651.18851079804, -19973.7647144514, -12623.237088112484, -6400.243210821535, -10012.061597354603, -11853.174788138245, -12266.279729161231, 0.006, -0.006, 0.996, 192.0, 0.0, 0.0, 0.0, 0.0, 0.0, 0.0, 0.0, 0.0, 0.0, 1.6444990897863555E9, 0.0, 2022-02-11 00:18:09.786
112.0, -9255.41034405355, -11098.021101715696, -10760.196836018185, -17170.565387077975, -2561.3311006225467, -1712.3447909766187, -5620.3014397980505, -6660.708088959228, -17076.419839432223, -14654.89890037762, -19961.359496278703, -12625.293448602373, -6404.288876567945, -10014.654399711419, -11848.525625291542, -12264.133961693522, 0.006, -0.006, 0.996, 192.0, 0.0, 0.0, 0.0, 0.0, 0.0, 0.0, 0.0, 0.0, 0.0, 1.6444990897863631E9, 0.0, 2022-02-11 00:18:09.786
114.0, -9260.908873189554, -11093.394290613449, -10768.198760533185, -17168.1513986768, -2572.8646007614852, -1719.2514800133085, -5627.2304805791955, -6666.69835647325, -17075.257548720547, -14654.518920721881, -19975.441095285547, -12622.521832289915, -6407.820452191884, -10019.08004511357, -11858.673317274252, -12270.817133285658, 0.004, -0.002, 0.994, 192.0, 0.0, 16.0, 127.5, 120.0, 15.5, 8.0, 0.0, 0.0, 0.0, 1.6444990897863708E9, 0.0, 2022-02-11 00:18:09.786
116.0, -9240.121750846118, -11089.840363245054, -10757.268757494541, -17165.804465508994, -2563.2086471567927, -1711.920107831968, -5616.702808940746, -6666.877170428893, -17067.009755016537, -14656.530577722859, -19969.115551604697, -12620.085492144286, -6400.98081838856, -10016.196670078834, -11854.270023616557, -12265.609176827571, 0.004, -0.002, 0.994, 192.0, 0.0, 0.0, 0.0, 0.0, 0.0, 0.0, 0.0, 0.0, 0.0, 1.6444990897863784E9, 0.0, 2022-02-11 00:18:09.786
118.0, -9268.731983748912, -11118.204726958838, -10774.479600725128, -17170.811256266985, -2578.4748886197676, -1728.1251225620656, -5614.601744961947, -6672.934493176281, -17078.85617957785, -14658.989269612941, -19968.37794403767, -12619.481995043994, -6406.0993678688255, -10037.587289522564, -11856.236977128623, -12270.95124375239, 0.004, -0.002, 0.994, 192.0, 0.0, 0.0, 0.0, 0.0, 0.0, 0.0, 0.0, 0.0, 0.0, 1.644499089786386E9, 0.0, 2022-02-11 00:18:09.786
120.0, -9264.708669746957, -11118.361189170026, -10770.188065789707, -17170.2524626556, -2564.5274000796558, -1724.2806225157528, -5599.983704088176, -6665.916045417314, -17079.43732493369, -14670.701583707523, -19985.99111866845, -12631.417826583127, -6411.441434793644, -10035.910908688416, -11860.349698108399, -12272.962900753368, 0.004, -0.002, 0.994, 192.0, 0.0, 0.0, 0.0, 0.0, 0.0, 0.0, 0.0, 0.0, 0.0, 1.6444990897863936E9, 0.0, 2022-02-11 00:18:09.786
122.0, -9258.964271421943, -11120.998695015753, -10765.13657154281, -17175.996860980613, -2562.0463564451165, -1730.9861458523449, -5612.187756560774, -6666.497190773152, -17082.14188601278, -14668.42170577308, -19970.14373184964, -12631.373123094216, -6403.350103300822, -10028.780702207172, -11851.230186370634, -12271.331223408131, 0.004, -0.002, 0.994, 192.0, 0.0, 0.0, 0.0, 0.0, 0.0, 0.0, 0.0, 0.0, 0.0, 1.6444990897864003E9, 0.0, 2022-02-11 00:18:09.786
124.0, -9267.92732094852, -11104.413700629915, -10769.405754733772, -17170.07364869996, -2574.7644990401864, -1733.6460034425263, -5622.804835177045, -6673.761507721128, -17083.348880213365, -14666.790028427844, -19983.085391889264, -12639.26328888694, -6408.133376614258, -10039.330725590078, -11854.96292769467, -12277.410897899974, 0.004, -0.002, 0.994, 192.0, 0.0, 0.0, 127.5, 96.0, 15.0, 120.0, 0.0, 0.0, 0.0, 1.6444990897864077E9, 0.0, 2022-02-11 00:18:09.786
126.0, -9253.935128919498, -11105.933619252875, -10757.626385405825, -17173.091134201426, -2564.2368274017367, -1721.240785269831, -5629.666820724824, -6663.345594804954, -17079.079697022404, -14661.7608859254, -19972.960051651007, -12630.25553587145, -6401.7631294444955, -10028.065446384602, -11853.688878260718, -12271.241816430309, 0.004, -0.002, 0.994, 192.0, 0.0, 0.0, 0.0, 0.0, 0.0, 0.0, 0.0, 0.0, 0.0, 1.644499089786415E9, 0.0, 2022-02-11 00:18:09.786
128.0, -9266.161533136552, -11110.33691291057, -10769.606920433871, -17178.88023601535, -2577.3796531414573, -1735.3223842766745, -5636.797027206067, -6677.181324622789, -17084.75704011405, -14664.95718538251, -19969.249662071426, -12626.388684080683, -6401.830184677861, -10019.437673024855, -11855.477017817142, -12276.226255443842, 0.004, -0.002, 0.994, 192.0, 0.0, 0.0, 0.0, 0.0, 0.0, 0.0, 0.0, 0.0, 0.0, 1.644499089786422E9, 0.0, 2022-02-11 00:18:09.786
130.0, -9256.706745231957, -11100.09981395004, -10765.181275031719, -17170.00659346659, -2574.6974438068205, -1724.5488434492165, -5624.458864266738, -6662.496228515653, -17074.341127197877, -14658.743400423933, -19981.744287221944, -12628.221527126017, -6404.288876567945, -10036.156777877424, -11863.277776632045, -12278.036746744723, 0.004, -0.002, 0.994, 192.0, 0.0, 0.0, 0.0, 0.0, 0.0, 0.0, 0.0, 0.0, 0.0, 1.6444990897864296E9, 0.0, 2022-02-11 00:18:09.786
130.0, -4943.31180373571, -5877.726480689822, -5466.007347823066, -8533.292535935943, -1965.5006486774266, -1306.6382773683404, -3287.226353553099, -3555.313176550052, -17074.341127197877, -14658.743400423933, -19981.744287221944, -12628.221527126017, -6404.288876567945, -10036.156777877424, -11863.277776632045, -12278.036746744723, 0.004, -0.002, 0.994, 192.0, 0.0, 0.0, 0.0, 0.0, 0.0, 0.0, 0.0, 0.0, 0.0, 1.6444990903672557E9, 0.0, 2022-02-11 00:18:10.367
2.0, -9893.664406974842, -11751.22848167759, -10947.59386153148, -17066.51801663852, -3943.071239360719, -2614.684714637365, -6575.950273984704, -7114.381446168595, -17456.98064052828, -15202.047252899081, -20882.00549864835, -12966.917510857285, -7939.272575291703, -11037.000839352708, -12324.506023467306, -12420.88674555859, 0.004, -0.002, 0.994, 192.0, 0.0, 0.0, 0.0, 0.0, 0.0, 0.0, 0.0, 0.0, 0.0, 1.6444990903673697E9, 0.0, 2022-02-11 00:18:10.367
4.0, -9876.408860255344, -11735.984591959072, -10945.31398359704, -17055.342144410868, -3943.1829980829953, -2609.94614481284, -6585.986207245137, -7115.230812457898, -17448.68814333536, -15201.711976732253, -20893.918978443024, -12975.14295281684, -7943.787627671675, -11028.194252037318, -12336.374799773073, -12421.020856025321, 0.004, -0.002, 0.994, 192.0, 0.0, 0.0, 0.0, 0.0, 0.0, 0.0, 0.0, 0.0, 0.0, 1.6444990903673847E9, 0.0, 2022-02-11 00:18:10.367
6.0, -9891.786860440596, -11760.102124226347, -10945.269280108128, -17060.28187993549, -3943.205349827451, -2613.880051836974, -6580.174753686757, -7115.610792113637, -17459.193463229356, -15212.776090237629, -20877.51279801283, -12958.580310175457, -7943.742924182764, -11026.160243291884, -12330.67510493697, -12418.472757157417, 0.007, -0.005, 0.993, 192.0, 0.0, 40.0, 127.5, 96.0, 15.5, 0.0, 0.0, 0.0, 0.0, 1.644499090367391E9, 0.0, 2022-02-11 00:18:10.367
8.0, -9900.39228205589, -11756.011754991026, -10947.25858536465, -17055.52095836651, -3941.573672482213, -2613.4777204367783, -6572.597512316408, -7109.1958414549645, -17459.551091140638, -15227.036503200115, -20889.895664441072, -12969.532664958557, -7945.866339906019, -11034.877423629454, -12335.34661952813, -12420.484414158394, 0.007, -0.005, 0.993, 192.0, 0.0, 0.0, 0.0, 0.0, 0.0, 0.0, 0.0, 0.0, 0.0, 1.6444990903673983E9, 0.0, 2022-02-11 00:18:10.367
10.0, -9871.022089841616, -11734.196452402646, -10931.098274123464, -17054.537481610478, -3913.3434192351606, -2593.651723104921, -6567.456611091687, -7098.444652371962, -17452.331477681575, -15206.785822723607, -20875.501141011853, -12959.161455531295, -7929.706028664831, -11015.476109442248, -12322.472014721872, -12412.50484138785, 0.007, -0.005, 0.993, 192.0, 0.0, 0.0, 0.0, 0.0, 0.0, 0.0, 0.0, 0.0, 0.0, 1.6444990903674047E9, 0.0, 2022-02-11 00:18:10.367
12.0, -9885.953055137761, -11740.186719916668, -10945.515149297136, -17062.94173752567, -3922.5746896952023, -2605.8557755775187, -6559.454686576687, -7099.271666916808, -17453.717285837804, -15191.00549113816, -20873.444780521964, -12963.430638722259, -7927.493205963756, -11029.937688104832, -12314.805366373703, -12412.706007087947, 0.007, -0.005, 0.993, 192.0, 0.0, 0.0, 0.0, 0.0, 0.0, 0.0, 0.0, 0.0, 0.0, 1.6444990903674114E9, 0.0, 2022-02-11 00:18:10.367
14.0, -9883.851991158961, -11743.003039718038, -10945.917480697331, -17059.141940968268, -3913.4328262129816, -2600.625467374977, -6556.414849330766, -7097.975265738401, -17450.297468936144, -15211.01030242566, -20889.158056874046, -12972.863074882398, -7931.963554854818, -11028.283659015138, -12319.499232709317, -12418.182184479498, 0.007, -0.005, 0.993, 192.0, 0.0, 0.0, 0.0, 0.0, 0.0, 0.0, 0.0, 0.0, 0.0, 1.644499090367418E9, 0.0, 2022-02-11 00:18:10.367
16.0, -9880.14160157938, -11738.331525126878, -10935.076884636508, -17061.220653202614, -3914.550413435747, -2602.0336272756613, -6565.422602346254, -7103.429091385495, -17447.30233517913, -15209.937418691805, -20869.399114775555, -12959.630842164855, -7922.508766950223, -11028.216603781773, -12309.977389571357, -12416.058768756244, 0.006500000000000001, -0.006500000000000001, 0.9915, 192.0, 0.0, 24.0, 127.5, 96.0, 15.0, 120.0, 0.0, 0.0, 0.0, 1.6444990903674245E9, 0.0, 2022-02-11 00:18:10.367
18.0, -9891.295122062578, -11733.503548324532, -10942.475312051214, -17059.164292712725, -3921.5018059613476, -2610.907269824418, -6569.736489026129, -7102.31150416273, -17453.717285837804, -15224.287238632112, -20881.737277714885, -12962.290699755038, -7931.605926943533, -11022.449853712304, -12312.838412861636, -12419.947972291468, 0.006500000000000001, -0.006500000000000001, 0.9915, 192.0, 0.0, 0.0, 0.0, 0.0, 0.0, 0.0, 0.0, 0.0, 0.0, 1.6444990903674316E9, 0.0, 2022-02-11 00:18:10.367
20.0, -9870.105668318947, -11717.790271972452, -10931.612364245935, -17056.66089733373, -3908.135462777074, -2606.191051744348, -6555.990166186115, -7096.50005060435, -17451.280945692175, -15199.745023220185, -20873.109504355136, -12964.101191055917, -7925.258031518225, -11013.017417552164, -12310.692645393927, -12414.516498388828, 0.006500000000000001, -0.006500000000000001, 0.9915, 192.0, 0.0, 0.0, 0.0, 0.0, 0.0, 0.0, 0.0, 0.0, 0.0, 1.6444990903674388E9, 0.0, 2022-02-11 00:18:10.367
22.0, -9890.356348795456, -11742.444246106656, -10942.430608562305, -17056.638545589274, -3923.1558350510404, -2610.750807613231, -6570.496448337609, -7108.994675754867, -17455.326611438588, -15197.286331330102, -20873.73535319988, -12955.674583396267, -7923.492243706256, -11019.052388555097, -12308.010436059289, -12415.522326889317, 0.006500000000000001, -0.006500000000000001, 0.9915, 192.0, 0.0, 0.0, 0.0, 0.0, 0.0, 0.0, 0.0, 0.0, 0.0, 1.644499090367446E9, 0.0, 2022-02-11 00:18:10.367
24.0, -9882.019148113626, -11736.833958248373, -10935.702733481257, -17048.547214096452, -3914.617468669113, -2606.079293022072, -6569.065936692469, -7109.352303666152, -17452.44323640385, -15214.273657116135, -20885.22414984991, -12959.206159020205, -7924.319258251102, -11030.340019505027, -12316.39234023003, -12416.975190278912, 0.006500000000000001, -0.006500000000000001, 0.9915, 192.0, 0.0, 0.0, 0.0, 0.0, 0.0, 0.0, 0.0, 0.0, 0.0, 1.6444990903674524E9, 0.0, 2022-02-11 00:18:10.367
26.0, -9876.922950377817, -11731.827167490384, -10936.529748026103, -17052.03408623148, -3912.0917215456634, -2601.7207028532866, -6588.44489913522, -7110.849870544657, -17454.92428003839, -15201.600218009975, -20865.30874554023, -12950.332516471448, -7920.385351226968, -11023.589792679524, -12306.870497092068, -12414.382387922096, 0.006500000000000001, -0.006500000000000001, 0.9915, 192.0, 0.0, 0.0, 127.5, 88.0, 15.0, 112.0, 0.0, 0.0, 0.0, 1.644499090367459E9, 0.0, 2022-02-11 00:18:10.367
28.0, -9892.747985452173, -11730.284897122967, -10940.016620161132, -17053.174025198703, -3917.746712892856, -2605.140519754949, -6555.744296997106, -7095.74009129287, -17457.472378906295, -15212.887848959906, -20880.016193391824, -12957.328612485959, -7921.547641938644, -11015.297295486605, -12313.441909961928, -12419.657399613548, 0.006500000000000001, -0.006500000000000001, 0.9915, 192.0, 0.0, 0.0, 0.0, 0.0, 0.0, 0.0, 0.0, 0.0, 0.0, 1.6444990903674655E9, 0.0, 2022-02-11 00:18:10.367
30.0, -9875.380680010401, -11727.312115110411, -10929.913631667332, -17049.1730629412, -3899.552392906236, -2592.780005071164, -6547.898834693294, -7084.318349876207, -17459.953422540835, -15211.72555824823, -20875.948175900958, -12950.667792638278, -7927.113226308015, -11012.79390010761, -12305.663502891482, -12412.706007087947, 0.006500000000000001, -0.006500000000000001, 0.9915, 192.0, 0.0, 0.0, 0.0, 0.0, 0.0, 0.0, 0.0, 0.0, 0.0, 1.644499090367472E9, 0.0, 2022-02-11 00:18:10.367
32.0, -9879.783973668096, -11723.60172553083, -10936.753265470656, -17050.290650163966, -3904.782701108778, -2595.3057521946134, -6572.150477427302, -7092.49908834685, -17454.410189915918, -15204.595351766988, -20867.16394033002, -12952.99237406163, -7915.333856980069, -11008.949400061298, -12302.57896215665, -12409.085024486189, 0.006500000000000001, -0.006500000000000001, 0.9915, 192.0, 0.0, 0.0, 0.0, 0.0, 0.0, 0.0, 0.0, 0.0, 0.0, 1.6444990903674788E9, 0.0, 2022-02-11 00:18:10.367
34.0, -9880.879209146406, -11714.772786470985, -10933.244041591173, -17046.736722795573, -3896.780776593778, -2596.1774702283706, -6531.604412985374, -7087.045262699755, -17453.24789920424, -15202.538991277099, -20882.78780970428, -12959.273214253571, -7921.368827983002, -11009.08351052803, -12305.283523235741, -12407.609809352138, 0.006500000000000001, -0.006500000000000001, 0.9915, 192.0, 0.0, 0.0, 0.0, 0.0, 0.0, 0.0, 0.0, 0.0, 0.0, 1.6444990903674853E9, 0.0, 2022-02-11 00:18:10.367
36.0, -9876.654729444354, -11717.343237083345, -10929.600707244957, -17043.585126827376, -3895.618485882102, -2593.2717434491806, -6557.174808642246, -7090.196858667953, -17454.410189915918, -15186.021052124626, -20862.961812372425, -12943.738751857132, -7913.143386023448, -11008.681179127834, -12296.991026042822, -12405.195820950965, 0.00425, -0.00825, 0.99075, 192.0, 0.0, 8.0, 127.5, 88.0, 15.0, 120.0, 0.0, 0.0, 0.0, 1.644499090367494E9, 0.0, 2022-02-11 00:18:10.367
38.0, -9892.01037788515, -11723.758187742018, -10935.568623014526, -17044.769769283506, -3911.9576110789317, -2598.390292929446, -6552.302128350989, -7101.372730895607, -17452.107960237023, -15208.842183213495, -20871.388420032075, -12942.643516378823, -7916.987886069762, -11021.287563000627, -12306.19994475841, -12412.057806498744, 0.00425, -0.00825, 0.99075, 192.0, 0.0, 0.0, 0.0, 0.0, 0.0, 0.0, 0.0, 0.0, 0.0, 1.6444990903675008E9, 0.0, 2022-02-11 00:18:10.367
40.0, -9875.67125268832, -11710.45889979111, -10929.39954154486, -17043.115740193814, -3899.9547243064317, -2589.784871314153, -6555.856055719382, -7097.058844215732, -17452.756160826226, -15203.321302333034, -20869.64498396456, -12941.861205322886, -7917.434920958868, -11006.580115149036, -12309.932686082446, -12412.773062321314, 0.00425, -0.00825, 0.99075, 192.0, 0.0, 0.0, 0.0, 0.0, 0.0, 0.0, 0.0, 0.0, 0.0, 1.6444990903675072E9, 0.0, 2022-02-11 00:18:10.367
42.0, -9886.95888363825, -11723.735835997562, -10938.11672188243, -17047.34021989587, -3899.5076894173253, -2592.3776736709683, -6558.135933653824, -7100.031626228289, -17460.46751266331, -15206.517601790143, -20863.02886760579, -12939.626030877356, -7913.858641846019, -11000.723958101746, -12297.795688843215, -12410.157908220042, 0.00425, -0.00825, 0.99075, 192.0, 0.0, 0.0, 0.0, 0.0, 0.0, 0.0, 0.0, 0.0, 0.0, 1.644499090367514E9, 0.0, 2022-02-11 00:18:10.367
44.0, -9884.276674303614, -11717.74556848354, -10933.713428224735, -17048.413103629722, -3892.757462591823, -2586.297999179125, -6558.985299943126, -7100.098681461654, -17455.147797482943, -15207.948113435283, -20880.306766069745, -12952.187711261238, -7911.9587435673175, -11008.36825470546, -12303.160107512487, -12410.537887875782, 0.00425, -0.00825, 0.99075, 192.0, 0.0, 0.0, 0.0, 0.0, 0.0, 0.0, 0.0, 0.0, 0.0, 1.6444990903675203E9, 0.0, 2022-02-11 00:18:10.367
46.0, -9885.863648159939, -11722.662952263709, -10933.467559035726, -17056.459731633633, -3886.3425119331496, -2586.0297782456614, -6565.020270946058, -7098.556411094238, -17460.2216434743, -15207.344616334989, -20869.51087349783, -12948.432618192748, -7910.058845288617, -11005.239010481717, -12296.901619065002, -12410.448480897961, 0.003125, -0.010125, 0.989375, 192.0, 0.0, 8.0, 127.5, 80.0, 15.0, 112.0, 0.0, 0.0, 0.0, 1.6444990903675268E9, 0.0, 2022-02-11 00:18:10.367
48.0, -9891.898619162872, -11705.072129377382, -10938.519053282625, -17049.217766430113, -3892.846869569644, -2591.841231804041, -6568.06010819198, -7104.569030352715, -17461.02630627469, -15204.371834322434, -20878.31746081322, -12955.652231651811, -7913.545717423644, -11012.928010574344, -12303.24951449031, -12419.590344380182, 0.003125, -0.010125, 0.989375, 192.0, 0.0, 0.0, 0.0, 0.0, 0.0, 0.0, 0.0, 0.0, 0.0, 1.6444990903675334E9, 0.0, 2022-02-11 00:18:10.367
50.0, -9873.838409642984, -11696.198486828624, -10931.142977612375, -17048.882490263284, -3873.803183293722, -2577.066728719083, -6544.702535236184, -7092.364977880118, -17450.945669525347, -15193.263017328147, -20867.812140919228, -12945.482187924646, -7901.073444017583, -11002.266228469161, -12297.81804058767, -12411.051977998255, 0.003125, -0.010125, 0.989375, 192.0, 0.0, 0.0, 0.0, 0.0, 0.0, 0.0, 0.0, 0.0, 0.0, 1.6444990903675404E9, 0.0, 2022-02-11 00:18:10.367
52.0, -9896.72659596522, -11724.518147053499, -10936.328582326005, -17057.309097922935, -3876.7312618173673, -2590.2542579477144, -6553.0844394069245, -7100.903344262046, -17467.396553444454, -15198.828601697518, -20871.52253049881, -12950.757199616099, -7896.491336404245, -11003.540277903114, -12294.375871941553, -12411.811937309736, 0.003125, -0.010125, 0.989375, 192.0, 0.0, 0.0, 0.0, 0.0, 0.0, 0.0, 0.0, 0.0, 0.0, 1.6444990903675468E9, 0.0, 2022-02-11 00:18:10.367
54.0, -9900.794613456084, -11736.364571614811, -10937.222652104218, -17051.922327509204, -3872.752651304323, -2576.5302868521558, -6555.319613852455, -7099.606943083638, -17465.65311737694, -15214.005436182671, -20882.78780970428, -12954.378182217859, -7896.603095126521, -11010.446966939804, -12300.835526089137, -12416.729321089902, 0.003125, -0.010125, 0.989375, 192.0, 0.0, 0.0, 0.0, 0.0, 0.0, 0.0, 0.0, 0.0, 0.0, 1.6444990903675537E9, 0.0, 2022-02-11 00:18:10.367
56.0, -9909.802366471573, -11739.069132693903, -10936.552099770559, -17056.526786866998, -3873.3785001490714, -2572.886952505941, -6563.9473872122035, -7104.099643719154, -17478.88535009448, -15208.037520413105, -20874.294146811266, -12948.32085947047, -7895.597266626033, -10996.566533633058, -12293.325339952153, -12412.527193132306, 0.0025625, -0.0110625, 0.9906874999999999, 192.0, 0.0, 8.0, 127.5, 80.0, 15.5, 0.0, 0.0, 0.0, 0.0, 1.6444990903675604E9, 0.0, 2022-02-11 00:18:10.367
58.0, -9942.63707907642, -11766.092391740369, -10944.97870743021, -17058.158464212236, -3873.2220379378846, -2576.6420455744324, -6534.756008953573, -7097.863507016124, -17484.763858886225, -15224.35429386548, -20891.348527830665, -12966.001089334619, -7896.580743382066, -10998.578190634036, -12294.130002752543, -12418.517460646328, 0.0025625, -0.0110625, 0.9906874999999999, 192.0, 0.0, 0.0, 0.0, 0.0, 0.0, 0.0, 0.0, 0.0, 0.0, 1.6444990903675673E9, 0.0, 2022-02-11 00:18:10.367
60.0, -9951.443666391811, -11782.364461703834, -10939.726047483213, -17052.83874903187, -3861.5991308211246, -2565.5332285801446, -6542.601471257386, -7094.711911047925, -17490.955292100345, -15229.539898579109, -20892.64492900907, -12967.968042846685, -7893.384443924957, -11005.775452348644, -12286.91038929348, -12413.421262910517, 0.0025625, -0.0110625, 0.9906874999999999, 192.0, 0.0, 0.0, 0.0, 0.0, 0.0, 0.0, 0.0, 0.0, 0.0, 1.644499090367574E9, 0.0, 2022-02-11 00:18:10.367
62.0, -9991.721509900273, -11810.594714950887, -10953.204149389763, -17058.158464212236, -3864.5942645781356, -2568.349548381513, -6550.290471350011, -7100.83628902868, -17506.825030663615, -15232.043293958104, -20895.729469743907, -12968.638595180344, -7891.708063090809, -11003.473222669749, -12284.161124725477, -12412.996579765866, 0.0025625, -0.0110625, 0.9906874999999999, 192.0, 0.0, 0.0, 0.0, 0.0, 0.0, 0.0, 0.0, 0.0, 0.0, 1.644499090367581E9, 0.0, 2022-02-11 00:18:10.367
64.0, -10038.928394189883, -11856.01345968407, -10947.392695831382, -17061.846502047363, -3852.5019708278146, -2562.4039843564015, -6539.338116566911, -7090.30861739023, -17524.61701925004, -15253.322154679556, -20922.95389449047, -12991.057394869018, -7890.836345057052, -11004.121423258952, -12285.681043348437, -12414.471794899917, 0.0025625, -0.0110625, 0.9906874999999999, 192.0, 0.0, 0.0, 0.0, 0.0, 0.0, 0.0, 0.0, 0.0, 0.0, 1.6444990903675876E9, 0.0, 2022-02-11 00:18:10.367
66.0, -10076.345214408066, -11895.710157836695, -10948.30911735405, -17068.619080617318, -3845.483523068848, -2551.2281121287483, -6537.7064392216735, -7072.7401462483585, -17546.097045671588, -15270.510646165687, -20924.3397026467, -13003.552020019535, -7892.222153213282, -11001.238048224217, -12274.19224669841, -12405.553448862249, 0.00428125, -0.00953125, 0.98934375, 192.0, 0.0, 24.0, 127.5, 96.0, 15.0, 112.0, 0.0, 0.0, 0.0, 1.6444990903675942E9, 0.0, 2022-02-11 00:18:10.367
68.0, -10130.369380756543, -11933.194033288246, -10961.161370415852, -17074.29642370897, -3845.885854469044, -2555.720812764265, -6519.445064001688, -7077.746937006347, -17558.32344988864, -15285.531018439653, -20943.584554622717, -13010.302246845038, -7894.837307314552, -11004.054368025585, -12279.154333967488, -12411.968399520923, 0.00428125, -0.00953125, 0.98934375, 192.0, 0.0, 0.0, 0.0, 0.0, 0.0, 0.0, 0.0, 0.0, 0.0, 1.6444990903676023E9, 0.0, 2022-02-11 00:18:10.367
70.0, -10126.703694665874, -11923.962762828203, -10949.985498188198, -17076.88922606578, -3835.738162486334, -2552.1221819069606, -6524.362447781855, -7072.717794503903, -17575.511941374774, -15288.928483596861, -20953.10639776068, -13030.709389532733, -7895.843135815041, -10999.785184834622, -12273.499342620295, -12411.633123354093, 0.00428125, -0.00953125, 0.98934375, 192.0, 0.0, 0.0, 0.0, 0.0, 0.0, 0.0, 0.0, 0.0, 0.0, 1.644499090367609E9, 0.0, 2022-02-11 00:18:10.367
72.0, -10145.121532097046, -11947.007411361625, -10961.764867516145, -17076.88922606578, -3845.885854469044, -2562.8957227344185, -6533.169035097246, -7084.2512946428415, -17576.67423208645, -15282.781753871652, -20946.467929657454, -13018.19241263776, -7894.390272425446, -11016.683103642834, -12270.928892007934, -12412.0801582432, 0.00428125, -0.00953125, 0.98934375, 192.0, 0.0, 0.0, 0.0, 0.0, 0.0, 0.0, 0.0, 0.0, 0.0, 1.6444990903676157E9, 0.0, 2022-02-11 00:18:10.367
74.0, -10124.692037664896, -11941.464178736709, -10959.619100048436, -17070.85425506285, -3838.4650753098817, -2556.614882542477, -6538.332288066422, -7089.034567956277, -17574.9978512523, -15299.836134891051, -20958.85079608569, -13023.892107473865, -7895.351397437024, -11011.631609395936, -12284.831677059135, -12417.869260057123, 0.00428125, -0.00953125, 0.98934375, 192.0, 0.0, 0.0, 0.0, 0.0, 0.0, 0.0, 0.0, 0.0, 0.0, 1.6444990903676224E9, 0.0, 2022-02-11 00:18:10.367
76.0, -10106.922400822927, -11931.763521643106, -10950.11960865493, -17069.669612606718, -3838.1521508875076, -2557.0172139426727, -6542.892043935304, -7091.381501124085, -17564.112551702565, -15283.228788760756, -20934.040359740302, -12997.964083905708, -7886.8353827995525, -11005.596638393003, -12278.215560700364, -12412.54954487676, 0.005140625, -0.007765625, 0.988671875, 192.0, 0.0, 24.0, 127.5, 104.0, 15.0, 112.0, 0.0, 0.0, 0.0, 1.6444990903676288E9, 0.0, 2022-02-11 00:18:10.367
78.0, -10092.796098327171, -11901.968646284182, -10960.22259714873, -17069.446095162166, -3838.643889265524, -2557.531304065145, -6524.094226848391, -7087.894628989056, -17561.47504585684, -15290.090774308537, -20942.80224356678, -13000.936865918264, -7887.528286877667, -11008.07768202754, -12280.361328168074, -12418.02572226831, 0.005140625, -0.007765625, 0.988671875, 192.0, 0.0, 0.0, 0.0, 0.0, 0.0, 0.0, 0.0, 0.0, 0.0, 1.6444990903676357E9, 0.0, 2022-02-11 00:18:10.367
80.0, -10061.615414812019, -11872.687861047729, -10946.006887675154, -17063.344068925868, -3818.683781466935, -2545.3048998480917, -6521.479072747121, -7081.636140541571, -17551.08148468512, -15269.951852554304, -20929.257086426867, -12997.092365871951, -7880.487487374246, -10995.068966754552, -12275.242778687809, -12413.801242566258, 0.005140625, -0.007765625, 0.988671875, 192.0, 0.0, 0.0, 0.0, 0.0, 0.0, 0.0, 0.0, 0.0, 0.0, 1.6444990903676424E9, 0.0, 2022-02-11 00:18:10.367
82.0, -10057.055658943136, -11851.766628237561, -10955.394620346382, -17063.098199736858, -3823.712923969379, -2551.4069260843908, -6550.692802750207, -7096.6341610710815, -17551.61792655205, -15262.843997817517, -20913.834382752702, -12987.458764011713, -7876.777097794664, -11007.429481438337, -12275.578054854639, -12416.125823989609, 0.005140625, -0.007765625, 0.988671875, 192.0, 0.0, 0.0, 0.0, 0.0, 0.0, 0.0, 0.0, 0.0, 0.0, 1.6444990903676488E9, 0.0, 2022-02-11 00:18:10.367
84.0, -10035.575632521586, -11836.388628052311, -10955.93106221331, -17056.772656056008, -3820.9636594013764, -2541.326289335047, -6541.595642756897, -7083.379576609084, -17539.458577568363, -15266.375573441455, -20920.04816771128, -12979.658005196812, -7877.157077450404, -10996.186553977317, -12287.133906738032, -12419.120957746622, 0.005140625, -0.007765625, 0.988671875, 192.0, 0.0, 0.0, 0.0, 0.0, 0.0, 0.0, 0.0, 0.0, 0.0, 1.6444990903676555E9, 0.0, 2022-02-11 00:18:10.367
86.0, -10024.667981227396, -11834.667543729252, -10947.59386153148, -17066.80858931644, -3812.626458719547, -2544.0308504141394, -6514.505328477065, -7089.615713312115, -17538.43039732342, -15251.086980234026, -20904.223132636922, -12976.796981906533, -7872.284397159147, -10990.151582974386, -12267.196150683898, -12413.242448954876, 0.006, -0.004, 0.988, 192.0, 0.0, 24.0, 127.5, 112.0, 15.0, 112.0, 0.0, 0.0, 0.0, 1.644499090367662E9, 0.0, 2022-02-11 00:18:10.367
88.0, -10019.4153212804, -11820.38477902231, -10956.512207569147, -17071.904787052248, -3818.728484955846, -2551.004594684195, -6520.249726802079, -7097.55058259375, -17542.632525281017, -15266.755553097197, -20917.187144421, -12986.519990744591, -7878.565237351088, -10988.430498651327, -12271.018298985757, -12423.613658382137, 0.006, -0.004, 0.988, 192.0, 0.0, 0.0, 0.0, 0.0, 0.0, 0.0, 0.0, 0.0, 0.0, 1.6444990903676684E9, 0.0, 2022-02-11 00:18:10.367
90.0, -9992.794393634129, -11798.748290389573, -10941.760056228644, -17062.964089270128, -3800.556516713681, -2543.4720568027565, -6515.2205842996345, -7085.659454543526, -17532.641295509493, -15260.094733249514, -20904.9830919484, -12980.32855753047, -7873.17846693736, -10994.309007443073, -12270.146580952, -12419.188012979987, 0.006, -0.004, 0.988, 192.0, 0.0, 0.0, 0.0, 0.0, 0.0, 0.0, 0.0, 0.0, 0.0, 1.6444990903676753E9, 0.0, 2022-02-11 00:18:10.367
92.0, -9989.978073832759, -11776.910636056738, -10947.325640598017, -17068.88730155078, -3803.797519659701, -2542.041545157617, -6532.543186252497, -7083.625445798093, -17530.160251874953, -15248.941212766316, -20892.823742964716, -12973.08659232695, -7862.851960999008, -10980.674443325335, -12267.687889061915, -12421.713760103436, 0.006, -0.004, 0.988, 192.0, 0.0, 0.0, 0.0, 0.0, 0.0, 0.0, 0.0, 0.0, 0.0, 1.6444990903676815E9, 0.0, 2022-02-11 00:18:10.367
94.0, -9980.16565801688, -11770.76390633153, -10947.012716175643, -17062.002964258547, -3806.300915038695, -2541.4380480573236, -6517.567517467442, -7079.40096609604, -17519.85609768106, -15240.82752952904, -20897.80818197825, -12974.382993505358, -7864.08130694405, -11004.657865125879, -12272.694679819904, -12421.020856025321, 0.006, -0.004, 0.988, 192.0, 0.0, 0.0, 0.0, 0.0, 0.0, 0.0, 0.0, 0.0, 0.0, 1.6444990903676882E9, 0.0, 2022-02-11 00:18:10.367
96.0, -9973.728355613752, -11778.47525816861, -10945.962184186243, -17066.51801663852, -3797.56138295667, -2542.8015044690974, -6523.7365989371065, -7085.234771398875, -17526.248696595278, -15242.794483041107, -20883.36895506012, -12954.624051406867, -7859.298033630614, -10995.314835943562, -12262.815208770659, -12421.110263003144, 0.008, -0.008, 0.98, 192.0, 0.0, 32.0, 127.5, 96.0, 15.0, 80.0, 0.0, 0.0, 0.0, 1.6444990903676949E9, 0.0, 2022-02-11 00:18:10.367
98.0, -9970.174428245358, -11763.432534150188, -10951.863044722444, -17068.23910096158, -3803.3728365150496, -2545.5507690371, -6533.616069986352, -7086.553524321738, -17523.1865076049, -15250.662297089375, -20886.922882428513, -12969.152685302817, -7856.660527784888, -11000.567495890558, -12267.442019872908, -12428.55339390676, 0.008, -0.008, 0.98, 192.0, 0.0, 0.0, 0.0, 0.0, 0.0, 0.0, 0.0, 0.0, 0.0, 1.6444990903677015E9, 0.0, 2022-02-11 00:18:10.367
100.0, -9948.448532634799, -11756.101161968847, -10942.54236728458, -17067.009755016537, -3791.9957985872984, -2530.485693274223, -6526.999953627581, -7083.938370220468, -17517.62092323553, -15245.163767953369, -20881.402001548053, -12967.699821913222, -7858.873350485963, -10990.866838796956, -12268.894883262503, -12423.121920004121, 0.008, -0.008, 0.98, 192.0, 0.0, 0.0, 0.0, 0.0, 0.0, 0.0, 0.0, 0.0, 0.0, 1.64449909036771E9, 0.0, 2022-02-11 00:18:10.367
102.0, -9957.456285650289, -11756.816417791417, -10956.221634891228, -17070.98836552958, -3802.4787667368373, -2544.3884783254243, -6522.641363458796, -7084.854791743135, -17522.672417482427, -15255.222052958257, -20879.88208292509, -12966.492827712635, -7860.616786553477, -10994.532524887625, -12264.08925820461, -12422.764292092836, 0.008, -0.008, 0.98, 192.0, 0.0, 0.0, 0.0, 0.0, 0.0, 0.0, 0.0, 0.0, 0.0, 1.6444990903677166E9, 0.0, 2022-02-11 00:18:10.367
104.0, -9946.101599466992, -11733.861176235816, -10953.271204623128, -17062.293536936468, -3801.0706068361533, -2536.2524433436924, -6535.314802564955, -7095.605980826138, -17518.582048247106, -15248.516529621666, -20888.532208029297, -12964.235301522649, -7865.914149989385, -10997.728824344735, -12272.202941441887, -12429.782739851802, 0.008, -0.008, 0.98, 192.0, 0.0, 0.0, 0.0, 0.0, 0.0, 0.0, 0.0, 0.0, 0.0, 1.6444990903677232E9, 0.0, 2022-02-11 00:18:10.367
106.0, -9930.142453925902, -11729.591993044853, -10949.471408065727, -17065.579243371398, -3792.5322404542258, -2531.223300841248, -6538.421695044243, -7093.59432382516, -17518.42558603592, -15235.932497493328, -20869.22030081991, -12948.767894359577, -7860.259158642192, -10985.7929928056, -12267.57613033964, -12426.429978183507, 0.004, -0.016, 0.986, 192.0, 0.0, 16.0, 127.5, 64.0, 15.0, 104.0, 0.0, 0.0, 0.0, 1.6444990903677297E9, 0.0, 2022-02-11 00:18:10.367
108.0, -9936.11036969547, -11715.51039403801, -10956.020469191131, -17061.622984602807, -3793.0016270877873, -2536.744181721709, -6508.805633640962, -7086.30765513273, -17516.61509473504, -15238.97233473925, -20878.540978257774, -12955.719286885178, -7860.7732487646645, -10988.7434230737, -12263.955147737879, -12428.486338673394, 0.004, -0.016, 0.986, 192.0, 0.0, 0.0, 0.0, 0.0, 0.0, 0.0, 0.0, 0.0, 0.0, 1.644499090367736E9, 0.0, 2022-02-11 00:18:10.367
110.0, -9907.00839841466, -11695.706748450608, -10940.441303305783, -17056.482083378087, -3775.0978797790863, -2522.170844336849, -6516.740502922596, -7086.553524321738, -17499.113678826532, -15225.427177599333, -20858.044428592257, -12945.973926302664, -7841.818969466564, -10980.719146814245, -12263.195188426398, -12423.36778919313, 0.004, -0.016, 0.986, 192.0, 0.0, 0.0, 0.0, 0.0, 0.0, 0.0, 0.0, 0.0, 0.0, 1.6444990903677428E9, 0.0, 2022-02-11 00:18:10.367
112.0, -9911.411692072355, -11701.31703630889, -10947.59386153148, -17060.393638657766, -3785.7596618842676, -2529.301050818092, -6543.3390788244105, -7098.444652371962, -17504.41104226244, -15226.410654355366, -20847.89673660955, -12948.924356570764, -7841.684858999832, -10980.27211192514, -12259.216577913354, -12426.675847372515, 0.004, -0.016, 0.986, 192.0, 0.0, 0.0, 0.0, 0.0, 0.0, 0.0, 0.0, 0.0, 0.0, 1.6444990903677492E9, 0.0, 2022-02-11 00:18:10.367
114.0, -9905.756700725164, -11690.588198970343, -10944.799893474566, -17054.068094976916, -3782.697472893891, -2530.5080450186783, -6543.517892780053, -7094.756614536836, -17504.142821328976, -15227.707055533774, -20864.973469373403, -12942.956440801197, -7844.83645496803, -10978.953359002277, -12273.275825175742, -12430.74386486338, 0.004, -0.016, 0.986, 192.0, 0.0, 0.0, 0.0, 0.0, 0.0, 0.0, 0.0, 0.0, 0.0, 1.644499090367756E9, 0.0, 2022-02-11 00:18:10.367
116.0, -9904.773223969129, -11685.134373323248, -10939.010791660643, -17060.61715610232, -3766.112478508053, -2525.948289149796, -6514.505328477065, -7092.2308674133865, -17505.88625739649, -15213.424290826833, -20850.37778024409, -12930.46181565068, -7835.4710740412565, -10980.473277625237, -12259.75301978028, -12423.993638037879, 0.01, -0.012, 0.99, 192.0, 0.0, 40.0, 127.5, 80.0, 15.0, 120.0, 0.0, 0.0, 0.0, 1.6444990903677626E9, 0.0, 2022-02-11 00:18:10.367
118.0, -9916.77611074163, -11688.97887336956, -10951.930099955809, -17063.634641603785, -3774.6508448899804, -2537.414734055368, -6532.878462419327, -7104.658437330537, -17509.97662663181, -15235.954849237783, -20861.285431538276, -12945.951574558208, -7838.890890942918, -10982.149658459384, -12261.675269803438, -12434.186033509497, 0.01, -0.012, 0.99, 192.0, 0.0, 0.0, 0.0, 0.0, 0.0, 0.0, 0.0, 0.0, 0.0, 1.6444990903677692E9, 0.0, 2022-02-11 00:18:10.367
120.0, -9901.554572767565, -11694.924437394671, -10944.397562074371, -17061.89120553627, -3763.452620917871, -2527.7811321951312, -6520.160319824257, -7100.83628902868, -17509.507239998253, -15233.786730025618, -20858.670277437006, -12937.770836087566, -7839.382629320936, -10985.815344550056, -12266.749115794793, -12437.27057424433, 0.01, -0.012, 0.99, 192.0, 0.0, 0.0, 0.0, 0.0, 0.0, 0.0, 0.0, 0.0, 0.0, 1.6444990908472986E9, 0.0, 2022-02-11 00:18:10.847
122.0, -9911.210526372257, -11695.662044961697, -10945.939832441787, -17068.060287005937, -3769.0852605206087, -2532.944385164307, -6524.38479952631, -7093.4602133584285, -17510.80364117666, -15237.899451005394, -20849.729579654882, -12939.290754710526, -7836.476902541745, -10974.661824066858, -12256.914348234457, -12436.354152721662, 0.01, -0.012, 0.99, 192.0, 0.0, 0.0, 0.0, 0.0, 0.0, 0.0, 0.0, 0.0, 0.0, 1.644499090847472E9, 0.0, 2022-02-11 00:18:10.847
124.0, -9905.86845944744, -11689.112983836292, -10948.152655142863, -17061.243004947068, -3763.2514552177736, -2522.5731757370445, -6521.6802384472185, -7086.911152233023, -17513.687016211392, -15246.281355176134, -20870.583757231685, -12948.030286792551, -7841.371934577458, -10979.333338658016, -12265.072734960644, -12437.471739944427, 0.01, -0.012, 0.99, 192.0, 0.0, 0.0, 0.0, 0.0, 0.0, 0.0, 0.0, 0.0, 0.0, 1.644499090847479E9, 0.0, 2022-02-11 00:18:10.847
126.0, -9895.407843042356, -11670.158704538191, -10941.69300099528, -17065.42278116021, -3749.0357457441983, -2510.9055651313743, -6504.581153938909, -7085.25712314333, -17508.277894053208, -15227.148261922392, -20851.271850022298, -12939.201347732705, -7823.3787802909355, -10963.396544861382, -12254.388601111008, -12426.899364817067, 0.012, -0.008, 0.988, 192.0, 0.0, 48.0, 127.5, 96.0, 15.0, 112.0, 0.0, 0.0, 0.0, 1.6444990908474882E9, 0.0, 2022-02-11 00:18:10.847
128.0, -9903.119194879437, -11677.423021486167, -10952.958280200754, -17067.210920716636, -3755.5177516362373, -2517.3652192789577, -6510.794938897484, -7082.776079508792, -17508.56846673113, -15221.605029297476, -20859.966678615416, -12943.291716968026, -7823.892870413408, -10964.782353017612, -12259.28363314672, -12433.56018466475, 0.012, -0.008, 0.988, 192.0, 0.0, 0.0, 0.0, 0.0, 0.0, 0.0, 0.0, 0.0, 0.0, 1.6444990908474963E9, 0.0, 2022-02-11 00:18:10.847
130.0, -9894.178497097313, -11681.334576765845, -10950.588995288492, -17062.405295658744, -3746.6888125763912, -2512.693704687799, -6513.030113343015, -7083.35722486463, -17504.187524817888, -15231.462148602266, -20857.217414047413, -12935.647420364312, -7824.07168436905, -10972.136076943407, -12259.015412213257, -12429.425111940518, 0.012, -0.008, 0.988, 192.0, 0.0, 0.0, 0.0, 0.0, 0.0, 0.0, 0.0, 0.0, 0.0, 1.6444990908475156E9, 0.0, 2022-02-11 00:18:10.847
132.0, -9905.667293747341, -11685.067318089881, -10948.040896420587, -17071.301289951956, -3754.2213504578294, -2527.8928909174074, -6524.921241393237, -7095.136594192576, -17517.956199402357, -15240.916936506861, -20851.56242270022, -12937.36850468737, -7832.230071095237, -10974.483010111215, -12258.769543024247, -12436.801187610768, 0.012, -0.008, 0.988, 192.0, 0.0, 0.0, 0.0, 0.0, 0.0, 0.0, 0.0, 0.0, 0.0, 1.6444990908475325E9, 0.0, 2022-02-11 00:18:10.847
134.0, -9901.822793701029, -11668.683489404142, -10947.392695831382, -17070.362516684832, -3743.581920097103, -2511.4420069983016, -6514.952363366171, -7085.25712314333, -17511.451841765862, -15238.63705857242, -20860.16784431551, -12947.672658881267, -7831.201890850293, -10979.176876446829, -12259.95418548038, -12440.578632423716, 0.012, -0.008, 0.988, 192.0, 0.0, 0.0, 0.0, 0.0, 0.0, 0.0, 0.0, 0.0, 0.0, 1.6444990908475387E9, 0.0, 2022-02-11 00:18:10.847
136.0, -9891.67510171832, -11662.045021300915, -10939.480178294203, -17069.71431609563, -3732.8083792696452, -2508.849204641486, -6518.930973879215, -7080.764422507814, -17508.970798131322, -15226.276543888634, -20843.336980740667, -12934.887461052831, -7817.83554766602, -10967.8892454969, -12247.437208585407, -12429.402760196062, 0.006, -0.006, 0.984, 192.0, 0.0, 24.0, 127.5, 104.0, 15.0, 96.0, 0.0, 0.0, 0.0, 1.6444990908475456E9, 0.0, 2022-02-11 00:18:10.847
138.0, -9897.821831443529, -11668.3035097484, -10946.342163841982, -17067.85912130584, -3742.173760196419, -2514.0795128440277, -6545.417791058754, -7102.982056496389, -17507.473231252818, -15232.602087569487, -20846.46622496441, -12941.637687878334, -7817.142643587905, -10974.572417089035, -12252.578109810127, -12436.063580043743, 0.006, -0.006, 0.984, 192.0, 0.0, 0.0, 0.0, 0.0, 0.0, 0.0, 0.0, 0.0, 0.0, 1.6444990908475523E9, 0.0, 2022-02-11 00:18:10.847
140.0, -9883.24849405867, -11669.01876557097, -10946.766846986635, -17067.52384513901, -3725.6111175550363, -2504.9376493618074, -6518.372180267833, -7082.284341130775, -17504.053414351158, -15229.539898579109, -20846.063893564213, -12928.740731327622, -7814.415730764357, -10973.544236844093, -12253.695697032894, -12438.432864956007, 0.006, -0.006, 0.984, 192.0, 0.0, 0.0, 0.0, 0.0, 0.0, 0.0, 0.0, 0.0, 0.0, 1.6444990908475587E9, 0.0, 2022-02-11 00:18:10.847
142.0, -9898.850011688473, -11667.49884694801, -10949.002021432165, -17079.19145574468, -3737.077562460609, -2510.8608616424635, -6503.731787649606, -7095.270704659308, -17510.80364117666, -15235.843090515506, -20841.45943420642, -12935.245088964117, -7816.695608698798, -10967.822190263532, -12248.37598185253, -12435.370675965629, 0.006, -0.006, 0.984, 192.0, 0.0, 0.0, 0.0, 0.0, 0.0, 0.0, 0.0, 0.0, 0.0, 1.6444990908475657E9, 0.0, 2022-02-11 00:18:10.847
144.0, -9904.840279202495, -11663.810809112885, -10951.59482378898, -17072.95531904165, -3736.0270304712094, -2506.099940073483, -6502.770662638029, -7076.87521897259, -17508.836687664592, -15231.126872435436, -20854.311687268222, -12940.385990188837, -7822.372951790447, -10970.370289131439, -12256.444961600895, -12442.120902791132, 0.006, -0.006, 0.984, 192.0, 0.0, 0.0, 0.0, 0.0, 0.0, 0.0, 0.0, 0.0, 0.0, 1.644499090847572E9, 0.0, 2022-02-11 00:18:10.847
146.0, -9891.496287762677, -11662.804980612396, -10944.35285858546, -17073.067077763924, -3730.6402600574806, -2502.3671987494467, -6535.6500787317855, -7091.157983679532, -17514.044644122678, -15236.603049826987, -20844.3204574967, -12936.295620953515, -7822.127082601439, -10973.164257188351, -12248.621851041538, -12434.498957931872, 0.006, -0.008, 0.986, 192.0, 0.0, 24.0, 127.5, 96.0, 15.0, 104.0, 0.0, 0.0, 0.0, 1.6444990908475788E9, 0.0, 2022-02-11 00:18:10.847
148.0, -9900.839316944996, -11662.961442823584, -10949.806684232555, -17077.693888866175, -3733.724800792313, -2508.3127627745585, -6487.7502903640625, -7084.474812087395, -17509.931923142904, -15247.555404610088, -20846.622687175597, -12941.101246011407, -7817.992009877206, -10976.517018856648, -12244.576185295127, -12440.690391145992, 0.006, -0.008, 0.986, 192.0, 0.0, 0.0, 0.0, 0.0, 0.0, 0.0, 0.0, 0.0, 0.0, 1.6444990908475854E9, 0.0, 2022-02-11 00:18:10.847
150.0, -9884.902523148361, -11659.49692243301, -10944.531672541103, -17072.977670786106, -3720.5819750525925, -2492.2865620001035, -6482.8776100728055, -7062.815971710203, -17507.450879508364, -15233.317343392057, -20844.83454761917, -12943.783455346043, -7810.951210373785, -10969.967957731242, -12238.965897436847, -12429.961553807445, 0.006, -0.008, 0.986, 192.0, 0.0, 0.0, 0.0, 0.0, 0.0, 0.0, 0.0, 0.0, 0.0, 1.644499090847592E9, 0.0, 2022-02-11 00:18:10.847
152.0, -9899.028825644114, -11659.698088133107, -10952.444190078282, -17081.24781623457, -3722.683039031391, -2496.8239661245307, -6500.848412614872, -7068.470963057395, -17511.384786532497, -15238.882927761428, -20839.626591161086, -12936.116806997874, -7809.49834698419, -10961.898977982877, -12236.104874146566, -12430.922678819023, 0.006, -0.008, 0.986, 192.0, 0.0, 0.0, 0.0, 0.0, 0.0, 0.0, 0.0, 0.0, 0.0, 1.6444990908475986E9, 0.0, 2022-02-11 00:18:10.847
154.0, -9898.112404121448, -11655.11598051977, -10955.618137790936, -17073.938795797683, -3721.0290099416984, -2497.718035902743, -6503.172994038224, -7077.121088161599, -17515.653969723462, -15243.196814441302, -20855.630440191086, -12936.22856572015, -7815.30980054257, -10964.827056506521, -12246.699601018383, -12439.371638223129, 0.005, -0.01, 0.988, 192.0, 0.0, 16.0, 127.5, 80.0, 15.0, 120.0, 0.0, 0.0, 0.0, 1.6444990908476052E9, 0.0, 2022-02-11 00:18:10.847
156.0, -9889.015244128137, -11647.203462982592, -10948.465579565238, -17080.84548483437, -3713.205899382341, -2487.1233090309274, -6508.738578407595, -7077.3222538616965, -17512.055338866157, -15234.792558526107, -20833.70337888043, -12927.399626660303, -7806.816137649553, -10956.825131991522, -12238.965897436847, -12434.655420143059, 0.005, -0.01, 0.988, 192.0, 0.0, 0.0, 0.0, 0.0, 0.0, 0.0, 0.0, 0.0, 0.0, 1.644499090847612E9, 0.0, 2022-02-11 00:18:10.847
158.0, -9902.649808245875, -11652.21025374058, -10955.707544768757, -17078.52090341102, -3717.519786062215, -2491.191326521793, -6510.9961045975815, -7076.316425361208, -17514.1340511005, -15229.96458172376, -20840.051274305737, -12943.157606501294, -7806.749082416187, -10961.273129138128, -12242.51982480524, -12440.399818468073, 0.005, -0.01, 0.988, 192.0, 0.0, 0.0, 0.0, 0.0, 0.0, 0.0, 0.0, 0.0, 0.0, 1.6444990908476183E9, 0.0, 2022-02-11 00:18:10.847
160.0, -9885.90835164885, -11652.903157818695, -10949.046724921076, -17076.844522576874, -3708.8026057246457, -2481.781242106109, -6508.738578407595, -7073.053070670733, -17511.22832432131, -15236.692456804807, -20841.973524328892, -12937.815539576477, -7799.015378834651, -10955.059344179554, -12243.100970161078, -12435.258917243353, 0.005, -0.01, 0.988, 192.0, 0.0, 0.0, 0.0, 0.0, 0.0, 0.0, 0.0, 0.0, 0.0, 1.6444990908476264E9, 0.0, 2022-02-11 00:18:10.847
162.0, -9891.272770318124, -11646.890538560217, -10959.663803537345, -17077.827999332905, -3705.3827888229835, -2482.272980484126, -6497.42859571321, -7079.177448651487, -17520.191373847887, -15238.145320194402, -20835.0668352922, -12929.500690639103, -7799.8423933794975, -10959.194416903785, -12236.507205546763, -12434.051923042765, 0.005, -0.01, 0.988, 192.0, 0.0, 0.0, 0.0, 0.0, 0.0, 0.0, 0.0, 0.0, 0.0, 1.6444990908476477E9, 0.0, 2022-02-11 00:18:10.847
164.0, -9887.070642360526, -11635.133520976726, -10948.35382084296, -17070.38486842929, -3698.1855271083746, -2483.9270095738184, -6497.987389324593, -7077.277550372786, -17507.652045208462, -15236.625401571442, -20839.78305337227, -12932.27230695156, -7792.868649109441, -10962.904806483366, -12239.658801514961, -12433.381370709107, 0.006500000000000001, -0.008, 0.988, 192.0, 0.0, 32.0, 127.5, 104.0, 15.0, 112.0, 0.0, 0.0, 0.0, 1.6444990908476567E9, 0.0, 2022-02-11 00:18:10.847
166.0, -9874.665424187831, -11638.374523922745, -10944.486969052192, -17078.118572010826, -3689.6695124709026, -2474.20400073576, -6498.501479447064, -7077.411660839518, -17509.484888253795, -15232.579735825031, -20823.913314809004, -12927.198460960206, -7785.626683905922, -10958.412105847849, -12231.455711299863, -12428.88867007359, 0.006500000000000001, -0.008, 0.988, 192.0, 0.0, 0.0, 0.0, 0.0, 0.0, 0.0, 0.0, 0.0, 0.0, 1.644499090847664E9, 0.0, 2022-02-11 00:18:10.847
168.0, -9882.354424280456, -11634.172395965148, -10948.487931309692, -17079.347917955867, -3691.2564863272296, -2482.0271112951173, -6492.6229706553195, -7073.030718926278, -17504.61220796254, -15231.708017791274, -20823.958018297915, -12932.22760346265, -7784.2855792386035, -10954.299384868073, -12231.70158048887, -12433.806053853757, 0.006500000000000001, -0.008, 0.988, 192.0, 0.0, 0.0, 0.0, 0.0, 0.0, 0.0, 0.0, 0.0, 0.0, 1.6444990908476708E9, 0.0, 2022-02-11 00:18:10.847
170.0, -9868.13871480688, -11624.047055726893, -10940.888338194889, -17078.498551666566, -3679.8123931661125, -2473.980483291207, -6509.945572608182, -7081.658492286026, -17499.963045115834, -15229.606953812476, -20820.13586999606, -12934.529833141547, -7776.976558801718, -10941.916518439832, -12231.70158048887, -12430.900327074567, 0.006500000000000001, -0.008, 0.988, 192.0, 0.0, 0.0, 0.0, 0.0, 0.0, 0.0, 0.0, 0.0, 0.0, 1.6444990908476903E9, 0.0, 2022-02-11 00:18:10.847
172.0, -9882.71205219174, -11638.77685532294, -10950.052553421565, -17085.159371514248, -3688.0378351256654, -2477.4450036817793, -6524.38479952631, -7082.865486486613, -17511.340083043586, -15225.20366015478, -20817.297198450233, -12926.438501648725, -7775.501343667668, -10933.69107648028, -12228.348818820576, -12434.945992820978, 0.006500000000000001, -0.008, 0.988, 192.0, 0.0, 0.0, 0.0, 0.0, 0.0, 0.0, 0.0, 0.0, 0.0, 1.6444990908476968E9, 0.0, 2022-02-11 00:18:10.847
174.0, -9879.269883545623, -11630.752579063485, -10958.635623292403, -17082.365403457334, -3679.2312478102745, -2473.2875792130926, -6461.710508073629, -7058.099753630132, -17507.830859164103, -15244.135587708424, -20834.619800403096, -12936.407379675793, -7780.575189659023, -10950.946623199776, -12231.411007810952, -12436.912946333045, 0.00725, -0.007, 0.989, 192.0, 0.0, 32.0, 127.5, 104.0, 15.0, 120.0, 0.0, 0.0, 0.0, 1.6444990908477035E9, 0.0, 2022-02-11 00:18:10.847
176.0, -9872.229084042203, -11613.832308510819, -10946.655088264357, -17083.371231957823, -3675.1632303194083, -2472.0358815235954, -6481.491801916576, -7067.666300257004, -17508.680225453405, -15229.383436367922, -20820.091166507147, -12928.785434816533, -7775.590750645489, -10950.991326688687, -12223.207917595855, -12430.341533463185, 0.00725, -0.007, 0.989, 192.0, 0.0, 0.0, 0.0, 0.0, 0.0, 0.0, 0.0, 0.0, 0.0, 1.64449909084771E9, 0.0, 2022-02-11 00:18:10.847
178.0, -9882.846162658472, -11632.473663386543, -10957.294518625084, -17084.08648778039, -3683.656893212425, -2477.3108932150476, -6486.073909529914, -7075.2658933718085, -17512.144745843976, -15233.697323047796, -20824.337997953655, -12939.111940754885, -7775.121364011928, -10958.345050614484, -12231.500414788774, -12437.9858300669, 0.00725, -0.007, 0.989, 192.0, 0.0, 0.0, 0.0, 0.0, 0.0, 0.0, 0.0, 0.0, 0.0, 1.6444990908477166E9, 0.0, 2022-02-11 00:18:10.847
180.0, -9871.536179964087, -11628.427997640134, -10946.319812097528, -17084.08648778039, -3667.027195337677, -2466.693814598777, -6472.908732045738, -7065.006442666822, -17506.065071352135, -15238.25707891668, -20820.471146162887, -12932.719341840666, -7766.784163330098, -10939.793102716578, -12230.583993266106, -12435.16951026553, 0.00725, -0.007, 0.989, 192.0, 0.0, 0.0, 0.0, 0.0, 0.0, 0.0, 0.0, 0.0, 0.0, 1.6444990908477232E9, 0.0, 2022-02-11 00:18:10.847
182.0, -9876.788839911085, -11626.259878427969, -10957.629794791914, -17090.30027273897, -3677.3537012760285, -2479.2107914937487, -6500.244915514579, -7074.930617204978, -17514.446975522875, -15227.684703789319, -20819.800593829226, -12923.197498702706, -7768.214674975237, -10939.12255038292, -12221.062150128146, -12435.84006259919, 0.00725, -0.007, 0.989, 192.0, 0.0, 0.0, 0.0, 0.0, 0.0, 0.0, 0.0, 0.0, 0.0, 1.6444990908477297E9, 0.0, 2022-02-11 00:18:10.847
184.0, -9872.094973575471, -11610.613657309254, -10956.355745357961, -17080.934891812194, -3664.3226342585845, -2471.0300530231066, -6477.937874548183, -7075.332948605174, -17512.83764992209, -15235.77603528214, -20827.243724732845, -12929.076007494452, -7767.410012174847, -10945.001059174665, -12229.645219998984, -12442.143254535587, 0.007625, -0.006500000000000001, 0.9875, 192.0, 0.0, 32.0, 127.5, 104.0, 15.0, 104.0, 0.0, 0.0, 0.0, 1.6444990908477364E9, 0.0, 2022-02-11 00:18:10.847
186.0, -9866.596444439465, -11615.15106143368, -10952.153617400363, -17089.272092494022, -3656.208951021308, -2463.788087819587, -6482.698796117163, -7071.242579369853, -17509.216667320332, -15232.624439313942, -20812.290407692242, -12924.091568480919, -7754.960090513241, -10930.628887489902, -12218.737568704793, -12435.951821321467, 0.007625, -0.006500000000000001, 0.9875, 192.0, 0.0, 0.0, 0.0, 0.0, 0.0, 0.0, 0.0, 0.0, 0.0, 1.6444990908477435E9, 0.0, 2022-02-11 00:18:10.847
188.0, -9878.554627723053, -11603.86343048375, -10950.387829588393, -17097.788107131495, -3656.8124481216014, -2464.1904192197826, -6475.590941380375, -7068.426259568484, -17511.720062699325, -15243.286221419123, -20819.532372895763, -12946.309202469492, -7752.479046878701, -10937.02148640412, -12221.263315828242, -12440.288059745797, 0.007625, -0.006500000000000001, 0.9875, 192.0, 0.0, 0.0, 0.0, 0.0, 0.0, 0.0, 0.0, 0.0, 0.0, 1.64449909084775E9, 0.0, 2022-02-11 00:18:10.847
190.0, -9874.687775932285, -11607.082081685316, -10944.732838241202, -17090.94847332817, -3648.2517299952187, -2459.3177389285256, -6476.239141969579, -7067.912169446012, -17500.18656256039, -15227.282372389123, -20810.88224779156, -12935.17803373075, -7743.471293863213, -10951.147788899874, -12218.424644282419, -12438.946955078478, 0.007625, -0.006500000000000001, 0.9875, 192.0, 0.0, 0.0, 0.0, 0.0, 0.0, 0.0, 0.0, 0.0, 0.0, 1.6444990908477569E9, 0.0, 2022-02-11 00:18:10.847
192.0, -9878.465220745233, -11628.360942406767, -10952.958280200754, -17092.37898497331, -3656.4324684658613, -2462.0223000076176, -6496.690988146185, -7085.502992332339, -17514.066995867135, -15230.255154401679, -20806.59071285614, -12922.83987079142, -7745.125322952906, -10947.526806298114, -12220.033969883201, -12441.316239990741, 0.007625, -0.006500000000000001, 0.9875, 192.0, 0.0, 0.0, 0.0, 0.0, 0.0, 0.0, 0.0, 0.0, 0.0, 1.6444990908477633E9, 0.0, 2022-02-11 00:18:10.847
194.0, -9881.952092880261, -11618.325009146334, -10955.282861624106, -17086.500476181565, -3654.621977164981, -2459.4742011397125, -6482.698796117163, -7069.4544398134285, -17518.89497266948, -15244.716733064262, -20823.153355497525, -12923.935106269731, -7752.255529434148, -10933.35580031345, -12223.856118185058, -12442.992620824889, 0.008812500000000001, -0.00725, 0.98775, 192.0, 0.0, 40.0, 127.5, 96.0, 15.0, 112.0, 0.0, 0.0, 0.0, 1.6444990908477697E9, 0.0, 2022-02-11 00:18:10.847
196.0, -9874.933645121295, -11617.922677746139, -10955.104047668463, -17093.675386151717, -3649.3246137290735, -2452.5451603585675, -6476.149734991758, -7068.850942713135, -17518.067958124633, -15237.92180274985, -20808.40120415702, -12920.090606223417, -7743.761866541132, -10922.917535652821, -12213.954295391357, -12434.387199209596, 0.008812500000000001, -0.00725, 0.98775, 192.0, 0.0, 0.0, 0.0, 0.0, 0.0, 0.0, 0.0, 0.0, 0.0, 1.644499090847778E9, 0.0, 2022-02-11 00:18:10.847
198.0, -9887.629435971909, -11620.448424869588, -10955.59578604648, -17100.425612977222, -3659.0923260560426, -2463.9669017752294, -6469.421859910711, -7071.5108003033165, -17519.431414536408, -15251.131683722937, -20815.486707149354, -12931.199423217706, -7742.1972444292605, -10925.756207198645, -12222.604420495561, -12442.70204814697, 0.008812500000000001, -0.00725, 0.98775, 192.0, 0.0, 0.0, 0.0, 0.0, 0.0, 0.0, 0.0, 0.0, 0.0, 1.6444990908477845E9, 0.0, 2022-02-11 00:18:10.847
200.0, -9864.785953138586, -11599.638950781698, -10946.699791753268, -17091.373156472822, -3638.953404301811, -2448.2983289120593, -6467.365499420822, -7067.2863206012635, -17512.971760388824, -15246.057837731581, -20810.54697162473, -12938.553147143502, -7743.873625263408, -10936.239175348184, -12217.977609393312, -12438.231699255908, 0.008812500000000001, -0.00725, 0.98775, 192.0, 0.0, 0.0, 0.0, 0.0, 0.0, 0.0, 0.0, 0.0, 0.0, 1.6444990908477912E9, 0.0, 2022-02-11 00:18:10.847
202.0, -9872.05027008656, -11599.661302526154, -10951.483065066705, -17103.57720894542, -3641.1438752584313, -2449.527674857101, -6466.605540109342, -7072.628387526082, -17512.211801077345, -15241.63219232943, -20797.560608096195, -12929.299524939004, -7732.876566991397, -10919.765939684623, -12214.46838551383, -12440.153949279065, 0.008812500000000001, -0.00725, 0.98775, 192.0, 0.0, 0.0, 0.0, 0.0, 0.0, 0.0, 0.0, 0.0, 0.0, 1.6444990908477976E9, 0.0, 2022-02-11 00:18:10.847
204.0, -9879.538104479088, -11607.238543896503, -10955.640489535392, -17102.660787422752, -3639.825122335568, -2453.0592504810397, -6463.811572052428, -7065.967567678401, -17510.356606287554, -15236.334828893523, -20818.70535835092, -12934.283963952537, -7734.284726892081, -10936.194471859273, -12218.737568704793, -12447.395914482584, 0.009406250000000001, -0.005625, 0.988875, 192.0, 0.0, 40.0, 127.5, 112.0, 15.0, 120.0, 0.0, 0.0, 0.0, 1.6444990908478043E9, 0.0, 2022-02-11 00:18:10.847
206.0, -9876.788839911085, -11609.317256130846, -10954.88053022391, -17103.66661592324, -3636.762933345191, -2455.7414598156765, -6463.99038600807, -7071.890779959057, -17518.962027902846, -15236.021904471148, -20803.550875610217, -12927.041998749019, -7734.0388577030735, -10940.910689939343, -12210.1321470895, -12444.490187703394, 0.009406250000000001, -0.005625, 0.988875, 192.0, 0.0, 0.0, 0.0, 0.0, 0.0, 0.0, 0.0, 0.0, 0.0, 1.644499090847812E9, 0.0, 2022-02-11 00:18:10.847
208.0, -9887.897656905372, -11608.758462519463, -10964.804704762068, -17101.14086879979, -3643.62491889297, -2457.7978203055645, -6472.774621579007, -7069.320329346697, -17529.17677511892, -15256.54080588112, -20817.185439727957, -12934.775702330555, -7732.697753035754, -10927.074960121508, -12214.826013425114, -12449.966365094944, 0.009406250000000001, -0.005625, 0.988875, 192.0, 0.0, 0.0, 0.0, 0.0, 0.0, 0.0, 0.0, 0.0, 0.0, 1.6444990908478189E9, 0.0, 2022-02-11 00:18:10.847
210.0, -9870.060964830038, -11596.599113535776, -10946.073942908519, -17097.65399666476, -3624.111845983487, -2439.782314274587, -6480.418918182721, -7068.381556079574, -17513.2846848112, -15244.15793945288, -20809.87641929107, -12920.001199245597, -7724.137034909372, -10909.64059944637, -12216.681208214904, -12442.657344658059, 0.009406250000000001, -0.005625, 0.988875, 192.0, 0.0, 0.0, 0.0, 0.0, 0.0, 0.0, 0.0, 0.0, 0.0, 1.6444990908478258E9, 0.0, 2022-02-11 00:18:10.847
212.0, -9870.753868908152, -11600.756538004463, -10950.186663888297, -17108.58399970341, -3622.5472238716156, -2447.0019277336514, -6452.054554468937, -7057.272739085286, -17512.0329871217, -15235.507814348677, -20797.69471856293, -12922.79516730251, -7709.340180079959, -10904.231477288185, -12204.499507486762, -12442.031495813311, 0.009406250000000001, -0.005625, 0.988875, 192.0, 0.0, 0.0, 0.0, 0.0, 0.0, 0.0, 0.0, 0.0, 0.0, 1.6444990908478324E9, 0.0, 2022-02-11 00:18:10.847
214.0, -9876.230046299703, -11607.39500610769, -10953.919405212333, -17102.90665661176, -3620.9602500152887, -2456.4567156382464, -6448.433571867177, -7070.97435843639, -17510.714234198836, -15256.987840770227, -20808.73648032385, -12932.27230695156, -7712.312962092515, -10931.791178201578, -12213.619019224529, -12448.960536594455, 0.009703125, -0.0048125, 0.9884375, 192.0, 0.0, 40.0, 127.5, 112.0, 15.0, 112.0, 0.0, 0.0, 0.0, 1.644499090847839E9, 0.0, 2022-02-11 00:18:10.847
216.0, -9873.994871854171, -11597.806107736364, -10952.935928456298, -17107.868743880837, -3616.266383679674, -2441.726916042199, -6451.56281609092, -7060.580797264672, -17520.2360773368, -15241.63219232943, -20797.202980184913, -12921.342303912916, -7715.822185971998, -10924.929192653799, -12210.378016278508, -12446.747713893381, 0.009703125, -0.0048125, 0.9884375, 192.0, 0.0, 0.0, 0.0, 0.0, 0.0, 0.0, 0.0, 0.0, 0.0, 1.644499090847846E9, 0.0, 2022-02-11 00:18:10.847
218.0, -9888.456450516755, -11596.4873548135, -10968.9397774863, -17113.09905208338, -3622.9719070162664, -2450.086468468484, -6454.89322601476, -7065.453477555929, -17529.221478607833, -15257.63604135943, -20811.21752395839, -12934.596888374912, -7720.560755796523, -10925.35387579845, -12217.12824310401, -12451.195711039987, 0.009703125, -0.0048125, 0.9884375, 192.0, 0.0, 0.0, 0.0, 0.0, 0.0, 0.0, 0.0, 0.0, 0.0, 1.6444990908478527E9, 0.0, 2022-02-11 00:18:10.847
220.0, -9877.079412589004, -11595.168601890637, -10954.835826735, -17107.354653758368, -3615.796997046113, -2446.890169011375, -6455.384964392778, -7066.414602567506, -17525.824013450627, -15253.188044212824, -20813.162125726, -12936.60854537589, -7717.990305184163, -10929.39954154486, -12221.375074550519, -12451.93331860701, 0.009703125, -0.0048125, 0.9884375, 192.0, 0.0, 0.0, 0.0, 0.0, 0.0, 0.0, 0.0, 0.0, 0.0, 1.6444990908478596E9, 0.0, 2022-02-11 00:18:10.847
222.0, -9877.593502711476, -11596.53205830241, -10958.12153316993, -17109.746290415085, -3614.7911685456243, -2446.3090236555367, -6465.934987775682, -7074.952968949434, -17531.590763520093, -15253.769189568662, -20802.410936643, -12923.935106269731, -7712.0894446479615, -10933.199338102262, -12215.22834482531, -12454.41436224155, 0.009703125, -0.0048125, 0.9884375, 192.0, 0.0, 0.0, 0.0, 0.0, 0.0, 0.0, 0.0, 0.0, 0.0, 1.644499090847866E9, 0.0, 2022-02-11 00:18:10.847
224.0, -9879.359290523445, -11582.539866273388, -10958.657975036856, -17106.974674102625, -3611.2595929216855, -2439.983479974685, -6454.513246359021, -7064.201779866431, -17521.264257581744, -15264.609785629485, -20810.144640224535, -12934.485129652636, -7708.602572512934, -10923.632791475391, -12222.85028968457, -12456.89540587609, 0.004, -0.004, 0.982, 192.0, 0.0, 16.0, 127.5, 112.0, 15.0, 88.0, 0.0, 0.0, 0.0, 1.6444990908478727E9, 0.0, 2022-02-11 00:18:10.847
226.0, -9863.400144982355, -11592.173468133626, -10951.997155189176, -17111.825002649428, -3598.630857304437, -2432.7191630267102, -6468.304272687945, -7068.135686890565, -17518.626751736017, -15248.315363921567, -20789.648090559018, -12926.483205137636, -7697.449052029736, -10908.478308734693, -12216.70355995936, -12451.575690695727, 0.004, -0.004, 0.982, 192.0, 0.0, 0.0, 0.0, 0.0, 0.0, 0.0, 0.0, 0.0, 0.0, 1.6444990908478792E9, 0.0, 2022-02-11 00:18:10.847
228.0, -9876.967653866728, -11590.67590125512, -10965.564664073547, -17116.00477886257, -3605.403435874395, -2438.8435410074644, -6460.61527259532, -7067.755707234825, -17521.152498859465, -15249.365895910967, -20795.414840628488, -12923.197498702706, -7697.6502177298335, -10920.570602485013, -12220.41394953894, -12458.392972754595, 0.004, -0.004, 0.982, 192.0, 0.0, 0.0, 0.0, 0.0, 0.0, 0.0, 0.0, 0.0, 0.0, 1.6444990908478875E9, 0.0, 2022-02-11 00:18:10.847
230.0, -9861.924929848306, -11583.72450872952, -10958.45680933676, -17110.10391832637, -3590.7406915117135, -2426.103046667939, -6459.743554561563, -7063.240654854853, -17519.565525003138, -15246.616631342964, -20796.73359355135, -12926.773777815555, -7692.084633360462, -10918.424835017304, -12219.922211160923, -12456.22485354243, 0.004, -0.004, 0.982, 192.0, 0.0, 0.0, 0.0, 0.0, 0.0, 0.0, 0.0, 0.0, 0.0, 1.644499090847894E9, 0.0, 2022-02-11 00:18:10.847
232.0, -9865.85883687244, -11584.395061063178, -10954.679364523812, -17108.785165403508, -3600.866031749968, -2431.6462792928555, -6468.9077697882385, -7080.295035874252, -17524.929943672414, -15233.943192236806, -20787.2564539023, -12912.446309619703, -7687.211953069205, -10907.003093600642, -12214.289571558187, -12451.866263373646, 0.004, -0.004, 0.982, 192.0, 0.0, 0.0, 0.0, 0.0, 0.0, 0.0, 0.0, 0.0, 0.0, 1.6444990908479009E9, 0.0, 2022-02-11 00:18:10.847
234.0, -9867.490514217678, -11585.825572708318, -10955.036992435098, -17102.549028700476, -3599.726092782747, -2431.1545409148384, -6463.520999374509, -7069.365032835607, -17517.911495913446, -15251.913994778872, -20794.96780573938, -12929.03130400554, -7688.28483680306, -10917.35195128345, -12220.637466983495, -12455.643708186593, 0.004, -0.004, 0.982, 192.0, 0.0, 0.0, 127.5, 104.0, 15.0, 96.0, 0.0, 0.0, 0.0, 1.644499090847908E9, 0.0, 2022-02-11 00:18:10.847
236.0, -9863.3777932379, -11585.467944797034, -10949.337297598995, -17107.488764225098, -3585.689197264814, -2422.884395466375, -6458.760077805528, -7059.798486208736, -17516.346873801576, -15252.83041630154, -20780.64033754353, -12909.339417140416, -7675.969025608186, -10907.517183723116, -12212.926115146412, -12448.22292902743, 0.004, -0.004, 0.982, 192.0, 0.0, 0.0, 0.0, 0.0, 0.0, 0.0, 0.0, 0.0, 0.0, 1.6444990908479147E9, 0.0, 2022-02-11 00:18:10.847
238.0, -9880.901560890861, -11593.29105535639, -10962.83775125, -17113.90371488377, -3587.4326333323284, -2429.969898458707, -6440.9680892191045, -7064.514704288806, -17525.17581286142, -15261.346430939011, -20791.190360926434, -12922.594001602412, -7676.125487819373, -10913.35098902595, -12209.551001733662, -12456.001336097877, 0.004, -0.004, 0.982, 192.0, 0.0, 0.0, 0.0, 0.0, 0.0, 0.0, 0.0, 0.0, 0.0, 1.6444990908479211E9, 0.0, 2022-02-11 00:18:10.847
240.0, -9864.80830488304, -11584.618578507732, -10953.31590811204, -17115.91537188475, -3572.926351180834, -2415.6424302628557, -6439.582281062875, -7057.272739085286, -17522.717120971338, -15256.92078553686, -20794.87839876156, -12919.241239934116, -7672.638615684345, -10898.10709930743, -12209.0816151001, -12454.950804108477, 0.004, -0.004, 0.982, 192.0, 0.0, 0.0, 0.0, 0.0, 0.0, 0.0, 0.0, 0.0, 0.0, 1.6444990913275645E9, 0.0, 2022-02-11 00:18:11.327
242.0, -9869.882150874395, -11577.24250283748, -10961.809571005055, -17120.564534731453, -3572.0322814026217, -2417.542328541557, -6444.454961354132, -7058.63619549706, -17526.718083228836, -15253.568023868565, -20781.02031719927, -12932.51817614057, -7668.816467382488, -10908.67947443479, -12203.27016154172, -12452.670926174036, 0.004, -0.004, 0.982, 192.0, 0.0, 0.0, 0.0, 0.0, 0.0, 0.0, 0.0, 0.0, 0.0, 1.644499091327747E9, 0.0, 2022-02-11 00:18:11.327
244.0, -9870.932682863795, -11583.143363373681, -10954.612309290447, -17117.3905870188, -3571.0041011576777, -2420.783331487576, -6450.46758061261, -7057.16098036301, -17517.263295324243, -15250.282317433635, -20791.436230115443, -12929.008952261085, -7663.832028368954, -10910.691131435768, -12209.998036622768, -12454.79434189729, 0.006, -0.004, 0.986, 192.0, 0.0, 24.0, 127.5, 112.0, 15.0, 104.0, 0.0, 0.0, 0.0, 1.6444990913277547E9, 0.0, 2022-02-11 00:18:11.327
246.0, -9869.233950285192, -11585.065613396837, -10955.036992435098, -17123.805537677472, -3568.6124645009595, -2414.010752917618, -6450.959318990626, -7062.346585076641, -17524.952295416868, -15244.426160386343, -20784.663651545485, -12925.186803959228, -7656.433600954248, -10906.466651733715, -12206.22059180982, -12452.067429073744, 0.006, -0.004, 0.986, 192.0, 0.0, 0.0, 0.0, 0.0, 0.0, 0.0, 0.0, 0.0, 0.0, 1.644499091327762E9, 0.0, 2022-02-11 00:18:11.327
248.0, -9882.466183002733, -11581.936369173094, -10958.970899459231, -17118.731691686116, -3570.9146941798563, -2423.2867268665705, -6433.480254826576, -7060.5360937757605, -17534.47413855483, -15254.417390157867, -20789.134000436545, -12935.937993042231, -7665.910740603297, -10927.007904888142, -12204.767728420225, -12456.537777964804, 0.006, -0.004, 0.986, 192.0, 0.0, 0.0, 0.0, 0.0, 0.0, 0.0, 0.0, 0.0, 0.0, 1.6444990913277683E9, 0.0, 2022-02-11 00:18:11.327
250.0, -9863.33308974899, -11584.95385467456, -10949.605518532459, -17115.24481955109, -3557.4142405288508, -2413.563718028512, -6439.671688040697, -7054.925805917479, -17518.827917436116, -15259.804160571595, -20781.847331744117, -12927.51138538258, -7654.220778253171, -10916.25671580514, -12202.800774908159, -12451.955670351466, 0.006, -0.004, 0.986, 192.0, 0.0, 0.0, 0.0, 0.0, 0.0, 0.0, 0.0, 0.0, 0.0, 1.644499091327776E9, 0.0, 2022-02-11 00:18:11.327
252.0, -9868.406935740344, -11584.618578507732, -10953.204149389763, -17122.82206092144, -3563.024528387133, -2416.827072718987, -6452.345127146856, -7068.359204335118, -17526.382807062007, -15264.185102484835, -20773.26426187328, -12920.18001320124, -7649.683374128745, -10901.795137142557, -12198.486888228284, -12456.716591920447, 0.006, -0.004, 0.986, 192.0, 0.0, 0.0, 0.0, 0.0, 0.0, 0.0, 0.0, 0.0, 0.0, 1.6444990913277826E9, 0.0, 2022-02-11 00:18:11.327
254.0, -9874.28544453209, -11583.255122095958, -10959.574396559525, -17122.866764410348, -3566.377290055429, -2417.3188110970036, -6456.65901382673, -7071.488448558861, -17527.589801262595, -15275.49508517922, -20788.977538225357, -12923.55512661399, -7656.143028276329, -10905.617285444414, -12209.841574411581, -12467.601891470182, 0.012, -0.008, 0.992, 192.0, 0.0, 48.0, 127.5, 96.0, 15.5, 0.0, 0.0, 0.0, 0.0, 1.6444990913277898E9, 0.0, 2022-02-11 00:18:11.327
0.0, -9867.825790384506, -11581.288168583891, -10950.991326688687, -17126.510098756564, -3556.5201707506385, -2416.4470930632465, -6455.161446948225, -7065.565236278205, -17529.400292563474, -15257.479579148243, -20779.187474153936, -12917.296638166505, -7646.911757816287, -10908.657122690336, -12203.024292352711, -12463.288004790307, 0.012, -0.008, 0.992, 192.0, 0.0, 0.0, 0.0, 0.0, 0.0, 0.0, 0.0, 0.0, 0.0, 1.6444990913277965E9, 0.0, 2022-02-11 00:18:11.327
2.0, -9868.47399097371, -11569.486447511488, -10955.774600002123, -17125.325456300434, -3555.5366939946052, -2423.778465244587, -6458.245987683057, -7074.997672438344, -17534.585897277106, -15271.158846754892, -20779.88037823205, -12924.158623714284, -7648.006993294596, -10914.714445437723, -12204.566562720129, -12467.154856581075, 0.012, -0.008, 0.992, 192.0, 0.0, 0.0, 0.0, 0.0, 0.0, 0.0, 0.0, 0.0, 0.0, 1.644499091327803E9, 0.0, 2022-02-11 00:18:11.327
4.0, -9862.640185670876, -11565.306671298345, -10943.995230674176, -17118.2399533081, -3545.120781078432, -2405.271220835593, -6466.784354064984, -7057.943291418946, -17523.097100627077, -15243.822663286051, -20776.3040991192, -12916.581382343935, -7637.8369495674315, -10904.030311588087, -12205.907667387446, -12461.522216978337, 0.012, -0.008, 0.992, 192.0, 0.0, 0.0, 0.0, 0.0, 0.0, 0.0, 0.0, 0.0, 0.0, 1.6444990913278208E9, 0.0, 2022-02-11 00:18:11.327
6.0, -9872.609063697942, -11580.304691827858, -10948.912614454344, -17126.174822589735, -3541.0080600986553, -2410.2333081046713, -6418.392827319244, -7058.63619549706, -17537.0892926561, -15249.991744755716, -20773.085447917634, -12911.440481119214, -7639.669792612767, -10900.58814294197, -12195.067071326623, -12456.649536687082, 0.012, -0.008, 0.992, 192.0, 0.0, 0.0, 0.0, 0.0, 0.0, 0.0, 0.0, 0.0, 0.0, 1.6444990913278275E9, 0.0, 2022-02-11 00:18:11.327
8.0, -9867.42345898431, -11570.134648100693, -10947.057419664552, -17127.4935755126, -3542.1703508103315, -2402.2537353341268, -6438.218824651101, -7063.821800210691, -17532.954219931868, -15257.658393103886, -20786.83177075765, -12939.558975643991, -7640.429751924247, -10898.688244663268, -12199.179792306399, -12462.908025134568, 0.004, -0.008, 0.988, 192.0, 0.0, 16.0, 127.5, 96.0, 15.0, 112.0, 0.0, 0.0, 0.0, 1.644499091327834E9, 0.0, 2022-02-11 00:18:11.327
10.0, -9863.131924048892, -11569.709964956042, -10946.92330919782, -17129.01349413556, -3528.021696570122, -2394.810604430509, -6428.294650112945, -7045.292204057241, -17531.702522242373, -15258.105427992992, -20768.436285070933, -12911.440481119214, -7630.997315764108, -10890.060471303519, -12193.0777660701, -12452.22389128493, 0.004, -0.008, 0.988, 192.0, 0.0, 0.0, 0.0, 0.0, 0.0, 0.0, 0.0, 0.0, 0.0, 1.6444990913278406E9, 0.0, 2022-02-11 00:18:11.327
12.0, -9879.538104479088, -11569.777020189407, -10956.109876168952, -17133.64030523781, -3543.667917688837, -2403.3713225568918, -6420.471539553588, -7053.696459972437, -17539.011542679258, -15275.629195645954, -20773.890110718028, -12915.709664310178, -7630.79615006401, -10891.692148648757, -12198.866867884026, -12456.962461109455, 0.004, -0.008, 0.988, 192.0, 0.0, 0.0, 0.0, 0.0, 0.0, 0.0, 0.0, 0.0, 0.0, 1.6444990913278472E9, 0.0, 2022-02-11 00:18:11.327
14.0, -9869.680985174296, -11569.486447511488, -10948.532634798603, -17126.219526078647, -3529.7874843820914, -2396.4199300312916, -6415.017713906493, -7049.762552948303, -17543.14661540349, -15269.460114176289, -20787.63643355804, -12915.620257332357, -7638.507501901091, -10896.520125451103, -12200.096213829067, -12456.314260520252, 0.004, -0.008, 0.988, 192.0, 0.0, 0.0, 0.0, 0.0, 0.0, 0.0, 0.0, 0.0, 0.0, 1.644499091327855E9, 0.0, 2022-02-11 00:18:11.327
16.0, -9877.079412589004, -11583.858619196251, -10949.136131898897, -17134.981409905125, -3527.932289592301, -2406.7464359696432, -6430.574528047387, -7059.910244931012, -17548.175757905934, -15260.809989072084, -20774.940642707425, -12911.93221949723, -7629.633859352334, -10893.793212627555, -12192.429565480896, -12459.979946610922, 0.004, -0.008, 0.988, 192.0, 0.0, 0.0, 0.0, 0.0, 0.0, 0.0, 0.0, 0.0, 0.0, 1.6444990913278615E9, 0.0, 2022-02-11 00:18:11.327
18.0, -9872.184380553292, -11570.626386478709, -10950.678402266312, -17129.594639491395, -3527.865234358935, -2396.174060842283, -6431.960336203616, -7057.809180952214, -17542.297249114188, -15271.695288621819, -20781.377945110555, -12929.903022039298, -7627.353981417893, -10907.53953546757, -12201.70553942985, -12465.478475746928, 0.002, -0.006, 0.99, 192.0, 0.0, 8.0, 127.5, 104.0, 15.0, 120.0, 0.0, 0.0, 0.0, 1.6444990913278685E9, 0.0, 2022-02-11 00:18:11.327
20.0, -9862.28255775959, -11572.079249868304, -10941.871814950922, -17138.602392506888, -3514.923574319312, -2392.441319518247, -6429.188719891157, -7054.67993672847, -17536.686961255906, -15264.676840862852, -20765.77642748075, -12925.522080126058, -7622.369542404359, -10889.38991896986, -12192.74248990327, -12458.147103565587, 0.002, -0.006, 0.99, 192.0, 0.0, 0.0, 0.0, 0.0, 0.0, 0.0, 0.0, 0.0, 0.0, 1.644499091327875E9, 0.0, 2022-02-11 00:18:11.327
22.0, -9870.217427041225, -11568.771191688918, -10950.410181332849, -17143.16214837577, -3519.2598127436418, -2402.0972731229394, -6432.1615019037135, -7063.419468810495, -17540.330295602118, -15268.521340909165, -20770.15736939399, -12928.360751671882, -7625.588193605923, -10893.323825993995, -12192.27310326971, -12467.020746114344, 0.002, -0.006, 0.99, 192.0, 0.0, 0.0, 0.0, 0.0, 0.0, 0.0, 0.0, 0.0, 0.0, 1.6444990913278816E9, 0.0, 2022-02-11 00:18:11.327
24.0, -9864.607139182943, -11556.18715956058, -10944.77754173011, -17137.44010179521, -3506.854594570946, -2390.8096421730093, -6427.489987312554, -7059.306747830719, -17531.926039686925, -15268.92367230936, -20769.084485660136, -12921.185841701728, -7617.116882457362, -10884.092555533953, -12195.804678893648, -12465.769048424847, 0.002, -0.006, 0.99, 192.0, 0.0, 0.0, 0.0, 0.0, 0.0, 0.0, 0.0, 0.0, 0.0, 1.644499091327888E9, 0.0, 2022-02-11 00:18:11.327
26.0, -9863.064868815527, -11575.76728770343, -10943.771713229622, -17137.931840173227, -3510.453225428251, -2403.23721209016, -6439.93990897416, -7074.416527082507, -17542.029028180725, -15262.821646073062, -20761.171968122955, -12913.60860033138, -7614.568783589457, -10898.129451051886, -12190.820239880115, -12467.020746114344, 0.002, -0.006, 0.99, 192.0, 0.0, 0.0, 0.0, 0.0, 0.0, 0.0, 0.0, 0.0, 0.0, 1.6444990913278947E9, 0.0, 2022-02-11 00:18:11.327
28.0, -9874.330148021001, -11577.264854581936, -10952.935928456298, -17142.4468925532, -3510.9449638062674, -2396.2411160756487, -6440.0293159519815, -7067.085154901166, -17539.771501990737, -15270.756515354697, -20777.48874157533, -12919.800033545498, -7616.513385357069, -10901.39280574236, -12198.799812650659, -12472.832199672725, 0.002, -0.006, 0.99, 192.0, 0.0, 8.0, 127.5, 104.0, 15.0, 120.0, 0.0, 0.0, 0.0, 1.6444990913279011E9, 0.0, 2022-02-11 00:18:11.327
30.0, -9865.702374661252, -11570.425220778612, -10948.68909700979, -17143.609183264874, -3506.3852079373846, -2388.239191560649, -6465.555008119943, -7060.312576331208, -17545.672362526937, -15278.981957314249, -20767.452808314898, -12922.45989113568, -7614.009989978074, -10878.169343253296, -12195.84938238256, -12465.746696680391, 0.002, -0.006, 0.99, 192.0, 0.0, 0.0, 0.0, 0.0, 0.0, 0.0, 0.0, 0.0, 0.0, 1.6444990913279076E9, 0.0, 2022-02-11 00:18:11.327
32.0, -9880.09689809047, -11572.705098713053, -10957.719201769734, -17147.744255989106, -3506.5863736374827, -2394.5200317525905, -6427.489987312554, -7054.657584984016, -17547.549909061185, -15275.964471812782, -20768.078657159647, -12928.919545283265, -7610.433710865225, -10892.474459704694, -12202.979588863802, -12471.289929305307, 0.002, -0.006, 0.99, 192.0, 0.0, 0.0, 0.0, 0.0, 0.0, 0.0, 0.0, 0.0, 0.0, 1.6444990913279147E9, 0.0, 2022-02-11 00:18:11.327
34.0, -9855.71114488973, -11553.415543248122, -10945.246928363673, -17151.387590335322, -3487.8556117839353, -2377.197429799727, -6395.795213674929, -7049.449628525928, -17537.9386589454, -15265.25798621869, -20767.653974014996, -12942.643516378823, -7606.298638140994, -10876.917645563799, -12192.541324203174, -12467.154856581075, 0.002, -0.006, 0.99, 192.0, 0.0, 0.0, 0.0, 0.0, 0.0, 0.0, 0.0, 0.0, 0.0, 1.6444990913279216E9, 0.0, 2022-02-11 00:18:11.327
36.0, -9862.23785427068, -11565.261967809436, -10952.35478310046, -17143.54212803151, -3496.8186613105136, -2389.7144066946994, -6415.285934839957, -7055.909282673512, -17538.9891909348, -15254.663259346875, -20751.42660754044, -12911.731053797133, -7600.241315393605, -10889.72519513669, -12188.897989856958, -12465.545530980293, 0.004, -0.006, 0.988, 192.0, 0.0, 24.0, 127.5, 104.0, 15.0, 104.0, 0.0, 0.0, 0.0, 1.6444990913279305E9, 0.0, 2022-02-11 00:18:11.327
38.0, -9864.383621738389, -11552.543825214367, -10960.982556460209, -17139.58586926292, -3498.9197252893123, -2394.9223631527857, -6416.98466741856, -7059.284396086264, -17540.41970257994, -15272.790524100128, -20770.02325892726, -12934.261612208084, -7605.628085807334, -10894.754337639135, -12201.973760363313, -12467.311318792263, 0.004, -0.006, 0.988, 192.0, 0.0, 0.0, 0.0, 0.0, 0.0, 0.0, 0.0, 0.0, 0.0, 1.644499091327937E9, 0.0, 2022-02-11 00:18:11.327
40.0, -9863.847179871462, -11565.776057931907, -10945.537501041592, -17143.698590242697, -3486.7156728167147, -2379.142031567339, -6416.001190662527, -7059.373803064085, -17546.029990438223, -15258.038372759625, -20757.305116332187, -12914.390911387314, -7600.509536327069, -10889.926360836787, -12196.922266116413, -12466.03726935831, 0.004, -0.006, 0.988, 192.0, 0.0, 0.0, 0.0, 0.0, 0.0, 0.0, 0.0, 0.0, 0.0, 1.644499091327943E9, 0.0, 2022-02-11 00:18:11.327
42.0, -9874.687775932285, -11569.62055797822, -10958.255643636661, -17149.398285078798, -3496.438681654773, -2388.015674116096, -6427.624097779286, -7071.309634603219, -17551.550871318683, -15273.014041544682, -20764.502378046796, -12921.990504502119, -7600.59894330489, -10896.184849284275, -12199.112737073034, -12475.782629940824, 0.004, -0.006, 0.988, 192.0, 0.0, 0.0, 0.0, 0.0, 0.0, 0.0, 0.0, 0.0, 0.0, 1.64449909132795E9, 0.0, 2022-02-11 00:18:11.327
44.0, -9865.769429894619, -11580.081174383304, -10949.270242365628, -17150.560575790474, -3484.704015815737, -2381.4889647351465, -6427.132359401269, -7068.426259568484, -17547.706371272372, -15287.162695784891, -20772.750171750806, -12938.284926210037, -7596.530925814024, -10891.021596315099, -12208.36635927753, -12481.9964148994, 0.004, -0.006, 0.988, 192.0, 0.0, 0.0, 0.0, 0.0, 0.0, 0.0, 0.0, 0.0, 0.0, 1.6444990913279564E9, 0.0, 2022-02-11 00:18:11.327
46.0, -9864.09304906047, -11575.76728770343, -10944.68813475229, -17153.220433380655, -3484.033463482078, -2380.304322279015, -6429.859272224817, -7067.241617112353, -17546.745246260794, -15281.395945715421, -20751.11368311807, -12916.916658510765, -7590.093623410896, -10872.112020505909, -12199.068033584123, -12478.643653231104, 0.004, -0.006, 0.988, 192.0, 0.0, 0.0, 127.5, 96.0, 15.0, 112.0, 0.0, 0.0, 0.0, 1.6444990913279629E9, 0.0, 2022-02-11 00:18:11.327
48.0, -9863.176627537803, -11556.835360149786, -10950.11960865493, -17142.044561153005, -3483.094690214955, -2380.9078193793084, -6426.685324512163, -7066.526361289783, -17544.666534026448, -15278.646681147418, -20760.434360555933, -12915.195574187706, -7588.081966409918, -10898.621189429903, -12198.911571372935, -12481.32586256574, 0.004, -0.006, 0.988, 192.0, 0.0, 0.0, 0.0, 0.0, 0.0, 0.0, 0.0, 0.0, 0.0, 1.6444990913279696E9, 0.0, 2022-02-11 00:18:11.327
50.0, -9850.19026400927, -11552.320307769813, -10939.100198638464, -17145.039694910014, -3473.1258121878877, -2371.6765489192667, -6434.307269371423, -7069.1638671355095, -17536.37403683353, -15260.228843716246, -20743.603496981086, -12901.426899603237, -7572.59220750239, -10886.10421253493, -12195.268237026721, -12473.65921421757, 0.004, -0.006, 0.988, 192.0, 0.0, 0.0, 0.0, 0.0, 0.0, 0.0, 0.0, 0.0, 0.0, 1.6444990913279765E9, 0.0, 2022-02-11 00:18:11.327
52.0, -9868.026956084605, -11550.062781579827, -10946.968012686732, -17153.53335780303, -3482.5358966035724, -2377.0409675885403, -6428.205243135124, -7063.263006599308, -17547.23698463881, -15267.448457175311, -20751.67247672945, -12922.951629513696, -7577.800163960477, -10885.478363690181, -12197.570466705618, -12478.75541195338, 0.004, -0.006, 0.988, 192.0, 0.0, 0.0, 0.0, 0.0, 0.0, 0.0, 0.0, 0.0, 0.0, 1.644499091327983E9, 0.0, 2022-02-11 00:18:11.327
54.0, -9863.489551960178, -11555.248386293459, -10940.955393428254, -17149.644154267808, -3471.6282453093822, -2355.784458611543, -6420.024504664481, -7057.987994907856, -17540.889089213502, -15271.78469559964, -20754.95818316438, -12934.08279825244, -7574.246236592083, -10895.089613805963, -12196.676396927405, -12473.770972939847, 0.004, -0.006, 0.988, 192.0, 0.0, 0.0, 0.0, 0.0, 0.0, 0.0, 0.0, 0.0, 0.0, 1.6444990913279893E9, 0.0, 2022-02-11 00:18:11.327
56.0, -9862.774296137608, -11562.199778819058, -10944.889300452389, -17152.281660113535, -3471.0470999535446, -2355.2480167446156, -6425.813606478407, -7054.054087883722, -17549.785083506715, -15281.083021293047, -20742.48590975832, -12916.804899788487, -7564.8138004319435, -10864.467723902193, -12187.467478211818, -12466.953690880979, 0.004, -0.008, 0.986, 192.0, 0.0, 16.0, 127.5, 88.0, 15.0, 96.0, 0.0, 0.0, 0.0, 1.644499091327996E9, 0.0, 2022-02-11 00:18:11.327
58.0, -9867.445810728766, -11577.220151093024, -10951.572472044525, -17145.799654221493, -3468.9236842302903, -2359.0031098131076, -6410.07797838187, -7062.100715887633, -17543.772464248235, -15282.759402127196, -20756.321639576156, -12918.83890853392, -7566.445477777181, -10874.883636818366, -12193.79302189267, -12472.720440950447, 0.004, -0.008, 0.986, 192.0, 0.0, 0.0, 0.0, 0.0, 0.0, 0.0, 0.0, 0.0, 0.0, 1.6444990913280025E9, 0.0, 2022-02-11 00:18:11.328
60.0, -9871.111496819436, -11584.573875018821, -10941.558890528548, -17151.991087435614, -3454.1044776564217, -2353.146952765817, -6402.724254456074, -7047.415619780496, -17551.059132940667, -15281.910035837895, -20747.068017371657, -12915.46379512117, -7564.277358565017, -10870.726212349678, -12187.1769055339, -12467.266615303352, 0.004, -0.008, 0.986, 192.0, 0.0, 0.0, 0.0, 0.0, 0.0, 0.0, 0.0, 0.0, 0.0, 1.644499091328009E9, 0.0, 2022-02-11 00:18:11.328
62.0, -9894.781994197607, -11594.073366412327, -10953.11474241194, -17154.82975898144, -3459.804172492525, -2364.479287204658, -6407.954562658616, -7057.853884441124, -17564.827807525136, -15286.983881829248, -20754.019409897257, -12920.068254478963, -7561.036355618997, -10874.078974017975, -12183.757088632237, -12471.401688027585, 0.004, -0.008, 0.986, 192.0, 0.0, 0.0, 0.0, 0.0, 0.0, 0.0, 0.0, 0.0, 0.0, 1.6444990913280158E9, 0.0, 2022-02-11 00:18:11.328
64.0, -9900.81696520054, -11609.272552641934, -10938.608460260446, -17155.142683403814, -3448.382431075863, -2357.8408191014314, -6407.440472536144, -7056.82570419618, -17559.08340920012, -15291.297768509123, -20758.221537854857, -12931.959382529187, -7558.376498028815, -10873.095497261942, -12186.618111922517, -12471.625205472137, 0.004, -0.008, 0.986, 192.0, 0.0, 0.0, 0.0, 0.0, 0.0, 0.0, 0.0, 0.0, 0.0, 1.6444990913280225E9, 0.0, 2022-02-11 00:18:11.328
66.0, -9924.48746257871, -11623.287096415414, -10943.436437062794, -17157.28845087152, -3444.984965918656, -2355.9632725671854, -6412.335504571856, -7054.5458262617385, -17570.035763983222, -15297.60096044552, -20751.136034862524, -12934.730998841644, -7550.6651461917345, -10866.747601836634, -12177.699765884849, -12468.227740314931, 0.005, -0.007, 0.987, 192.0, 0.0, 24.0, 127.5, 104.0, 15.0, 112.0, 0.0, 0.0, 0.0, 1.644499091328029E9, 0.0, 2022-02-11 00:18:11.328
68.0, -9968.587454389031, -11640.833215812829, -10953.047687178576, -17153.86863396986, -3448.0024514201227, -2347.5143131630794, -6409.116853370292, -7058.256215841319, -17579.691717587917, -15301.400757002923, -20769.933851949438, -12943.291716968026, -7554.286128793494, -10866.166456480796, -12188.450954967851, -12471.021708371843, 0.005, -0.007, 0.987, 192.0, 0.0, 0.0, 0.0, 0.0, 0.0, 0.0, 0.0, 0.0, 0.0, 1.6444990913280373E9, 0.0, 2022-02-11 00:18:11.328
70.0, -9998.561143703597, -11700.534725252954, -10944.68813475229, -17160.97648870665, -3431.640974478838, -2342.0604875159847, -6395.951675886116, -7067.085154901166, -17602.199924254408, -15304.351187271022, -20776.16998865247, -12950.131350771351, -7550.218111302628, -10848.48622661665, -12180.538437430674, -12467.154856581075, 0.005, -0.007, 0.987, 192.0, 0.0, 0.0, 0.0, 0.0, 0.0, 0.0, 0.0, 0.0, 0.0, 1.6444990913280437E9, 0.0, 2022-02-11 00:18:11.328
72.0, -10056.899196731949, -11744.299440896446, -10956.60161454697, -17164.195139908214, -3436.87128268138, -2344.362717194881, -6403.17128934518, -7043.861692412102, -17613.24168601533, -15331.620315506498, -20791.59269232663, -12953.551167673013, -7543.892567621776, -10869.876846060377, -12177.856228096036, -12470.619376971648, 0.005, -0.007, 0.987, 192.0, 0.0, 0.0, 0.0, 0.0, 0.0, 0.0, 0.0, 0.0, 0.0, 1.6444990913280504E9, 0.0, 2022-02-11 00:18:11.328
74.0, -10069.393821882466, -11752.18960668917, -10958.568568059036, -17162.92109047426, -3425.6060034759053, -2334.572653123457, -6411.754359216018, -7039.3466400321295, -17628.329113522665, -15322.389045046455, -20811.44104140294, -12965.37524048987, -7546.820646145421, -10882.751450866634, -12183.108888043034, -12468.004222870377, 0.005, -0.007, 0.987, 192.0, 0.0, 0.0, 0.0, 0.0, 0.0, 0.0, 0.0, 0.0, 0.0, 1.644499091328057E9, 0.0, 2022-02-11 00:18:11.328
76.0, -10077.015766741726, -11757.397563147255, -10955.036992435098, -17166.899700987306, -3429.5175587555837, -2336.9419380357194, -6421.209147120613, -7050.030773881766, -17639.97437238388, -15330.100396883536, -20804.467297132887, -12963.050659066517, -7543.400829243759, -10867.038174514553, -12182.237170009277, -12467.0430978588, 0.0055, -0.0055, 0.9884999999999999, 192.0, 0.0, 24.0, 127.5, 112.0, 15.0, 120.0, 0.0, 0.0, 0.0, 1.6444990913280635E9, 0.0, 2022-02-11 00:18:11.328
78.0, -10092.013787271237, -11780.375156447311, -10961.764867516145, -17166.810294009483, -3427.0588668655, -2346.575539895957, -6363.631053403742, -7050.522512259783, -17635.034636859255, -15336.805920220128, -20814.391471671042, -12973.488923727147, -7546.999460101064, -10864.512427391104, -12184.919379343914, -12476.60964448567, 0.0055, -0.0055, 0.9884999999999999, 192.0, 0.0, 0.0, 0.0, 0.0, 0.0, 0.0, 0.0, 0.0, 0.0, 1.6444990913280702E9, 0.0, 2022-02-11 00:18:11.328
80.0, -10070.779630038694, -11762.560816116431, -10951.751286000168, -17161.132950917836, -3412.440825991729, -2333.186844967228, -6369.397803473211, -7036.619727208582, -17642.1648433405, -15345.523100557699, -20805.517829122287, -12955.406362462803, -7544.071381577419, -10856.510502876105, -12175.464591439319, -12466.596062969693, 0.0055, -0.0055, 0.9884999999999999, 192.0, 0.0, 0.0, 0.0, 0.0, 0.0, 0.0, 0.0, 0.0, 0.0, 1.6444990913280768E9, 0.0, 2022-02-11 00:18:11.328
82.0, -10072.835990528583, -11749.127417698792, -10961.496646582682, -17164.26219514158, -3425.0472098645223, -2339.735906092633, -6384.015844346982, -7046.63330872456, -17634.855822903613, -15328.491071282753, -20801.963901753894, -12953.171188017272, -7537.119989051818, -10862.813694812501, -12173.564693160617, -12465.567882724748, 0.0055, -0.0055, 0.9884999999999999, 192.0, 0.0, 0.0, 0.0, 0.0, 0.0, 0.0, 0.0, 0.0, 0.0, 1.6444990913280833E9, 0.0, 2022-02-11 00:18:11.328
84.0, -10043.219929125302, -11726.79802498794, -10953.248852878673, -17163.993974208115, -3413.424302747763, -2330.571690865957, -6389.894353138728, -7043.973451134379, -17629.357293767607, -15334.995428919248, -20809.138811724046, -12951.114827527384, -7537.8128931299325, -10862.590177367947, -12177.476248440296, -12465.679641447025, 0.0055, -0.0055, 0.9884999999999999, 192.0, 0.0, 0.0, 0.0, 0.0, 0.0, 0.0, 0.0, 0.0, 0.0, 1.6444990913280897E9, 0.0, 2022-02-11 00:18:11.328
86.0, -10023.662152726907, -11698.143088596236, -10946.096294652974, -17165.15626491979, -3415.994753360123, -2328.694144331711, -6402.83601317835, -7047.7955994362355, -17618.069662817677, -15317.35990254401, -20785.02127945677, -12947.382086203348, -7532.068494804918, -10848.597985338925, -12169.429620436385, -12464.696164690991, 0.00475, -0.00575, 0.99025, 192.0, 0.0, 16.0, 127.5, 104.0, 15.5, 0.0, 0.0, 0.0, 0.0, 1.6444990913280964E9, 0.0, 2022-02-11 00:18:11.328
88.0, -10024.332705060568, -11703.641617732243, -10948.487931309692, -17163.770456763563, -3420.9791923736566, -2332.9409757782196, -6402.411330033699, -7048.622613981082, -17608.86074410209, -15320.891478167949, -20788.597558569618, -12955.763990374087, -7539.645736175268, -10861.00320351162, -12176.40336470644, -12471.111115349666, 0.00475, -0.00575, 0.99025, 192.0, 0.0, 0.0, 0.0, 0.0, 0.0, 0.0, 0.0, 0.0, 0.0, 1.6444990913281028E9, 0.0, 2022-02-11 00:18:11.328
90.0, -10000.662207682397, -11696.913742651193, -10944.531672541103, -17171.526512089553, -3412.5972882029164, -2330.594042610412, -6399.438548021144, -7051.5506925047275, -17599.562418408685, -15322.79137644665, -20769.285651360235, -12943.783455346043, -7533.029619816497, -10866.501732647626, -12175.93397807288, -12470.529969993828, 0.00475, -0.00575, 0.99025, 192.0, 0.0, 0.0, 0.0, 0.0, 0.0, 0.0, 0.0, 0.0, 0.0, 1.6444990913281095E9, 0.0, 2022-02-11 00:18:11.328
92.0, -9994.247257023724, -11677.154800552702, -10952.220672633728, -17175.25925341359, -3416.642953949327, -2341.412286926781, -6390.967236872582, -7061.228997853876, -17600.43413644244, -15328.625181749485, -20773.085447917634, -12953.37235371737, -7530.570927926413, -10868.938072793255, -12177.386841462476, -12480.789420698813, 0.00475, -0.00575, 0.99025, 192.0, 0.0, 0.0, 0.0, 0.0, 0.0, 0.0, 0.0, 0.0, 0.0, 1.6444990913281162E9, 0.0, 2022-02-11 00:18:11.328
94.0, -9973.996576547215, -11666.06833530287, -10945.157521385852, -17171.593567322918, -3405.288267766031, -2329.5211588765574, -6387.83799264884, -7049.784904692759, -17586.95603453589, -15313.02366411968, -20775.946471207913, -12942.397647189815, -7527.665201147223, -10860.131485477863, -12182.818315365115, -12479.314205564762, 0.00475, -0.00575, 0.99025, 192.0, 0.0, 0.0, 0.0, 0.0, 0.0, 0.0, 0.0, 0.0, 0.0, 1.6444990913281229E9, 0.0, 2022-02-11 00:18:11.328
96.0, -9967.06753576607, -11666.180094025147, -10946.900957453367, -17176.935634247737, -3402.896631109313, -2332.5162926335684, -6390.207277561102, -7050.187236092954, -17587.559531636183, -15322.433748535366, -20757.081598887635, -12948.209100748194, -7516.086997519375, -10847.14512194933, -12176.001033306246, -12471.8934264056, 0.00475, -0.00575, 0.99025, 192.0, 0.0, 0.0, 127.5, 104.0, 15.0, 120.0, 0.0, 0.0, 0.0, 1.6444990913281293E9, 0.0, 2022-02-11 00:18:11.328
98.0, -9962.641890363919, -11657.753486365496, -10951.952451700265, -17172.889968501328, -3405.355322999397, -2339.5123886480797, -6396.488117753043, -7044.711058701403, -17582.91036878948, -15326.658228237418, -20766.24581411431, -12949.28198448205, -7519.372703954305, -10873.564883895504, -12182.907722342936, -12479.537723009316, 0.00475, -0.00575, 0.99025, 192.0, 0.0, 0.0, 0.0, 0.0, 0.0, 0.0, 0.0, 0.0, 0.0, 1.644499091328136E9, 0.0, 2022-02-11 00:18:11.328
100.0, -9933.182291171825, -11633.479491887032, -10942.810588218044, -17176.376840636356, -3396.5263839395507, -2326.4589698861805, -6410.07797838187, -7045.068686612688, -17571.309813417174, -15295.432841233354, -20745.48104351533, -12932.853452307398, -7508.174479982195, -10854.67765983077, -12178.929111829892, -12477.414307286062, 0.00475, -0.00575, 0.99025, 192.0, 0.0, 0.0, 0.0, 0.0, 0.0, 0.0, 0.0, 0.0, 0.0, 1.6444990913281443E9, 0.0, 2022-02-11 00:18:11.328
102.0, -9937.339715640512, -11625.186994694113, -10948.577338287514, -17177.472076114664, -3404.1036253098996, -2336.0925717464174, -6369.107230795292, -7051.707154715915, -17574.349650663098, -15302.674806436875, -20743.312924303165, -12930.260649950582, -7510.253192216539, -10849.156778950308, -12177.073917040101, -12485.259769589875, 0.00475, -0.00575, 0.99025, 192.0, 0.0, 0.0, 0.0, 0.0, 0.0, 0.0, 0.0, 0.0, 0.0, 1.6444990913281507E9, 0.0, 2022-02-11 00:18:11.328
104.0, -9908.729482737719, -11605.785680506908, -10936.529748026103, -17167.123218431858, -3384.8811250783356, -2316.5794988369344, -6363.653405148198, -7039.994840621333, -17560.402162122984, -15301.803088403118, -20741.56948823565, -12926.46085339318, -7501.7148258346115, -10857.9633662657, -12175.911626328425, -12479.940054409512, 0.00475, -0.00575, 0.99025, 192.0, 0.0, 0.0, 0.0, 0.0, 0.0, 0.0, 0.0, 0.0, 0.0, 1.6444990918069608E9, 0.0, 2022-02-11 00:18:11.806
106.0, -9903.521526279632, -11607.260895640957, -10940.284841094595, -17170.163055677778, -3386.28928497902, -2318.948783749197, -6379.299626266912, -7040.017192365789, -17557.876414999537, -15285.329852739556, -20723.15165080448, -12927.846661549409, -7490.270732673494, -10847.05571497151, -12166.88152156848, -12472.116943850155, -0.002, -0.006, 0.986, 192.0, 127.5, 120.0, 127.5, 104.0, 15.0, 104.0, 0.0, 0.0, 0.0, 1.6444990918071396E9, 0.0, 2022-02-11 00:18:11.807
108.0, -9902.470994290232, -11590.586494277299, -10945.090466152486, -17165.983279464635, -3391.1172617813663, -2318.568804093457, -6375.075146564859, -7039.860730154602, -17556.982345221324, -15303.211248303802, -20735.86979339955, -12924.851527792398, -7493.601142597336, -10844.977002737165, -12178.16915251841, -12475.782629940824, -0.002, -0.006, 0.986, 192.0, 0.0, 0.0, 0.0, 0.0, 0.0, 0.0, 0.0, 0.0, 0.0, 1.6444990918071473E9, 0.0, 2022-02-11 00:18:11.807
110.0, -9880.901560890861, -11587.881933198207, -10934.719256725224, -17164.575119563953, -3376.387462185319, -2310.1645481782616, -6377.779707643951, -7039.368991776585, -17550.545042818194, -15271.628233388452, -20718.99422633579, -12908.758271784578, -7482.604084325324, -10836.975078222165, -12171.396573948452, -12470.194693826998, -0.002, -0.006, 0.986, 192.0, 0.0, 0.0, 0.0, 0.0, 0.0, 0.0, 0.0, 0.0, 0.0, 1.6444990918071542E9, 0.0, 2022-02-11 00:18:11.807
112.0, -9886.154220837858, -11575.923749914617, -10936.440341048283, -17166.005631209093, -3382.3330262104305, -2318.9040802602867, -6372.683509908141, -7039.570157476683, -17547.03581893871, -15290.604864431009, -20715.775575134227, -12910.993446230108, -7478.848991256833, -10832.66119154229, -12169.899007069947, -12472.318109550251, -0.002, -0.006, 0.986, 192.0, 0.0, 0.0, 0.0, 0.0, 0.0, 0.0, 0.0, 0.0, 0.0, 1.644499091807161E9, 0.0, 2022-02-11 00:18:11.807
114.0, -9871.871456130917, -11572.302767312858, -10930.986515401188, -17161.82585499595, -3374.5099156510732, -2309.538699333513, -6370.627149418253, -7036.82089290868, -17538.922135701436, -15282.290015493634, -20718.43543272441, -12911.060501463475, -7477.552590078425, -10828.704932773702, -12170.636614636973, -12472.89925490609, -0.002, -0.006, 0.986, 192.0, 0.0, 0.0, 0.0, 0.0, 0.0, 0.0, 0.0, 0.0, 0.0, 1.6444990918071797E9, 0.0, 2022-02-11 00:18:11.807
116.0, -9874.24074104318, -11560.90337764065, -10934.942774169776, -17174.96868073567, -3374.934598795724, -2314.210213924672, -6405.898202168728, -7053.003555894323, -17542.163138647455, -15270.30948046559, -20705.71729012934, -12903.483260093124, -7473.350462120827, -10832.929412475754, -12166.926225057392, -12476.408478785574, -0.002, -0.004, 0.986, 192.0, 127.5, 120.0, 127.5, 112.0, 15.0, 104.0, 0.0, 0.0, 0.0, 1.644499091807188E9, 0.0, 2022-02-11 00:18:11.807
118.0, -9880.4321742573, -11584.842095952285, -10942.475312051214, -17172.26411965658, -3380.544886654006, -2318.501748860091, -6366.8944080942165, -7052.176541349476, -17544.040685181702, -15289.844905119528, -20725.900915372484, -12918.168356200262, -7476.211485411106, -10843.278270158562, -12174.481114683285, -12483.292816077806, -0.002, -0.004, 0.986, 192.0, 0.0, 0.0, 0.0, 0.0, 0.0, 0.0, 0.0, 0.0, 0.0, 1.6444990918071945E9, 0.0, 2022-02-11 00:18:11.807
120.0, -9867.915197362328, -11578.71771797153, -10931.92528866831, -17168.330212632445, -3368.8772760483357, -2311.818577267954, -6371.521219196466, -7049.449628525928, -17542.677228769928, -15284.592245172531, -20710.299397742678, -12902.879762992832, -7471.5399708199475, -10827.564993806482, -12168.200274491344, -12476.721403207946, -0.002, -0.004, 0.986, 192.0, 0.0, 0.0, 0.0, 0.0, 0.0, 0.0, 0.0, 0.0, 0.0, 1.644499091807216E9, 0.0, 2022-02-11 00:18:11.807
122.0, -9870.083316574493, -11564.770229431419, -10941.536538784092, -17170.67714580025, -3382.8471163329027, -2336.763124080077, -6384.887562380739, -7068.582721779671, -17545.33708636011, -15270.287128721135, -20705.225551751322, -12903.84088800441, -7469.215389396595, -10840.95368873521, -12168.535550658173, -12486.243246345908, -0.002, -0.004, 0.986, 192.0, 0.0, 0.0, 0.0, 0.0, 0.0, 0.0, 0.0, 0.0, 0.0, 1.6444990918072228E9, 0.0, 2022-02-11 00:18:11.807
124.0, -9854.370040222411, -11551.04625833586, -10927.521995010615, -17170.83360801144, -3375.0910610069113, -2318.8146732824653, -6381.467745479077, -7058.68089898597, -17533.17773737642, -15272.321137466568, -20708.019519808237, -12913.541545098013, -7468.500133574025, -10853.828293541466, -12175.285777483676, -12491.317092337262, -0.002, -0.004, 0.986, 192.0, 0.0, 0.0, 0.0, 0.0, 0.0, 0.0, 0.0, 0.0, 0.0, 1.6444990918072295E9, 0.0, 2022-02-11 00:18:11.807
126.0, -9863.847179871462, -11563.540883486377, -10936.283878837095, -17178.902587759803, -3380.902514565291, -2322.212138439672, -6392.59891421782, -7063.106544388122, -17539.65974326846, -15289.464925463788, -20692.261539967247, -12897.157716412274, -7461.280520114961, -10838.472645100672, -12168.423791935897, -12486.220894601453, 0.004, -0.004, 0.992, 192.0, 0.0, 16.0, 127.5, 112.0, 15.5, 0.0, 0.0, 0.0, 0.0, 1.644499091807237E9, 0.0, 2022-02-11 00:18:11.807
128.0, -9859.980328080694, -11556.969470616517, -10942.11768413993, -17179.997823238115, -3378.265008719565, -2318.501748860091, -6384.664044936186, -7058.63619549706, -17537.044589167188, -15293.197666787824, -20707.170153518935, -12912.535716597524, -7468.701299274123, -10841.579537579959, -12181.723079886804, -12492.546438282305, 0.004, -0.004, 0.992, 192.0, 0.0, 0.0, 0.0, 0.0, 0.0, 0.0, 0.0, 0.0, 0.0, 1.6444990918072436E9, 0.0, 2022-02-11 00:18:11.807
