%OpenBCI Raw EEG Data
%Number of channels = 16
%Sample Rate = 125 Hz
%Board = OpenBCI_GUI$BoardCytonSerialDaisy
Sample Index, EXG Channel 0, EXG Channel 1, EXG Channel 2, EXG Channel 3, EXG Channel 4, EXG Channel 5, EXG Channel 6, EXG Channel 7, EXG Channel 8, EXG Channel 9, EXG Channel 10, EXG Channel 11, EXG Channel 12, EXG Channel 13, EXG Channel 14, EXG Channel 15, Accel Channel 0, Accel Channel 1, Accel Channel 2, Other, Other, Other, Other, Other, Other, Other, Analog Channel 0, Analog Channel 1, Analog Channel 2, Timestamp, Other, Timestamp (Formatted)
64.0, -9392.38183407567, -10732.011286260044, -10765.047164564987, -16951.607698393786, -3159.419078757653, -2015.680314979591, -6157.704431736998, -6761.715622152761, -16928.183070204625, -14115.305437482053, -20330.31974200246, -12377.92669271549, -7210.7398165154245, -9990.872143610972, -12092.986654399236, -12039.744799106695, 0.003, -0.003, 0.491, 192.0, 0.0, 24.0, 127.5, 104.0, 15.0, 88.0, 0.0, 0.0, 0.0, 1.6444989847407825E9, 0.0, 2022-02-11 00:16:24.740
66.0, -9411.939610474064, -10734.827606061412, -10775.016042592055, -16952.434712938633, -3165.431698016131, -2021.6258790047025, -6145.790951942319, -6759.078116307034, -16928.58540160482, -14114.836050848491, -20347.061198599484, -12401.239562182374, -7210.359836859684, -9989.531038943654, -12097.546410268118, -12042.00232529668, 0.003, -0.003, 0.491, 192.0, 0.0, 0.0, 0.0, 0.0, 0.0, 0.0, 0.0, 0.0, 0.0, 1.64449898474079E9, 0.0, 2022-02-11 00:16:24.740
68.0, -9401.255476624427, -10739.096789252377, -10766.32121399894, -16957.396800207713, -3148.8020001413825, -2021.290602837873, -6149.166065355071, -6752.797276115093, -16938.3978174207, -14113.763167114636, -20356.98537313764, -12400.211381937432, -7211.790348504824, -9992.772041889673, -12086.951683396303, -12039.945964806791, 0.003, -0.003, 0.491, 192.0, 0.0, 0.0, 0.0, 0.0, 0.0, 0.0, 0.0, 0.0, 0.0, 1.6444989847407968E9, 0.0, 2022-02-11 00:16:24.740
70.0, -9424.948325747053, -10752.59724290338, -10771.70798441267, -16954.78164610644, -3155.0157850999576, -2034.612242533236, -6142.393486785113, -6765.5154187101625, -16940.230660466037, -14121.966257329734, -20358.147663849315, -12393.9752452344, -7208.661104281081, -10011.659265954408, -12086.415241529376, -12043.76811310865, 0.003, -0.003, 0.491, 192.0, 0.0, 0.0, 0.0, 0.0, 0.0, 0.0, 0.0, 0.0, 0.0, 1.6444989847408037E9, 0.0, 2022-02-11 00:16:24.740
72.0, -9417.90752624363, -10746.875196322822, -10757.894606339289, -16949.528986159443, -3141.2471105154887, -2024.6880679950796, -6123.416855742557, -6754.697174393795, -16936.095587741806, -14142.663972695349, -20358.304126060502, -12393.796431278757, -7204.57073504576, -10015.906097400915, -12085.185895584333, -12042.427008441331, 0.003, -0.003, 0.491, 192.0, 0.0, 0.0, 0.0, 0.0, 0.0, 0.0, 0.0, 0.0, 0.0, 1.644498984740811E9, 0.0, 2022-02-11 00:16:24.740
74.0, -9399.892020212654, -10730.133739725798, -10758.02871680602, -16958.246166497014, -3135.6368226572067, -2023.3693150722165, -6131.3964285131015, -6754.227787760233, -16932.228735951037, -14127.531841699105, -20335.281829271535, -12383.671091040504, -7192.970179673455, -9999.119937314981, -12076.647529202406, -12038.090770017001, 0.0055, -0.0035, 0.7384999999999999, 192.0, 0.0, 32.0, 127.5, 112.0, 15.0, 104.0, 0.0, 0.0, 0.0, 1.6444989847408185E9, 0.0, 2022-02-11 00:16:24.740
76.0, -9401.814270235809, -10726.780978057503, -10764.51072269806, -16954.580480406345, -3143.236415772011, -2028.711381997035, -6123.9980010983945, -6750.204473758277, -16927.043131237406, -14119.55226892856, -20349.139910833826, -12407.40864365204, -7192.880772695634, -9995.945989602327, -12082.034299616134, -12042.270546230144, 0.0055, -0.0035, 0.7384999999999999, 192.0, 0.0, 0.0, 0.0, 0.0, 0.0, 0.0, 0.0, 0.0, 0.0, 1.6444989847408257E9, 0.0, 2022-02-11 00:16:24.740
78.0, -9396.695720755544, -10740.46024566415, -10757.760495872557, -16948.63491638123, -3134.362773223254, -2015.9485359130547, -6136.023239615351, -6750.629156902928, -16925.59026784781, -14118.993475317178, -20334.723035660154, -12385.146306174554, -7196.881734953134, -10004.909039128905, -12083.174238583355, -12038.090770017001, 0.0055, -0.0035, 0.7384999999999999, 192.0, 0.0, 0.0, 0.0, 0.0, 0.0, 0.0, 0.0, 0.0, 0.0, 1.6444989847408323E9, 0.0, 2022-02-11 00:16:24.740
80.0, -9405.345845859749, -10729.194966458675, -10770.389231489806, -16952.16649200517, -3146.142142551201, -2024.7551232284457, -6147.109704865183, -6767.638834433417, -16933.323971429345, -14128.26944926613, -20339.059274084484, -12376.160904903521, -7202.246153622407, -9984.390137718932, -12081.006119371192, -12042.650525885883, 0.0055, -0.0035, 0.7384999999999999, 192.0, 0.0, 0.0, 0.0, 0.0, 0.0, 0.0, 0.0, 0.0, 0.0, 1.6444989847408388E9, 0.0, 2022-02-11 00:16:24.740
82.0, -9396.00281667743, -10735.900489795267, -10766.388269232306, -16950.91479431567, -3131.4793981885196, -2018.2060621030407, -6141.097085606705, -6749.1986452577885, -16925.88084052573, -14118.74760612817, -20353.811425424985, -12385.280416641286, -7200.927400699545, -9997.97999834776, -12083.733032194737, -12038.2919357171, 0.0055, -0.0035, 0.7384999999999999, 192.0, 0.0, 0.0, 0.0, 0.0, 0.0, 0.0, 0.0, 0.0, 0.0, 1.6444989847408457E9, 0.0, 2022-02-11 00:16:24.740
84.0, -9408.586848805768, -10736.749856084569, -10766.835304121412, -16959.766085119973, -3123.0304387844135, -2018.6978004810574, -6130.323544779247, -6745.600014400485, -16940.945916288605, -14131.17517604532, -20344.401341009303, -12386.77798351979, -7194.780670974335, -9998.784661148151, -12073.406526256387, -12035.81089208256, 0.00475, -0.00275, 0.86125, 192.0, 0.0, 16.0, 127.5, 120.0, 15.0, 96.0, 0.0, 0.0, 0.0, 1.644498984740852E9, 0.0, 2022-02-11 00:16:24.740
86.0, -9412.833680252275, -10733.17357697172, -10772.713812913158, -16955.295736228913, -3123.0527905288686, -2022.2740795939064, -6121.315791763758, -6740.727334109228, -16936.274401697447, -14133.209184790754, -20352.537375991033, -12398.378538892095, -7189.997397660899, -10004.439652495343, -12075.842866402016, -12036.481444416218, 0.00475, -0.00275, 0.86125, 192.0, 0.0, 0.0, 0.0, 0.0, 0.0, 0.0, 0.0, 0.0, 0.0, 1.6444989847408586E9, 0.0, 2022-02-11 00:16:24.740
88.0, -9387.822078206787, -10721.237745432585, -10753.84894059288, -16952.322954216357, -3106.624258354218, -2001.419902017105, -6121.382846997124, -6734.960584039758, -16929.434767894123, -14123.46382420824, -20339.841585140417, -12383.961663718423, -7180.743775456403, -9988.2569895097, -12072.132476822433, -12030.04414201309, 0.00475, -0.00275, 0.86125, 192.0, 0.0, 0.0, 0.0, 0.0, 0.0, 0.0, 0.0, 0.0, 0.0, 1.6444989847408652E9, 0.0, 2022-02-11 00:16:24.740
90.0, -9392.158316631117, -10722.824719288912, -10757.715792383648, -16954.2005007506, -3113.8885753021927, -2007.5666317423145, -6133.385733769624, -6740.593223642496, -16926.93137251513, -14121.228649762708, -20335.01360833807, -12381.525323572794, -7181.414327790061, -9986.066518553082, -12064.510531963175, -12030.938211791303, 0.00475, -0.00275, 0.86125, 192.0, 0.0, 0.0, 0.0, 0.0, 0.0, 0.0, 0.0, 0.0, 0.0, 1.644498984740872E9, 0.0, 2022-02-11 00:16:24.740
92.0, -9374.18751408905, -10713.280524406497, -10752.910167325756, -16952.658230383186, -3094.0625779703355, -1999.0059136159318, -6123.439207487012, -6749.3104039800655, -16909.474660095533, -14116.423024704818, -20337.27113452806, -12387.560294575727, -7169.366737528651, -9980.07625103906, -12067.013927342168, -12033.57571763703, 0.00475, -0.00275, 0.86125, 192.0, 0.0, 0.0, 0.0, 0.0, 0.0, 0.0, 0.0, 0.0, 0.0, 1.6444989847408783E9, 0.0, 2022-02-11 00:16:24.740
94.0, -9375.774487945377, -10706.709111536637, -10753.759533615057, -16955.742771118017, -3093.526136103408, -2003.319800295806, -6097.287666474303, -6724.812892057049, -16915.666093309654, -14104.93422805479, -20323.636570410323, -12379.31250087172, -7165.499885737883, -9989.553390688108, -12058.00617432668, -12030.66999085784, 0.0063750000000000005, -0.003375, 0.9216249999999999, 192.0, 0.0, 32.0, 127.5, 112.0, 15.0, 88.0, 0.0, 0.0, 0.0, 1.6444989847408855E9, 0.0, 2022-02-11 00:16:24.740
96.0, -9410.017360450907, -10734.760550828047, -10770.523341956537, -16959.810788608884, -3096.9012495161596, -2010.8523381772445, -6095.320712962236, -6733.373610183431, -16916.426052621133, -14125.050798064567, -20349.899870145306, -12393.684672556481, -7172.2948160522965, -9989.26281801019, -12061.269529017154, -12029.842976312993, 0.0063750000000000005, -0.003375, 0.9216249999999999, 192.0, 0.0, 0.0, 0.0, 0.0, 0.0, 0.0, 0.0, 0.0, 0.0, 1.6444989847408955E9, 0.0, 2022-02-11 00:16:24.740
98.0, -9397.835659722765, -10732.257155449051, -10762.65552790827, -16961.084838042836, -3087.8040895228496, -1998.8718031492, -6123.595669698199, -6738.00042128568, -16935.35798017478, -14147.402542519874, -20349.07285560046, -12403.966475005922, -7176.787516687813, -9998.605847192508, -12063.683517418327, -12030.737046091206, 0.0063750000000000005, -0.003375, 0.9216249999999999, 192.0, 0.0, 0.0, 0.0, 0.0, 0.0, 0.0, 0.0, 0.0, 0.0, 1.644498984740902E9, 0.0, 2022-02-11 00:16:24.740
100.0, -9406.48578482697, -10723.137643711287, -10775.239560036607, -16961.062486298382, -3089.301656401355, -2001.5316607393816, -6108.172966024037, -6726.556328124563, -16933.145157473704, -14142.775731417625, -20342.188518308227, -12387.49323934236, -7169.791420673302, -9996.527134958165, -12061.940081350815, -12032.055799014068, 0.0063750000000000005, -0.003375, 0.9216249999999999, 192.0, 0.0, 0.0, 0.0, 0.0, 0.0, 0.0, 0.0, 0.0, 0.0, 1.6444989847409089E9, 0.0, 2022-02-11 00:16:24.740
102.0, -9389.990197418952, -10713.347579639862, -10763.393135475295, -16953.1499687612, -3076.918789973115, -1992.5239077238928, -6101.78036710982, -6720.700171077272, -16924.092700969304, -14136.114911569943, -20347.37412302186, -12393.63996906757, -7168.919702639545, -9988.07817555406, -12058.967299338257, -12027.451339656274, 0.0063750000000000005, -0.003375, 0.9216249999999999, 192.0, 0.0, 0.0, 0.0, 0.0, 0.0, 0.0, 0.0, 0.0, 0.0, 1.6444989847409153E9, 0.0, 2022-02-11 00:16:24.740
104.0, -9382.703528726523, -10719.270791920519, -10758.788676117501, -16958.246166497014, -3076.114127172724, -1994.1332333246748, -6104.820204355741, -6727.986839769703, -16917.521288099444, -14119.641675906381, -20327.995160579107, -12388.409660865029, -7161.767144413847, -9976.388213203933, -12051.658278901372, -12023.696246587784, 0.0051875, -0.0036875, 0.9548125, 192.0, 0.0, 16.0, 127.5, 112.0, 15.0, 112.0, 0.0, 0.0, 0.0, 1.644498984740922E9, 0.0, 2022-02-11 00:16:24.740
106.0, -9386.90565668412, -10718.399073886761, -10763.639004664303, -16953.105265272294, -3082.104394686746, -1997.8883263931664, -6120.801701641286, -6721.99657225568, -16911.48631709651, -14130.012885333645, -20337.40524499479, -12394.444631867962, -7159.531969968316, -9983.004329562704, -12061.560101695073, -12029.686514101806, 0.0051875, -0.0036875, 0.9548125, 192.0, 0.0, 0.0, 0.0, 0.0, 0.0, 0.0, 0.0, 0.0, 0.0, 1.6444989847409284E9, 0.0, 2022-02-11 00:16:24.740
108.0, -9380.893037425642, -10714.085187206887, -10759.235711006608, -16952.904099572195, -3060.020871164903, -1986.555991954326, -6073.304244673758, -6711.021865728124, -16911.776889774428, -14118.926420083812, -20340.55684096299, -12388.610826565127, -7157.944996111989, -9982.64670165142, -12051.43476145682, -12020.298781430576, 0.0051875, -0.0036875, 0.9548125, 192.0, 0.0, 0.0, 0.0, 0.0, 0.0, 0.0, 0.0, 0.0, 0.0, 1.644498984740935E9, 0.0, 2022-02-11 00:16:24.740
110.0, -9385.72101422799, -10703.937495224178, -10761.56029242996, -16958.11205603028, -3070.9732259480033, -1997.485994992971, -6095.25365772887, -6723.024752500624, -16910.905171740673, -14112.64557989187, -20331.325570502948, -12387.672053298003, -7155.106324566165, -9980.635044650442, -12047.187930010312, -12022.623362853928, 0.0051875, -0.0036875, 0.9548125, 192.0, 0.0, 0.0, 0.0, 0.0, 0.0, 0.0, 0.0, 0.0, 0.0, 1.6444989847409415E9, 0.0, 2022-02-11 00:16:24.740
112.0, -9385.318682827794, -10716.767396541525, -10760.93444358521, -16957.97794556355, -3073.3201591158104, -1995.2061170585296, -6116.286649261314, -6725.572851368529, -16906.256008893968, -14125.296667253575, -20352.02328586856, -12398.244428425363, -7165.432830504517, -9992.190896533835, -12052.798217868592, -12027.674857100828, 0.0051875, -0.0036875, 0.9548125, 192.0, 0.0, 0.0, 0.0, 0.0, 0.0, 0.0, 0.0, 0.0, 0.0, 1.6444989847409482E9, 0.0, 2022-02-11 00:16:24.740
114.0, -9395.332264343771, -10719.583716342893, -10761.85086510788, -16960.950727576106, -3067.1287259016904, -1988.2100210440185, -6112.598611426189, -6717.190947197789, -16925.21028819207, -14132.94096385729, -20335.192422293716, -12377.54671305975, -7160.984833357911, -9983.250198751712, -12049.803084111581, -12026.087883244501, 0.0051875, -0.0036875, 0.9548125, 192.0, 0.0, 0.0, 127.5, 104.0, 15.0, 120.0, 0.0, 0.0, 0.0, 1.6444989847409549E9, 0.0, 2022-02-11 00:16:24.740
116.0, -9398.372101589692, -10720.634248332293, -10766.678841910225, -16963.40941946619, -3069.408603836132, -1994.714378680513, -6092.549096649778, -6719.537880365597, -16922.662189324165, -14134.013847591144, -20348.961096878185, -12390.018986465811, -7159.531969968316, -9982.445535951321, -12050.652450400883, -12028.814796068049, 0.0051875, -0.0036875, 0.9548125, 192.0, 0.0, 0.0, 0.0, 0.0, 0.0, 0.0, 0.0, 0.0, 0.0, 1.6444989847409613E9, 0.0, 2022-02-11 00:16:24.740
118.0, -9369.314833797793, -10707.960809226133, -10750.138551013297, -16959.006125808493, -3052.220112350001, -1985.0360733313648, -6095.119547262138, -6717.682685575805, -16912.983883975015, -14129.431739977807, -20338.388721750824, -12389.88487599908, -7149.004298329866, -9981.842038851028, -12047.165578265856, -12024.322095432532, 0.0051875, -0.0036875, 0.9548125, 192.0, 0.0, 0.0, 0.0, 0.0, 0.0, 0.0, 0.0, 0.0, 0.0, 1.6444989847409678E9, 0.0, 2022-02-11 00:16:24.740
120.0, -9381.585941503758, -10707.044387703465, -10762.141437785798, -16964.996393322515, -3057.785696719372, -1996.3013525368397, -6084.793041323786, -6724.3658571679425, -16910.324026384835, -14125.631943420405, -20339.50630897359, -12380.675957283493, -7144.6457081610815, -9979.472753938766, -12041.823511341037, -12030.46882515774, 0.0051875, -0.0036875, 0.9548125, 192.0, 0.0, 0.0, 0.0, 0.0, 0.0, 0.0, 0.0, 0.0, 0.0, 1.6444989847409744E9, 0.0, 2022-02-11 00:16:24.740
122.0, -9381.228313592472, -10707.558477825938, -10757.112295283354, -16959.676678142154, -3052.9353681725706, -1983.158526797119, -6087.497602402878, -6711.066569217035, -16904.512572826454, -14128.26944926613, -20342.769663664065, -12392.20945742243, -7143.684583149503, -9985.194800519324, -12048.23846199971, -12028.43481641231, 0.0051875, -0.0036875, 0.9548125, 192.0, 0.0, 0.0, 0.0, 0.0, 0.0, 0.0, 0.0, 0.0, 0.0, 1.6444989847409809E9, 0.0, 2022-02-11 00:16:24.740
124.0, -9376.869723423688, -10702.596390556859, -10757.045240049987, -16958.69320138612, -3049.2249785929894, -1982.1750500410856, -6098.15938450806, -6722.644772844884, -16915.01789272045, -14116.870059593924, -20329.895058857808, -12371.936425201468, -7136.420266201529, -9974.644777136418, -12037.554328150074, -12024.94794427728, 0.0051875, -0.0036875, 0.9548125, 192.0, 0.0, 0.0, 0.0, 0.0, 15.0, 120.0, 0.0, 0.0, 0.0, 1.6444989847409875E9, 0.0, 2022-02-11 00:16:24.740
126.0, -9373.136982099652, -10685.16202988172, -10763.281376753019, -16957.776779863452, -3055.215246107012, -1987.8970966216443, -6117.113663806161, -6721.728351322216, -16902.21034314756, -14122.614457918939, -20340.288620029525, -12379.759535760824, -7141.561167426249, -9964.944120042815, -12045.399790453886, -12031.295839702589, 0.0051875, -0.0036875, 0.9548125, 192.0, 0.0, 0.0, 0.0, 0.0, 0.0, 0.0, 0.0, 0.0, 0.0, 1.644498984740994E9, 0.0, 2022-02-11 00:16:24.740
128.0, -9369.359537286704, -10697.768413754513, -10751.725524869624, -16958.98377406404, -3046.6098244917184, -1986.3324745097727, -6090.626846626622, -6713.94994425177, -16902.411508847657, -14118.993475317178, -20330.409148980278, -12374.64098628056, -7137.448446446472, -9974.30950096959, -12041.376476451931, -12029.060665257057, 0.0051875, -0.0036875, 0.9548125, 192.0, 0.0, 0.0, 0.0, 0.0, 0.0, 0.0, 0.0, 0.0, 0.0, 1.6444989847410028E9, 0.0, 2022-02-11 00:16:24.741
130.0, -9385.385738061159, -10700.607085300337, -10762.32025174144, -16959.877843842252, -3059.2385601089672, -1993.3285705242838, -6088.548134392278, -6715.313400663544, -16912.11216594126, -14127.956524843756, -20335.728864160643, -12380.295977627753, -7141.874091848624, -9988.413451720888, -12038.537804906107, -12029.887679801903, 0.0051875, -0.0036875, 0.9548125, 192.0, 0.0, 0.0, 0.0, 0.0, 0.0, 0.0, 0.0, 0.0, 0.0, 1.6444989847410092E9, 0.0, 2022-02-11 00:16:24.741
132.0, -9371.527656498869, -10707.044387703465, -10757.469923194638, -16958.246166497014, -3052.0860018832686, -1986.2207157874961, -6094.11371876165, -6714.732255307706, -16909.787584517908, -14142.507510484162, -20342.724960175154, -12381.502971828339, -7139.393048214084, -9985.619483663975, -12043.343429963998, -12028.591278623495, 0.0051875, -0.0036875, 0.9548125, 192.0, 0.0, 0.0, 0.0, 0.0, 0.0, 0.0, 0.0, 0.0, 0.0, 1.644498984741016E9, 0.0, 2022-02-11 00:16:24.741
134.0, -9374.500438511424, -10712.811137772935, -10755.055934793465, -16968.147989290715, -3052.1307053721794, -1986.712454165513, -6095.477175173423, -6709.233726171699, -16910.100508940282, -14126.369550987429, -20329.135099546325, -12379.536018316272, -7132.575766155215, -9972.566064902076, -12036.816720583049, -12026.199641966778, 0.004, -0.002, 0.984, 192.0, 0.0, 16.0, 127.5, 120.0, 15.0, 96.0, 0.0, 0.0, 0.0, 1.6444989847410228E9, 0.0, 2022-02-11 00:16:24.741
136.0, -9390.414880563603, -10706.9773324701, -10759.235711006608, -16968.46091371309, -3061.98782467697, -1992.6580181906247, -6067.4704393709235, -6713.838185529493, -16907.01596820545, -14137.053684837067, -20338.187556050725, -12397.395062136062, -7134.162740011542, -9981.909094084394, -12043.343429963998, -12027.697208845284, 0.004, -0.002, 0.984, 192.0, 0.0, 0.0, 0.0, 0.0, 0.0, 0.0, 0.0, 0.0, 0.0, 1.6444989847410295E9, 0.0, 2022-02-11 00:16:24.741
138.0, -9365.917368640587, -10689.900599706245, -10749.065667279443, -16965.756352633995, -3040.798370933339, -1983.8961343641442, -6094.091367017194, -6716.833319286504, -16909.988750218006, -14117.250039249664, -20335.751215905097, -12385.034547452278, -7136.867301090634, -9982.333777229045, -12036.839072327504, -12027.272525700633, 0.004, -0.002, 0.984, 192.0, 0.0, 0.0, 0.0, 0.0, 0.0, 0.0, 0.0, 0.0, 0.0, 1.644498984741036E9, 0.0, 2022-02-11 00:16:24.741
140.0, -9381.80945894831, -10701.791727756468, -10756.665260394248, -16962.381239221246, -3049.113219870713, -1998.581230471281, -6081.753204077864, -6708.831394771504, -16910.86046825176, -14131.510452212151, -20327.97280883465, -12378.485486326872, -7133.738056866891, -9990.82744012206, -12035.296801960088, -12030.267659457644, 0.004, -0.002, 0.984, 192.0, 0.0, 0.0, 0.0, 0.0, 0.0, 0.0, 0.0, 0.0, 0.0, 1.6444989847410429E9, 0.0, 2022-02-11 00:16:24.741
142.0, -9370.745345442932, -10698.30485562144, -10751.971394058633, -16960.59309966482, -3042.3853447896654, -1988.0535588328314, -6078.6239598541215, -6708.697284304772, -16910.88281999622, -14146.12849308592, -20345.518928232068, -12387.582646320183, -7135.034458045299, -9981.395003961921, -12039.364819450953, -12027.42898791182, 0.004, -0.002, 0.984, 192.0, 0.0, 0.0, 0.0, 0.0, 0.0, 0.0, 0.0, 0.0, 0.0, 1.6444989847410493E9, 0.0, 2022-02-11 00:16:24.741
144.0, -9352.774542900866, -10685.631416515282, -10751.993745803089, -16966.449256712112, -3047.012155891914, -1986.7571576544235, -6101.310980476258, -6716.766264053138, -16908.35707287277, -14127.241269021186, -20326.16231753377, -12368.293090855252, -7126.965478296934, -9967.983957288738, -12037.934307805814, -12025.037351255101, 0.006, 0.002, 0.98, 192.0, 0.0, 24.0, 0.0, 8.0, 15.0, 80.0, 0.0, 0.0, 0.0, 1.644498984741056E9, 0.0, 2022-02-11 00:16:24.741
146.0, -9380.155429858618, -10700.607085300337, -10765.047164564987, -16965.711649145087, -3054.2988245843444, -1993.1721083130967, -6079.96506452144, -6718.397941398375, -16908.692349039597, -14126.83893762099, -20347.396474766312, -12390.644835310559, -7142.2987749932745, -9969.995614289715, -12049.020773055647, -12033.75453159267, 0.006, 0.002, 0.98, 192.0, 0.0, 0.0, 0.0, 0.0, 0.0, 0.0, 0.0, 0.0, 0.0, 1.6444989847410624E9, 0.0, 2022-02-11 00:16:24.741
148.0, -9369.001909375418, -10694.795631741958, -10755.45826619366, -16968.572672435366, -3042.184179089568, -1990.1993263005409, -6078.467497642934, -6710.798348283572, -16912.603904319276, -14127.084806809999, -20338.276963028547, -12392.768251033815, -7136.777894112814, -9971.671995123863, -12044.125741019934, -12028.09954024548, 0.006, 0.002, 0.98, 192.0, 0.0, 0.0, 0.0, 0.0, 0.0, 0.0, 0.0, 0.0, 0.0, 1.644498984741069E9, 0.0, 2022-02-11 00:16:24.741
150.0, -9391.934799186563, -10706.9773324701, -10765.382440731817, -16973.847684126817, -3049.403792548632, -1997.351884526239, -6092.035006527306, -6718.129720464912, -16920.784642789917, -14145.994382619188, -20340.422730496255, -12387.180314919988, -7133.9839260559, -9971.649643379407, -12044.550424164585, -12034.939174048803, 0.006, 0.002, 0.98, 192.0, 0.0, 0.0, 0.0, 0.0, 0.0, 0.0, 0.0, 0.0, 0.0, 1.644498984741098E9, 0.0, 2022-02-11 00:16:24.741
152.0, -9383.75406071592, -10699.936532966678, -10753.31249872595, -16968.03623056844, -3046.945100658548, -1995.5860967142698, -6092.124413505127, -6716.430987886309, -16917.67775031063, -14137.277202281619, -20344.423692753757, -12395.673977813003, -7133.536891166794, -9979.293939983123, -12048.86431084446, -12034.76036009316, 0.006, 0.002, 0.98, 192.0, 0.0, 0.0, 0.0, 0.0, 0.0, 0.0, 0.0, 0.0, 0.0, 1.6444989847411053E9, 0.0, 2022-02-11 00:16:24.741
154.0, -9375.483915267458, -10700.294160877964, -10755.03358304901, -16973.244187026525, -3047.3250803142882, -1994.937896125066, -6091.207991982459, -6717.570926853529, -16916.24723866549, -14123.106196296954, -20329.291561757513, -12383.447573595951, -7130.273536476319, -9989.911018599394, -12045.57860440953, -12035.363857193453, 0.006, 0.002, 0.98, 192.0, 0.0, 0.0, 0.0, 8.0, 15.0, 88.0, 0.0, 0.0, 0.0, 1.644498984741112E9, 0.0, 2022-02-11 00:16:24.741
156.0, -9384.312854327305, -10699.489498077572, -10767.930539599722, -16968.729134646554, -3055.438763551565, -1995.8319659032782, -6090.559791393255, -6722.510662378152, -16926.81961379285, -14147.670763453338, -20358.058256871493, -12393.103527200643, -7136.688487134992, -9973.16956200237, -12049.937194578313, -12036.61555488295, 0.006, 0.002, 0.98, 192.0, 0.0, 0.0, 0.0, 0.0, 0.0, 0.0, 0.0, 0.0, 0.0, 1.644498984741119E9, 0.0, 2022-02-11 00:16:24.741
158.0, -9357.714278425488, -10686.458431060128, -10753.84894059288, -16966.270442756468, -3035.5233592418863, -1985.8854396206666, -6086.245904713382, -6719.671990832328, -16911.776889774428, -14129.878774866913, -20339.37219850686, -12375.244483380853, -7130.027667287311, -9968.766268344674, -12048.752552122183, -12031.161729235857, 0.006, 0.002, 0.98, 192.0, 0.0, 0.0, 0.0, 0.0, 0.0, 0.0, 0.0, 0.0, 0.0, 1.6444989847411256E9, 0.0, 2022-02-11 00:16:24.741
160.0, -9372.622891977178, -10698.841297488369, -10756.061763293954, -16970.584329436344, -3036.2609668089112, -1988.2100210440185, -6089.263390214848, -6720.186080954801, -16914.459099109066, -14137.880699381913, -20331.236163525125, -12378.127858415588, -7121.243431716375, -9962.68659385283, -12036.1908717383, -12033.195737981288, 0.006, 0.002, 0.98, 192.0, 0.0, 0.0, 0.0, 0.0, 0.0, 0.0, 0.0, 0.0, 0.0, 1.6444989847411337E9, 0.0, 2022-02-11 00:16:24.741
162.0, -9369.314833797793, -10685.474954304094, -10752.865463836844, -16973.579463193353, -3030.404809761621, -1986.3771779986835, -6076.34408191968, -6713.8605372739485, -16908.245314150492, -14137.32190577053, -20344.51309973158, -12385.302768385742, -7122.830405572701, -9971.73905035723, -12045.064514287056, -12033.463958914752, 0.006, 0.002, 0.98, 192.0, 0.0, 0.0, 0.0, 0.0, 0.0, 0.0, 0.0, 0.0, 0.0, 1.6444989847411408E9, 0.0, 2022-02-11 00:16:24.741
164.0, -9364.442153506536, -10684.469125803605, -10750.339716713395, -16972.037192825937, -3026.6720684375846, -1976.4977069494375, -6080.367395921636, -6718.0850169760015, -16912.715663041552, -14130.41521673384, -20325.692930900208, -12379.06663168271, -7111.855699045146, -9951.242500691713, -12036.23557522721, -12029.842976312993, 0.006, 0.0, 0.99, 192.0, 0.0, 24.0, 0.0, 0.0, 15.0, 120.0, 0.0, 0.0, 0.0, 1.6444989847411475E9, 0.0, 2022-02-11 00:16:24.741
166.0, -9372.354671043715, -10672.980329153577, -10763.281376753019, -16965.532835189442, -3033.60110921873, -1987.874744877189, -6086.91645704704, -6727.025714758124, -16918.929448000126, -14131.666914423336, -20349.765759678576, -12386.196838163953, -7117.734207836892, -9970.420297434366, -12041.018848540647, -12035.877947315927, 0.006, 0.0, 0.99, 192.0, 0.0, 0.0, 0.0, 0.0, 0.0, 0.0, 0.0, 0.0, 0.0, 1.6444989847411544E9, 0.0, 2022-02-11 00:16:24.741
168.0, -9355.546159213323, -10672.130962864276, -10738.94032704119, -16966.78453287894, -3019.7430276564396, -1977.3023697498286, -6092.504393160867, -6724.544671123585, -16901.83036349182, -14109.024597290112, -20334.052483326494, -12378.217265393409, -7107.742978065369, -9974.756535858696, -12039.744799106695, -12031.765226336149, 0.006, 0.0, 0.99, 192.0, 0.0, 0.0, 0.0, 0.0, 0.0, 0.0, 0.0, 0.0, 0.0, 1.6444989847411613E9, 0.0, 2022-02-11 00:16:24.741
170.0, -9371.974691387975, -10693.812154985924, -10754.832417348913, -16970.427867225157, -3022.984030602459, -1987.003026843432, -6085.597704124178, -6722.71182807825, -16912.492145597, -14134.729103413714, -20334.54422170451, -12374.909207214023, -7107.966495509922, -9966.173465987858, -12035.654429871372, -12034.402732181876, 0.006, 0.0, 0.99, 192.0, 0.0, 0.0, 0.0, 0.0, 0.0, 0.0, 0.0, 0.0, 0.0, 1.6444989847411683E9, 0.0, 2022-02-11 00:16:24.741
172.0, -9354.160351057095, -10677.16010536672, -10753.670126637237, -16965.242262511525, -3021.821739890783, -1971.4909161914488, -6079.428622654513, -6720.588412354996, -16905.11606992675, -14131.689266167792, -20355.376047536858, -12384.296939885253, -7105.5525071087495, -9974.488314925233, -12042.427008441331, -12033.374551936931, 0.006, 0.0, 0.99, 192.0, 0.0, 0.0, 0.0, 0.0, 0.0, 0.0, 0.0, 0.0, 0.0, 1.6444989847411764E9, 0.0, 2022-02-11 00:16:24.741
174.0, -9360.485894737947, -10669.605215740827, -10758.051068550476, -16977.111038817293, -3023.6769346805736, -1963.9807300544658, -6075.494715630379, -6712.89941226237, -16909.608770562267, -14123.955562586256, -20329.984465835627, -12378.150210160044, -7114.202632212953, -9940.088980208515, -12032.078150758523, -12030.558232135563, 0.008, -0.006, 0.988, 192.0, 0.0, 32.0, 127.5, 104.0, 15.0, 112.0, 0.0, 0.0, 0.0, 1.6444989847411835E9, 0.0, 2022-02-11 00:16:24.741
176.0, -9366.073830851774, -10684.647939759248, -10759.481580195616, -16971.478399214557, -3031.5223969843864, -1977.838811616756, -6086.022387268828, -6719.247307687678, -16913.319160141848, -14133.522109213127, -20333.6501519263, -12381.190047405964, -7112.50389963435, -9961.278433952146, -12038.113121761457, -12039.275412473133, 0.008, -0.006, 0.988, 192.0, 0.0, 0.0, 0.0, 0.0, 0.0, 0.0, 0.0, 0.0, 0.0, 1.644498984741191E9, 0.0, 2022-02-11 00:16:24.741
178.0, -9361.514074982892, -10688.246570616553, -10757.626385405825, -16968.17034103517, -3017.083170066258, -1967.4005469561278, -6089.710425103954, -6712.117101206434, -16909.25114265098, -14129.789367889092, -20332.800785637, -12374.618634536104, -7103.764367552325, -9964.474733409255, -12037.375514194431, -12034.38038043742, 0.008, -0.006, 0.988, 192.0, 0.0, 0.0, 0.0, 0.0, 0.0, 0.0, 0.0, 0.0, 0.0, 1.6444989847411978E9, 0.0, 2022-02-11 00:16:24.741
180.0, -9373.42755477757, -10681.764564724514, -10762.32025174144, -16977.915701617683, -3025.308612025811, -1976.2741895048846, -6093.487869916901, -6729.61851711494, -16914.794375275895, -14136.94192611479, -20332.800785637, -12379.915997972012, -7102.155041951542, -9957.188064716824, -12034.201566481777, -12038.157825250368, 0.008, -0.006, 0.988, 192.0, 0.0, 0.0, 0.0, 0.0, 0.0, 0.0, 0.0, 0.0, 0.0, 1.6444989847412057E9, 0.0, 2022-02-11 00:16:24.741
182.0, -9358.250720292417, -10672.712108220114, -10763.504894197571, -16964.25878575549, -3014.825643876272, -1969.5910179127477, -6079.875657543619, -6717.190947197789, -16907.97709321703, -14132.56098420155, -20338.947515362208, -12378.552541560239, -7097.371768638107, -9956.20458796079, -12041.152959007379, -12038.940136306303, 0.008, -0.006, 0.988, 192.0, 0.0, 0.0, 0.0, 0.0, 0.0, 0.0, 0.0, 0.0, 0.0, 1.644498984741213E9, 0.0, 2022-02-11 00:16:24.741
184.0, -9346.806627131298, -10679.775259467991, -10753.334850470406, -16968.282099757445, -3010.623515918674, -1968.6075411567142, -6078.176924965015, -6720.878985032915, -16909.273494395435, -14123.061492808045, -20339.439253740224, -12384.945140474456, -7094.533097092283, -9945.095770966504, -12025.462034399752, -12032.547537392085, 0.008, -0.006, 0.988, 192.0, 0.0, 32.0, 127.5, 104.0, 15.0, 112.0, 0.0, 0.0, 0.0, 1.64449898474122E9, 0.0, 2022-02-11 00:16:24.741
0.0, -4629.873291238939, -5267.501505315484, -5385.183439872675, -8538.768713327494, -1326.196053766734, -944.987052081472, -2981.1639167265794, -3380.164906998266, -8450.47932272903, -7062.279529843275, -10169.216712619867, -6197.937571756551, -3546.7748101681245, -4971.854981405138, -6018.073084124695, -6017.4025317910355, 0.006, -0.004, 0.986, 192.0, 0.0, 24.0, 127.5, 112.0, 15.0, 104.0, 0.0, 0.0, 0.0, 1.6444989848501823E9, 0.0, 2022-02-11 00:16:24.850
2.0, -9258.271367343828, -10532.611373974249, -10774.077269324931, -17085.248778492067, -2658.4047267919454, -1891.5387262748154, -5949.788504813731, -6747.343450467998, -16867.85571191975, -14421.814909197677, -20267.86896799433, -12297.639226632027, -6586.58970434543, -9774.462553794689, -11971.124943628902, -12157.471437152797, 0.006, -0.004, 0.986, 192.0, 0.0, 0.0, 0.0, 0.0, 0.0, 0.0, 0.0, 0.0, 0.0, 1.6444989853187556E9, 0.0, 2022-02-11 00:16:25.318
4.0, -9279.773745509834, -10560.752220243481, -10781.073365339442, -17085.785220358994, -2668.060680396638, -1908.61545903867, -5929.738990037321, -6748.52809292413, -16874.963566656537, -14427.536955778236, -20280.989441989594, -12300.455546433395, -6596.446823650221, -9771.892103182328, -11973.337766329976, -12160.287756954165, 0.006, -0.004, 0.986, 192.0, 0.0, 0.0, 0.0, 0.0, 0.0, 0.0, 0.0, 0.0, 0.0, 1.644498985318767E9, 0.0, 2022-02-11 00:16:25.318
6.0, -9248.280137572305, -10542.870824679236, -10764.84599886489, -17083.28182498, -2645.6642324524205, -1893.975066420444, -5945.720487322866, -6761.380345985931, -16866.782828185897, -14427.581659267147, -20277.547273343476, -12307.76456687028, -6595.016312005081, -9769.433411292244, -11974.142429130368, -12160.421867420897, 0.006, -0.004, 0.986, 192.0, 0.0, 0.0, 0.0, 0.0, 0.0, 0.0, 0.0, 0.0, 0.0, 1.644498985318789E9, 0.0, 2022-02-11 00:16:25.318
8.0, -9263.389916824093, -10552.415019561651, -10772.244426279596, -17090.2332175056, -2654.2025988343476, -1906.4473398265052, -5966.485257921846, -6760.352165740987, -16863.877101406706, -14424.385359810038, -20263.264508636537, -12294.733499852837, -6587.081442723446, -9766.684146724243, -11969.56032151703, -12164.60164363404, 0.008, -0.002, 0.988, 192.0, 0.0, 32.0, 127.5, 120.0, 15.0, 112.0, 0.0, 0.0, 0.0, 1.6444989853187964E9, 0.0, 2022-02-11 00:16:25.318
10.0, -9266.273291858828, -10551.811522461358, -10774.412545491761, -17088.333319226902, -2651.073354610605, -1900.3229618457513, -5936.131588951539, -6752.149075525889, -16863.474770006513, -14433.773092481268, -20279.648337322276, -12306.602276158605, -6594.189297460234, -9773.143800871827, -11982.569036790019, -12169.988414047768, 0.008, -0.002, 0.988, 192.0, 0.0, 0.0, 0.0, 0.0, 0.0, 0.0, 0.0, 0.0, 0.0, 1.6444989853188033E9, 0.0, 2022-02-11 00:16:25.318
12.0, -9261.288852845295, -10552.99616491749, -10768.735202400114, -17088.355670971356, -2643.7643341737194, -1890.04115939631, -5911.947001450897, -6740.749685853682, -16864.99468862947, -14425.771167966268, -20264.940889470683, -12288.676177105448, -6589.1825067022455, -9775.021347406071, -11966.98987090467, -12161.360640688019, 0.008, -0.002, 0.988, 192.0, 0.0, 0.0, 0.0, 0.0, 0.0, 0.0, 0.0, 0.0, 0.0, 1.6444989853188121E9, 0.0, 2022-02-11 00:16:25.318
14.0, -9277.762088508856, -10564.216740634054, -10780.447516494694, -17087.841580848883, -2662.71861347182, -1898.1771943780416, -5936.176292440449, -6743.990688799702, -16873.24248233348, -14445.440703086937, -20280.073020466927, -12302.780127856748, -6595.68686433874, -9779.715213741687, -11972.60015876295, -12164.042850022657, 0.008, -0.002, 0.988, 192.0, 0.0, 0.0, 0.0, 0.0, 0.0, 0.0, 0.0, 0.0, 0.0, 1.644498985318819E9, 0.0, 2022-02-11 00:16:25.318
16.0, -9253.622204497124, -10540.389781044696, -10772.378536746328, -17085.71816512563, -2652.548569744655, -1884.9896651494105, -5930.8789290045415, -6746.605842900974, -16867.81100843084, -14433.147243636518, -20278.35193614387, -12305.685854635938, -6593.094061981924, -9772.74146947163, -11974.70122274175, -12162.03119302168, 0.006, -0.003, 0.986, 192.0, 0.0, 16.0, 127.5, 112.0, 15.0, 96.0, 0.0, 0.0, 0.0, 1.644498985318826E9, 0.0, 2022-02-11 00:16:25.318
18.0, -9276.17511465253, -10553.398496317684, -10782.526228729037, -17090.72495588362, -2660.483439026289, -1903.7651304918684, -5934.3434493951145, -6751.992613314702, -16876.192912601582, -14430.66620000198, -20274.19451167518, -12296.14165975352, -6593.451689893209, -9767.511161269089, -11968.80036220555, -12164.892216311959, 0.006, -0.003, 0.986, 192.0, 0.0, 0.0, 0.0, 0.0, 0.0, 0.0, 0.0, 0.0, 0.0, 1.644498985318833E9, 0.0, 2022-02-11 00:16:25.318
20.0, -9272.934111706509, -10561.221606877043, -10782.123897328842, -17083.751211613562, -2656.7506977022526, -1894.1091768871759, -5932.242385416315, -6748.684555135317, -16875.969395157026, -14441.819720485179, -20291.718279328143, -12313.620723917571, -6599.285495196044, -9781.212780620192, -11979.640958266373, -12169.854303581036, 0.006, -0.003, 0.986, 192.0, 0.0, 0.0, 0.0, 0.0, 0.0, 0.0, 0.0, 0.0, 0.0, 1.6444989853188403E9, 0.0, 2022-02-11 00:16:25.318
22.0, -9267.234416870406, -10546.961193914556, -10770.344528000895, -17090.412031461245, -2654.023784878705, -1887.6271709951368, -5954.258853704793, -6752.327889481532, -16871.38728754369, -14428.90041219001, -20271.71346804064, -12297.14748825401, -6591.842364292427, -9764.940710656729, -11970.968481417714, -12160.466570909808, 0.006, -0.003, 0.986, 192.0, 0.0, 0.0, 0.0, 0.0, 0.0, 0.0, 0.0, 0.0, 0.0, 1.6444989853188467E9, 0.0, 2022-02-11 00:16:25.318
24.0, -9278.812620498255, -10552.347964328286, -10781.65451069528, -17092.915426840238, -2662.517447771722, -1903.6757235140471, -5942.434780887936, -6755.7700581276495, -16875.455305034557, -14422.932496420444, -20281.21295943415, -12308.077491292655, -6601.520669641575, -9762.280853066546, -11978.880998954894, -12168.244977980254, 0.006, -0.003, 0.986, 192.0, 0.0, 0.0, 0.0, 0.0, 0.0, 0.0, 0.0, 0.0, 0.0, 1.6444989853188536E9, 0.0, 2022-02-11 00:16:25.318
26.0, -9266.317995347737, -10557.555920786372, -10771.842094879401, -17087.707470382153, -2651.609796477532, -1900.747644990402, -5919.770112010255, -6751.210302258766, -16870.515569509935, -14429.682723245947, -20280.810628033953, -12308.546877926217, -6600.671303352274, -9792.992149948139, -11977.294025098567, -12165.115733756511, 0.008, -0.0025, 0.989, 192.0, 0.0, 40.0, 127.5, 120.0, 15.5, 0.0, 0.0, 0.0, 0.0, 1.6444989853188608E9, 0.0, 2022-02-11 00:16:25.318
28.0, -9278.74556526489, -10558.338231842308, -10777.675900182236, -17096.71522339764, -2659.7234797148085, -1910.649467784103, -5935.371629640059, -6764.017851831657, -16878.048107391372, -14440.81389198469, -20273.30044189697, -12308.368063970574, -6599.196088218223, -9775.98247241765, -11969.672080239307, -12167.529722157684, 0.008, -0.0025, 0.989, 192.0, 0.0, 0.0, 0.0, 0.0, 0.0, 0.0, 0.0, 0.0, 0.0, 1.6444989853188674E9, 0.0, 2022-02-11 00:16:25.318
30.0, -9276.64450128609, -10560.41694407665, -10775.574836203437, -17083.997080802572, -2661.578674504599, -1899.9653339344663, -5937.986783741329, -6762.497933208697, -16872.460171277544, -14437.058798916198, -20281.257662923057, -12304.925895324457, -6599.35255042941, -9772.562655515989, -11983.999548435158, -12170.301338470143, 0.008, -0.0025, 0.989, 192.0, 0.0, 0.0, 0.0, 0.0, 0.0, 0.0, 0.0, 0.0, 0.0, 1.6444989853188741E9, 0.0, 2022-02-11 00:16:25.318
32.0, -9263.21110286845, -10562.56271154436, -10774.971339103144, -17091.507266939552, -2652.8838459114845, -1893.5056797868824, -5925.894489991008, -6743.118970765945, -16876.014098645937, -14434.734217492845, -20269.522997084023, -12302.087223778633, -6597.027969006058, -9773.07674563846, -11973.449525052254, -12159.21487322031, 0.008, -0.0025, 0.989, 192.0, 0.0, 0.0, 0.0, 0.0, 0.0, 0.0, 0.0, 0.0, 0.0, 1.6444989853188834E9, 0.0, 2022-02-11 00:16:25.318
34.0, -9274.565789051747, -10561.065144665856, -10782.950911873688, -17093.876551851816, -2672.2404566097807, -1900.8147002237679, -5945.452266389402, -6753.266662748655, -16876.05880213485, -14450.715714778391, -20280.676517567223, -12307.831622103648, -6602.168870230779, -9769.36635605888, -11983.105478656946, -12164.042850022657, 0.008, -0.0025, 0.989, 192.0, 0.0, 0.0, 0.0, 0.0, 0.0, 0.0, 0.0, 0.0, 0.0, 1.64449898531889E9, 0.0, 2022-02-11 00:16:25.318
36.0, -9272.17415239503, -10554.873711451735, -10774.837228636412, -17094.18947627419, -2654.582578490088, -1891.6728367415474, -5935.79631278471, -6747.365802212454, -16876.57289225732, -14445.753627509312, -20283.694003068686, -12313.441909961928, -6606.818033077483, -9762.482018766645, -11988.425193837309, -12163.372297688997, 0.007, -0.0022500000000000003, 0.9895, 192.0, 0.0, 24.0, 127.5, 120.0, 15.0, 120.0, 0.0, 0.0, 0.0, 1.644498985318897E9, 0.0, 2022-02-11 00:16:25.318
38.0, -9277.516219319847, -10549.50929278246, -10781.788621162012, -17097.072851308927, -2657.3094913136356, -1904.458034569983, -5947.6650890904775, -6756.708831394772, -16880.10446788126, -14427.604011011603, -20275.848540764873, -12307.518697681273, -6599.799585318517, -9767.64527173582, -11978.70218499925, -12163.841684322559, 0.007, -0.0022500000000000003, 0.9895, 192.0, 0.0, 0.0, 0.0, 0.0, 0.0, 0.0, 0.0, 0.0, 0.0, 1.6444989853189068E9, 0.0, 2022-02-11 00:16:25.318
40.0, -9284.735832778912, -10574.230322150031, -10787.264798553562, -17091.820191361927, -2666.361947818035, -1905.9108979595778, -5950.146132725016, -6757.245273261699, -16881.356165570756, -14446.982973454355, -20292.21001770616, -12315.565325685184, -6607.332123199955, -9782.196257376225, -11992.672025283817, -12169.697841369849, 0.007, -0.0022500000000000003, 0.9895, 192.0, 0.0, 0.0, 0.0, 0.0, 0.0, 0.0, 0.0, 0.0, 0.0, 1.6444989853189137E9, 0.0, 2022-02-11 00:16:25.318
42.0, -9279.840800743199, -10573.671528538649, -10778.972301360644, -17096.447002464178, -2659.1199826145153, -1906.5367468043264, -5950.839036803131, -6765.560122199074, -16887.77111622943, -14443.361990852594, -20280.832979778406, -12301.841354589624, -6606.080425510458, -9771.065088637482, -11986.70410951425, -12168.468495424808, 0.007, -0.0022500000000000003, 0.9895, 192.0, 0.0, 0.0, 0.0, 0.0, 0.0, 0.0, 0.0, 0.0, 0.0, 1.6444989853189201E9, 0.0, 2022-02-11 00:16:25.318
44.0, -9281.07014668824, -10560.238130121008, -10789.388214276816, -17093.72008964063, -2672.3969188209676, -1913.264621885374, -5968.832191089653, -6769.695194923305, -16882.09377313778, -14448.637002544046, -20285.571549602933, -12307.988084314835, -6603.308809198, -9780.36341433089, -11991.196810149768, -12176.895103084458, 0.007, -0.0022500000000000003, 0.9895, 192.0, 0.0, 0.0, 0.0, 0.0, 0.0, 0.0, 0.0, 0.0, 0.0, 1.6444989853189273E9, 0.0, 2022-02-11 00:16:25.318
46.0, -9258.137256877097, -10554.247862606986, -10782.012138606566, -17092.08841229539, -2657.197732591359, -1899.6971130010027, -5942.121856465561, -6756.865293605959, -16870.806142187852, -14441.037409429242, -20282.19643619018, -12302.981293556846, -6601.252448708111, -9775.64719625082, -11990.168629904823, -12168.893178569459, 0.0045000000000000005, -0.003125, 0.98875, 192.0, 0.0, 8.0, 127.5, 112.0, 15.0, 112.0, 0.0, 0.0, 0.0, 1.644498985318934E9, 0.0, 2022-02-11 00:16:25.318
48.0, -9277.538571064302, -10552.124446883732, -10785.051975852488, -17101.029110077514, -2665.4902297842777, -1908.458996827483, -5941.160731453983, -6749.422162702342, -16883.993671416483, -14442.445569329926, -20279.78244778901, -12307.831622103648, -6607.35447494441, -9770.796867704019, -11981.809077478538, -12168.110867513522, 0.0045000000000000005, -0.003125, 0.98875, 192.0, 0.0, 0.0, 0.0, 0.0, 0.0, 0.0, 0.0, 0.0, 0.0, 1.6444989853189435E9, 0.0, 2022-02-11 00:16:25.318
50.0, -9279.55022806528, -10547.721153226037, -10782.928560129234, -17092.1331157843, -2658.7623547032304, -1909.554232305793, -5933.829359272642, -6748.148113268389, -16878.182217858102, -14442.490272818837, -20290.44422989419, -12316.437043718941, -6606.6168673773855, -9779.424641063768, -11988.46989732622, -12167.59677739105, 0.0045000000000000005, -0.003125, 0.98875, 192.0, 0.0, 0.0, 0.0, 0.0, 0.0, 0.0, 0.0, 0.0, 0.0, 1.6444989853189504E9, 0.0, 2022-02-11 00:16:25.318
52.0, -9271.593007039191, -10564.32849935633, -10781.028661850532, -17101.274979266524, -2655.7672209462194, -1909.420121839061, -5952.582472870645, -6760.083944807523, -16882.585511515797, -14432.320229091672, -20279.804799533464, -12297.840392332124, -6601.431262663754, -9770.12631537036, -11982.971368190214, -12164.892216311959, 0.0045000000000000005, -0.003125, 0.98875, 192.0, 0.0, 0.0, 0.0, 0.0, 0.0, 0.0, 0.0, 0.0, 0.0, 1.6444989853189576E9, 0.0, 2022-02-11 00:16:25.318
54.0, -9282.277140888827, -10562.85328422228, -10793.746804445602, -17102.593732189387, -2669.7594129752415, -1917.6679155430695, -5942.859464032586, -6763.503761709186, -16884.932444683607, -14444.501929819815, -20290.041898493993, -12300.835526089137, -6608.002675533614, -9772.182675860247, -11992.023824694614, -12172.983547804779, 0.0045000000000000005, -0.003125, 0.98875, 192.0, 0.0, 0.0, 0.0, 0.0, 0.0, 0.0, 0.0, 0.0, 0.0, 1.6444989853189645E9, 0.0, 2022-02-11 00:16:25.318
56.0, -9275.079879174218, -10566.496618568495, -10784.917865385756, -17098.34690074288, -2655.0966686125603, -1913.622249796659, -5933.5164348502685, -6761.603863430484, -16880.797371959376, -14448.61465079959, -20292.67940433972, -12311.072625049666, -6607.935620300248, -9777.055356151504, -11993.096708428468, -12170.100172770044, 0.00625, -0.004562500000000001, 0.987375, 192.0, 0.0, 32.0, 127.5, 104.0, 15.0, 104.0, 0.0, 0.0, 0.0, 1.644498985318972E9, 0.0, 2022-02-11 00:16:25.318
58.0, -9286.658082802067, -10569.111772669767, -10790.036414866021, -17102.325511255924, -2664.730270472797, -1915.4997963309047, -5950.637871103033, -6775.461944992775, -16890.54273254189, -14452.973240968377, -20283.805761790965, -12308.099843037111, -6607.801509833516, -9779.178771874758, -11990.414499093831, -12173.31882397161, 0.00625, -0.004562500000000001, 0.987375, 192.0, 0.0, 0.0, 0.0, 0.0, 0.0, 0.0, 0.0, 0.0, 0.0, 1.6444989853189807E9, 0.0, 2022-02-11 00:16:25.318
60.0, -9290.435527615015, -10575.459668095073, -10798.775946948046, -17101.945531600184, -2671.10051764256, -1916.0138864533767, -5942.859464032586, -6754.42895346033, -16887.34643308478, -14462.204511428417, -20299.429631165225, -12320.81798563218, -6618.418588449787, -9783.112678898893, -12000.159859676345, -12176.559826917628, 0.00625, -0.004562500000000001, 0.987375, 192.0, 0.0, 0.0, 0.0, 0.0, 0.0, 0.0, 0.0, 0.0, 0.0, 1.6444989853189871E9, 0.0, 2022-02-11 00:16:25.318
62.0, -9279.349062365183, -10567.323633113341, -10782.906208384778, -17109.366310759346, -2661.8245436936077, -1915.3433341197176, -5953.878874049053, -6761.62621517494, -16888.508723796454, -14452.682668290458, -20285.213921691648, -12317.465223963884, -6614.484681425653, -9777.860018951897, -11990.168629904823, -12170.45780068133, 0.00625, -0.004562500000000001, 0.987375, 192.0, 0.0, 0.0, 0.0, 0.0, 0.0, 0.0, 0.0, 0.0, 0.0, 1.644498985318994E9, 0.0, 2022-02-11 00:16:25.318
64.0, -9294.280027661327, -10567.725964513536, -10796.361958546873, -17107.689929925196, -2672.8216019656184, -1923.2782034013514, -5963.065441020184, -6767.840000133515, -16893.359052343258, -14448.43583684395, -20297.105049741873, -12318.158128042, -6618.30682972751, -9781.995091676128, -11995.935379974293, -12176.69393738436, 0.00625, -0.004562500000000001, 0.987375, 192.0, 0.0, 0.0, 0.0, 0.0, 0.0, 0.0, 0.0, 0.0, 0.0, 1.6444989853190012E9, 0.0, 2022-02-11 00:16:25.319
66.0, -9281.271312388339, -10576.286682639919, -10789.097641598897, -17108.248723536577, -2661.645729737965, -1917.2879358873292, -5927.973202225352, -6760.530979696629, -16888.709889496553, -14446.960621709899, -20300.703680599177, -12313.53131693975, -6620.363190217399, -9780.497524797622, -11996.762394519139, -12176.179847261888, 0.007125, -0.00428125, 0.9866874999999999, 192.0, 0.0, 32.0, 127.5, 112.0, 15.0, 104.0, 0.0, 0.0, 0.0, 1.6444989853190079E9, 0.0, 2022-02-11 00:16:25.319
68.0, -9283.685300789512, -10574.386784361219, -10788.695310198702, -17110.327435770923, -2671.5922560205768, -1932.5318256058486, -5945.586376856134, -6768.890532122914, -16888.06168890735, -14461.757476539313, -20276.653203565267, -12306.311703480686, -6617.189242504745, -9779.424641063768, -11991.42032759432, -12176.783344362182, 0.007125, -0.00428125, 0.9866874999999999, 192.0, 0.0, 0.0, 0.0, 0.0, 0.0, 0.0, 0.0, 0.0, 0.0, 1.6444989853190145E9, 0.0, 2022-02-11 00:16:25.319
70.0, -9284.445260100993, -10567.390688346708, -10792.8974381563, -17103.91248511225, -2672.128697887504, -1927.5473865923152, -5946.681612334444, -6768.689366422816, -16882.92078768263, -14463.590319584648, -20292.612349106355, -12313.419558217474, -6622.061922796002, -9789.147649901826, -12001.165688176834, -12180.538437430674, 0.007125, -0.00428125, 0.9866874999999999, 192.0, 0.0, 0.0, 0.0, 0.0, 0.0, 0.0, 0.0, 0.0, 0.0, 1.6444989853190231E9, 0.0, 2022-02-11 00:16:25.319
72.0, -9282.724175777934, -10569.603511047782, -10786.393080519805, -17107.71228166965, -2658.4047267919454, -1921.71358128948, -5948.335641424137, -6765.828343132537, -16886.63117726221, -14455.990726469843, -20286.44326763669, -12314.313627995685, -6620.340838472944, -9790.064071424493, -11994.393109606875, -12172.670623382404, 0.007125, -0.00428125, 0.9866874999999999, 192.0, 0.0, 0.0, 0.0, 0.0, 0.0, 0.0, 0.0, 0.0, 0.0, 1.6444989853190298E9, 0.0, 2022-02-11 00:16:25.319
74.0, -9294.436489872514, -10580.891141997712, -10797.23367658063, -17110.48389798211, -2667.010148407239, -1931.168369194075, -5968.631025389555, -6773.830267647537, -16891.794430231384, -14465.020831229787, -20292.366479917346, -12316.705264652404, -6624.542966430541, -9789.50527781311, -11995.1307171739, -12177.900931584947, 0.007125, -0.00428125, 0.9866874999999999, 192.0, 0.0, 0.0, 0.0, 0.0, 0.0, 0.0, 0.0, 0.0, 0.0, 1.6444989853190365E9, 0.0, 2022-02-11 00:16:25.319
76.0, -9276.108059419163, -10577.42662160714, -10790.058766610477, -17105.320645012933, -2651.2074650773366, -1916.4162178535723, -5948.469751890869, -6757.62525291744, -16881.95966267105, -14459.119970693586, -20291.986500261606, -12312.48078495035, -6617.993905305137, -9786.13016440036, -12002.41738586633, -12176.2245507508, 0.0075625, -0.004140625, 0.98634375, 192.0, 0.0, 32.0, 127.5, 112.0, 15.0, 104.0, 0.0, 0.0, 0.0, 1.6444989853190432E9, 0.0, 2022-02-11 00:16:25.319
78.0, -9283.707652533967, -10579.103002441288, -10796.764289947068, -17107.95815085866, -2660.416383792923, -1915.9468312200108, -5941.361897154081, -6783.4191660188635, -16890.743898241984, -14460.483427105359, -20284.766886802543, -12309.48565119334, -6624.766483875094, -9781.79392597603, -11996.762394519139, -12175.017556550212, 0.0075625, -0.004140625, 0.98634375, 192.0, 0.0, 0.0, 0.0, 0.0, 0.0, 0.0, 0.0, 0.0, 0.0, 1.64449898531905E9, 0.0, 2022-02-11 00:16:25.319
80.0, -9287.46274560246, -10568.41886859165, -10801.27934232704, -17103.756022901063, -2658.0247471362054, -1903.2063368804859, -5925.872138246553, -6750.00330805818, -16886.787639473398, -14461.377496883571, -20296.83682880841, -12321.332075754652, -6628.812149621505, -9772.74146947163, -12001.970350977224, -12172.804733849138, 0.0075625, -0.004140625, 0.98634375, 192.0, 0.0, 0.0, 0.0, 0.0, 0.0, 0.0, 0.0, 0.0, 0.0, 1.6444989853190567E9, 0.0, 2022-02-11 00:16:25.319
82.0, -9269.06725991574, -10552.817350961846, -10789.097641598897, -17103.554857200965, -2654.6943372123646, -1904.9274212035443, -5973.5484091697235, -6767.884703622425, -16885.737107483998, -14454.224938657873, -20277.904901254762, -12306.71403488088, -6620.296134984033, -9786.040757422537, -11994.907199729349, -12168.580254147084, 0.0075625, -0.004140625, 0.98634375, 192.0, 0.0, 0.0, 0.0, 0.0, 0.0, 0.0, 0.0, 0.0, 0.0, 1.6444989853190637E9, 0.0, 2022-02-11 00:16:25.319
84.0, -9288.088594447207, -10562.741525500003, -10807.359016818884, -17105.72297641313, -2669.357081575046, -1918.941964977022, -5944.468789633369, -6755.323023238543, -16888.776944729918, -14454.470807846881, -20291.24889269458, -12320.77328214327, -6622.017219307091, -9785.951350444717, -11999.466955598231, -12174.861094339025, 0.0075625, -0.004140625, 0.98634375, 192.0, 0.0, 0.0, 0.0, 0.0, 0.0, 0.0, 0.0, 0.0, 0.0, 1.6444989853190713E9, 0.0, 2022-02-11 00:16:25.319
86.0, -9290.45787935947, -10579.818258263858, -10800.497031271105, -17098.436307720698, -2658.605892492043, -1910.358895106184, -5934.969298239863, -6749.578624913529, -16889.29103485239, -14465.736087052357, -20299.161410231758, -12315.006532073801, -6627.135768787357, -9795.339083115947, -11996.740042774683, -12172.335347215576, 0.008, -0.002, 0.986, 192.0, 0.0, 32.0, 127.5, 120.0, 15.0, 104.0, 0.0, 0.0, 0.0, 1.644498985319078E9, 0.0, 2022-02-11 00:16:25.319
88.0, -9292.246018915894, -10584.601531577293, -10802.32987431644, -17101.34203449989, -2660.505790770744, -1912.0576276847873, -5933.203510427894, -6754.116029037957, -16892.57674128732, -14468.731220809368, -20283.336375157403, -12304.68002613545, -6621.0560942955135, -9785.101984155415, -11986.815868236527, -12171.195408248355, 0.008, -0.002, 0.986, 192.0, 0.0, 0.0, 0.0, 0.0, 0.0, 0.0, 0.0, 0.0, 0.0, 1.644498985319085E9, 0.0, 2022-02-11 00:16:25.319
90.0, -9295.97876023993, -10579.505333841484, -10799.915885915267, -17101.945531600184, -2660.9528256598505, -1916.907956231589, -5925.335696379626, -6757.8264186175375, -16889.96158718605, -14466.876026019578, -20301.150715488282, -12320.929744354456, -6622.64306815184, -9790.980492947161, -11993.2308188952, -12176.470419939807, 0.008, -0.002, 0.986, 192.0, 0.0, 0.0, 0.0, 0.0, 0.0, 0.0, 0.0, 0.0, 0.0, 1.644498985319092E9, 0.0, 2022-02-11 00:16:25.319
92.0, -9285.115812434651, -10573.872694238746, -10793.70210095669, -17107.77933690302, -2654.4708197678115, -1911.4764823289495, -5939.059667475184, -6759.927482596337, -16893.24729362098, -14458.091790448641, -20287.449096137178, -12308.122194781567, -6619.335009972455, -9780.095193397427, -11986.882923469893, -12172.111829771022, 0.008, -0.002, 0.986, 192.0, 0.0, 0.0, 0.0, 0.0, 0.0, 0.0, 0.0, 0.0, 0.0, 1.6444989853190987E9, 0.0, 2022-02-11 00:16:25.319
94.0, -9297.722196307444, -10564.350851100786, -10805.123842373354, -17109.098089825882, -2671.7040147428534, -1928.8437877707229, -5954.012984515784, -6767.750593155693, -16899.461078579556, -14478.253063947328, -20299.049651509482, -12326.204756045909, -6621.793701862539, -9800.100004684926, -11994.504868329153, -12180.717251386315, 0.008, -0.002, 0.986, 192.0, 0.0, 0.0, 0.0, 0.0, 0.0, 0.0, 0.0, 0.0, 0.0, 1.644498985319106E9, 0.0, 2022-02-11 00:16:25.319
96.0, -9279.25965538736, -10565.826066234835, -10792.18218233373, -17108.472240981133, -2661.712784971331, -1919.52311033286, -5955.555254883201, -6764.174314042844, -16884.70892723905, -14463.567967840192, -20295.674538096733, -12325.645962434526, -6616.272820982078, -9799.071824439981, -11995.51069682964, -12177.342137973565, 0.01, -0.002, 0.99, 192.0, 0.0, 40.0, 127.5, 120.0, 15.0, 120.0, 0.0, 0.0, 0.0, 1.6444989853191128E9, 0.0, 2022-02-11 00:16:25.319
98.0, -9291.061376459764, -10571.123429670743, -10796.071385868954, -17109.63453169281, -2667.8818664409955, -1927.1450551921196, -5942.770057054765, -6770.8574856349815, -16895.124840155226, -14469.781752798768, -20282.844636779384, -12309.999741315813, -6617.0104285491025, -9797.350740116923, -11990.36979560492, -12180.69489964186, 0.01, -0.002, 0.99, 192.0, 0.0, 0.0, 0.0, 0.0, 0.0, 0.0, 0.0, 0.0, 0.0, 1.6444989853191216E9, 0.0, 2022-02-11 00:16:25.319
100.0, -9293.609475327668, -10580.511162341973, -10799.670016726259, -17099.889171110295, -2670.4746687978113, -1915.7009620310025, -5943.530016366246, -6763.950796598291, -16890.207456375058, -14471.614595844103, -20299.608445120866, -12325.511851967794, -6620.676114639773, -9802.871620997385, -11999.578714320507, -12180.851361853047, 0.01, -0.002, 0.99, 192.0, 0.0, 0.0, 0.0, 0.0, 0.0, 0.0, 0.0, 0.0, 0.0, 1.6444989853191288E9, 0.0, 2022-02-11 00:16:25.319
102.0, -9277.002129197375, -10578.834781507825, -10798.887705670322, -17101.654958922263, -2661.5563227601438, -1909.2189561389634, -5951.353126925604, -6762.5202849531515, -16887.368784829236, -14456.773037525778, -20288.119648470838, -12307.876325592557, -6621.0560942955135, -9790.689920269242, -11993.119060172923, -12170.189579747866, 0.01, -0.002, 0.99, 192.0, 0.0, 0.0, 0.0, 0.0, 0.0, 0.0, 0.0, 0.0, 0.0, 1.6444989853191395E9, 0.0, 2022-02-11 00:16:25.319
104.0, -9293.385957883114, -10576.599607062293, -10798.32891205894, -17104.895961868282, -2671.4804972983, -1915.6786102865472, -5953.1859699709385, -6766.074212321546, -16891.012119175448, -14468.53005510927, -20293.640529351298, -12319.141604798033, -6621.145501273335, -9797.328388372469, -11997.723519530717, -12178.45972519633, 0.01, -0.002, 0.99, 192.0, 0.0, 0.0, 0.0, 0.0, 0.0, 0.0, 0.0, 0.0, 0.0, 1.6444989853191462E9, 0.0, 2022-02-11 00:16:25.319
106.0, -9271.12362040563, -10555.834836463313, -10780.55927521697, -17099.643301921285, -2649.2628633097247, -1892.0751681417428, -5945.139341967028, -6756.820590117049, -16876.57289225732, -14449.486368833348, -20289.326642671425, -12316.325284996663, -6613.3670942028875, -9775.781306717552, -11992.403804350353, -12170.07782102559, 0.004, -0.004, 0.99, 192.0, 0.0, 16.0, 127.5, 112.0, 15.0, 120.0, 0.0, 0.0, 0.0, 1.644498985319153E9, 0.0, 2022-02-11 00:16:25.319
108.0, -9275.482210574415, -10556.773609730437, -10783.04031885151, -17098.86099086535, -2659.678776225898, -1904.525089803349, -5982.779679629765, -6763.2802442646325, -16874.538883511887, -14440.322153606672, -20272.607537818854, -12297.236895231832, -6604.046416765024, -9787.001882434117, -11987.776993248104, -12169.429620436385, 0.004, -0.004, 0.99, 192.0, 0.0, 0.0, 0.0, 0.0, 0.0, 0.0, 0.0, 0.0, 0.0, 1.6444989853191595E9, 0.0, 2022-02-11 00:16:25.319
110.0, -9285.182867668018, -10574.006804705477, -10788.158868331775, -17095.82115361943, -2656.326014557602, -1907.4755200714494, -5913.064588673662, -6759.0557645625795, -16878.942177169585, -14467.188950441952, -20290.64539559429, -12308.636284904038, -6610.394312190332, -9802.044606452539, -11991.465031083231, -12173.74350711626, 0.004, -0.004, 0.99, 192.0, 0.0, 0.0, 0.0, 0.0, 0.0, 0.0, 0.0, 0.0, 0.0, 1.6444989853191664E9, 0.0, 2022-02-11 00:16:25.319
112.0, -9266.452105814471, -10575.727889028536, -10783.08502234042, -17101.543200199987, -2649.2181598208144, -1897.2607728553742, -5925.961545224374, -6744.214206244255, -16882.25023534897, -14461.556310839214, -20283.20226469067, -12307.272828492265, -6609.500242412119, -9786.867771967385, -11984.580693790997, -12167.306204713132, 0.004, -0.004, 0.99, 192.0, 0.0, 0.0, 0.0, 0.0, 0.0, 0.0, 0.0, 0.0, 0.0, 1.6444989853191733E9, 0.0, 2022-02-11 00:16:25.319
114.0, -9299.59974284169, -10571.70457502658, -10791.80220267799, -17102.973711845127, -2666.227837351303, -1910.5153573173711, -5936.533920351734, -6754.943043582803, -16887.324081340324, -14468.77592429828, -20292.72410782863, -12319.320418753674, -6614.752902359117, -9786.063109166993, -11989.98981594918, -12173.40823094943, 0.004, -0.004, 0.99, 192.0, 0.0, 0.0, 0.0, 0.0, 0.0, 0.0, 0.0, 0.0, 0.0, 1.6444989853191803E9, 0.0, 2022-02-11 00:16:25.319
116.0, -9288.066242702753, -10572.375127360241, -10785.499010741594, -17099.62095017683, -2661.869247182518, -1896.4561100549831, -5937.897376763508, -6745.0859242780125, -16885.424183061623, -14465.356107396616, -20295.808648563463, -12317.599334430615, -6616.943373315737, -9789.147649901826, -11995.354234618455, -12170.16722800341, 0.002, -0.008, 0.982, 192.0, 0.0, 8.0, 127.5, 96.0, 15.0, 88.0, 0.0, 0.0, 0.0, 1.6444989853191874E9, 0.0, 2022-02-11 00:16:25.319
118.0, -9295.419966628548, -10582.43341236513, -10790.774022433046, -17107.24289503609, -2665.445526295367, -1899.0265606673433, -5932.488254605324, -6751.031488303124, -16897.695290767588, -14465.087886463152, -20287.449096137178, -12313.732482639847, -6617.680980882762, -9791.762804003096, -11987.017033936625, -12168.513198913717, 0.002, -0.008, 0.982, 192.0, 0.0, 0.0, 0.0, 0.0, 0.0, 0.0, 0.0, 0.0, 0.0, 1.6444989853191943E9, 0.0, 2022-02-11 00:16:25.319
120.0, -9293.497716605392, -10574.252673894487, -10789.097641598897, -17103.756022901063, -2664.0150146502274, -1905.1509386480975, -5940.020792486763, -6758.742840140205, -16887.972281929528, -14472.24044468885, -20300.63662536581, -12319.186308286942, -6619.491472183642, -9794.445013337734, -11993.856667739949, -12173.497637927252, 0.002, -0.008, 0.982, 192.0, 0.0, 0.0, 0.0, 0.0, 0.0, 0.0, 0.0, 0.0, 0.0, 1.6444989853192012E9, 0.0, 2022-02-11 00:16:25.319
122.0, -9284.489963589904, -10573.42565934964, -10780.246350794596, -17104.85125837937, -2650.5592644881326, -1900.8147002237679, -5947.620385601567, -6753.825456360038, -16891.079174408816, -14472.441610388949, -20291.67357583923, -12314.134814040044, -6613.3670942028875, -9800.479984340667, -11985.2288943802, -12170.54720765915, 0.002, -0.008, 0.982, 192.0, 0.0, 0.0, 0.0, 0.0, 0.0, 0.0, 0.0, 0.0, 0.0, 1.6444989857990603E9, 0.0, 2022-02-11 00:16:25.799
124.0, -9298.951542252487, -10584.825049021847, -10792.696272456202, -17108.606351447863, -2664.4396977948786, -1911.4317788400388, -5945.184045455939, -6763.727279153738, -16896.465944822543, -14475.883779035066, -20298.177933475727, -12320.370950743074, -6619.223251250178, -9807.811356522006, -11987.218199636722, -12175.531646672684, 0.002, -0.008, 0.982, 192.0, 0.0, 0.0, 0.0, 0.0, 0.0, 0.0, 0.0, 0.0, 0.0, 1.6444989857992313E9, 0.0, 2022-02-11 00:16:25.799
126.0, -9279.147896665085, -10573.492714583006, -10779.531094972026, -17102.705490911663, -2651.7662586887195, -1895.5620402767709, -5939.909033764486, -6755.09950579399, -16887.01115691795, -14478.275415691784, -20297.552084630977, -12319.990971087334, -6612.540079658042, -9793.79681274853, -11988.693414770773, -12172.849437338047, -0.002, -0.004, 0.984, 192.0, 127.5, 120.0, 127.5, 112.0, 15.0, 96.0, 0.0, 0.0, 0.0, 1.6444989857992382E9, 0.0, 2022-02-11 00:16:25.799
128.0, -9276.242169885894, -10558.941728942602, -10780.17929556123, -17108.114613069847, -2655.387241290479, -1897.6631042555696, -5952.627176359556, -6765.247197776699, -16888.754592985464, -14463.143284695541, -20280.96709024514, -12315.610029174093, -6606.214535977189, -9776.205989862203, -11981.98789143418, -12170.100172770044, -0.002, -0.004, 0.984, 192.0, 0.0, 0.0, 0.0, 0.0, 0.0, 0.0, 0.0, 0.0, 0.0, 1.644498985799245E9, 0.0, 2022-02-11 00:16:25.799
130.0, -9279.46082108746, -10551.56565327235, -10787.108336342375, -17102.772546145028, -2655.9907383907725, -1901.1499763905974, -5940.89251052052, -6760.776848885638, -16877.668127735633, -14458.829398015667, -20288.365517659848, -12316.325284996663, -6604.7393208431395, -9791.718100514187, -11988.291083370577, -12172.715326871315, -0.002, -0.004, 0.984, 192.0, 0.0, 0.0, 0.0, 0.0, 0.0, 0.0, 0.0, 0.0, 0.0, 1.6444989857992644E9, 0.0, 2022-02-11 00:16:25.799
132.0, -9271.54830355028, -10564.641423778705, -10776.915940870756, -17106.304121768968, -2643.250244051247, -1903.5416130473154, -5935.773961040254, -6755.3006714940875, -16878.29397658038, -14451.609784556602, -20276.720258798632, -12310.670293649471, -6601.721835341673, -9791.136955158348, -11977.897522198858, -12168.088515769066, -0.002, -0.004, 0.984, 192.0, 0.0, 0.0, 0.0, 0.0, 0.0, 0.0, 0.0, 0.0, 0.0, 1.644498985799271E9, 0.0, 2022-02-11 00:16:25.799
134.0, -9298.660969574568, -10583.32748214334, -10790.818725921956, -17110.10391832637, -2661.802191949152, -1911.7670550068683, -5943.9099960219855, -6757.513494195163, -16892.375575587223, -14482.835171560666, -20293.26054969556, -12314.380683229052, -6608.874393567371, -9799.27299014008, -11981.339690844976, -12174.592873405561, -0.002, -0.004, 0.984, 192.0, 0.0, 0.0, 0.0, 0.0, 0.0, 0.0, 0.0, 0.0, 0.0, 1.644498985799286E9, 0.0, 2022-02-11 00:16:25.799
136.0, -9292.693053805, -10588.177810690142, -10785.946045630699, -17105.834735135406, -2656.57188374661, -1900.3676653346618, -5957.209283972894, -6749.466866191253, -16892.174409887124, -14480.555293626225, -20303.542352145, -12319.745101898325, -6615.646972137329, -9801.821089007984, -11986.32412985851, -12172.089478026566, 0.006, -0.004, 0.984, 192.0, 0.0, 24.0, 127.5, 112.0, 15.0, 96.0, 0.0, 0.0, 0.0, 1.6444989857992923E9, 0.0, 2022-02-11 00:16:25.799
138.0, -9305.344141166705, -10597.52083987246, -10794.484412012627, -17112.316741027444, -2668.418308307923, -1908.1460724051087, -5947.687440834933, -6765.917750110359, -16905.406642604667, -14478.72245058089, -20292.567645617444, -12312.793709372725, -6622.732475129661, -9803.877449497873, -11985.765336247128, -12169.049640780646, 0.006, -0.004, 0.984, 192.0, 0.0, 0.0, 0.0, 0.0, 0.0, 0.0, 0.0, 0.0, 0.0, 1.6444989857992992E9, 0.0, 2022-02-11 00:16:25.799
140.0, -9303.198373698995, -10581.204066420087, -10799.13357485933, -17107.064081080447, -2675.414404322434, -1913.9575259634885, -5936.578623840645, -6761.693270408306, -16901.740956513997, -14492.446421676448, -20307.096279513393, -12331.189195059444, -6628.83450136596, -9812.818147279995, -11997.656464297352, -12177.65506239594, 0.006, -0.004, 0.984, 192.0, 0.0, 0.0, 0.0, 0.0, 0.0, 0.0, 0.0, 0.0, 0.0, 1.6444989857993057E9, 0.0, 2022-02-11 00:16:25.799
142.0, -9290.346120637194, -10587.95429324559, -10790.349339288396, -17114.48486023961, -2666.652520495954, -1908.1907758940192, -5931.147149938006, -6756.306499994576, -16894.610750032753, -14476.733145324368, -20292.321776428435, -12321.555593199206, -6621.50312918462, -9804.391539620345, -11988.55930430404, -12171.843608837558, 0.006, -0.004, 0.984, 192.0, 0.0, 0.0, 0.0, 0.0, 0.0, 0.0, 0.0, 0.0, 0.0, 1.644498985799312E9, 0.0, 2022-02-11 00:16:25.799
144.0, -9303.779519054833, -10578.454801852084, -10795.333778301929, -17116.42946200722, -2679.6612357689423, -1914.7398370194242, -5951.397830414514, -6764.308424509576, -16897.360014600756, -14488.400755930037, -20295.518075885546, -12328.641096191537, -6620.698466384229, -9798.513030828599, -11990.101574671457, -12177.185675762377, 0.006, -0.004, 0.984, 192.0, 0.0, 0.0, 0.0, 0.0, 0.0, 0.0, 0.0, 0.0, 0.0, 1.6444989857993188E9, 0.0, 2022-02-11 00:16:25.799
146.0, -9294.637655572613, -10588.803659534891, -10784.046147351999, -17107.75698515856, -2665.9149129289285, -1907.6319822826365, -5968.318100967182, -6762.542636697607, -16891.77207848693, -14475.05676449022, -20298.15558173127, -12327.098825824121, -6620.296134984033, -9806.47025185469, -11995.868324740926, -12176.515123428719, 0.004, -0.006, 0.99, 192.0, 0.0, 16.0, 127.5, 104.0, 15.0, 120.0, 0.0, 0.0, 0.0, 1.6444989857993255E9, 0.0, 2022-02-11 00:16:25.799
148.0, -9302.17019345405, -10593.609284592781, -10787.689481698213, -17111.06504333795, -2667.4795350408003, -1917.6679155430695, -5944.98287975584, -6763.52611345364, -16896.890627967194, -14476.174351712985, -20286.085639725407, -12312.81606111718, -6616.719855871183, -9808.124280944381, -11990.213333393733, -12172.134181515477, 0.004, -0.006, 0.99, 192.0, 0.0, 0.0, 0.0, 0.0, 0.0, 0.0, 0.0, 0.0, 0.0, 1.644498985799332E9, 0.0, 2022-02-11 00:16:25.799
150.0, -9296.381091640127, -10584.57917983284, -10789.656435210281, -17106.684101424707, -2668.842991452574, -1922.9205754900665, -5927.012077213773, -6767.281206522132, -16894.521343054934, -14484.91388379501, -20302.53652364451, -12324.595430445128, -6615.423454692776, -9812.013484479605, -11995.42128985182, -12179.197332763355, 0.004, -0.006, 0.99, 192.0, 0.0, 0.0, 0.0, 0.0, 0.0, 0.0, 0.0, 0.0, 0.0, 1.6444989857993383E9, 0.0, 2022-02-11 00:16:25.799
152.0, -9291.530763093324, -10574.766764016958, -10783.33089152943, -17108.785165403508, -2660.706956470842, -1910.4706538284606, -5937.986783741329, -6757.021755817146, -16890.788601730896, -14472.978052255876, -20284.45396238017, -12316.682912907949, -6610.886050568349, -9796.523725572077, -11990.570961305018, -12173.251768738242, 0.004, -0.006, 0.99, 192.0, 0.0, 0.0, 0.0, 0.0, 0.0, 0.0, 0.0, 0.0, 0.0, 1.6444989857993453E9, 0.0, 2022-02-11 00:16:25.799
154.0, -9300.69497832, -10585.674415311149, -10791.66809221126, -17107.935799114206, -2669.62530250851, -1922.8982237456114, -5932.93528949443, -6766.342433255009, -16901.048052435883, -14480.823514559688, -20292.85821829536, -12318.359293742096, -6616.07165528198, -9804.793871020542, -11989.855705482449, -12178.347966474053, 0.006, -0.005, 0.99, 192.0, 0.0, 32.0, 127.5, 112.0, 15.0, 120.0, 0.0, 0.0, 0.0, 1.6444989857993517E9, 0.0, 2022-02-11 00:16:25.799
156.0, -9297.521030607348, -10590.569447346861, -10787.778888676035, -17104.068947323438, -2664.327939072602, -1909.2860113723293, -5941.518359365268, -6757.468790706253, -16891.90618895366, -14477.537808124758, -20294.512247385057, -12317.733444897349, -6614.037646536547, -9800.010597707105, -11994.214295651234, -12176.64923389545, 0.006, -0.005, 0.99, 192.0, 0.0, 0.0, 0.0, 0.0, 0.0, 0.0, 0.0, 0.0, 0.0, 1.644498985799359E9, 0.0, 2022-02-11 00:16:25.799
158.0, -9320.342161696215, -10606.796813821413, -10797.300731813995, -17109.098089825882, -2671.3016833426577, -1913.2199183964633, -5946.681612334444, -6768.465848978263, -16905.898380982682, -14484.623311117091, -20289.617215349343, -12316.39234023003, -6617.233945993656, -9794.623827293377, -11991.174458405312, -12173.274120482698, 0.006, -0.005, 0.99, 192.0, 0.0, 0.0, 0.0, 0.0, 0.0, 0.0, 0.0, 0.0, 0.0, 1.6444989857993655E9, 0.0, 2022-02-11 00:16:25.799
160.0, -9342.246871262416, -10623.96295356309, -10802.70985397218, -17107.019377591536, -2684.936247460395, -1911.3423718622175, -5950.861388547586, -6758.228750017733, -16913.58738107531, -14499.643683391057, -20313.153602260783, -12334.229032305364, -6631.248489767134, -9801.731682030164, -12000.606894565452, -12177.65506239594, 0.006, -0.005, 0.99, 192.0, 0.0, 0.0, 0.0, 0.0, 0.0, 0.0, 0.0, 0.0, 0.0, 1.6444989857993865E9, 0.0, 2022-02-11 00:16:25.799
162.0, -9350.919348111076, -10642.492549716539, -10794.439708523716, -17112.316741027444, -2669.1335641304927, -1908.101368916198, -5940.17725469795, -6749.824494102538, -16924.718549814053, -14499.934256068977, -20307.185686491215, -12329.043427591734, -6629.594460677441, -9797.060167439005, -11992.873190983915, -12172.335347215576, 0.006, -0.005, 0.99, 192.0, 0.0, 0.0, 0.0, 0.0, 0.0, 0.0, 0.0, 0.0, 0.0, 1.6444989857993937E9, 0.0, 2022-02-11 00:16:25.799
164.0, -9383.23997059345, -10661.647994714736, -10804.60975225088, -17114.596618961885, -2673.7156717438306, -1917.2208806539634, -5934.723429050855, -6757.446438961797, -16932.02757025094, -14508.807898617733, -20314.87468658384, -12339.839320163646, -6626.375809475877, -9800.725853529675, -11990.816830494026, -12175.59870190605, 0.004, -0.0045000000000000005, 0.99, 192.0, 0.0, 8.0, 127.5, 112.0, 15.0, 120.0, 0.0, 0.0, 0.0, 1.6444989857994025E9, 0.0, 2022-02-11 00:16:25.799
166.0, -9407.804537749833, -10700.271809133508, -10797.23367658063, -17112.89788638328, -2664.484401283789, -1905.8214909817566, -5959.511513651791, -6753.8925115934035, -16935.49209064151, -14520.766081901322, -20326.20702102268, -12350.232881335365, -6624.654725152818, -9802.692807041742, -11992.13558341689, -12172.290643726665, 0.004, -0.0045000000000000005, 0.99, 192.0, 0.0, 0.0, 0.0, 0.0, 0.0, 0.0, 0.0, 0.0, 0.0, 1.644498985799415E9, 0.0, 2022-02-11 00:16:25.799
168.0, -9446.495407401968, -10721.193041943676, -10803.626275494848, -17124.63255222232, -2660.0811076260934, -1913.5551945632928, -5922.854652745086, -6757.62525291744, -16954.491073428522, -14530.82436690621, -20326.631704167332, -12351.864558680601, -6622.710123385206, -9802.64810355283, -11983.463106568232, -12172.31299547112, 0.004, -0.0045000000000000005, 0.99, 192.0, 0.0, 0.0, 0.0, 0.0, 0.0, 0.0, 0.0, 0.0, 0.0, 1.644498985799422E9, 0.0, 2022-02-11 00:16:25.799
170.0, -9477.16200079465, -10758.095772039387, -10815.606810522891, -17123.33615104391, -2666.3395960735793, -1907.4084648380835, -5912.662257273467, -6742.202549243278, -16967.388029979233, -14546.403532791559, -20359.242899327626, -12377.88198922658, -6630.823806622482, -9800.36822561839, -11984.580693790997, -12174.726983872293, 0.004, -0.0045000000000000005, 0.99, 192.0, 0.0, 0.0, 0.0, 0.0, 0.0, 0.0, 0.0, 0.0, 0.0, 1.6444989857994304E9, 0.0, 2022-02-11 00:16:25.799
172.0, -9483.621654942233, -10783.08502234042, -10799.781775448535, -17123.269095810545, -2657.0412703801717, -1905.7544357483907, -5927.436760358425, -6742.2696044766435, -16970.360811991788, -14557.758218974855, -20349.69870444521, -12371.668204268004, -6624.297097241533, -9808.839536766951, -11978.299853599055, -12166.345079701554, 0.004, -0.0045000000000000005, 0.99, 192.0, 0.0, 0.0, 0.0, 0.0, 0.0, 0.0, 0.0, 0.0, 0.0, 1.6444989857994373E9, 0.0, 2022-02-11 00:16:25.799
174.0, -9483.845172386787, -10773.496123969093, -10808.700121486203, -17122.419729521243, -2669.714709486331, -1917.1314736761421, -5952.649528104011, -6754.764229627161, -16970.02553582496, -14554.986602662399, -20350.369256778868, -12370.394154834052, -6624.230042008167, -9815.70152231473, -11981.004414678147, -12174.07878328309, 0.004, -0.0045000000000000005, 0.99, 192.0, 0.0, 0.0, 127.5, 104.0, 15.5, 8.0, 0.0, 0.0, 0.0, 1.644498985799445E9, 0.0, 2022-02-11 00:16:25.799
176.0, -9485.54390496539, -10770.724507656636, -10806.979037163144, -17120.206906820167, -2660.103459370549, -1908.8836799721337, -5937.427990129947, -6747.388153956909, -16962.917681088173, -14545.174186846518, -20356.69480045972, -12387.135611431077, -6627.918079843293, -9815.768577548097, -11988.626359537408, -12172.26829198221, 0.004, -0.0045000000000000005, 0.99, 192.0, 0.0, 0.0, 0.0, 0.0, 0.0, 0.0, 0.0, 0.0, 0.0, 1.6444989857994523E9, 0.0, 2022-02-11 00:16:25.799
178.0, -9490.103660834273, -10773.47377222464, -10808.81188020848, -17126.018360378548, -2665.2443605952694, -1914.0916364302202, -5919.07720793214, -6750.964433069758, -16977.3569080063, -14557.02061140783, -20344.73661717613, -12368.337794344163, -6628.432169965765, -9821.736493317663, -11977.472839054208, -12170.770725103705, 0.004, -0.0045000000000000005, 0.99, 192.0, 0.0, 0.0, 0.0, 0.0, 0.0, 0.0, 0.0, 0.0, 0.0, 1.6444989857994595E9, 0.0, 2022-02-11 00:16:25.799
180.0, -9471.529361191913, -10758.811027861957, -10810.443557553715, -17122.732653943618, -2664.774973961708, -1916.4385695980275, -5921.245327144305, -6745.130627766923, -16969.26557651348, -14569.716402258446, -20356.583041737445, -12368.628367022082, -6628.722742643684, -9826.363304419912, -11984.156010646346, -12178.660890896428, 0.004, -0.0045000000000000005, 0.99, 192.0, 0.0, 0.0, 0.0, 0.0, 0.0, 0.0, 0.0, 0.0, 0.0, 1.644498985799468E9, 0.0, 2022-02-11 00:16:25.799
182.0, -9451.6810121156, -10745.735257355602, -10801.122880115852, -17122.28561905451, -2650.0228226212053, -1914.4045608525946, -5919.568946310156, -6741.755514354171, -16962.82827411035, -14558.384067819605, -20341.897945630306, -12368.226035621887, -6623.380675718865, -9819.680132827776, -11974.164780874824, -12170.346041959054, 0.004, -0.0045000000000000005, 0.99, 192.0, 0.0, 0.0, 0.0, 0.0, 0.0, 0.0, 0.0, 0.0, 0.0, 1.6444989857994747E9, 0.0, 2022-02-11 00:16:25.799
184.0, -9449.982279536996, -10734.112350238842, -10815.495051800615, -17122.643246965796, -2663.836200694585, -1917.3326393762397, -5937.115065707572, -6746.628194645428, -16963.990564822026, -14560.26161435385, -20333.203117037192, -12364.359183831119, -6624.922946086282, -9827.190318964758, -11977.495190798663, -12176.805696106638, 0.006, -0.00425, 0.99, 192.0, 0.0, 32.0, 127.5, 112.0, 15.0, 120.0, 0.0, 0.0, 0.0, 1.644498985799482E9, 0.0, 2022-02-11 00:16:25.799
186.0, -9421.39439837866, -10699.176573655197, -10797.010159136076, -17115.423633506733, -2658.1141541140264, -1902.4016740800946, -5950.347298425115, -6744.638889388906, -16951.093608271316, -14539.295678054772, -20337.181727550236, -12369.611843778115, -6621.50312918462, -9813.37694089138, -11985.340653102476, -12172.134181515477, 0.006, -0.00425, 0.99, 192.0, 0.0, 0.0, 0.0, 0.0, 0.0, 0.0, 0.0, 0.0, 0.0, 1.6444989857994888E9, 0.0, 2022-02-11 00:16:25.799
188.0, -9408.76566276141, -10686.525486293494, -10801.435804538227, -17122.062101609958, -2660.9975291487613, -1910.358895106184, -5934.946946495408, -6760.352165740987, -16954.4016664507, -14519.44732897846, -20321.133175031326, -12353.406829048017, -6623.1124547854015, -9792.32159761448, -11979.775068733104, -12171.59773964855, 0.006, -0.00425, 0.99, 192.0, 0.0, 0.0, 0.0, 0.0, 0.0, 0.0, 0.0, 0.0, 0.0, 1.644498985799496E9, 0.0, 2022-02-11 00:16:25.799
190.0, -9405.457604582025, -10677.763602467014, -10805.526173773549, -17109.81334564845, -2663.165648360926, -1911.364723606673, -5944.133513466539, -6742.940156810303, -16946.77972159144, -14535.697047197467, -20328.88923035732, -12347.327154556175, -6626.018181564592, -9813.443996124744, -11985.921798458314, -12176.805696106638, 0.006, -0.00425, 0.99, 192.0, 0.0, 0.0, 0.0, 0.0, 0.0, 0.0, 0.0, 0.0, 0.0, 1.644498985799503E9, 0.0, 2022-02-11 00:16:25.799
192.0, -9377.18264784606, -10664.978404638578, -10795.490240513116, -17115.96007537366, -2645.261901052225, -1901.1723281350528, -5929.850748759598, -6739.319174208543, -16939.381294176736, -14528.365675016126, -20314.226485994637, -12340.219299819388, -6622.710123385206, -9806.291437899046, -11979.573903033008, -12168.669661124904, 0.006, -0.00425, 0.99, 192.0, 0.0, 0.0, 0.0, 0.0, 0.0, 0.0, 0.0, 0.0, 0.0, 1.6444989857995105E9, 0.0, 2022-02-11 00:16:25.799
194.0, -9379.462525780502, -10654.696602189137, -10806.37554006285, -17113.702549183672, -2660.6846047263866, -1913.778712007846, -5951.062554247685, -6753.914863337858, -16938.286058698424, -14525.750520914857, -20314.87468658384, -12341.850977164624, -6623.268916996589, -9811.409987379311, -11980.535028044585, -12173.207065249333, 0.004, -0.005125, 0.991, 192.0, 0.0, 8.0, 127.5, 104.0, 15.5, 0.0, 0.0, 0.0, 0.0, 1.6444989857995172E9, 0.0, 2022-02-11 00:16:25.799
196.0, -9362.609310461201, -10653.48960798855, -10799.580609748436, -17109.299255525977, -2654.8507994235515, -1908.0566654272875, -5938.232652930338, -6740.1908922423, -16924.919715514152, -14520.274343523306, -20313.62298889434, -12343.169730087488, -6620.966687317692, -9806.537307088054, -11982.70314725675, -12169.74254485876, 0.004, -0.005125, 0.991, 192.0, 0.0, 0.0, 0.0, 0.0, 0.0, 0.0, 0.0, 0.0, 0.0, 1.6444989857995245E9, 0.0, 2022-02-11 00:16:25.799
198.0, -9346.113723053184, -10631.048456555422, -10796.09373761341, -17112.182630560714, -2647.072392353105, -1909.844804983712, -5912.841071229109, -6742.403714943375, -16927.69133182661, -14515.334607998682, -20295.607482863365, -12333.267907293786, -6614.149405258823, -9817.266144426601, -11969.001527905648, -12170.07782102559, 0.004, -0.005125, 0.991, 192.0, 0.0, 0.0, 0.0, 0.0, 0.0, 0.0, 0.0, 0.0, 0.0, 1.6444989857995365E9, 0.0, 2022-02-11 00:16:25.799
200.0, -9351.098162066719, -10622.15246226221, -10798.530077759038, -17105.34299675739, -2657.5330087581883, -1907.0508369267986, -5939.12672270855, -6743.47659867723, -16915.219058420545, -14508.360863728627, -20300.949549788184, -12337.604145718116, -6609.008504034103, -9810.359455389913, -11975.304719842045, -12169.496675669752, 0.004, -0.005125, 0.991, 192.0, 0.0, 0.0, 0.0, 0.0, 0.0, 0.0, 0.0, 0.0, 0.0, 1.644498985799543E9, 0.0, 2022-02-11 00:16:25.799
202.0, -9337.240080504427, -10621.370151206274, -10791.601036977892, -17111.333264271412, -2647.4747237533, -1907.7660927493685, -5910.740007250311, -6748.282223735121, -16918.035378221917, -14501.811802603223, -20291.517113628044, -12324.43896823394, -6611.176623246268, -9801.21759190769, -11973.985966919181, -12166.233320979276, 0.004, -0.005125, 0.991, 192.0, 0.0, 0.0, 0.0, 0.0, 0.0, 0.0, 0.0, 0.0, 0.0, 1.6444989857995496E9, 0.0, 2022-02-11 00:16:25.799
204.0, -9339.587013672235, -10603.153479475199, -10800.117051615365, -17116.58592421841, -2655.297834312658, -1906.0673601707651, -5919.881870732531, -6744.705944622272, -16922.461023624066, -14508.62908466209, -20296.76977357504, -12324.930706611956, -6612.1377482578455, -9798.021292450583, -11972.041365151568, -12176.425716450896, 0.005, -0.0025625, 0.9895, 192.0, 0.0, 24.0, 0.0, 0.0, 15.0, 112.0, 0.0, 0.0, 0.0, 1.6444989857995603E9, 0.0, 2022-02-11 00:16:25.799
206.0, -9311.51322263637, -10595.57623810485, -10786.057804352977, -17110.215677048647, -2641.596214961555, -1895.4502815544943, -5903.587449024612, -6735.452322417775, -16904.847848993286, -14489.875971064088, -20293.148790973282, -12335.190157316943, -6607.555640644508, -9802.603400063921, -11973.002490163148, -12171.08364952608, 0.005, -0.0025625, 0.9895, 192.0, 0.0, 0.0, 0.0, 0.0, 0.0, 0.0, 0.0, 0.0, 0.0, 1.6444989857995684E9, 0.0, 2022-02-11 00:16:25.799
208.0, -9311.334408680726, -10598.727834073048, -10789.90230439929, -17108.025206092025, -2648.7934766761637, -1901.1499763905974, -5929.873100504053, -6736.14522649589, -16901.62919779172, -14490.881799564577, -20275.110933197848, -12312.123157039066, -6601.051283008013, -9800.167059918293, -11963.950033658748, -12164.087553511567, 0.005, -0.0025625, 0.9895, 192.0, 0.0, 0.0, 0.0, 0.0, 0.0, 0.0, 0.0, 0.0, 0.0, 1.644498985799576E9, 0.0, 2022-02-11 00:16:25.799
210.0, -9318.106987250685, -10599.376034662251, -10797.077214369443, -17102.39256648929, -2656.0577936241384, -1902.3122671022734, -5937.6291558300445, -6742.359011454465, -16900.623369291232, -14504.292846237762, -20292.07590723943, -12322.539069955239, -6610.528422657064, -9801.552868074521, -11976.019975664614, -12166.859169824025, 0.005, -0.0025625, 0.9895, 192.0, 0.0, 0.0, 0.0, 0.0, 0.0, 0.0, 0.0, 0.0, 0.0, 1.6444989857995827E9, 0.0, 2022-02-11 00:16:25.799
212.0, -9300.22559168644, -10585.875581011245, -10793.880914912334, -17102.6384356783, -2647.765296431219, -1892.969237919955, -5929.6495830595, -6745.801180100582, -16904.557276315365, -14495.77683160029, -20281.14590420078, -12307.205773258898, -6610.394312190332, -9791.136955158348, -11971.728440729195, -12163.662870366916, 0.005, -0.0025625, 0.9895, 192.0, 0.0, 0.0, 0.0, 0.0, 0.0, 0.0, 0.0, 0.0, 0.0, 1.64449898579959E9, 0.0, 2022-02-11 00:16:25.799
214.0, -9309.568620868757, -10585.942636244612, -10797.52424925855, -17106.32647351342, -2663.031537894194, -1906.782615993335, -5945.184045455939, -6755.278319749632, -16908.40177636168, -14500.425994446994, -20284.141037957794, -12310.580886671649, -6612.8977075693265, -9794.288551126547, -11974.410650063832, -12168.736716358271, 0.0045000000000000005, -0.0032812500000000003, 0.99175, 192.0, 0.0, 16.0, 127.5, 112.0, 15.5, 8.0, 0.0, 0.0, 0.0, 1.644498985799597E9, 0.0, 2022-02-11 00:16:25.799
216.0, -9293.676530561033, -10564.015574933956, -10788.158868331775, -17102.2361042781, -2657.3765465470015, -1901.0829211572316, -5944.580548355645, -6752.797276115093, -16898.522305312432, -14485.942064039955, -20284.141037957794, -12316.794671630225, -6610.215498234689, -9797.797775006029, -11980.020937922114, -12171.55303615964, 0.0045000000000000005, -0.0032812500000000003, 0.99175, 192.0, 0.0, 0.0, 0.0, 0.0, 0.0, 0.0, 0.0, 0.0, 0.0, 1.644498985799604E9, 0.0, 2022-02-11 00:16:25.799
218.0, -9290.860210759665, -10572.308072126874, -10792.115127100364, -17116.58592421841, -2656.929511657895, -1907.2072991379857, -5949.699097835911, -6764.129610553934, -16901.472735580533, -14474.743840067846, -20270.282956395502, -12320.90739261, -6605.543983643531, -9779.93873118624, -11969.001527905648, -12169.071992525101, 0.0045000000000000005, -0.0032812500000000003, 0.99175, 192.0, 0.0, 0.0, 0.0, 0.0, 0.0, 0.0, 0.0, 0.0, 0.0, 1.6444989857996109E9, 0.0, 2022-02-11 00:16:25.799
220.0, -9294.145917194595, -10586.501429855995, -10798.552429503492, -17099.66565366574, -2660.3716803040124, -1920.6854010445359, -5944.737010566832, -6757.044107561602, -16900.39985184668, -14504.784584615778, -20291.15948571676, -12321.376779243563, -6608.717931356184, -9801.798737263529, -11977.383432076387, -12174.659928638928, 0.0045000000000000005, -0.0032812500000000003, 0.99175, 192.0, 0.0, 0.0, 0.0, 0.0, 0.0, 0.0, 0.0, 0.0, 0.0, 1.6444989857996175E9, 0.0, 2022-02-11 00:16:25.799
222.0, -9276.309225119261, -10572.95627271608, -10783.397946762794, -17098.34690074288, -2648.972290631806, -1900.0323891678322, -5950.392001914025, -6753.087848793012, -16892.15205814267, -14497.095584523153, -20273.121627941327, -12305.417633702475, -6604.471099909676, -9796.344911616436, -11970.767315717616, -12166.479190168286, 0.0045000000000000005, -0.0032812500000000003, 0.99175, 192.0, 0.0, 0.0, 0.0, 0.0, 0.0, 0.0, 0.0, 0.0, 0.0, 1.6444989857996247E9, 0.0, 2022-02-11 00:16:25.799
224.0, -9291.910742749065, -10562.316842355352, -10795.534944002027, -17100.738537399597, -2665.1102501285377, -1910.5377090618265, -5947.441571645924, -6753.378421470931, -16900.131630913216, -14492.133497254074, -20272.942813985686, -12303.24951449031, -6607.868565066882, -9791.069899924982, -11971.393164562365, -12166.83681807957, 0.00725, -0.002640625, 0.992875, 192.0, 0.0, 40.0, 127.5, 120.0, 15.5, 8.0, 0.0, 0.0, 0.0, 1.6444989857996314E9, 0.0, 2022-02-11 00:16:25.799
226.0, -9278.969082709442, -10562.495656310995, -10799.42414753725, -17095.508229197054, -2662.428040793901, -1904.0557031697874, -5954.638833360534, -6740.1014852644785, -16893.359052343258, -14483.326909938683, -20280.028316978016, -12309.172726770965, -6610.036684279047, -9799.27299014008, -11978.053984410046, -12163.93109130038, 0.00725, -0.002640625, 0.992875, 192.0, 0.0, 0.0, 0.0, 0.0, 0.0, 0.0, 0.0, 0.0, 0.0, 1.6444989857996383E9, 0.0, 2022-02-11 00:16:25.799
228.0, -9289.720271792445, -10559.589929531805, -10795.669054468759, -17109.031034592514, -2665.3114158286353, -1897.3501798331954, -5928.956678981385, -6749.9586045692695, -16900.556314057867, -14484.824476817188, -20271.601709318365, -12303.316569723675, -6610.64018137934, -9791.561638303, -11973.673042496806, -12164.176960489389, 0.00725, -0.002640625, 0.992875, 192.0, 0.0, 0.0, 0.0, 0.0, 0.0, 0.0, 0.0, 0.0, 0.0, 1.6444989857996452E9, 0.0, 2022-02-11 00:16:25.799
230.0, -9299.97972249743, -10566.831894735324, -10801.9498946607, -17102.95136010067, -2668.038328652183, -1906.8720229711562, -5920.93240272193, -6746.829360345526, -16902.903247225673, -14500.269532235807, -20293.97580551813, -12326.517680468283, -6616.8316145934605, -9789.259408624102, -11972.60015876295, -12167.350908202043, 0.00725, -0.002640625, 0.992875, 192.0, 0.0, 0.0, 0.0, 0.0, 0.0, 0.0, 0.0, 0.0, 0.0, 1.6444989857996562E9, 0.0, 2022-02-11 00:16:25.799
232.0, -9277.382108853115, -10566.407211590673, -10789.879952654834, -17103.554857200965, -2663.120944872015, -1902.4687293134607, -5947.396868157014, -6756.217093016755, -16899.72929951302, -14492.58053214318, -20278.93308149971, -12311.989046572335, -6613.590611647441, -9792.008673192106, -11973.002490163148, -12163.21583547781, 0.00725, -0.002640625, 0.992875, 192.0, 0.0, 0.0, 0.0, 0.0, 0.0, 0.0, 0.0, 0.0, 0.0, 1.644498985799663E9, 0.0, 2022-02-11 00:16:25.799
234.0, -9290.971969481941, -10563.032098177922, -10796.071385868954, -17105.566514201942, -2668.7982879636634, -1914.7621887638795, -5928.956678981385, -6751.1879505143115, -16904.2890553819, -14502.974093314899, -20274.01569771954, -12314.425386717963, -6618.2397744941445, -9810.89589725684, -11971.37081281791, -12169.899007069947, 0.01, -0.006, 0.996, 192.0, 0.0, 40.0, 127.5, 104.0, 15.5, 16.0, 0.0, 0.0, 0.0, 1.6444989857996695E9, 0.0, 2022-02-11 00:16:25.799
236.0, -9285.652254301578, -10564.552016800882, -10792.651568967292, -17104.158354301257, -2657.1530291024483, -1905.977953192944, -5914.8527282300865, -6736.726371851728, -16892.39792733168, -14499.978959557888, -20277.815494276943, -12319.253363520309, -6614.864661081393, -9803.050434953027, -11969.023879650102, -12164.579291889584, 0.01, -0.006, 0.996, 192.0, 0.0, 0.0, 0.0, 0.0, 0.0, 0.0, 0.0, 0.0, 0.0, 1.6444989857996767E9, 0.0, 2022-02-11 00:16:25.799
238.0, -9280.64546354359, -10561.311013854864, -10798.440670781216, -17109.790993903996, -2661.0198808932164, -1910.8282817397455, -5938.791446541721, -6753.758401126672, -16901.87506698073, -14500.068366535708, -20269.05361045046, -12304.210639501887, -6616.026951793069, -9793.238019137147, -11965.984042404181, -12165.205140734333, 0.01, -0.006, 0.996, 192.0, 0.0, 0.0, 0.0, 0.0, 0.0, 0.0, 0.0, 0.0, 0.0, 1.6444989857996836E9, 0.0, 2022-02-11 00:16:25.799
240.0, -9283.506486833869, -10539.316897310842, -10801.100528371398, -17105.90179036877, -2668.552418774655, -1909.3754183501505, -5943.977051255352, -6760.419220974353, -16896.644758778188, -14503.331721226183, -20281.190607689692, -12319.29806700922, -6616.675152382273, -9797.641312794842, -11977.472839054208, -12171.284815226176, 0.01, -0.006, 0.996, 192.0, 0.0, 0.0, 0.0, 0.0, 0.0, 0.0, 0.0, 0.0, 0.0, 1.6444989857996905E9, 0.0, 2022-02-11 00:16:25.799
242.0, -9269.111963404652, -10558.181769631121, -10790.61756022186, -17105.946493857682, -2662.2045233493477, -1906.4696915709605, -5956.203455472405, -6756.373555227942, -16894.074308165826, -14484.623311117091, -20269.07596219492, -12311.76552912778, -6616.07165528198, -9789.281760368558, -11977.405783820843, -12168.155571002433, 0.01, -0.006, 0.996, 192.0, 0.0, 0.0, 0.0, 0.0, 0.0, 0.0, 0.0, 0.0, 0.0, 1.6444989862809799E9, 0.0, 2022-02-11 00:16:26.280
244.0, -9284.422908356537, -10547.542339270394, -10800.787603949024, -17106.57234270243, -2671.7040147428534, -1919.1207789326645, -5948.849731546608, -6763.615520431462, -16900.802183246873, -14499.129593268586, -20272.272261652026, -12299.852049333102, -6620.251431495122, -9801.485812841156, -11978.456315810243, -12174.190542005366, 0.01, -0.002, 0.99, 192.0, 0.0, 40.0, 127.5, 120.0, 15.0, 120.0, 0.0, 0.0, 0.0, 1.6444989862809908E9, 0.0, 2022-02-11 00:16:26.280
246.0, -9269.827219227222, -10543.161397357155, -10791.13165034433, -17100.20209553267, -2661.3998605489564, -1910.4706538284606, -5948.045068746218, -6759.502799451685, -16891.77207848693, -14486.72437509589, -20279.827151277917, -12316.280581507754, -6620.385541961854, -9800.859963996407, -11983.351347845954, -12172.93884431587, 0.01, -0.002, 0.99, 192.0, 0.0, 0.0, 0.0, 0.0, 0.0, 0.0, 0.0, 0.0, 0.0, 1.644498986280998E9, 0.0, 2022-02-11 00:16:26.280
248.0, -9260.484190044903, -10549.263423593453, -10785.454307252683, -17106.57234270243, -2659.9469971593617, -1912.5493660628042, -5960.092659007628, -6767.8623518779705, -16885.37947957271, -14475.682613334968, -20256.424874833214, -12292.520677151762, -6612.562431402497, -9793.886219726352, -11973.695394241262, -12170.860132081525, 0.01, -0.002, 0.99, 192.0, 0.0, 0.0, 0.0, 0.0, 0.0, 0.0, 0.0, 0.0, 0.0, 1.644498986281005E9, 0.0, 2022-02-11 00:16:26.281
250.0, -9291.195486926496, -10561.311013854864, -10802.642798738814, -17104.314816512444, -2673.1792298769033, -1917.0197149538656, -5981.8856098515525, -6775.529000226141, -16891.839133720296, -14496.11210776712, -20276.67555530972, -12305.730558124847, -6616.898669826826, -9799.98824596265, -11985.56417054703, -12179.59966416355, 0.01, -0.002, 0.99, 192.0, 0.0, 0.0, 0.0, 0.0, 0.0, 0.0, 0.0, 0.0, 0.0, 1.6444989862810116E9, 0.0, 2022-02-11 00:16:26.281
252.0, -9294.771766039345, -10576.867827995757, -10796.853696924889, -17116.988255618602, -2664.8867326839845, -1906.5814502932371, -5901.5310885347235, -6749.4892179357075, -16907.753575772473, -14507.511497439325, -20283.045802479483, -12312.167860527976, -6627.381637976366, -9806.134975687859, -11977.249321609655, -12172.93884431587, 0.01, -0.002, 0.99, 192.0, 0.0, 0.0, 0.0, 0.0, 0.0, 0.0, 0.0, 0.0, 0.0, 1.6444989862810185E9, 0.0, 2022-02-11 00:16:26.281
254.0, -9308.540440623814, -10576.957234973579, -10802.195763849708, -17111.91440962725, -2672.7545467322525, -1910.2694881283628, -5926.542690580212, -6758.38521222892, -16916.515459598955, -14518.530907455792, -20284.87864552482, -12322.851994377614, -6630.823806622482, -9801.865792496896, -11972.019013407114, -12175.062260039123, 0.01, 0.002, 0.994, 192.0, 0.0, 40.0, 0.0, 8.0, 15.5, 8.0, 0.0, 0.0, 0.0, 1.6444989862810252E9, 0.0, 2022-02-11 00:16:26.281
0.0, -9293.184792183018, -10573.693880283105, -10792.852734667389, -17105.119479312834, -2663.2774070832024, -1900.971162434955, -5927.749684780799, -6745.130627766923, -16902.232694892013, -14500.20247700244, -20288.499628126578, -12320.080378065155, -6622.330143729466, -9785.169039388782, -11977.85281870995, -12166.590948890562, 0.01, 0.002, 0.994, 192.0, 0.0, 0.0, 0.0, 0.0, 0.0, 0.0, 0.0, 0.0, 0.0, 1.644498986281032E9, 0.0, 2022-02-11 00:16:26.281
2.0, -9293.497716605392, -10566.161342401665, -10795.04320562401, -17114.060177094958, -2666.1384303734817, -1907.4084648380835, -5931.147149938006, -6753.914863337858, -16905.63016004922, -14486.947892540444, -20276.04970646497, -12307.96573257038, -6618.016257049591, -9789.572333046477, -11970.521446528608, -12162.657041866427, 0.01, 0.002, 0.994, 192.0, 0.0, 0.0, 0.0, 0.0, 0.0, 0.0, 0.0, 0.0, 0.0, 1.6444989862810388E9, 0.0, 2022-02-11 00:16:26.281
4.0, -9303.779519054833, -10566.876598224235, -10802.218115594163, -17106.840563635895, -2680.0859189135936, -1918.7407992769242, -5949.363821669081, -6766.074212321546, -16904.803145504375, -14500.738918869367, -20290.131305471816, -12314.291276251231, -6624.274745497078, -9805.196202420737, -11982.211408878733, -12173.877617582992, 0.01, 0.002, 0.994, 192.0, 0.0, 0.0, 0.0, 0.0, 0.0, 0.0, 0.0, 0.0, 0.0, 1.6444989862810457E9, 0.0, 2022-02-11 00:16:26.281
6.0, -9283.327672878228, -10558.226473120032, -10790.930484644234, -17107.53346771401, -2672.128697887504, -1906.0450084263098, -5947.061591990184, -6763.034375075624, -16904.490221082, -14499.77779385779, -20279.3354128999, -12309.418595959974, -6621.279611740067, -9794.087385426448, -11980.691490255773, -12168.893178569459, 0.01, 0.002, 0.994, 192.0, 0.0, 0.0, 0.0, 0.0, 0.0, 0.0, 0.0, 0.0, 0.0, 1.644498986281062E9, 0.0, 2022-02-11 00:16:26.281
8.0, -9288.535629336313, -10562.585063288816, -10789.388214276816, -17110.4391944932, -2681.963465447839, -1918.3384678767286, -5954.8847025495415, -6776.378366515442, -16901.45038383608, -14501.521229925303, -20274.485084353102, -12311.96669482788, -6617.233945993656, -9785.236094622147, -11978.836295465982, -12171.754201859738, 0.004, 0.002, 0.986, 192.0, 0.0, 16.0, 0.0, 8.0, 15.0, 104.0, 0.0, 0.0, 0.0, 1.6444989862810688E9, 0.0, 2022-02-11 00:16:26.281
10.0, -9282.433603100015, -10561.37806908823, -10787.153039831286, -17103.2866362675, -2666.965444918328, -1912.035275940332, -5957.835132817642, -6769.67284317885, -16887.34643308478, -14490.05478501973, -20276.5861483319, -12322.919049610979, -6610.394312190332, -9783.693824254731, -11985.340653102476, -12170.07782102559, 0.004, 0.002, 0.986, 192.0, 0.0, 0.0, 0.0, 0.0, 0.0, 0.0, 0.0, 0.0, 0.0, 1.6444989862810757E9, 0.0, 2022-02-11 00:16:26.281
12.0, -9281.830105999721, -10564.574368545338, -10791.332816044429, -17103.62191243433, -2669.7817647196966, -1914.1586916635863, -5959.958548540896, -6774.00908160318, -16894.610750032753, -14499.39781420205, -20264.627965048312, -12292.654787618494, -6608.293248211533, -9788.6112080349, -11980.602083277952, -12170.54720765915, 0.004, 0.002, 0.986, 192.0, 0.0, 0.0, 0.0, 0.0, 0.0, 0.0, 0.0, 0.0, 0.0, 1.6444989862810824E9, 0.0, 2022-02-11 00:16:26.281
14.0, -9294.302379405783, -10562.249787121986, -10799.334740559429, -17103.979540345616, -2679.616532280032, -1920.2830696443405, -5946.055763489695, -6771.505686224185, -16896.331834355813, -14509.143174784564, -20276.362630887346, -12310.62559016056, -6617.569222160486, -9803.810394264507, -11989.498077571163, -12178.705594385337, 0.004, 0.002, 0.986, 192.0, 0.0, 0.0, 0.0, 0.0, 0.0, 0.0, 0.0, 0.0, 0.0, 1.644498986281089E9, 0.0, 2022-02-11 00:16:26.281
16.0, -9285.629902557124, -10547.89996718168, -10787.823592164945, -17107.71228166965, -2672.1063461430485, -1907.430816582539, -5954.5941298716225, -6769.561084456574, -16896.845924478286, -14493.586360643669, -20271.48995059609, -12314.492441951328, -6616.45163493772, -9797.03781569455, -11982.412574578831, -12173.341175716065, 0.004, 0.002, 0.986, 192.0, 0.0, 0.0, 0.0, 0.0, 0.0, 0.0, 0.0, 0.0, 0.0, 1.6444989862810957E9, 0.0, 2022-02-11 00:16:26.281
18.0, -9291.17313518204, -10551.47624629453, -10796.786641691524, -17112.607313705365, -2674.676796755409, -1918.0925986877203, -5922.2511556447935, -6771.0362995906235, -16901.673901280632, -14499.934256068977, -20271.802875018464, -12313.598372173115, -6616.205765748712, -9790.913437713794, -11981.429097822798, -12179.756126374738, 0.004, -0.002, 0.988, 192.0, 0.0, 16.0, 127.5, 120.0, 15.0, 112.0, 0.0, 0.0, 0.0, 1.6444989862811024E9, 0.0, 2022-02-11 00:16:26.281
20.0, -9271.88357971711, -10557.622976019738, -10789.857600910378, -17103.308988011955, -2663.7914972056747, -1906.7602642488796, -5935.997478484807, -6760.352165740987, -16889.42514531912, -14504.091680537664, -20278.217825677137, -12312.145508783522, -6612.718893613684, -9798.401272106323, -11982.65844376784, -12176.805696106638, 0.004, -0.002, 0.988, 192.0, 0.0, 0.0, 0.0, 0.0, 0.0, 0.0, 0.0, 0.0, 0.0, 1.644498986281109E9, 0.0, 2022-02-11 00:16:26.281
22.0, -9276.108059419163, -10541.283850822909, -10789.075289854443, -17104.314816512444, -2667.5689420186213, -1900.457072312483, -5954.996461271819, -6770.2092850457775, -16891.68267150911, -14499.174296757496, -20255.597860288366, -12309.57505817116, -6606.929791799759, -9780.69869049772, -11979.506847799641, -12172.178885004389, 0.004, -0.002, 0.988, 192.0, 0.0, 0.0, 0.0, 0.0, 0.0, 0.0, 0.0, 0.0, 0.0, 1.6444989862811165E9, 0.0, 2022-02-11 00:16:26.281
24.0, -9290.659045059569, -10549.911624182658, -10800.429976037738, -17103.57720894542, -2677.3143026011353, -1906.8273194822455, -5925.134530679528, -6772.042128091112, -16889.894531952683, -14504.650474149046, -20268.24894765007, -12312.547840183717, -6609.679056367762, -9792.902742970318, -11985.877094969404, -12178.415021707418, 0.004, -0.002, 0.988, 192.0, 0.0, 0.0, 0.0, 0.0, 0.0, 0.0, 0.0, 0.0, 0.0, 1.6444989862811239E9, 0.0, 2022-02-11 00:16:26.281
26.0, -9271.257730872361, -10546.670621236637, -10792.18218233373, -17110.126270070825, -2663.09859312756, -1903.9662961919662, -5941.160731453983, -6775.216075803766, -16892.375575587223, -14499.39781420205, -20261.72223826912, -12300.209677244387, -6607.712102855695, -9797.708368028208, -11985.608874035941, -12173.922321071903, 0.004, -0.002, 0.988, 192.0, 0.0, 0.0, 0.0, 0.0, 0.0, 0.0, 0.0, 0.0, 0.0, 1.6444989862811313E9, 0.0, 2022-02-11 00:16:26.281
28.0, -9293.341254394205, -10559.031135920422, -10801.547563260505, -17113.85901139486, -2675.414404322434, -1910.7388747619243, -5950.883740292042, -6776.691290937816, -16900.064575679848, -14500.604808402635, -20267.354877871858, -12314.58184892915, -6609.768463345584, -9800.770557018586, -11985.65357752485, -12180.717251386315, 0.008, 0.0, 0.984, 192.0, 0.0, 32.0, 0.0, 0.0, 15.0, 96.0, 0.0, 0.0, 0.0, 1.6444989862811403E9, 0.0, 2022-02-11 00:16:26.281
30.0, -9283.037100200308, -10550.738638727504, -10796.630179480337, -17108.025206092025, -2671.4134420649343, -1902.5134328023712, -5941.294841920715, -6775.1490205704, -16894.923674455127, -14515.669884165512, -20278.642508821787, -12314.112462295589, -6612.674190124773, -9798.89301048434, -11991.397975849864, -12179.21968450781, 0.008, 0.0, 0.984, 192.0, 0.0, 0.0, 0.0, 0.0, 0.0, 0.0, 0.0, 0.0, 0.0, 1.64449898628115E9, 0.0, 2022-02-11 00:16:26.281
32.0, -9288.021539213842, -10539.093379866288, -10799.08887137042, -17111.86970613834, -2678.5660002906325, -1910.358895106184, -5969.078060278662, -6781.0722328510565, -16901.428032091622, -14496.313273467216, -20266.59491856038, -12310.267962249276, -6611.534251157553, -9791.785155747551, -11985.541818802574, -12176.671585639906, 0.008, 0.0, 0.984, 192.0, 0.0, 0.0, 0.0, 0.0, 0.0, 0.0, 0.0, 0.0, 0.0, 1.6444989862811568E9, 0.0, 2022-02-11 00:16:26.281
34.0, -9302.013731242863, -10552.79499921739, -10812.343455832417, -17107.980502603114, -2681.4270235809117, -1915.2539271418964, -5959.153885740506, -6771.818610646559, -16903.976130959527, -14515.580477187692, -20284.25279668007, -12328.417578746985, -6616.764559360095, -9801.12818492987, -11998.908161986848, -12179.309091485631, 0.008, 0.0, 0.984, 192.0, 0.0, 0.0, 0.0, 0.0, 0.0, 0.0, 0.0, 0.0, 0.0, 1.6444989862811637E9, 0.0, 2022-02-11 00:16:26.281
36.0, -9289.094422947695, -10569.84938023679, -10792.919789900756, -17113.52373522803, -2655.4766482683003, -1913.9575259634885, -5909.890640961009, -6780.759308428683, -16901.740956513997, -14514.932276598487, -20277.368459387835, -12318.225183275365, -6612.204803491212, -9799.094176184437, -11983.887789712882, -12174.682280383382, 0.008, 0.0, 0.984, 192.0, 0.0, 0.0, 0.0, 0.0, 0.0, 0.0, 0.0, 0.0, 0.0, 1.6444989862811706E9, 0.0, 2022-02-11 00:16:26.281
38.0, -9299.800908541789, -10570.765801759459, -10803.022778394554, -17116.80944166296, -2669.312378086135, -1919.746627777413, -5922.5417283227125, -6775.439593248319, -16910.614599062756, -14518.799128389255, -20275.602671575867, -12319.05219782021, -6613.0765215249685, -9793.260370881602, -11979.998586177659, -12183.421812465407, 0.008, 0.002, 0.982, 192.0, 0.0, 32.0, 0.0, 8.0, 15.0, 88.0, 0.0, 0.0, 0.0, 1.6444989862811801E9, 0.0, 2022-02-11 00:16:26.281
40.0, -9280.556056565769, -10540.188615344598, -10797.390138791818, -17108.539296214498, -2666.071375140116, -1902.8040054802902, -5919.5465945657015, -6751.389116214409, -16895.348357599778, -14508.696139895457, -20280.7882762895, -12317.889907108534, -6615.0658267814915, -9782.084498653949, -11988.22402813721, -12174.637576894473, 0.008, 0.002, 0.982, 192.0, 0.0, 0.0, 0.0, 0.0, 0.0, 0.0, 0.0, 0.0, 0.0, 1.6444989862811873E9, 0.0, 2022-02-11 00:16:26.281
42.0, -9278.07501293123, -10541.932051412112, -10798.015987636565, -17106.70645316916, -2671.234628109292, -1910.202432894997, -5936.064533718173, -6770.142229812412, -16898.835229734806, -14505.209267760429, -20266.281994138004, -12311.698473894416, -6609.455538923209, -9799.295341884535, -11979.596254777463, -12172.201236748844, 0.008, 0.002, 0.982, 192.0, 0.0, 0.0, 0.0, 0.0, 0.0, 0.0, 0.0, 0.0, 0.0, 1.6444989862811944E9, 0.0, 2022-02-11 00:16:26.281
44.0, -9287.440393858004, -10553.51025503996, -10808.94599067521, -17105.92414211323, -2680.4435468248785, -1912.2811451293405, -5927.07913244714, -6764.330776254032, -16897.739994256495, -14515.938105098976, -20279.804799533464, -12323.34373275563, -6614.708198870207, -9802.782214019564, -11991.777955505606, -12177.275082740198, 0.008, 0.002, 0.982, 192.0, 0.0, 0.0, 0.0, 0.0, 0.0, 0.0, 0.0, 0.0, 0.0, 1.6444989862812014E9, 0.0, 2022-02-11 00:16:26.281
46.0, -9286.74748977989, -10555.23133936302, -10795.512592257572, -17101.163220544247, -2664.2385320947806, -1897.9536769334886, -5926.3638766245695, -6758.452267462286, -16898.05291867887, -14508.472622450903, -20273.81453201944, -12314.268924506776, -6610.617829634885, -9789.728795257664, -11986.033557180592, -12170.100172770044, 0.009000000000000001, 0.001, 0.982, 192.0, 0.0, 40.0, 0.0, 0.0, 15.0, 88.0, 0.0, 0.0, 0.0, 1.6444989862812085E9, 0.0, 2022-02-11 00:16:26.281
48.0, -9295.710539306467, -10542.893176423691, -10810.085929642431, -17110.707415426663, -2672.419270565423, -1914.583374808237, -5922.966411467363, -6770.969244357258, -16903.663206537152, -14505.879820094087, -20277.6366803213, -12319.029846075755, -6610.014332534592, -9793.819164492985, -11982.949016445758, -12173.475286182796, 0.009000000000000001, 0.001, 0.982, 192.0, 0.0, 0.0, 0.0, 0.0, 0.0, 0.0, 0.0, 0.0, 0.0, 1.644498986281216E9, 0.0, 2022-02-11 00:16:26.281
50.0, -9287.79802176929, -10553.51025503996, -10800.47467952665, -17109.835697392904, -2666.00431990675, -1905.7320840039354, -5929.6495830595, -6767.236503033221, -16900.19868614658, -14505.745709627356, -20286.39856414778, -12319.834508876147, -6609.232021478656, -9787.046585923026, -11987.41936533682, -12175.308129228131, 0.009000000000000001, 0.001, 0.982, 192.0, 0.0, 0.0, 0.0, 0.0, 0.0, 0.0, 0.0, 0.0, 0.0, 1.6444989862812228E9, 0.0, 2022-02-11 00:16:26.281
52.0, -9277.560922808758, -10552.28090909492, -10802.642798738814, -17113.501383483577, -2674.229761866303, -1917.9361364765332, -5954.370612427069, -6778.524133983152, -16900.91394196915, -14513.121785297608, -20265.14205517078, -12309.57505817116, -6605.141652243335, -9787.337158600945, -11982.881961212393, -12175.241073994765, 0.009000000000000001, 0.001, 0.982, 192.0, 0.0, 0.0, 0.0, 0.0, 0.0, 0.0, 0.0, 0.0, 0.0, 1.6444989862812295E9, 0.0, 2022-02-11 00:16:26.281
54.0, -9295.688187562011, -10561.109848154765, -10810.309447086984, -17108.3381305144, -2687.931381217406, -1933.872930273167, -5940.1549029534945, -6784.872029408459, -16902.478564081022, -14520.989599345876, -20281.503532112067, -12317.711093152893, -6609.097911011924, -9810.225344923181, -11994.907199729349, -12185.947559588858, 0.009000000000000001, 0.001, 0.982, 192.0, 0.0, 0.0, 0.0, 0.0, 0.0, 0.0, 0.0, 0.0, 0.0, 1.644498986281237E9, 0.0, 2022-02-11 00:16:26.281
56.0, -9283.305321133772, -10543.586080501806, -10801.502859771594, -17108.695758425685, -2680.264732869236, -1914.873947486156, -5935.908071506986, -6773.852619391992, -16906.68069203862, -14510.864259107622, -20281.6376425788, -12321.309724010198, -6615.915193070793, -9813.958086247218, -11991.532086316596, -12178.526780429696, 0.0085, -0.0015, 0.984, 192.0, 0.0, 32.0, 127.5, 112.0, 15.0, 104.0, 0.0, 0.0, 0.0, 1.6444989862812436E9, 0.0, 2022-02-11 00:16:26.281
58.0, -9298.660969574568, -10568.508275569473, -10813.125766888354, -17114.19428756169, -2691.999398708272, -1923.8593487571895, -5956.516379894779, -6789.901171910903, -16915.129651442727, -14515.312256254228, -20286.30915716996, -12333.267907293786, -6619.536175672552, -9804.570353575988, -11989.90040897136, -12182.50539094274, 0.0085, -0.0015, 0.984, 192.0, 0.0, 0.0, 0.0, 0.0, 0.0, 0.0, 0.0, 0.0, 0.0, 1.6444989862812505E9, 0.0, 2022-02-11 00:16:26.281
60.0, -9289.384995625614, -10555.410153318662, -10804.162717361774, -17110.975636360126, -2676.2414188672806, -1911.878813729145, -5925.469806846358, -6768.376442000443, -16905.831325749317, -14525.929334870498, -20295.92040728574, -12332.127968326566, -6619.580879161463, -9797.730719772664, -11994.013129951136, -12180.829010108591, 0.0085, -0.0015, 0.984, 192.0, 0.0, 0.0, 0.0, 0.0, 0.0, 0.0, 0.0, 0.0, 0.0, 1.644498986281257E9, 0.0, 2022-02-11 00:16:26.281
62.0, -9280.489001332404, -10553.107923639765, -10804.073310383954, -17110.327435770923, -2674.810907222141, -1906.3355811042288, -5948.045068746218, -6777.741822927216, -16906.68069203862, -14514.48524170938, -20271.445247107178, -12310.53618318274, -6609.634352878851, -9788.36533884589, -11981.160876889335, -12176.2245507508, 0.0085, -0.0015, 0.984, 192.0, 0.0, 0.0, 0.0, 0.0, 0.0, 0.0, 0.0, 0.0, 0.0, 1.6444989862812638E9, 0.0, 2022-02-11 00:16:26.281
64.0, -9292.737757293911, -10549.397534060185, -10818.04315066852, -17104.963017101647, -2683.975122448817, -1909.3530666056952, -5936.243347673816, -6775.327834526042, -16899.77400300193, -14517.77094814431, -20279.78244778901, -12317.398168730519, -6612.048341280025, -9774.015518905582, -11995.957731718747, -12175.777515861693, 0.0085, -0.0015, 0.984, 192.0, 0.0, 0.0, 0.0, 0.0, 0.0, 0.0, 0.0, 0.0, 0.0, 1.6444989862812705E9, 0.0, 2022-02-11 00:16:26.281
66.0, -9289.675568303534, -10563.94851970059, -10803.961551661678, -17105.320645012933, -2672.0839943985934, -1905.7544357483907, -5911.0976351615955, -6773.763212414171, -16903.953779215073, -14512.138308541575, -20280.944738500686, -12308.457470948395, -6615.177585503768, -9793.75210925962, -11990.302740371555, -12173.855265838536, 0.009250000000000001, -0.00375, 0.985, 192.0, 0.0, 40.0, 127.5, 104.0, 15.0, 104.0, 0.0, 0.0, 0.0, 1.6444989862812774E9, 0.0, 2022-02-11 00:16:26.281
68.0, -9304.472423132947, -10567.658909280171, -10812.790490721523, -17115.58009571792, -2682.745776503775, -1913.0411044408208, -5929.806045270687, -6773.740860669716, -16917.543639843898, -14517.77094814431, -20282.129380956816, -12327.098825824121, -6617.748036116128, -9796.70253952772, -11989.498077571163, -12178.370318218509, 0.009250000000000001, -0.00375, 0.985, 192.0, 0.0, 0.0, 0.0, 0.0, 0.0, 0.0, 0.0, 0.0, 0.0, 1.644498986281284E9, 0.0, 2022-02-11 00:16:26.281
70.0, -9291.642521815602, -10549.375182315729, -10805.839098195924, -17111.176802060225, -2670.4746687978113, -1913.2869736298292, -5933.181158683438, -6776.378366515442, -16906.47952633852, -14525.59405870367, -20291.762982817054, -12331.457415992907, -6614.59644014793, -9802.089309941448, -11992.783784006095, -12181.208989764333, 0.009250000000000001, -0.00375, 0.985, 192.0, 0.0, 0.0, 0.0, 0.0, 0.0, 0.0, 0.0, 0.0, 0.0, 1.644498986281293E9, 0.0, 2022-02-11 00:16:26.281
72.0, -9281.897161233088, -10555.320746340842, -10802.307522571984, -17113.30021778348, -2670.809944964641, -1908.6378107831254, -5945.944004767419, -6775.90897988188, -16905.384290860213, -14503.465831692914, -20272.518130841032, -12310.357369227097, -6604.247582465123, -9802.156365174815, -11982.479629812196, -12179.756126374738, 0.009250000000000001, -0.00375, 0.985, 192.0, 0.0, 0.0, 0.0, 0.0, 0.0, 0.0, 0.0, 0.0, 0.0, 1.6444989862812998E9, 0.0, 2022-02-11 00:16:26.281
74.0, -9290.480231103926, -10559.858150465268, -10810.287095342528, -17112.62966544982, -2677.8283927236075, -1908.3248863607512, -5914.964486952364, -6770.343395512509, -16901.20451464707, -14520.8778406236, -20280.184779189203, -12312.0561018057, -6604.672265609774, -9789.974664446672, -11987.151144403357, -12178.817353107615, 0.009250000000000001, -0.00375, 0.985, 192.0, 0.0, 0.0, 0.0, 0.0, 0.0, 0.0, 0.0, 0.0, 0.0, 1.6444989862813065E9, 0.0, 2022-02-11 00:16:26.281
76.0, -9263.076992401719, -10540.836815933802, -10794.193839334708, -17109.835697392904, -2656.8177529356185, -1899.585354278726, -5905.710864747866, -6768.9799391007355, -16894.074308165826, -14513.25589576434, -20271.042915706985, -12312.950171583912, -6596.357416672399, -9780.385766075346, -11979.260978610633, -12171.664794881915, 0.010625, -0.003875, 0.9864999999999999, 192.0, 0.0, 48.0, 127.5, 112.0, 15.0, 112.0, 0.0, 0.0, 0.0, 1.6444989862813132E9, 0.0, 2022-02-11 00:16:26.281
78.0, -9273.917588462542, -10534.488920508495, -10798.552429503492, -17112.04852009398, -2664.19382860587, -1908.0119619383768, -5916.305591619682, -6761.827380875037, -16890.90036045317, -14507.131517783586, -20264.985592959594, -12306.423462202962, -6597.9890940176365, -9792.858039481407, -11974.634167508384, -12174.592873405561, 0.010625, -0.003875, 0.9864999999999999, 192.0, 0.0, 0.0, 0.0, 0.0, 0.0, 0.0, 0.0, 0.0, 0.0, 1.64449898628132E9, 0.0, 2022-02-11 00:16:26.281
80.0, -9282.45595484447, -10545.307164824864, -10799.357092303884, -17105.655921179765, -2662.673909982909, -1893.0586448977763, -5914.808024741176, -6762.0508983195905, -16886.67588075112, -14505.030453804786, -20272.048744207474, -12320.661523420993, -6596.4021201613095, -9785.660777766798, -11983.239589123677, -12171.485980926274, 0.010625, -0.003875, 0.9864999999999999, 192.0, 0.0, 0.0, 0.0, 0.0, 0.0, 0.0, 0.0, 0.0, 0.0, 1.6444989862813268E9, 0.0, 2022-02-11 00:16:26.281
82.0, -9272.934111706509, -10550.828045705324, -10793.99267363461, -17107.24289503609, -2660.505790770744, -1896.5678687772595, -5930.342487137615, -6764.710755909772, -16896.778869244918, -14501.543581669759, -20260.112912668337, -12298.57799989915, -6597.430300406254, -9786.867771967385, -11976.109382642435, -12168.222626235798, 0.010625, -0.003875, 0.9864999999999999, 192.0, 0.0, 0.0, 0.0, 0.0, 0.0, 0.0, 0.0, 0.0, 0.0, 1.6444989862813349E9, 0.0, 2022-02-11 00:16:26.281
84.0, -9284.60172231218, -10552.258557350464, -10805.593229006914, -17109.47806948162, -2671.7487182317636, -1907.4978718159048, -5911.79053923971, -6766.9235786108475, -16890.833305219807, -14512.764157386322, -20276.83201752091, -12304.411805201986, -6596.268009694578, -9788.588856290444, -11981.205580378244, -12175.486943183774, 0.010625, -0.003875, 0.9864999999999999, 192.0, 0.0, 0.0, 0.0, 0.0, 0.0, 0.0, 0.0, 0.0, 0.0, 1.6444989862813416E9, 0.0, 2022-02-11 00:16:26.281
86.0, -9262.965233679442, -10529.79505417288, -10793.925618401245, -17108.360482258857, -2663.9926629057722, -1882.3521593036842, -5928.911975492475, -6771.416279246364, -16885.893569695185, -14504.426956704494, -20269.88062499531, -12313.844241362125, -6595.776271316561, -9777.390632318335, -11979.260978610633, -12169.161399502922, 0.0113125, -0.0029375, 0.98925, 192.0, 0.0, 48.0, 127.5, 120.0, 15.5, 0.0, 0.0, 0.0, 0.0, 1.6444989862813485E9, 0.0, 2022-02-11 00:16:26.281
88.0, -9280.198428654485, -10535.785321686903, -10800.452327782194, -17108.539296214498, -2671.614607765032, -1899.1606711340753, -5930.476597604346, -6777.227732804744, -16891.325043597823, -14504.96339857142, -20266.81843600493, -12311.653770405504, -6595.35158817191, -9781.928036442761, -11977.741059987673, -12168.93788205837, 0.0113125, -0.0029375, 0.98925, 192.0, 0.0, 0.0, 0.0, 0.0, 0.0, 0.0, 0.0, 0.0, 0.0, 1.6444989862813551E9, 0.0, 2022-02-11 00:16:26.281
90.0, -9274.901065218577, -10554.203159118077, -10796.13844110232, -17101.274979266524, -2666.4290030514007, -1890.555249518782, -5927.660277802977, -6750.852674347481, -16883.09960163827, -14503.421128204005, -20271.78052327401, -12310.223258760365, -6594.792794560528, -9792.187487147748, -11981.004414678147, -12164.780457589683, 0.0113125, -0.0029375, 0.98925, 192.0, 0.0, 0.0, 0.0, 0.0, 0.0, 0.0, 0.0, 0.0, 0.0, 1.644498986281362E9, 0.0, 2022-02-11 00:16:26.281
92.0, -9264.954538935965, -10548.011725903956, -10790.550504988492, -17112.875534638828, -2663.81384895013, -1900.5241275458488, -5914.472748574347, -6763.1684855423555, -16890.743898241984, -14502.929389825988, -20259.710581268144, -12299.047386532711, -6592.021178248069, -9777.323577084968, -11971.326109328998, -12167.97675704679, 0.0113125, -0.0029375, 0.98925, 192.0, 0.0, 0.0, 0.0, 0.0, 0.0, 0.0, 0.0, 0.0, 0.0, 1.6444989862813687E9, 0.0, 2022-02-11 00:16:26.281
94.0, -9279.527876320824, -10541.015629889445, -10794.439708523716, -17104.85125837937, -2671.189924620381, -1907.296706115807, -5914.517452063257, -6765.940101854814, -16886.608825517753, -14506.237448005373, -20273.076924452416, -12308.636284904038, -6600.716006841184, -9800.36822561839, -11980.669138511317, -12178.951463574347, 0.0113125, -0.0029375, 0.98925, 192.0, 0.0, 0.0, 0.0, 0.0, 0.0, 0.0, 0.0, 0.0, 0.0, 1.6444989862813756E9, 0.0, 2022-02-11 00:16:26.281
96.0, -9270.631882027612, -10537.774626943425, -10786.37072877535, -17110.2380287931, -2651.6321482219873, -1889.974104162944, -5896.3678355655475, -6749.355107468976, -16880.663261492642, -14502.169430514507, -20266.974898216118, -12299.449717932906, -6592.803489304005, -9788.208876634702, -11975.908216942336, -12168.155571002433, 0.00665625, -0.00246875, 0.989625, 192.0, 0.0, 8.0, 127.5, 120.0, 15.0, 120.0, 0.0, 0.0, 0.0, 1.6444989862813823E9, 0.0, 2022-02-11 00:16:26.281
98.0, -9280.511353076858, -10539.920394411134, -10799.13357485933, -17118.597581219386, -2660.2822733261914, -1903.7427787474132, -5902.492213546302, -6774.210247303277, -16893.91784595464, -14510.238410262873, -20270.93115698471, -12310.491479693828, -6593.16111721529, -9784.185562632747, -11974.768277975116, -12173.83291409408, 0.00665625, -0.00246875, 0.989625, 192.0, 0.0, 0.0, 0.0, 0.0, 0.0, 0.0, 0.0, 0.0, 0.0, 1.6444989862813892E9, 0.0, 2022-02-11 00:16:26.281
100.0, -9273.381146595615, -10539.316897310842, -10792.09277535591, -17112.406148005266, -2657.1530291024483, -1897.5960490222037, -5915.255059630283, -6748.706906879772, -16884.10543013876, -14506.706834638935, -20274.798008775477, -12306.28935173623, -6591.9988265036145, -9784.230266121658, -11983.999548435158, -12171.061297781624, 0.00665625, -0.00246875, 0.989625, 192.0, 0.0, 0.0, 0.0, 0.0, 0.0, 0.0, 0.0, 0.0, 0.0, 1.644498986281396E9, 0.0, 2022-02-11 00:16:26.281
102.0, -9261.512370289847, -10541.08268512281, -10789.857600910378, -17106.371177002333, -2648.5699592316105, -1891.5163745303603, -5909.868289216553, -6754.563063927062, -16884.06072664985, -14495.77683160029, -20256.49193006658, -12294.398223686007, -6587.416718890277, -9796.657836038808, -11976.109382642435, -12162.098248255044, 0.00665625, -0.00246875, 0.989625, 192.0, 0.0, 0.0, 0.0, 0.0, 0.0, 0.0, 0.0, 0.0, 0.0, 1.6444989862814052E9, 0.0, 2022-02-11 00:16:26.281
104.0, -9270.386012838604, -10526.375237271219, -10788.315330542962, -17101.878476366815, -2650.8945406549624, -1896.4114065660724, -5915.009190441274, -6755.881816849926, -16880.551502770366, -14517.77094814431, -20266.326697626915, -12295.761680097781, -6583.616922332874, -9789.102946412915, -11977.875170454405, -12164.176960489389, 0.00665625, -0.00246875, 0.989625, 192.0, 0.0, 0.0, 0.0, 0.0, 0.0, 0.0, 0.0, 0.0, 0.0, 1.644498986281412E9, 0.0, 2022-02-11 00:16:26.281
106.0, -9261.333556334204, -10521.971943613524, -10780.961606617166, -17105.834735135406, -2644.7925144186634, -1885.5931622497037, -5906.873155459542, -6757.848770361993, -16877.62342424672, -14504.672825893502, -20261.141092913284, -12291.33603469563, -6582.275817665555, -9780.832800964452, -11976.958748931736, -12160.35481218753, 0.007328125, -0.0032343750000000003, 0.9898125, 192.0, 0.0, 32.0, 127.5, 112.0, 15.0, 120.0, 0.0, 0.0, 0.0, 1.6444989867594013E9, 0.0, 2022-02-11 00:16:26.759
108.0, -9285.451088601481, -10548.011725903956, -10793.344473045407, -17116.58592421841, -2659.254093081247, -1903.295743858307, -5912.975181695841, -6764.8672181209595, -16891.34739534228, -14504.806936360234, -20266.281994138004, -12300.008511544289, -6587.059090978992, -9788.499449312621, -11976.109382642435, -12165.249844223243, 0.007328125, -0.0032343750000000003, 0.9898125, 192.0, 0.0, 0.0, 0.0, 0.0, 0.0, 0.0, 0.0, 0.0, 0.0, 1.6444989867594101E9, 0.0, 2022-02-11 00:16:26.759
110.0, -9276.018652441342, -10544.077818879821, -10791.310464299973, -17109.165145059247, -2659.3658518035236, -1890.6670082410585, -5949.944967024919, -6769.963415856769, -16884.619520261233, -14512.20536377494, -20278.039011721496, -12307.161069769987, -6589.294265424522, -9785.861943466896, -11985.921798458314, -12168.401440191441, 0.007328125, -0.0032343750000000003, 0.9898125, 192.0, 0.0, 0.0, 0.0, 0.0, 0.0, 0.0, 0.0, 0.0, 0.0, 1.6444989867594173E9, 0.0, 2022-02-11 00:16:26.759
112.0, -9268.687280260001, -10542.75906595696, -10792.025720122543, -17112.96494161665, -2654.359061045535, -1897.5289937888379, -5913.556327051679, -6776.221904304255, -16887.033508662404, -14506.863296850122, -20265.54438657098, -12296.476935920351, -6590.814184047483, -9781.369242831379, -11979.909179199836, -12163.349945944543, 0.007328125, -0.0032343750000000003, 0.9898125, 192.0, 0.0, 0.0, 0.0, 0.0, 0.0, 0.0, 0.0, 0.0, 0.0, 1.6444989867594242E9, 0.0, 2022-02-11 00:16:26.759
114.0, -9278.186771653507, -10534.399513530674, -10800.541734760016, -17107.53346771401, -2660.0811076260934, -1902.356970591184, -5906.4037688259805, -6768.376442000443, -16887.033508662404, -14514.73111089839, -20274.77565703102, -12298.063909776678, -6595.508050383098, -9801.798737263529, -11981.697318756262, -12171.038946037168, 0.007328125, -0.0032343750000000003, 0.9898125, 192.0, 0.0, 0.0, 0.0, 0.0, 0.0, 0.0, 0.0, 0.0, 0.0, 1.644498986759431E9, 0.0, 2022-02-11 00:16:26.759
116.0, -9268.530818048814, -10527.492824493984, -10791.601036977892, -17107.10878456936, -2651.3415755440683, -1889.6164762516592, -5908.862460716065, -6759.413392473864, -16882.227883604515, -14509.031416062286, -20262.43749409169, -12292.073642262656, -6590.92594276976, -9783.157382387804, -11978.478667554697, -12161.517102899206, 0.006, -0.004, 0.99, 192.0, 0.0, 24.0, 127.5, 112.0, 15.0, 120.0, 0.0, 0.0, 0.0, 1.644498986759451E9, 0.0, 2022-02-11 00:16:26.759
118.0, -9289.049719458786, -10541.149740356177, -10798.485374270127, -17111.10974682686, -2668.284197841191, -1907.9896101939214, -5935.304574406693, -6781.251046806699, -16890.47567730852, -14511.333645741182, -20260.470540579623, -12292.587732385127, -6589.8307072914495, -9795.719062771686, -11980.646786766862, -12169.943710558857, 0.006, -0.004, 0.99, 192.0, 0.0, 0.0, 0.0, 0.0, 0.0, 0.0, 0.0, 0.0, 0.0, 1.644498986759458E9, 0.0, 2022-02-11 00:16:26.759
120.0, -9284.355853123172, -10548.726981726526, -10798.060691125476, -17108.96397935915, -2655.521351757211, -1898.132490889131, -5913.9139549629635, -6762.676747164339, -16891.86148546475, -14510.081948051686, -20276.5861483319, -12311.67612214996, -6598.994922518125, -9792.79098424804, -11989.878057226904, -12175.531646672684, 0.006, -0.004, 0.99, 192.0, 0.0, 0.0, 0.0, 0.0, 0.0, 0.0, 0.0, 0.0, 0.0, 1.6444989867594652E9, 0.0, 2022-02-11 00:16:26.759
122.0, -9272.151800650574, -10548.503464281972, -10794.864391668367, -17110.81917414894, -2655.2084273348364, -1897.2607728553742, -5934.477559861846, -6758.139343039911, -16893.984901188007, -14515.91575335452, -20263.823302247918, -12288.72088059436, -6587.751995057106, -9794.46736508219, -11978.70218499925, -12164.288719211665, 0.006, -0.004, 0.99, 192.0, 0.0, 0.0, 0.0, 0.0, 0.0, 0.0, 0.0, 0.0, 0.0, 1.644498986759472E9, 0.0, 2022-02-11 00:16:26.759
124.0, -9276.510390819358, -10536.99231588749, -10804.98973190662, -17114.417805006244, -2662.472744282811, -1903.1169299026647, -5915.6126875415675, -6770.8574856349815, -16891.816781975842, -14525.862279637133, -20277.793142532486, -12303.294217979219, -6593.965780015681, -9794.199144148724, -11986.257074625144, -12172.737678615771, 0.006, -0.004, 0.99, 192.0, 0.0, 0.0, 0.0, 0.0, 0.0, 0.0, 0.0, 0.0, 0.0, 1.6444989867594783E9, 0.0, 2022-02-11 00:16:26.759
126.0, -9265.938015691998, -10524.27417329242, -10794.283246312529, -17113.85901139486, -2651.162761588426, -1885.32494131624, -5916.573812553145, -6749.578624913529, -16882.33964232679, -14506.930352083487, -20272.33931688539, -12306.758738369792, -6592.468213137176, -9788.6112080349, -11981.607911778441, -12166.121562257, 0.01, -0.008, 0.99, 192.0, 0.0, 40.0, 127.5, 96.0, 15.0, 120.0, 0.0, 0.0, 0.0, 1.6444989867594848E9, 0.0, 2022-02-11 00:16:26.759
128.0, -9284.802888012277, -10539.607469988761, -10802.396929549806, -17117.3905870188, -2664.2385320947806, -1900.0547409122876, -5923.011114956274, -6767.52707571114, -16891.816781975842, -14504.20343925994, -20265.052648192963, -12303.294217979219, -6593.049358493014, -9802.13401343036, -11978.925702443803, -12169.943710558857, 0.01, -0.008, 0.99, 192.0, 0.0, 0.0, 0.0, 0.0, 0.0, 0.0, 0.0, 0.0, 0.0, 1.6444989867594917E9, 0.0, 2022-02-11 00:16:26.759
130.0, -9271.324786105728, -10555.499560296485, -10796.116089357864, -17110.2380287931, -2659.544665759166, -1899.786519978824, -5930.543652837712, -6765.828343132537, -16880.283281836902, -14508.942009084465, -20273.52395934152, -12303.450680190406, -6595.1727742162675, -9801.172888418781, -11987.41936533682, -12172.380050704485, 0.01, -0.008, 0.99, 192.0, 0.0, 0.0, 0.0, 0.0, 0.0, 0.0, 0.0, 0.0, 0.0, 1.644498986759498E9, 0.0, 2022-02-11 00:16:26.759
