%OpenBCI Raw EEG Data
%Number of channels = 16
%Sample Rate = 125 Hz
%Board = OpenBCI_GUI$BoardCytonSerialDaisy
Sample Index, EXG Channel 0, EXG Channel 1, EXG Channel 2, EXG Channel 3, EXG Channel 4, EXG Channel 5, EXG Channel 6, EXG Channel 7, EXG Channel 8, EXG Channel 9, EXG Channel 10, EXG Channel 11, EXG Channel 12, EXG Channel 13, EXG Channel 14, EXG Channel 15, Accel Channel 0, Accel Channel 1, Accel Channel 2, Other, Other, Other, Other, Other, Other, Other, Analog Channel 0, Analog Channel 1, Analog Channel 2, Timestamp, Other, Timestamp (Formatted)
186.0, -9276.108059419163, -10940.396599816871, -10926.762035699134, -17307.08984221099, -2333.8126938119763, -1530.6921637883383, -5563.595064114937, -6396.801042175418, -17346.831243852528, -14941.761188717031, -19811.24518051686, -12563.736744372458, -6043.017630936817, -10030.457083041321, -12011.313380159543, -12477.548417752794, 0.0, 0.0, 0.0, 192.0, 0.0, 0.0, 0.0, 0.0, 0.0, 0.0, 0.0, 0.0, 0.0, 1.644499221203957E9, 0.0, 2022-02-11 00:20:21.203
188.0, -9278.544399564791, -10943.45878880725, -10928.684285722291, -17309.01209223415, -2331.7786850665434, -1538.8505505145254, -5577.654311377324, -6412.424911549677, -17348.954659575782, -14936.508528770035, -19794.19079949746, -12553.499645411926, -6038.86020646813, -10028.17720510688, -12009.078205714013, -12481.616435243659, 0.0, 0.0, 0.0, 192.0, 0.0, 0.0, 0.0, 0.0, 0.0, 0.0, 0.0, 0.0, 0.0, 1.6444992212039647E9, 0.0, 2022-02-11 00:20:21.203
190.0, -9276.17511465253, -10942.520015540125, -10929.980686900699, -17307.782746289104, -2348.631900385845, -1537.8894255029472, -5576.715538110201, -6393.515335740488, -17352.77680787764, -14945.29276434097, -19812.183953783984, -12558.752305358925, -6044.962232704429, -10033.385161564966, -12013.570906349529, -12481.594083499203, 0.0, 0.0, 0.0, 192.0, 0.0, 0.0, 0.0, 0.0, 0.0, 0.0, 0.0, 0.0, 0.0, 1.6444992212039714E9, 0.0, 2022-02-11 00:20:21.203
192.0, -9269.648405271579, -10938.92138468282, -10919.520070495615, -17307.17924918881, -2334.1032664898953, -1527.093532931034, -5579.308340467017, -6387.927399626661, -17348.1947002643, -14929.065397866416, -19806.01487231432, -12552.650279122625, -6050.751334518353, -10032.826367953583, -12012.09569121548, -12473.994490384399, 0.0, 0.0, 0.0, 192.0, 0.0, 0.0, 0.0, 0.0, 0.0, 0.0, 0.0, 0.0, 0.0, 1.644499221203978E9, 0.0, 2022-02-11 00:20:21.203
194.0, -9280.779574010323, -10941.536538784092, -10932.573489257515, -17313.437737636297, -2344.1168480058727, -1541.7786290381705, -5589.38897721636, -6400.086748610348, -17352.352124732988, -14940.934174172186, -19796.761250109823, -12551.465636666493, -6049.432581595491, -10031.284097586167, -12009.011150480646, -12477.391955541607, 0.004, -0.022, 0.988, 192.0, 0.0, 16.0, 127.5, 40.0, 15.0, 112.0, 0.0, 0.0, 0.0, 1.644499221203985E9, 0.0, 2022-02-11 00:20:21.203
196.0, -9288.178001425029, -10938.20612886025, -10933.02052414662, -17312.074281224523, -2343.8039235834985, -1543.0973819610338, -5579.688320122757, -6398.253905565012, -17351.994496821702, -14947.371476575314, -19813.703872406946, -12568.609424663715, -6054.9087589870405, -10031.708780730818, -12017.571868607029, -12482.935188166522, 0.004, -0.022, 0.988, 192.0, 0.0, 0.0, 0.0, 0.0, 0.0, 0.0, 0.0, 0.0, 0.0, 1.6444992212039917E9, 0.0, 2022-02-11 00:20:21.203
198.0, -9289.161478181062, -10937.133245126397, -10932.97582065771, -17317.41634814934, -2340.406458426292, -1541.9797947382683, -5586.527953926081, -6398.008036376004, -17363.61740393846, -14945.248060852058, -19806.35014848115, -12559.355802459217, -6059.513218344834, -10035.374466821488, -12013.347388904976, -12480.387089298618, 0.004, -0.022, 0.988, 192.0, 0.0, 0.0, 0.0, 0.0, 0.0, 0.0, 0.0, 0.0, 0.0, 1.6444992212039983E9, 0.0, 2022-02-11 00:20:21.203
200.0, -9285.7416612794, -10944.77754173011, -10938.764922471633, -17316.455223137764, -2349.7047841196995, -1549.7805535531704, -5592.428814462282, -6402.567792244887, -17364.131494060934, -14961.609537793343, -19819.31416026523, -12574.622043922192, -6056.048697954261, -10027.4172457954, -12020.1870227083, -12486.109135879176, 0.004, -0.022, 0.988, 192.0, 0.0, 0.0, 0.0, 0.0, 0.0, 0.0, 0.0, 0.0, 0.0, 1.644499221204005E9, 0.0, 2022-02-11 00:20:21.204
202.0, -9277.046832686287, -10959.97672795972, -10934.987477658688, -17311.64959807987, -2337.9477665362083, -1546.025460484679, -5581.67762537928, -6404.534745756954, -17356.66601141286, -14940.017752649517, -19809.345282238162, -12560.383982704161, -6050.304299629248, -10047.51146406072, -12017.884793029403, -12481.705842221481, 0.004, -0.022, 0.988, 192.0, 0.0, 0.0, 0.0, 0.0, 0.0, 0.0, 0.0, 0.0, 0.0, 1.6444992212040117E9, 0.0, 2022-02-11 00:20:21.204
204.0, -9296.381091640127, -10971.26435890965, -10937.602631759957, -17315.695263826285, -2349.36950795287, -1556.4860768897627, -5605.638695435369, -6411.732007471563, -17367.461903984775, -14956.178063890704, -19812.273360761807, -12552.404409933617, -6061.122543945617, -10050.685411773375, -12010.24049642569, -12487.047909146298, 0.004, -0.022, 0.99, 192.0, 0.0, 16.0, 127.5, 40.0, 15.0, 120.0, 0.0, 0.0, 0.0, 1.6444992212040184E9, 0.0, 2022-02-11 00:20:21.204
206.0, -9282.45595484447, -10949.896091210378, -10929.220727589218, -17306.15106894387, -2338.5736153809567, -1545.4219633843857, -5594.261657507617, -6407.798100447429, -17360.599918436994, -14965.744610517575, -19817.0789858197, -12563.24500599444, -6059.200293922459, -10048.405533838932, -12019.360008163454, -12488.165496369063, 0.004, -0.022, 0.99, 192.0, 0.0, 0.0, 0.0, 0.0, 0.0, 0.0, 0.0, 0.0, 0.0, 1.6444992212040253E9, 0.0, 2022-02-11 00:20:21.204
208.0, -9278.343233864694, -10953.159445900852, -10930.137149111886, -17314.95765625926, -2332.762161822577, -1541.9127395049024, -5567.10428799442, -6400.98081838856, -17361.114008559467, -14953.272337111513, -19800.15871526703, -12558.260566980907, -6047.95736646144, -10032.2675743422, -12007.960618491248, -12479.381260798129, 0.004, -0.022, 0.99, 192.0, 0.0, 0.0, 0.0, 0.0, 0.0, 0.0, 0.0, 0.0, 0.0, 1.6444992212040317E9, 0.0, 2022-02-11 00:20:21.204
210.0, -9285.205219412474, -10942.788236473589, -10934.138111369386, -17314.465917881244, -2341.8369700714316, -1543.5891203390504, -5587.891410337855, -6403.595972489831, -17362.43276148233, -14958.346183102869, -19818.73301490939, -12578.332433501773, -6049.611395551133, -10036.223833110791, -12013.459147627253, -12487.964330668967, 0.004, -0.022, 0.99, 192.0, 0.0, 0.0, 0.0, 0.0, 0.0, 0.0, 0.0, 0.0, 0.0, 1.6444992212040381E9, 0.0, 2022-02-11 00:20:21.204
212.0, -9274.431678585015, -10943.92817544081, -10927.142015354875, -17307.849801522472, -2324.9166995187643, -1525.3053933746094, -5564.980872271165, -6391.0119403614935, -17352.508586944175, -14947.639697508777, -19809.25587526034, -12557.165331502598, -6045.498674571357, -10023.46098702681, -12011.42513888182, -12477.95074915299, 0.004, -0.022, 0.99, 192.0, 0.0, 0.0, 0.0, 0.0, 0.0, 0.0, 0.0, 0.0, 0.0, 1.6444992212040448E9, 0.0, 2022-02-11 00:20:21.204
214.0, -9281.718347277445, -10939.234309105195, -10933.333448568994, -17314.220048692234, -2332.918624033764, -1535.564844079595, -5575.888523565355, -6401.919591655683, -17354.028505567134, -14940.91182242773, -19807.35597698164, -12552.024430277877, -6037.519101800812, -10017.761292190706, -12006.060720212547, -12474.821504929247, 0.004, -0.02, 0.988, 192.0, 0.0, 16.0, 127.5, 48.0, 15.0, 112.0, 0.0, 0.0, 0.0, 1.6444992212040513E9, 0.0, 2022-02-11 00:20:21.204
216.0, -9273.962291951453, -10944.956355685754, -10931.388846801383, -17313.08010972501, -2330.526987377046, -1537.7553150362153, -5570.032366518065, -6402.7019027116185, -17354.453188711785, -14940.95652591664, -19821.77285215531, -12563.289709483352, -6044.828122237697, -10021.35992304801, -12013.727368560716, -12480.275330576342, 0.004, -0.02, 0.988, 192.0, 0.0, 0.0, 0.0, 0.0, 0.0, 0.0, 0.0, 0.0, 0.0, 1.6444992212040577E9, 0.0, 2022-02-11 00:20:21.204
218.0, -9269.044908171285, -10944.911652196843, -10930.517128767626, -17309.95086550127, -2332.4045339112918, -1539.2975854036315, -5572.558113641514, -6402.277219566968, -17353.849691611493, -14947.125607386304, -19800.337529222674, -12548.291688953841, -6043.777590248298, -10038.950745934337, -12011.291028415088, -12474.195656084497, 0.004, -0.02, 0.988, 192.0, 0.0, 0.0, 0.0, 0.0, 0.0, 0.0, 0.0, 0.0, 0.0, 1.6444992212040696E9, 0.0, 2022-02-11 00:20:21.204
220.0, -9281.919512977543, -10948.063248165041, -10936.105064881453, -17310.487307368196, -2340.026478770552, -1544.7067075618158, -5573.139258997352, -6405.562926001898, -17358.074171313547, -14965.632851795299, -19814.709700907435, -12565.189607762053, -6050.460761840434, -10036.424998810888, -12008.720577802727, -12481.392917799107, 0.004, -0.02, 0.988, 192.0, 0.0, 0.0, 0.0, 0.0, 0.0, 0.0, 0.0, 0.0, 0.0, 1.6444992212040768E9, 0.0, 2022-02-11 00:20:21.204
222.0, -9262.272329601328, -10932.573489257515, -10923.54338449757, -17309.257961423154, -2327.8000745534987, -1525.3948003524306, -5568.400689172828, -6390.609608961297, -17349.33463923152, -14946.34329633037, -19803.69029089097, -12559.825189092779, -6038.927261701497, -10030.74765571924, -12005.479574856708, -12475.872036918645, 0.004, -0.02, 0.988, 192.0, 0.0, 0.0, 0.0, 0.0, 0.0, 0.0, 0.0, 0.0, 0.0, 1.6444992212040832E9, 0.0, 2022-02-11 00:20:21.204
224.0, -9270.721289005434, -10935.501567781159, -10939.368419571927, -17313.52714461412, -2340.473513659658, -1539.0740679590783, -5586.77382311509, -6397.8292224203615, -17356.822473624048, -14940.218918349616, -19803.77969786879, -12557.29944196933, -6039.24018612387, -10025.204423094323, -12004.764319034139, -12475.223836329442, 0.01, -0.024, 0.986, 192.0, 0.0, 40.0, 127.5, 32.0, 15.0, 104.0, 0.0, 0.0, 0.0, 1.64449922120409E9, 0.0, 2022-02-11 00:20:21.204
226.0, -9271.727117505923, -10949.203187132262, -10926.8290909325, -17309.526182356618, -2330.951670521697, -1538.4258673698746, -5579.621264889392, -6400.802004432918, -17347.948831075293, -14948.131435886793, -19815.246142774362, -12553.454941923017, -6035.462741310924, -10034.74861797674, -12012.252153426667, -12481.504676521383, 0.01, -0.024, 0.986, 192.0, 0.0, 0.0, 0.0, 0.0, 0.0, 0.0, 0.0, 0.0, 0.0, 1.6444992212040966E9, 0.0, 2022-02-11 00:20:21.204
228.0, -9283.282969389316, -10953.204149389763, -10925.7785589431, -17316.81285104905, -2327.598908853401, -1531.4968265887294, -5565.427907160271, -6392.822431662373, -17354.34142998951, -14951.238328366082, -19796.11304952062, -12549.543386643338, -6034.81454072172, -10021.806957937117, -12001.836240510493, -12477.168438097053, 0.01, -0.024, 0.986, 192.0, 0.0, 0.0, 0.0, 0.0, 0.0, 0.0, 0.0, 0.0, 0.0, 1.6444992212041037E9, 0.0, 2022-02-11 00:20:21.204
230.0, -9286.769841524345, -10947.705620253757, -10936.26152709264, -17316.254057437665, -2338.819484569965, -1542.1586086939108, -5575.8661718209, -6406.658161480208, -17358.029467824636, -14962.525959316012, -19810.284055505283, -12564.228482750474, -6037.6532122675435, -10020.667018969896, -12006.41834812383, -12484.790382956313, 0.01, -0.024, 0.986, 192.0, 0.0, 0.0, 0.0, 0.0, 0.0, 0.0, 0.0, 0.0, 0.0, 1.64449922120411E9, 0.0, 2022-02-11 00:20:21.204
232.0, -9267.480286059414, -10936.954431170754, -10923.766901942123, -17310.464955623742, -2328.1577024647836, -1532.0332684556568, -5579.353043955928, -6399.416196276688, -17350.184005520823, -14950.277203354502, -19800.561046667226, -12556.807703591312, -6029.271308096803, -10019.281210813668, -12007.178307435312, -12477.838990430713, 0.01, -0.024, 0.986, 192.0, 0.0, 0.0, 0.0, 0.0, 0.0, 0.0, 0.0, 0.0, 0.0, 1.6444992212041168E9, 0.0, 2022-02-11 00:20:21.204
234.0, -9282.612417055658, -10947.660916764846, -10937.334410826494, -17308.542705600586, -2340.8087898264876, -1539.0964197035337, -5598.8214133765005, -6407.284010324956, -17362.566871949064, -14948.466712053623, -19805.701947891946, -12555.421895435084, -6041.900043714052, -10033.139292375958, -12004.540801589585, -12480.990586398912, 0.008, -0.022, 0.984, 192.0, 0.0, 32.0, 127.5, 40.0, 15.0, 96.0, 0.0, 0.0, 0.0, 1.6444992212041233E9, 0.0, 2022-02-11 00:20:21.204
236.0, -9271.682414017012, -10936.932079426299, -10937.580280015503, -17309.168554445336, -2331.9351472777307, -1532.9943934672349, -5580.805907345522, -6412.335504571856, -17357.001287579693, -14961.698944771166, -19819.470622476416, -12560.629851893169, -6043.889348970574, -10025.18207134987, -12012.319208660032, -12481.147048610097, 0.008, -0.022, 0.984, 192.0, 0.0, 0.0, 0.0, 0.0, 0.0, 0.0, 0.0, 0.0, 0.0, 1.64449922120413E9, 0.0, 2022-02-11 00:20:21.204
238.0, -9279.25965538736, -10942.631774262401, -10926.717332210224, -17316.254057437665, -2325.475493130147, -1531.832102755559, -5570.278235707073, -6396.532821241954, -17355.05668581208, -14946.991496919572, -19802.88562809058, -12551.86796806669, -6038.547282045756, -10016.531946245665, -11999.42225210932, -12477.548417752794, 0.008, -0.022, 0.984, 192.0, 0.0, 0.0, 0.0, 0.0, 0.0, 0.0, 0.0, 0.0, 0.0, 1.6444992212041364E9, 0.0, 2022-02-11 00:20:21.204
240.0, -9292.64835031609, -10936.954431170754, -10937.982611415699, -17311.67194982433, -2332.8068653114874, -1543.2314924277655, -5577.386090443861, -6414.4142168062, -17359.72820040324, -14958.502645314056, -19811.423994472505, -12568.318851985796, -6038.8825582125855, -10028.847757440539, -12002.864420755437, -12484.008071900376, 0.008, -0.022, 0.984, 192.0, 0.0, 0.0, 0.0, 0.0, 0.0, 0.0, 0.0, 0.0, 0.0, 1.6444992212041428E9, 0.0, 2022-02-11 00:20:21.204
242.0, -9277.024480941831, -10951.997155189176, -10926.851442676956, -17308.296836411577, -2320.0663709719624, -1526.8476637420254, -5559.415287901794, -6390.341388027834, -17355.43666546782, -14953.115874900328, -19807.44538395946, -12559.333450714763, -6039.24018612387, -10021.829309681572, -11997.365891619433, -12476.050850874288, 0.008, -0.022, 0.984, 192.0, 0.0, 0.0, 0.0, 0.0, 0.0, 0.0, 0.0, 0.0, 0.0, 1.6444992212041495E9, 0.0, 2022-02-11 00:20:21.204
244.0, -9284.221742656438, -10952.488893567193, -10935.590974758981, -17313.460089380755, -2329.565862365468, -1541.6668703158941, -5585.522125425592, -6408.043969636437, -17356.934232346324, -14953.384095833791, -19804.606712413635, -12548.939889543044, -6035.172168633005, -10018.543603246642, -11996.158897418845, -12477.883693919623, 0.004, -0.02, 0.988, 192.0, 0.0, 16.0, 127.5, 48.0, 15.0, 112.0, 0.0, 0.0, 0.0, 1.644499221204156E9, 0.0, 2022-02-11 00:20:21.204
246.0, -9275.012823940853, -10942.74353298468, -10929.488948522681, -17310.464955623742, -2320.558109349979, -1532.346192878031, -5563.751526326123, -6402.254867822513, -17349.33463923152, -14949.561947531933, -19815.49201196337, -12555.734819857458, -6038.636689023578, -10015.660228211907, -12001.545667832574, -12483.337519566718, 0.004, -0.02, 0.988, 192.0, 0.0, 0.0, 0.0, 0.0, 0.0, 0.0, 0.0, 0.0, 0.0, 1.6444992212041628E9, 0.0, 2022-02-11 00:20:21.204
248.0, -9261.378259823116, -10937.73674222669, -10927.410236288339, -17305.301702654568, -2318.7029145601887, -1527.093532931034, -5576.603779387925, -6392.7777281734625, -17349.0440665536, -14947.013848664028, -19796.24715998735, -12551.487988410949, -6035.239223866371, -10032.781664464674, -11991.3309206165, -12474.910911907067, 0.004, -0.02, 0.988, 192.0, 0.0, 0.0, 0.0, 0.0, 0.0, 0.0, 0.0, 0.0, 0.0, 1.6444992212041693E9, 0.0, 2022-02-11 00:20:21.204
250.0, -9278.656158287067, -10943.659954507346, -10929.06426537803, -17304.631150320907, -2322.3238971619485, -1538.4929226032405, -5563.528008881571, -6403.864193423295, -17342.025618794636, -14959.82139823692, -19805.031395558286, -12552.426761678073, -6031.52883428679, -10024.690332971852, -11998.304664886555, -12475.84968517419, 0.004, -0.02, 0.988, 192.0, 0.0, 0.0, 0.0, 0.0, 0.0, 0.0, 0.0, 0.0, 0.0, 1.6444992212041776E9, 0.0, 2022-02-11 00:20:21.204
252.0, -9268.508466304358, -10936.395637559372, -10917.7766344281, -17304.765260787637, -2308.510519088569, -1526.3335736195534, -5566.567846127492, -6385.356949014301, -17351.011020065667, -14948.377305075803, -19802.416241457016, -12547.375267431173, -6036.893252956063, -10033.586327265064, -11994.236647395688, -12475.425002029539, 0.004, -0.02, 0.988, 192.0, 0.0, 0.0, 0.0, 0.0, 0.0, 0.0, 0.0, 0.0, 0.0, 1.644499221204184E9, 0.0, 2022-02-11 00:20:21.204
254.0, -9266.139181392096, -10935.21099510324, -10923.722198453212, -17311.537839357596, -2315.1266354473396, -1528.8146172540926, -5581.118831767897, -6404.065359123392, -17352.687400899817, -14944.28693584048, -19794.7719448533, -12555.466598923995, -6030.411247064024, -10016.55429799012, -11993.946074717769, -12476.27436831884, 0.004, -0.02, 0.99, 192.0, 0.0, 16.0, 127.5, 48.0, 15.0, 120.0, 0.0, 0.0, 0.0, 1.6444992212042053E9, 0.0, 2022-02-11 00:20:21.204
0.0, -9262.428791812516, -10936.328582326005, -10917.150785583352, -17303.021824720123, -2310.857452256376, -1531.7203440332823, -5577.00611078812, -6406.188774846647, -17340.86332808296, -14950.925403943707, -19802.572703668204, -12556.427723935572, -6024.309220827726, -10015.593172978542, -12001.56801957703, -12480.543551509805, 0.004, -0.02, 0.99, 192.0, 0.0, 0.0, 0.0, 0.0, 0.0, 0.0, 0.0, 0.0, 0.0, 1.6444992212042117E9, 0.0, 2022-02-11 00:20:21.204
2.0, -9267.524989548325, -10944.844596963478, -10915.653218704847, -17307.201600933266, -2310.6562865562782, -1531.8097510111036, -5574.860343320411, -6401.69607421113, -17348.41821770885, -14950.120741143315, -19786.591206382658, -12541.630869106159, -6026.47734003989, -10016.531946245665, -11997.522353830618, -12476.52023750785, 0.004, -0.02, 0.99, 192.0, 0.0, 0.0, 0.0, 0.0, 0.0, 0.0, 0.0, 0.0, 0.0, 1.6444992212042184E9, 0.0, 2022-02-11 00:20:21.204
4.0, -9268.664928515545, -10932.327620068505, -10930.137149111886, -17310.04027247909, -2319.17230119375, -1540.2363586707543, -5584.829221347478, -6410.368551059789, -17347.881775841925, -14965.901072728762, -19799.95754956693, -12554.751343101425, -6031.104151142139, -10016.084911356558, -12010.218144681234, -12484.768031211857, 0.004, -0.02, 0.99, 192.0, 0.0, 0.0, 0.0, 0.0, 0.0, 0.0, 0.0, 0.0, 0.0, 1.6444992212042253E9, 0.0, 2022-02-11 00:20:21.204
6.0, -9250.805884695756, -10924.929192653799, -10908.947695368255, -17310.777880046116, -2305.604792309379, -1523.8748817294695, -5574.8156398315, -6396.644579964231, -17344.864290340458, -14946.969145175117, -19797.700023376947, -12550.526863399371, -6032.3111453427255, -10019.191803835845, -12003.065586455536, -12480.208275342975, 0.006, -0.02, 0.991, 192.0, 0.0, 32.0, 127.5, 48.0, 15.5, 0.0, 0.0, 0.0, 0.0, 1.6444992212042325E9, 0.0, 2022-02-11 00:20:21.204
8.0, -9264.59691102468, -10937.893204437876, -10915.049721604553, -17306.70986255525, -2308.398760366292, -1528.9487277208243, -5563.975043770676, -6401.964295144594, -17345.601897907483, -14947.729104486598, -19785.58537788217, -12552.605575633714, -6029.539529030268, -10025.517347516698, -11993.677853784306, -12477.570769497248, 0.006, -0.02, 0.991, 192.0, 0.0, 0.0, 0.0, 0.0, 0.0, 0.0, 0.0, 0.0, 0.0, 1.6444992212042391E9, 0.0, 2022-02-11 00:20:21.204
10.0, -9260.037155155796, -10926.896146165866, -10911.786366914079, -17294.550513571565, -2306.7447312765994, -1521.6397072839388, -5577.989587544154, -6404.333580056856, -17337.77878734813, -14958.167369147226, -19798.907017577534, -12548.58226163176, -6024.24216559436, -10021.248164325734, -11998.259961397644, -12475.760278196369, 0.006, -0.02, 0.991, 192.0, 0.0, 0.0, 0.0, 0.0, 0.0, 0.0, 0.0, 0.0, 0.0, 1.644499221204246E9, 0.0, 2022-02-11 00:20:21.204
12.0, -9249.64359398408, -10924.97389614271, -10910.467613991215, -17301.412499119342, -2303.369617863848, -1521.8855764729474, -5587.891410337855, -6410.45795803761, -17340.393941449398, -14947.57264227541, -19781.651470858036, -12534.455959136005, -6020.5094242703235, -10009.22292580878, -11993.543743317574, -12474.03919387331, 0.006, -0.02, 0.991, 192.0, 0.0, 0.0, 0.0, 0.0, 0.0, 0.0, 0.0, 0.0, 0.0, 1.6444992212042532E9, 0.0, 2022-02-11 00:20:21.204
14.0, -9267.435582570504, -10929.846576433967, -10924.884489164888, -17308.341539900488, -2315.730132547633, -1531.5862335665506, -5559.102363479419, -6390.36373977229, -17346.160691518868, -14956.803912735453, -19802.907979835032, -12552.62792737817, -6028.779569718787, -10017.515423001698, -11998.751699775661, -12478.956577653478, 0.006, -0.02, 0.991, 192.0, 0.0, 0.0, 0.0, 0.0, 0.0, 0.0, 0.0, 0.0, 0.0, 1.64449922120426E9, 0.0, 2022-02-11 00:20:21.204
16.0, -9243.049829369764, -10920.123567595909, -10908.433605245782, -17306.307531155056, -2300.329780617926, -1522.377314850964, -5566.321976938484, -6394.8340886633505, -17338.71756061525, -14947.371476575314, -19797.990596054864, -12556.852407080223, -6025.650325495044, -10022.07517887058, -11996.762394519139, -12476.140257852108, 0.002, -0.02, 0.9895, 192.0, 127.5, 120.0, 127.5, 48.0, 15.0, 112.0, 0.0, 0.0, 0.0, 1.6444992212042668E9, 0.0, 2022-02-11 00:20:21.204
18.0, -9261.892349945587, -10949.627870276914, -10916.63669546088, -17312.387205646897, -2308.4211121107473, -1527.8758439869696, -5575.5755991429805, -6398.566829987387, -17345.177214762833, -14949.00315392055, -19793.900226819544, -12561.322755971285, -6024.555090016734, -10014.162661333403, -11994.482516584698, -12476.162609596564, 0.002, -0.02, 0.9895, 192.0, 0.0, 0.0, 0.0, 0.0, 0.0, 0.0, 0.0, 0.0, 0.0, 1.644499221204274E9, 0.0, 2022-02-11 00:20:21.204
20.0, -9268.17319013753, -10947.616213275936, -10914.759148926634, -17299.75847002965, -2307.795263265999, -1520.767989250182, -5563.282139692562, -6391.704844439608, -17341.936211816814, -14967.465694840634, -19806.864238603623, -12562.395639705139, -6024.577441761189, -10021.516385259198, -11999.265789898132, -12474.396821784596, 0.002, -0.02, 0.9895, 192.0, 0.0, 0.0, 0.0, 0.0, 0.0, 0.0, 0.0, 0.0, 0.0, 1.6444992212042809E9, 0.0, 2022-02-11 00:20:21.204
22.0, -9261.177094123017, -10939.8825096944, -10915.384997771383, -17304.385281131898, -2304.7777777645324, -1520.6338787834502, -5570.211180473707, -6396.488117753043, -17339.298705971087, -14959.799046492464, -19788.15582849453, -12541.943793528533, -6024.28686908327, -10016.688408456852, -11992.202638650257, -12470.060583360266, 0.002, -0.02, 0.9895, 192.0, 0.0, 0.0, 0.0, 0.0, 0.0, 0.0, 0.0, 0.0, 0.0, 1.6444992212042885E9, 0.0, 2022-02-11 00:20:21.204
24.0, -9273.805829740266, -10939.54723352757, -10923.431625775293, -17307.022786977624, -2307.6835045437224, -1524.7913032521371, -5567.14899148333, -6397.471594509077, -17343.456130439776, -14961.117799415328, -19804.405546713537, -12553.320831456283, -6023.549261516245, -10008.060635097103, -11996.13654567439, -12476.52023750785, 0.002, -0.02, 0.9895, 192.0, 0.0, 0.0, 0.0, 0.0, 0.0, 0.0, 0.0, 0.0, 0.0, 1.6444992212042952E9, 0.0, 2022-02-11 00:20:21.204
26.0, -9259.657175500057, -10932.729951468702, -10914.043893104064, -17301.4348508638, -2291.6126002803567, -1511.9166984458802, -5565.271444949084, -6384.082899580348, -17341.95856356127, -14955.686325512688, -19795.420145442506, -12552.225595977974, -6020.956459159429, -10017.895402657437, -11996.337711374488, -12469.61354847116, 0.0, -0.022, 0.98675, 192.0, 127.5, 120.0, 127.5, 32.0, 15.0, 96.0, 0.0, 0.0, 0.0, 1.6444992212043045E9, 0.0, 2022-02-11 00:20:21.204
28.0, -9261.06533540074, -10945.69396325278, -10914.289762293072, -17304.362929387444, -2301.2238503961385, -1519.7398090052377, -5580.381224200872, -6396.085786352848, -17342.159729261366, -14960.357840103847, -19789.452229672937, -12544.67070635208, -6024.4433312944575, -10012.061597354603, -11985.89944671386, -12471.692260705502, 0.0, -0.022, 0.98675, 192.0, 0.0, 0.0, 0.0, 0.0, 0.0, 0.0, 0.0, 0.0, 0.0, 1.6444992212043116E9, 0.0, 2022-02-11 00:20:21.204
30.0, -9257.77962896581, -10940.664820750335, -10914.513279737626, -17299.177324673812, -2300.97798120713, -1517.9516694488132, -5572.044023519043, -6396.197545075124, -17340.840976338503, -14963.040049438483, -19802.840924601667, -12560.29457572634, -6032.177034875994, -10019.4153212804, -11997.61176080844, -12476.497885763394, 0.0, -0.022, 0.98675, 192.0, 0.0, 0.0, 0.0, 0.0, 0.0, 0.0, 0.0, 0.0, 0.0, 1.6444992212043183E9, 0.0, 2022-02-11 00:20:21.204
32.0, -9257.64551849908, -10937.35676257095, -10914.245058804163, -17303.513563098142, -2300.2627253845603, -1521.5950037950283, -5578.794250344545, -6399.751472443518, -17345.356028718477, -14954.568738289921, -19785.38421218207, -12537.495796381927, -6026.209119106426, -10010.78754792065, -11992.04617643907, -12471.714612449958, 0.0, -0.022, 0.98675, 192.0, 0.0, 0.0, 0.0, 0.0, 0.0, 0.0, 0.0, 0.0, 0.0, 1.644499221204332E9, 0.0, 2022-02-11 00:20:21.204
34.0, -9271.21302738345, -10932.171157857318, -10930.181852600796, -17303.334749142497, -2318.568804093457, -1530.1110184325003, -5588.271389993595, -6411.039103393448, -17351.56981367705, -14961.96716570463, -19802.81857285721, -12552.985555289455, -6033.585194776678, -10027.640763239951, -12003.84789751147, -12481.169400354553, 0.0, -0.022, 0.98675, 192.0, 0.0, 0.0, 0.0, 0.0, 0.0, 0.0, 0.0, 0.0, 0.0, 1.644499221204342E9, 0.0, 2022-02-11 00:20:21.204
36.0, -9251.007050395852, -10926.650276976858, -10918.201317572752, -17299.75847002965, -2307.2811731435268, -1512.900175201914, -5583.555171913526, -6396.510469497499, -17349.66991539835, -14954.38992433428, -19800.15871526703, -12560.629851893169, -6039.933090201985, -10013.3132950441, -12003.222048666723, -12476.296720063296, 0.002, -0.020999999999999998, 0.986375, 192.0, 0.0, 16.0, 127.5, 48.0, 15.0, 104.0, 0.0, 0.0, 0.0, 1.6444992212043495E9, 0.0, 2022-02-11 00:20:21.204
38.0, -9262.7864197238, -10937.73674222669, -10921.26350656313, -17299.89258049638, -2312.757350535077, -1520.7232857612714, -5598.240268020662, -6413.0284086499705, -17347.85942409747, -14960.53665405949, -19787.44057267196, -12550.258642465908, -6032.869938954108, -10020.488205014253, -11998.818755009026, -12476.721403207946, 0.002, -0.020999999999999998, 0.986375, 192.0, 0.0, 0.0, 0.0, 0.0, 0.0, 0.0, 0.0, 0.0, 0.0, 1.644499221204357E9, 0.0, 2022-02-11 00:20:21.204
40.0, -9261.668832501035, -10931.187681101284, -10921.576430985502, -17294.975196716216, -2299.726283517633, -1514.6436112694278, -5559.415287901794, -6406.524051013476, -17339.164595504357, -14963.91176747224, -19796.06834603171, -12545.162444730096, -6027.7290377293875, -10017.783643935161, -12002.95382773326, -12479.045984631299, 0.002, -0.020999999999999998, 0.986375, 192.0, 0.0, 0.0, 0.0, 0.0, 0.0, 0.0, 0.0, 0.0, 0.0, 1.644499221204364E9, 0.0, 2022-02-11 00:20:21.204
42.0, -9259.16543712204, -10940.463655050238, -10917.061378605531, -17302.41832761983, -2299.2568968840715, -1516.834082226048, -5560.219950702185, -6389.089690338336, -17351.05572355458, -14951.663011510733, -19791.620348885102, -12544.424837163073, -6034.009877921329, -10015.883745656462, -11989.98981594918, -12472.049888616788, 0.002, -0.020999999999999998, 0.986375, 192.0, 0.0, 0.0, 0.0, 0.0, 0.0, 0.0, 0.0, 0.0, 0.0, 1.6444992212043712E9, 0.0, 2022-02-11 00:20:21.204
44.0, -9279.46082108746, -10950.700754010768, -10930.986515401188, -17306.396938132875, -2309.2034231666835, -1526.5123875751958, -5563.550360626025, -6398.74564394303, -17352.57564217754, -14956.222767379615, -19803.153849024042, -12553.991383789944, -6038.234357623382, -10019.974114891782, -11997.678816041805, -12478.576597997737, 0.002, -0.020999999999999998, 0.986375, 192.0, 0.0, 0.0, 0.0, 0.0, 0.0, 0.0, 0.0, 0.0, 0.0, 1.644499221204378E9, 0.0, 2022-02-11 00:20:21.204
46.0, -9265.133352891608, -10951.818341233533, -10920.570602485013, -17301.32309214152, -2298.9439724616973, -1516.4317508258523, -5571.976968285677, -6389.69318743863, -17347.881775841925, -14971.131380931305, -19797.878837332588, -12562.976785060977, -6033.227566865393, -10021.672847470385, -12000.025749209613, -12475.80498168528, 0.004, -0.020499999999999997, 0.9871875, 192.0, 0.0, 24.0, 127.5, 48.0, 15.0, 112.0, 0.0, 0.0, 0.0, 1.6444992212043848E9, 0.0, 2022-02-11 00:20:21.204
48.0, -9278.365585609148, -10943.771713229622, -10926.896146165866, -17303.826487520517, -2309.136367933317, -1519.605698538506, -5575.597950887436, -6393.269466551479, -17355.168444534356, -14975.691136800187, -19796.649491387547, -12554.349011701228, -6032.221738364904, -10022.611620737509, -11997.2317811527, -12473.860379917667, 0.004, -0.020499999999999997, 0.9871875, 192.0, 0.0, 0.0, 0.0, 0.0, 0.0, 0.0, 0.0, 0.0, 0.0, 1.6444992212043917E9, 0.0, 2022-02-11 00:20:21.204
50.0, -9269.961329693953, -10952.913576711844, -10924.392750786872, -17301.99364447518, -2305.247164398094, -1513.570727535573, -5567.797192072534, -6387.949751371116, -17346.361857218966, -14974.90882574425, -19806.998349070353, -12566.709526385013, -6030.902985442041, -10023.572745749087, -12000.271618398621, -12471.781667683324, 0.004, -0.020499999999999997, 0.9871875, 192.0, 0.0, 0.0, 0.0, 0.0, 0.0, 0.0, 0.0, 0.0, 0.0, 1.6444992212043986E9, 0.0, 2022-02-11 00:20:21.204
0.0, -4269.630225852755, -5382.009492160022, -5025.096836697679, -8294.128870264158, -975.9665698965276, -860.5421615293219, -2512.2243180542373, -3188.4092913161867, -8675.092002760412, -7479.631302312769, -9894.312607564045, -6276.14632560567, -3014.132739798157, -5002.052188164257, -5995.654284436022, -6235.510854185922, 0.006, -0.026000000000000002, 0.994, 192.0, 0.0, 24.0, 127.5, 24.0, 15.5, 8.0, 0.0, 0.0, 0.0, 1.6444992217745056E9, 0.0, 2022-02-11 00:20:21.774
2.0, -8550.458675677619, -10761.739106385601, -10061.3248421341, -16593.24217954185, -1966.2159044999964, -1723.1630352929874, -5029.500130355374, -6372.661158163686, -16625.048711901753, -14813.752748221488, -19205.669367989227, -12327.67997117996, -5712.278868231639, -10373.779877874837, -11208.237553624816, -11760.772676560007, 0.006, -0.026000000000000002, 0.994, 192.0, 0.0, 0.0, 0.0, 0.0, 0.0, 0.0, 0.0, 0.0, 0.0, 1.6444992217746472E9, 0.0, 2022-02-11 00:20:21.774
4.0, -8538.724009838583, -10753.13368477031, -10050.573653051097, -16587.52013296129, -1954.324776449773, -1714.5576136776942, -5035.892729269592, -6375.656291920697, -16614.409281541026, -14802.576875993835, -19203.32243482142, -12332.44089274894, -5703.5393361496135, -10370.628281906638, -11212.082053671129, -11757.844598036361, 0.006, -0.026000000000000002, 0.994, 192.0, 0.0, 0.0, 0.0, 0.0, 0.0, 0.0, 0.0, 0.0, 0.0, 1.644499221774655E9, 0.0, 2022-02-11 00:20:21.774
6.0, -8538.276974949476, -10753.915995826244, -10054.194635652857, -16587.676595172477, -1959.6891951190466, -1712.0095148097892, -5049.370831176142, -6376.259789020991, -16617.315008320216, -14784.740183918499, -19188.83850441438, -12318.783976886747, -5700.968885537253, -10358.67009862305, -11213.825489738643, -11755.810589290928, 0.006, -0.026000000000000002, 0.994, 192.0, 0.0, 0.0, 0.0, 0.0, 0.0, 0.0, 0.0, 0.0, 0.0, 1.6444992217746725E9, 0.0, 2022-02-11 00:20:21.774
8.0, -8543.417876174197, -10762.923748841733, -10056.60862405403, -16581.641624169544, -1957.7892968403455, -1711.3389624761298, -5018.771293016826, -6372.59410293032, -16614.90101991904, -14796.430146268625, -19206.071699389424, -12323.522546711272, -5704.791033839111, -10360.61470039066, -11218.45230084089, -11756.27997592449, 0.01, -0.018000000000000002, 0.996, 192.0, 0.0, 40.0, 127.5, 56.0, 15.5, 16.0, 0.0, 0.0, 0.0, 1.6444992217746792E9, 0.0, 2022-02-11 00:20:21.774
10.0, -8535.192434214645, -10750.406771946762, -10055.692202531363, -16587.028394583274, -1949.742668836435, -1714.5799654221494, -5027.667287310039, -6382.339463512834, -16617.203249597937, -14786.237750797005, -19194.51584750603, -12318.62751467556, -5703.405225682882, -10368.415459205564, -11212.014998437762, -11756.36938290231, 0.01, -0.018000000000000002, 0.996, 192.0, 0.0, 0.0, 0.0, 0.0, 0.0, 0.0, 0.0, 0.0, 0.0, 1.644499221774686E9, 0.0, 2022-02-11 00:20:21.774
12.0, -8558.192379259155, -10766.835304121412, -10063.917644490915, -16594.27035978679, -1970.5968464132366, -1733.4448377424287, -5042.240624694899, -6391.280161294957, -16628.222659614403, -14805.259085328471, -19207.18928661219, -12320.259192020798, -5708.769644352155, -10377.557322687784, -11220.061626441673, -11770.04865050896, 0.01, -0.018000000000000002, 0.996, 192.0, 0.0, 0.0, 0.0, 0.0, 0.0, 0.0, 0.0, 0.0, 0.0, 1.6444992217746928E9, 0.0, 2022-02-11 00:20:21.774
14.0, -8542.613213373807, -10757.246405750086, -10058.933205477382, -16591.409336496512, -1958.683366618558, -1713.9317648329456, -5036.228005436422, -6376.6397686767305, -16626.702740991444, -14811.562277264868, -19215.86176346085, -12325.221279289875, -5716.816272356066, -10368.728383627938, -11221.98387646483, -11768.461676652632, 0.01, -0.018000000000000002, 0.996, 192.0, 0.0, 0.0, 0.0, 0.0, 0.0, 0.0, 0.0, 0.0, 0.0, 1.6444992217746997E9, 0.0, 2022-02-11 00:20:21.774
16.0, -8553.431457690174, -10767.08117331042, -10063.716478790819, -16598.76306042231, -1955.7329363504573, -1714.9152415889791, -5037.390296148097, -6381.065414078881, -16627.99914216985, -14804.476774272534, -19196.862780673837, -12316.437043718941, -5708.2332024852285, -10365.196808003999, -11218.944039218908, -11764.684231839685, 0.006, -0.02, 0.994, 192.0, 0.0, 8.0, 127.5, 40.0, 15.5, 0.0, 0.0, 0.0, 0.0, 1.6444992217747061E9, 0.0, 2022-02-11 00:20:21.774
18.0, -8559.712297882115, -10764.980109331622, -10072.56776959512, -16602.920484890998, -1963.3101777208065, -1720.7490468918143, -5035.356287402665, -6382.920608868672, -16630.077854404193, -14813.17160286565, -19217.09110940589, -12339.794616674735, -5710.311914719572, -10371.611758662673, -11229.471710857357, -11774.340185444378, 0.006, -0.02, 0.994, 192.0, 0.0, 0.0, 0.0, 0.0, 0.0, 0.0, 0.0, 0.0, 0.0, 1.6444992217747128E9, 0.0, 2022-02-11 00:20:21.774
20.0, -8554.102010023835, -10761.627347663325, -10073.394784139966, -16605.781508181277, -1955.1070875057087, -1708.3214769746635, -5037.189130448, -6377.846762877317, -16631.7765869828, -14805.035567883919, -19209.960902924646, -12328.01524734679, -5710.468376930759, -10369.465991194964, -11229.002324223797, -11772.842618565872, 0.006, -0.02, 0.994, 192.0, 0.0, 0.0, 0.0, 0.0, 0.0, 0.0, 0.0, 0.0, 0.0, 1.6444992217747197E9, 0.0, 2022-02-11 00:20:21.774
22.0, -8571.022280576502, -10777.206513548674, -10076.814601041628, -16608.977807638385, -1974.7542708819237, -1720.726695147359, -5057.372755691142, -6385.781632158952, -16638.996200441863, -14799.246466069993, -19215.4370803162, -12338.229994562864, -5715.184595010829, -10370.561226673273, -11232.735065547833, -11776.016566278526, 0.006, -0.02, 0.994, 192.0, 0.0, 0.0, 0.0, 0.0, 0.0, 0.0, 0.0, 0.0, 0.0, 1.6444992217747266E9, 0.0, 2022-02-11 00:20:21.774
24.0, -8556.895978080747, -10780.112240327864, -10072.210141683834, -16605.513287247813, -1963.131363765164, -1712.9035845880014, -5039.04432523779, -6383.948789113616, -16636.403398085047, -14811.919905176152, -19223.774280998026, -12339.906375397013, -5716.860975844977, -10374.226912763943, -11238.054780728196, -11776.95533954565, 0.006, -0.02, 0.994, 192.0, 0.0, 0.0, 0.0, 0.0, 0.0, 0.0, 0.0, 0.0, 0.0, 1.6444992217747333E9, 0.0, 2022-02-11 00:20:21.774
26.0, -8568.228312519588, -10774.971339103144, -10085.151801723458, -16617.069139131207, -1973.5025731924266, -1723.4089044819957, -5046.71097358596, -6386.228667048057, -16645.545261567266, -14810.31057957537, -19214.498307049074, -12334.407846261007, -5722.068932303064, -10372.930511585535, -11234.523205104257, -11780.755136103051, 0.005, -0.020999999999999998, 0.994, 192.0, 0.0, 16.0, 127.5, 40.0, 15.5, 8.0, 0.0, 0.0, 0.0, 1.64449922177474E9, 0.0, 2022-02-11 00:20:21.774
28.0, -8583.874533638304, -10792.159830589275, -10096.417080928932, -16615.19159259696, -1980.9457040960438, -1723.4536079709064, -5041.011278749857, -6387.435661248644, -16655.424732616513, -14826.22502162755, -19241.56626958445, -12351.976317402878, -5733.647135930913, -10390.946017616514, -11247.777789566255, -11788.690005384686, 0.005, -0.020999999999999998, 0.994, 192.0, 0.0, 0.0, 0.0, 0.0, 0.0, 0.0, 0.0, 0.0, 0.0, 1.644499221774747E9, 0.0, 2022-02-11 00:20:21.774
30.0, -8566.261359007522, -10790.505801499583, -10082.022557499715, -16613.33639780717, -1962.4384596870495, -1704.4769769283507, -5050.019031765346, -6382.160649557191, -16651.848453503662, -14824.570992537856, -19226.680007777217, -12334.139625327543, -5727.790978883622, -10372.885808096626, -11245.31909767617, -11781.626854136808, 0.005, -0.020999999999999998, 0.994, 192.0, 0.0, 0.0, 0.0, 0.0, 0.0, 0.0, 0.0, 0.0, 0.0, 1.6444992217747533E9, 0.0, 2022-02-11 00:20:21.774
32.0, -8581.03586209248, -10781.766269417558, -10097.445261173876, -16623.30527583424, -1972.2061720140186, -1711.5177764317723, -5057.9091975580695, -6374.8739808647615, -16650.39559011407, -14819.40773956868, -19227.819946744436, -12340.576927730672, -5719.967868324265, -10357.999546289391, -11247.353106421604, -11783.862028582338, 0.005, -0.020999999999999998, 0.994, 192.0, 0.0, 0.0, 0.0, 0.0, 0.0, 0.0, 0.0, 0.0, 0.0, 1.6444992217747602E9, 0.0, 2022-02-11 00:20:21.774
34.0, -8573.41391723322, -10783.196781062697, -10089.108060492046, -16617.940857164962, -1963.7348608654572, -1703.5158519167724, -5033.411685635053, -6356.746716111507, -16644.6288400446, -14817.530193034434, -19236.112443937356, -12342.901509154024, -5721.867766602965, -10370.091840039711, -11244.805007553698, -11778.38585119079, 0.005, -0.020999999999999998, 0.994, 192.0, 0.0, 0.0, 0.0, 0.0, 0.0, 0.0, 0.0, 0.0, 0.0, 1.6444992217747667E9, 0.0, 2022-02-11 00:20:21.774
36.0, -8579.35948125833, -10791.198705577697, -10092.214952971335, -16625.406339813035, -1974.5978086707366, -1701.5041949157949, -5057.775087091338, -6377.444431477122, -16653.793055271275, -14809.103585374784, -19228.62460954483, -12333.513776482794, -5726.829853872044, -10369.95772957298, -11243.329792419649, -11780.844543080872, 0.0045000000000000005, -0.0185, 0.994, 192.0, 0.0, 16.0, 127.5, 64.0, 15.5, 8.0, 0.0, 0.0, 0.0, 1.6444992217747736E9, 0.0, 2022-02-11 00:20:21.774
38.0, -8576.677271923694, -10774.9936908476, -10097.557019896152, -16621.42772929999, -1976.2071342715187, -1703.9852385503339, -5042.397086906086, -6374.06931806437, -16652.4295988595, -14810.198820853093, -19240.314571894953, -12346.343677800141, -5726.6063364274905, -10363.229854491932, -11253.343373935626, -11789.002929807059, 0.0045000000000000005, -0.0185, 0.994, 192.0, 0.0, 0.0, 0.0, 0.0, 0.0, 0.0, 0.0, 0.0, 0.0, 1.6444992217747831E9, 0.0, 2022-02-11 00:20:21.774
40.0, -8568.340071241864, -10777.139458315309, -10086.671720346418, -16622.210040355927, -1969.1886865125523, -1700.9901047933229, -5039.200787448977, -6361.418230702667, -16653.39072387108, -14813.037492398918, -19233.94432472519, -12344.935517899457, -5726.472225960759, -10365.554435915285, -11247.263699443782, -11781.224522736613, 0.0045000000000000005, -0.0185, 0.994, 192.0, 0.0, 0.0, 0.0, 0.0, 0.0, 0.0, 0.0, 0.0, 0.0, 1.6444992217747898E9, 0.0, 2022-02-11 00:20:21.774
42.0, -8594.916295399225, -10791.444574766705, -10101.625037387019, -16627.19447936946, -1985.4384047315605, -1710.757817120292, -5056.433982424019, -6381.400690245711, -16657.34698263967, -14813.752748221488, -19236.470071848642, -12337.604145718116, -5727.299240505605, -10373.735174385927, -11247.956603521896, -11789.695833885175, 0.0045000000000000005, -0.0185, 0.994, 192.0, 0.0, 0.0, 0.0, 0.0, 0.0, 0.0, 0.0, 0.0, 0.0, 1.6444992217747998E9, 0.0, 2022-02-11 00:20:21.774
44.0, -8580.991158603569, -10783.956740374177, -10098.831069330105, -16627.306238091736, -1976.6318174161695, -1693.6810843564374, -5047.985023019913, -6373.510524452988, -16656.609375072643, -14821.26293435847, -19243.75674054107, -12348.131817356565, -5724.237051515228, -10351.226967719433, -11253.790408824732, -11792.445098453176, 0.0045000000000000005, -0.0185, 0.994, 192.0, 0.0, 0.0, 0.0, 0.0, 0.0, 0.0, 0.0, 0.0, 0.0, 1.644499221774809E9, 0.0, 2022-02-11 00:20:21.774
46.0, -8588.769565674016, -10801.882839427333, -10098.652255374463, -16628.602639270146, -1978.911695350611, -1703.1358722610323, -5060.569055148251, -6384.462879236088, -16659.850378018666, -14814.78092846643, -19228.959885711658, -12335.704247439415, -5716.816272356066, -10353.640956120606, -11248.582452366645, -11788.153563517757, 0.00625, -0.018250000000000002, 0.994, 192.0, 0.0, 32.0, 127.5, 56.0, 15.5, 8.0, 0.0, 0.0, 0.0, 1.6444992217748156E9, 0.0, 2022-02-11 00:20:21.774
48.0, -8598.961961145635, -10798.843002181411, -10110.319865980133, -16634.659962017533, -1990.5569542118258, -1716.301049745208, -5069.666215141561, -6389.69318743863, -16668.50050312287, -14838.898460733708, -19251.311630166965, -12350.143474357543, -5731.635478929935, -10370.896502840103, -11264.563949652189, -11804.135060803303, 0.00625, -0.018250000000000002, 0.994, 192.0, 0.0, 0.0, 0.0, 0.0, 0.0, 0.0, 0.0, 0.0, 0.0, 1.6444992217748227E9, 0.0, 2022-02-11 00:20:21.774
50.0, -8585.819135405914, -10779.888722883312, -10103.10025252107, -16637.43157832999, -1986.6006954432364, -1699.6042966370937, -5074.628302410639, -6387.681530437652, -16671.115657224138, -14822.335818092326, -19244.13672019681, -12350.188177846454, -5732.998935341709, -10360.324127712742, -11262.261719973294, -11800.827002623917, 0.00625, -0.018250000000000002, 0.994, 192.0, 0.0, 0.0, 0.0, 0.0, 0.0, 0.0, 0.0, 0.0, 0.0, 1.64449922177483E9, 0.0, 2022-02-11 00:20:21.774
52.0, -8606.047464137968, -10801.368749304862, -10120.758130640761, -16640.806691742742, -1991.8533553902337, -1716.0328288117444, -5071.700223886994, -6393.872963651773, -16678.625843361122, -14817.306675589882, -19252.60803134537, -12352.44570403644, -5734.831778387043, -10367.700203382994, -11266.240330486338, -11805.230296281612, 0.00625, -0.018250000000000002, 0.994, 192.0, 0.0, 0.0, 0.0, 0.0, 0.0, 0.0, 0.0, 0.0, 0.0, 1.6444992217748387E9, 0.0, 2022-02-11 00:20:21.774
54.0, -8605.712187971138, -10805.459118540182, -10114.745511382283, -16638.169185897015, -1985.0360733313648, -1705.1922327509205, -5053.841180067204, -6381.1548210567025, -16679.050526505773, -14823.006370425985, -19265.370877429352, -12355.418486048995, -5741.358487767993, -10366.068526037756, -11268.18493225395, -11806.504345715564, 0.00625, -0.018250000000000002, 0.994, 192.0, 0.0, 0.0, 0.0, 0.0, 0.0, 0.0, 0.0, 0.0, 0.0, 1.6444992217748454E9, 0.0, 2022-02-11 00:20:21.774
56.0, -8612.41771130773, -10814.869202955866, -10123.328581253121, -16647.400456357056, -1990.5793059562811, -1711.4730729428618, -5067.185171507022, -6392.26363805099, -16688.30414871027, -14835.545699065413, -19254.686743579718, -12350.478750524373, -5739.972679611765, -10360.81586609076, -11267.335565964648, -11807.33136026041, 0.006125, -0.018125000000000002, 0.995, 192.0, 0.0, 24.0, 127.5, 56.0, 15.5, 16.0, 0.0, 0.0, 0.0, 1.6444992217748528E9, 0.0, 2022-02-11 00:20:21.774
58.0, -8616.418673565231, -10815.539755289527, -10133.364514513554, -16648.674505791012, -1998.804747915834, -1712.9929915658226, -5070.515581430863, -6383.144126313225, -16691.232227233915, -14848.532062593946, -19273.32809845544, -12367.823704221692, -5742.319612779572, -10355.0938195102, -11276.410374213503, -11813.746310919085, 0.006125, -0.018125000000000002, 0.995, 192.0, 0.0, 0.0, 0.0, 0.0, 0.0, 0.0, 0.0, 0.0, 0.0, 1.6444992217748597E9, 0.0, 2022-02-11 00:20:21.774
60.0, -8611.434234551696, -10805.481470284638, -10122.948601597382, -16650.328534880704, -1996.2790007923843, -1713.2835642437417, -5068.816848852259, -6394.0070741185045, -16690.7404888559, -14838.049094444406, -19263.627441361838, -12367.68959375496, -5746.253519803706, -10365.889712082115, -11276.969167824886, -11811.019398095537, 0.006125, -0.018125000000000002, 0.995, 192.0, 0.0, 0.0, 0.0, 0.0, 0.0, 0.0, 0.0, 0.0, 0.0, 1.6444992217748663E9, 0.0, 2022-02-11 00:20:21.774
62.0, -8619.905545700258, -10813.751615733101, -10137.611345960064, -16657.302279150757, -2007.1866520865742, -1711.3836659650406, -5075.969407077958, -6388.352082771312, -16700.35173897168, -14841.670077046167, -19269.48359840913, -12369.92476820049, -5749.986261127742, -10367.230816749432, -11279.405507970514, -11818.551935976975, 0.006125, -0.018125000000000002, 0.995, 192.0, 0.0, 0.0, 0.0, 0.0, 0.0, 0.0, 0.0, 0.0, 0.0, 1.644499221774873E9, 0.0, 2022-02-11 00:20:21.774
64.0, -8600.861859424336, -10789.879952654834, -10132.224575546334, -16650.932031980996, -1995.0943583362532, -1707.3827037075405, -5075.500020444396, -6382.518277468476, -16692.30511096777, -14835.635106043233, -19273.685726366726, -12368.538960044261, -5743.303089535605, -10359.184188745521, -11283.205304527915, -11815.936781875704, 0.006125, -0.018125000000000002, 0.995, 192.0, 0.0, 0.0, 0.0, 0.0, 0.0, 0.0, 0.0, 0.0, 0.0, 1.6444992217748804E9, 0.0, 2022-02-11 00:20:21.774
66.0, -8620.777263734015, -10819.138386146831, -10140.539424483708, -16652.563709326234, -2003.677428207091, -1714.6470206555155, -5081.490287958418, -6388.307379282401, -16684.861980064154, -14822.31346634787, -19253.636211590318, -12346.142512100043, -5739.749162167212, -10363.565130658762, -11279.114935292595, -11818.641342954797, 0.0080625, -0.019062500000000003, 0.9935, 192.0, 0.0, 40.0, 127.5, 48.0, 15.5, 0.0, 0.0, 0.0, 0.0, 1.644499221774887E9, 0.0, 2022-02-11 00:20:21.774
68.0, -8642.972545978135, -10841.557185835503, -10147.446113520398, -16650.976735469907, -2002.8280619177895, -1709.0590845416887, -5076.036462311324, -6389.626132205264, -16710.49943095439, -14860.356135410802, -19284.68278463874, -12378.440782837963, -5758.94931065432, -10371.947034829502, -11287.116859807595, -11822.999933123581, 0.0080625, -0.019062500000000003, 0.9935, 192.0, 0.0, 0.0, 0.0, 0.0, 0.0, 0.0, 0.0, 0.0, 0.0, 1.644499221774894E9, 0.0, 2022-02-11 00:20:21.774
70.0, -8629.963830705146, -10823.966362949177, -10141.634659962017, -16654.329497138202, -1989.327608266784, -1693.6363808675267, -5075.030633810835, -6385.580466458853, -16702.922189584042, -14835.188071154127, -19271.048220521, -12368.360146088618, -5747.862845404487, -10343.828540304727, -11281.975958582874, -11816.026188853526, 0.0080625, -0.019062500000000003, 0.9935, 192.0, 0.0, 0.0, 0.0, 0.0, 0.0, 0.0, 0.0, 0.0, 0.0, 1.6444992217749038E9, 0.0, 2022-02-11 00:20:21.774
72.0, -8662.217397954155, -10840.350191634918, -10152.38584904502, -16663.896043765075, -2003.163338084619, -1704.1640525059763, -5088.106404317189, -6394.901143896716, -16709.87358210964, -14841.983001468541, -19280.882988081335, -12375.177428147486, -5751.752048939711, -10357.664270122561, -11288.837944130653, -11825.615087224853, 0.0080625, -0.019062500000000003, 0.9935, 192.0, 0.0, 0.0, 0.0, 0.0, 0.0, 0.0, 0.0, 0.0, 0.0, 1.6444992217749104E9, 0.0, 2022-02-11 00:20:21.774
74.0, -8654.260176928065, -10841.154854435308, -10150.910633910971, -16660.54328209678, -1995.4072827586274, -1700.1630902484765, -5074.829468110736, -6383.010015846493, -16719.06014908077, -14848.733228294042, -19295.657491166294, -12383.089945684666, -5760.201008343817, -10360.055906779278, -11293.822383144186, -11826.710322703162, 0.0080625, -0.019062500000000003, 0.9935, 192.0, 0.0, 0.0, 0.0, 0.0, 0.0, 0.0, 0.0, 0.0, 0.0, 1.6444992217749171E9, 0.0, 2022-02-11 00:20:21.774
76.0, -8653.1425897053, -10844.28409865905, -10155.872721180049, -16667.517026366833, -2006.3819892861832, -1701.7724158492586, -5084.597180437706, -6383.613512946787, -16717.428471735533, -14850.610774828288, -19280.167732258768, -12372.428163579485, -5762.994976400731, -10354.423267176542, -11288.323854008182, -11824.832776168916, 0.00703125, -0.021531250000000002, 0.99175, 192.0, 0.0, 24.0, 127.5, 32.0, 15.0, 120.0, 0.0, 0.0, 0.0, 1.6444992217749238E9, 0.0, 2022-02-11 00:20:21.774
78.0, -8656.003612995579, -10835.119883432375, -10159.180779359434, -16665.25950017685, -2014.7191899680126, -1702.6888373719262, -5083.43488972603, -6379.657254178197, -16717.607285691178, -14857.629222587255, -19295.322214999465, -12381.54767531725, -5763.218493845284, -10355.205578232477, -11297.152793068028, -11829.638401226808, 0.00703125, -0.021531250000000002, 0.99175, 192.0, 0.0, 0.0, 0.0, 0.0, 0.0, 0.0, 0.0, 0.0, 0.0, 1.6444992217749307E9, 0.0, 2022-02-11 00:20:21.774
80.0, -8646.99585998009, -10836.170415421775, -10147.893148409505, -16669.036944989795, -2003.4092072736273, -1693.3011047006971, -5082.965503092469, -6379.612550689287, -16713.338102500213, -14842.98882996903, -19283.22992124914, -12378.619596793604, -5757.407040286904, -10355.563206143763, -11291.318987765193, -11826.553860491975, 0.00703125, -0.021531250000000002, 0.99175, 192.0, 0.0, 0.0, 0.0, 0.0, 0.0, 0.0, 0.0, 0.0, 0.0, 1.6444992217749376E9, 0.0, 2022-02-11 00:20:21.774
82.0, -8664.877255544336, -10847.949784749722, -10166.936834685426, -16673.26142469185, -2019.3683528147167, -1705.013418795278, -5094.566058464773, -6388.285027537946, -16725.698617184, -14852.398914384714, -19291.321252741964, -12378.172561904497, -5760.2457118327275, -10352.322203197742, -11295.23054304487, -11834.511081518065, 0.00703125, -0.021531250000000002, 0.99175, 192.0, 0.0, 0.0, 0.0, 0.0, 0.0, 0.0, 0.0, 0.0, 0.0, 1.644499221774944E9, 0.0, 2022-02-11 00:20:21.774
84.0, -8658.819932796947, -10838.360886378394, -10156.185645602423, -16675.831875304208, -2015.0544661348424, -1701.079511771144, -5092.621456697161, -6385.513411225487, -16721.183564804025, -14844.531100336446, -19298.026776078557, -12382.508800328827, -5760.156304854907, -10351.852816564182, -11303.545391982245, -11837.282697830522, 0.00703125, -0.021531250000000002, 0.99175, 192.0, 0.0, 0.0, 0.0, 0.0, 0.0, 0.0, 0.0, 0.0, 0.0, 1.6444992217749507E9, 0.0, 2022-02-11 00:20:21.774
86.0, -8655.71304031766, -10839.8584532569, -10162.734706727828, -16672.6355758471, -2017.4013993026495, -1705.236936239831, -5111.240459828432, -6396.041082863937, -16727.710274184978, -14837.423245599657, -19284.995709061113, -12369.097753655644, -5766.057165391107, -10357.32899395573, -11300.058519847218, -11836.43333154122, 0.008, -0.022, 0.994, 192.0, 0.0, 32.0, 127.5, 40.0, 15.5, 8.0, 0.0, 0.0, 0.0, 1.6444992217749586E9, 0.0, 2022-02-11 00:20:21.774
88.0, -8669.90639804678, -10850.386124895349, -10176.68219526794, -16676.524779382322, -2030.1195418977193, -1709.5061194307948, -5118.594183754228, -6395.974027630571, -16726.570335217755, -14862.568958111879, -19303.860581381392, -12375.266835125309, -5766.23597934675, -10348.276537451333, -11313.827194431686, -11844.703476989685, 0.008, -0.022, 0.994, 192.0, 0.0, 0.0, 0.0, 0.0, 0.0, 0.0, 0.0, 0.0, 0.0, 1.6444992217749655E9, 0.0, 2022-02-11 00:20:21.774
90.0, -8660.965700264656, -10844.9099475038, -10169.529637042242, -16682.582102129712, -2014.450969034549, -1705.8627850845796, -5104.512584747385, -6386.273370536968, -16732.940582387517, -14853.471798118568, -19295.76924988857, -12377.479657826383, -5764.134915367951, -10346.197825216988, -11315.972961899395, -11843.831758955928, 0.008, -0.022, 0.994, 192.0, 0.0, 0.0, 0.0, 0.0, 0.0, 0.0, 0.0, 0.0, 0.0, 1.6444992217749722E9, 0.0, 2022-02-11 00:20:21.774
92.0, -8686.223171499154, -10842.808883525, -10187.455736095399, -16694.093250524194, -2034.8357599777892, -1721.1960817809204, -5099.237573055932, -6398.209202076102, -16744.60819299319, -14859.350306910314, -19301.983034847144, -12390.041338210267, -5774.461421306303, -10361.53112191333, -11311.659075219522, -11854.53824455002, 0.008, -0.022, 0.994, 192.0, 0.0, 0.0, 0.0, 0.0, 0.0, 0.0, 0.0, 0.0, 0.0, 1.6444992217749789E9, 0.0, 2022-02-11 00:20:21.774
94.0, -8666.95596777868, -10842.451255613716, -10183.432422093443, -16686.381898687112, -2029.8289692198002, -1712.5236049322612, -5110.882831917147, -6399.416196276688, -16746.061056382783, -14856.086952219839, -19317.62925596586, -12400.367844148619, -5776.718947496289, -10373.981043574935, -11321.38208405758, -11856.326384106444, 0.008, -0.022, 0.994, 192.0, 0.0, 0.0, 0.0, 0.0, 0.0, 0.0, 0.0, 0.0, 0.0, 1.6444992217749856E9, 0.0, 2022-02-11 00:20:21.774
96.0, -8677.796563839504, -10864.311261691006, -10187.88041924005, -16695.81433484725, -2032.1759023876075, -1717.53039569025, -5124.6515065016165, -6402.7019027116185, -16752.31954483027, -14867.128713980761, -19305.939293615735, -12383.715794529415, -5775.221380617783, -10357.306642211275, -11321.493842779857, -11859.835607985928, 0.006, -0.016, 0.992, 192.0, 0.0, 24.0, 127.5, 64.0, 15.5, 0.0, 0.0, 0.0, 0.0, 1.6444992217749925E9, 0.0, 2022-02-11 00:20:21.774
98.0, -8686.58079941044, -10847.413342882794, -10194.518887343274, -16693.623863890632, -2040.6025100472582, -1721.4419509699287, -5131.915823449591, -6410.592068504342, -16750.50905352939, -14869.967385526585, -19317.517497243585, -12393.572913834205, -5779.445860319836, -10362.894578325102, -11333.653191763544, -11867.614015056375, 0.006, -0.016, 0.992, 192.0, 0.0, 0.0, 0.0, 0.0, 0.0, 0.0, 0.0, 0.0, 0.0, 1.6444992217749991E9, 0.0, 2022-02-11 00:20:21.774
100.0, -8674.376746937842, -10848.128598705363, -10179.856142980594, -16691.835724334207, -2025.7609517289343, -1709.819043853169, -5119.845881443725, -6402.768957944984, -16748.609155250688, -14854.947013252618, -19307.48156398315, -12385.727451530392, -5779.065880664097, -10359.541816656807, -11330.188671372971, -11863.210721398678, 0.006, -0.016, 0.992, 192.0, 0.0, 0.0, 0.0, 0.0, 0.0, 0.0, 0.0, 0.0, 0.0, 1.6444992217750063E9, 0.0, 2022-02-11 00:20:21.775
102.0, -8697.667264660271, -10865.853532058421, -10200.643265324028, -16708.39836697559, -2046.7492397724677, -1723.4759597153616, -5136.252061873921, -6412.246097594035, -16758.80155072231, -14859.5067691215, -19314.321197786474, -12394.668149312514, -5784.989092944753, -10365.889712082115, -11337.609450532133, -11871.503218591597, 0.006, -0.016, 0.992, 192.0, 0.0, 0.0, 0.0, 0.0, 0.0, 0.0, 0.0, 0.0, 0.0, 1.6444992217750154E9, 0.0, 2022-02-11 00:20:21.775
104.0, -8684.43503194273, -10858.186883710252, -10196.485840855341, -16708.532477442324, -2038.4567425795487, -1719.9220323469679, -5128.518358292385, -6414.034237150459, -16759.94148968953, -14880.249187976025, -19324.424186280274, -12408.88385878609, -5788.230095890773, -10369.220122005954, -11346.594851803167, -11876.465305860676, 0.006, -0.016, 0.992, 192.0, 0.0, 0.0, 0.0, 0.0, 0.0, 0.0, 0.0, 0.0, 0.0, 1.644499221775022E9, 0.0, 2022-02-11 00:20:21.775
106.0, -8694.918000092268, -10868.111058248409, -10200.464451368387, -16717.361416502168, -2049.9902427184875, -1720.078494558155, -5151.898282992635, -6409.3627225593, -16767.8093037378, -14872.627243116767, -19313.00244486361, -12393.796431278757, -5793.885087237965, -10357.23958697791, -11342.392723845569, -11873.134895936835, 0.008, -0.014, 0.994, 192.0, 0.0, 32.0, 127.5, 72.0, 15.5, 8.0, 0.0, 0.0, 0.0, 1.6444992217750287E9, 0.0, 2022-02-11 00:20:21.775
108.0, -8704.931581608245, -10870.078011760475, -10212.73555907435, -16715.77444264584, -2062.1495917021743, -1735.0318115987554, -5156.905073750624, -6427.9370222016605, -16773.196074151525, -14886.32886246787, -19333.655456740315, -12407.74391981887, -5800.635314063467, -10375.411555220075, -11355.021459462818, -11884.377823397854, 0.008, -0.014, 0.994, 192.0, 0.0, 0.0, 0.0, 0.0, 0.0, 0.0, 0.0, 0.0, 0.0, 1.6444992217750359E9, 0.0, 2022-02-11 00:20:21.775
110.0, -8704.1045670634, -10865.384145424861, -10209.271038683777, -16717.07084382425, -2050.1020014407636, -1714.0882270441327, -5139.135436908655, -6402.9924753895375, -16778.292271887334, -14881.053850776418, -19333.83427069596, -12406.961608762933, -5805.396235632448, -10377.534970943329, -11355.379087374102, -11883.081422219448, 0.008, -0.014, 0.994, 192.0, 0.0, 0.0, 0.0, 0.0, 0.0, 0.0, 0.0, 0.0, 0.0, 1.6444992217750425E9, 0.0, 2022-02-11 00:20:21.775
112.0, -8709.089006076932, -10869.943901293744, -10224.760797591305, -16722.770538660352, -2059.333271900806, -1724.1465120490209, -5143.4940270774405, -6397.628056720264, -16786.249492913426, -14879.533932153456, -19336.896459686337, -12408.906210530546, -5812.05705548013, -10380.708918655982, -11354.730886784899, -11877.046451216514, 0.008, -0.014, 0.994, 192.0, 0.0, 0.0, 0.0, 0.0, 0.0, 0.0, 0.0, 0.0, 0.0, 1.6444992217750497E9, 0.0, 2022-02-11 00:20:21.775
114.0, -8711.212421800188, -10881.030366543577, -10218.994047521835, -16722.59172470471, -2048.4703240955264, -1717.0610090566886, -5136.363820596197, -6396.465766008588, -16779.70043178802, -14876.538798396445, -19349.413436581308, -12414.427091411006, -5808.413721133915, -10378.987834332924, -11359.447104864968, -11878.007576228092, 0.008, -0.014, 0.994, 192.0, 0.0, 0.0, 0.0, 0.0, 0.0, 0.0, 0.0, 0.0, 0.0, 1.6444992217750564E9, 0.0, 2022-02-11 00:20:21.775
116.0, -8722.656514961305, -10891.379224226383, -10219.619896366585, -16729.520765485857, -2059.445030623082, -1718.2232997683645, -5147.204416657021, -6399.013864876493, -16786.22714116897, -14886.217103745594, -19332.470814284185, -12421.445539169972, -5805.507994354724, -10371.72351738495, -11355.423790863013, -11878.834590772938, 0.01, -0.018000000000000002, 0.992, 192.0, 0.0, 40.0, 127.5, 56.0, 15.5, 0.0, 0.0, 0.0, 0.0, 1.6444992217750633E9, 0.0, 2022-02-11 00:20:21.775
118.0, -8732.178358099265, -10886.8194683575, -10229.45466392692, -16735.376922533145, -2060.8084870348557, -1727.141645806032, -5142.868178232691, -6410.9720481600825, -16800.04051924235, -14907.853592378331, -19359.29290763055, -12429.402760196062, -5821.489491640269, -10379.658386666582, -11367.001994490862, -11890.189276956235, 0.01, -0.018000000000000002, 0.992, 192.0, 0.0, 0.0, 0.0, 0.0, 0.0, 0.0, 0.0, 0.0, 0.0, 1.6444992217750697E9, 0.0, 2022-02-11 00:20:21.775
120.0, -8710.273648533064, -10872.112020505909, -10214.568402119685, -16729.006675363384, -2042.1224286702193, -1723.498311459817, -5142.242329387943, -6409.496833026032, -16793.245588927937, -14892.050909048428, -19346.463006313206, -12418.69627460197, -5812.504090369236, -10373.265787752365, -11361.749334543865, -11889.049337989014, 0.01, -0.018000000000000002, 0.992, 192.0, 0.0, 0.0, 0.0, 0.0, 0.0, 0.0, 0.0, 0.0, 0.0, 1.6444992219095197E9, 0.0, 2022-02-11 00:20:21.909
122.0, -8724.891689406835, -10885.456011945727, -10224.02319002428, -16729.677227697044, -2055.4664201100377, -1726.0687620721774, -5153.351146382231, -6409.273315581479, -16796.888923274153, -14894.777821871976, -19348.49701505864, -12419.165661235531, -5809.844232779054, -10374.785706375325, -11360.92231999902, -11891.977416512658, 0.01, -0.018000000000000002, 0.992, 192.0, 0.0, 0.0, 0.0, 0.0, 0.0, 0.0, 0.0, 0.0, 0.0, 1.644499221909542E9, 0.0, 2022-02-11 00:20:21.909
124.0, -8708.641971187828, -10880.449221187739, -10221.519794645286, -16726.972666617952, -2051.219588663529, -1714.2223375108645, -5161.218960430499, -6405.920553913183, -16783.299062645325, -14880.025670531473, -19347.424131324784, -12422.853699070656, -5804.7703867877, -10356.1443514996, -11369.080706725206, -11889.45166938921, 0.01, -0.018000000000000002, 0.992, 192.0, 0.0, 0.0, 0.0, 0.0, 0.0, 0.0, 0.0, 0.0, 0.0, 1.6444992219095492E9, 0.0, 2022-02-11 00:20:21.909
126.0, -8724.623468473372, -10868.982776282166, -10229.432312182464, -16729.16313757457, -2059.8473620232776, -1718.9609073353897, -5165.108163965722, -6419.398655819733, -16794.586693595254, -14862.99364125653, -19339.35515157642, -12413.421262910517, -5811.028875235185, -10389.023767593357, -11371.96408175994, -11892.245637446124, 0.012, -0.026000000000000002, 0.99, 192.0, 0.0, 48.0, 127.5, 24.0, 15.0, 120.0, 0.0, 0.0, 0.0, 1.6444992219095564E9, 0.0, 2022-02-11 00:20:21.909
128.0, -8732.290116821541, -10890.149878281341, -10245.21264376791, -16733.40996902108, -2072.4313941516157, -1720.6372881695377, -5159.631986574172, -6420.695056998141, -16801.023995998385, -14895.13544978326, -19362.17628266529, -12421.1326147476, -5819.991924761764, -10380.48540121143, -11381.105945242161, -11900.515782894587, 0.012, -0.026000000000000002, 0.99, 192.0, 0.0, 0.0, 0.0, 0.0, 0.0, 0.0, 0.0, 0.0, 0.0, 1.6444992219095633E9, 0.0, 2022-02-11 00:20:21.909
130.0, -8727.126863852365, -10898.755299896635, -10227.487710414853, -16735.443977766514, -2062.21664693554, -1708.790863608225, -5164.705832565526, -6399.438548021144, -16802.70037683253, -14906.132508055272, -19358.242375641155, -12415.924658289512, -5822.249450951749, -10368.929549328035, -11379.496619641379, -11896.224247959168, 0.012, -0.026000000000000002, 0.99, 192.0, 0.0, 0.0, 0.0, 0.0, 0.0, 0.0, 0.0, 0.0, 0.0, 1.64449922190957E9, 0.0, 2022-02-11 00:20:21.909
132.0, -8742.236643104154, -10898.576485940992, -10237.143664019546, -16742.037742380828, -2069.2127429500515, -1717.8433201126243, -5162.314195908809, -6399.974989888071, -16806.097841989736, -14901.773917886487, -19354.442579083752, -12421.825518825714, -5820.237793950772, -10364.593310903707, -11377.082631240206, -11897.431242159753, 0.012, -0.026000000000000002, 0.99, 192.0, 0.0, 0.0, 0.0, 0.0, 0.0, 0.0, 0.0, 0.0, 0.0, 1.6444992219095888E9, 0.0, 2022-02-11 00:20:21.909
134.0, -8727.43978827474, -10885.970102068199, -10234.819082596194, -16737.522690000857, -2064.7200423145346, -1710.8919275870237, -5170.874914035191, -6406.255830080013, -16803.32622567728, -14896.364795728303, -19365.171416422298, -12432.21907999743, -5819.477834639291, -10373.176380774545, -11383.944616787985, -11902.63919861784, 0.012, -0.026000000000000002, 0.99, 192.0, 0.0, 0.0, 0.0, 0.0, 0.0, 0.0, 0.0, 0.0, 0.0, 1.6444992219096024E9, 0.0, 2022-02-11 00:20:21.909
136.0, -8731.35134355442, -10885.366604967905, -10236.316649474698, -16742.529480758843, -2066.3964231486825, -1716.077532300655, -5162.582416842272, -6392.822431662373, -16805.829621056273, -14890.285121236459, -19351.805073238025, -12426.094702016677, -5818.0026195052415, -10366.560264415773, -11379.742488830387, -11899.867582305382, 0.012, -0.024, 0.992, 192.0, 0.0, 48.0, 127.5, 32.0, 15.5, 0.0, 0.0, 0.0, 0.0, 1.6444992219096088E9, 0.0, 2022-02-11 00:20:21.909
138.0, -8749.724477496682, -10900.342273752962, -10247.69368740245, -16745.16698660457, -2079.673359355135, -1719.050314313211, -5162.001271486434, -6400.489080010543, -16811.484612403467, -14898.488211451557, -19369.35119263544, -12435.370675965629, -5823.76936957471, -10369.510694683873, -11386.20214297797, -11906.774271342072, 0.012, -0.024, 0.992, 192.0, 0.0, 0.0, 0.0, 0.0, 0.0, 0.0, 0.0, 0.0, 0.0, 1.6444992219096153E9, 0.0, 2022-02-11 00:20:21.909
140.0, -8736.693410479238, -10885.143087523353, -10243.804483867227, -16740.4507685245, -2065.6811673261127, -1711.204852009398, -5167.768021555904, -6398.924457898672, -16816.29023746136, -14895.403670716725, -19365.93137573378, -12432.643763142081, -5829.469064410814, -10389.224933293455, -11386.91739880054, -11902.728605595661, 0.012, -0.024, 0.992, 192.0, 0.0, 0.0, 0.0, 0.0, 0.0, 0.0, 0.0, 0.0, 0.0, 1.644499221909622E9, 0.0, 2022-02-11 00:20:21.909
142.0, -8746.952861184223, -10905.974913355698, -10246.710210646417, -16743.26708832587, -2077.12526048723, -1721.7772271367583, -5172.439536147062, -6414.391865061744, -16816.71492060601, -14898.175287029182, -19364.903195488834, -12422.607829881648, -5831.257203967239, -10376.327976742743, -11388.34791044568, -11906.707216108707, 0.012, -0.024, 0.992, 192.0, 0.0, 0.0, 0.0, 0.0, 0.0, 0.0, 0.0, 0.0, 0.0, 1.6444992219096284E9, 0.0, 2022-02-11 00:20:21.909
144.0, -8745.902329194823, -10894.866096361411, -10245.145588534546, -16742.17185284756, -2069.0786324833193, -1711.9424595764233, -5163.767059298403, -6389.6708356941745, -16813.093938004247, -14898.04117656245, -19373.55332059304, -12437.315277733242, -5833.022991779208, -10372.818752863259, -11393.913494815051, -11907.26600972009, 0.012, -0.024, 0.992, 192.0, 0.0, 0.0, 0.0, 0.0, 0.0, 0.0, 0.0, 0.0, 0.0, 1.644499221909635E9, 0.0, 2022-02-11 00:20:21.909
146.0, -8737.96745991319, -10900.230515030684, -10242.418675710998, -16751.090198885227, -2066.150553959674, -1715.8316631116468, -5161.665995319605, -6396.97985613106, -16812.579847881778, -14886.127696767771, -19356.16366340681, -12432.50965267535, -5827.211538220828, -10368.728383627938, -11384.570465632733, -11902.840364317939, 0.008, -0.02, 0.992, 192.0, 0.0, 32.0, 127.5, 48.0, 15.5, 0.0, 0.0, 0.0, 0.0, 1.6444992219096415E9, 0.0, 2022-02-11 00:20:21.909
148.0, -8756.988794444656, -10907.561887212025, -10254.98035609488, -16749.25735583989, -2081.059167511364, -1714.848186355613, -5182.341358940764, -6402.9924753895375, -16817.251362472936, -14893.436717204657, -19376.526102605596, -12428.50869041785, -5828.642049865967, -10374.472781952953, -11394.740509359897, -11912.719835367185, 0.008, -0.02, 0.992, 192.0, 0.0, 0.0, 0.0, 0.0, 0.0, 0.0, 0.0, 0.0, 0.0, 1.6444992219096482E9, 0.0, 2022-02-11 00:20:21.909
150.0, -8743.510692538106, -10890.194581770253, -10249.258309514322, -16748.117416872672, -2068.8551150387666, -1702.6664856274708, -5158.045012717845, -6393.917667140683, -16817.76545259541, -14906.132508055272, -19368.50182634614, -12426.005295038854, -5830.676058611401, -10363.185151003021, -11396.461593682956, -11908.07067252048, 0.008, -0.02, 0.992, 192.0, 0.0, 0.0, 0.0, 0.0, 0.0, 0.0, 0.0, 0.0, 0.0, 1.6444992219096549E9, 0.0, 2022-02-11 00:20:21.909
152.0, -8755.40182058833, -10900.901067364344, -10252.40990548252, -16757.12516988816, -2078.578123876825, -1714.8705381000684, -5163.856466276225, -6407.284010324956, -16817.3184177063, -14899.85166786333, -19357.772989007593, -12427.860489828647, -5829.267898710716, -10357.932491056024, -11391.432451180513, -11911.334027210954, 0.008, -0.02, 0.992, 192.0, 0.0, 0.0, 0.0, 0.0, 0.0, 0.0, 0.0, 0.0, 0.0, 1.6444992223795512E9, 0.0, 2022-02-11 00:20:22.379
154.0, -8746.30466059502, -10897.816526629511, -10253.058106071723, -16752.476007041456, -2072.833725551811, -1711.0036863093003, -5177.222809460498, -6413.117815627792, -16816.647865372644, -14901.013958575006, -19370.558186836028, -12430.632106141104, -5829.424360921903, -10367.297871982799, -11402.138936774605, -11919.26889649259, 0.008, -0.02, 0.992, 192.0, 0.0, 0.0, 0.0, 0.0, 0.0, 0.0, 0.0, 0.0, 0.0, 1.6444992223797152E9, 0.0, 2022-02-11 00:20:22.379
156.0, -8751.512617053106, -10901.683378420279, -10258.154303807534, -16754.59942276471, -2075.985321520009, -1710.6460583980154, -5174.294730936853, -6401.181984088658, -16821.632304386178, -14891.022728803484, -19361.505730331628, -12414.494146644372, -5827.859738810032, -10366.515560926862, -11396.707462871966, -11917.257239491611, 0.002, -0.02, 0.992, 192.0, 0.0, 8.0, 127.5, 48.0, 15.5, 0.0, 0.0, 0.0, 0.0, 1.6444992223797228E9, 0.0, 2022-02-11 00:20:22.379
158.0, -8762.39791660284, -10898.174154540797, -10265.798600411248, -16761.08142865675, -2082.735548345512, -1709.9084508309902, -5184.688292108571, -6395.191716574635, -16831.71294113552, -14908.14416505625, -19388.327823677995, -12444.534891192305, -5837.225119736805, -10372.23760750742, -11407.16807927705, -11919.69357963724, 0.002, -0.02, 0.992, 192.0, 0.0, 0.0, 0.0, 0.0, 0.0, 0.0, 0.0, 0.0, 0.0, 1.6444992223797293E9, 0.0, 2022-02-11 00:20:22.379
160.0, -8747.869282706892, -10886.841820101956, -10251.091152559657, -16760.99202167893, -2066.1058504707635, -1697.9949710363117, -5178.228637960987, -6388.195620560125, -16821.542897408355, -14888.407574702213, -19374.581500837983, -12440.779798123813, -5829.379657432993, -10363.252206236388, -11402.273047241337, -11916.162004013302, 0.002, -0.02, 0.992, 192.0, 0.0, 0.0, 0.0, 0.0, 0.0, 0.0, 0.0, 0.0, 0.0, 1.644499222379736E9, 0.0, 2022-02-11 00:20:22.379
162.0, -8761.660309035815, -10899.58231444148, -10263.69753643245, -16767.4069723376, -2079.673359355135, -1705.9745438068562, -5173.512419880917, -6386.273370536968, -16829.18719401207, -14901.572752186388, -19370.558186836028, -12428.12871076211, -5829.781988833188, -10366.0461742933, -11401.982474563418, -11918.55364067002, 0.002, -0.02, 0.992, 192.0, 0.0, 0.0, 0.0, 0.0, 0.0, 0.0, 0.0, 0.0, 0.0, 1.6444992223797426E9, 0.0, 2022-02-11 00:20:22.379
164.0, -8759.067506678999, -10896.318959751006, -10262.110562576123, -16763.741286246932, -2078.3769581767274, -1699.8948693150128, -5163.387079642664, -6386.385129259244, -16824.56038290982, -14901.058662063917, -19380.147085207354, -12433.627239898115, -5829.20084347735, -10369.331880728232, -11405.73756763191, -11919.291248237045, 0.003, -0.02, 0.99, 192.0, 0.0, 16.0, 127.5, 48.0, 15.0, 112.0, 0.0, 0.0, 0.0, 1.64449922237975E9, 0.0, 2022-02-11 00:20:22.379
166.0, -8757.547588056039, -10891.222762015195, -10265.150399822045, -16768.479856071455, -2078.0416820098976, -1697.5702878916609, -5175.5464286263505, -6394.811736918895, -16830.640057401666, -14888.854609591319, -19368.92650949079, -12427.659324128548, -5832.4418464233695, -10350.511711896863, -11401.513087929856, -11917.480756936164, 0.003, -0.02, 0.99, 192.0, 0.0, 0.0, 0.0, 0.0, 0.0, 0.0, 0.0, 0.0, 0.0, 1.6444992223797638E9, 0.0, 2022-02-11 00:20:22.379
168.0, -8770.176323673288, -10897.01186382912, -10267.363222523121, -16768.6586700271, -2092.637371139213, -1704.0075902947892, -5175.009986759423, -6405.250001579524, -16828.337827722768, -14895.04604280544, -19383.812771298024, -12441.740923135392, -5833.58178539059, -10350.064677007756, -11408.68799790001, -11925.12505353988, 0.003, -0.02, 0.99, 192.0, 0.0, 0.0, 0.0, 0.0, 0.0, 0.0, 0.0, 0.0, 0.0, 1.6444992223797705E9, 0.0, 2022-02-11 00:20:22.379
170.0, -8757.838160733958, -10897.570657440503, -10259.383649752575, -16764.4565420695, -2077.9746267765317, -1689.6577703544822, -5176.865181549213, -6382.630036190753, -16827.488461433466, -14897.370624228792, -19378.60481483994, -12427.70402761746, -5836.331049958593, -10358.088953267212, -11407.950390332984, -11918.620695903384, 0.003, -0.02, 0.99, 192.0, 0.0, 0.0, 0.0, 0.0, 0.0, 0.0, 0.0, 0.0, 0.0, 1.6444992223797767E9, 0.0, 2022-02-11 00:20:22.379
172.0, -8776.16659118731, -10893.524991694092, -10273.621710970607, -16779.09693468773, -2088.614057137258, -1705.4604536843842, -5186.856411320736, -6393.0683008513815, -16839.558403439332, -14896.27538875048, -19381.97992825269, -12435.50478643236, -5837.761561603733, -10362.156970758078, -11408.151556033083, -11925.594440173441, 0.003, -0.02, 0.99, 192.0, 0.0, 0.0, 0.0, 0.0, 0.0, 0.0, 0.0, 0.0, 0.0, 1.6444992223797834E9, 0.0, 2022-02-11 00:20:22.379
174.0, -8772.612663818916, -10909.193564557263, -10268.279644045788, -16777.353498620214, -2082.1096995007633, -1704.5887356506273, -5172.663053591616, -6391.369568272778, -16838.060836560828, -14910.938133113163, -19393.424021413808, -12446.837120871201, -5840.913157571931, -10366.38145046013, -11417.02519858184, -11933.574012943986, 5.0E-4, -0.026000000000000002, 0.987, 192.0, 127.5, 120.0, 127.5, 0.0, 15.0, 96.0, 0.0, 0.0, 0.0, 1.64449922237979E9, 0.0, 2022-02-11 00:20:22.379
176.0, -8782.983873246178, -10916.144957082863, -10271.386536525075, -16783.522580089877, -2080.545077388892, -1704.856956584091, -5183.570704885806, -6407.149899858225, -16846.04040933137, -14910.424042990691, -19382.56107360853, -12443.864338858646, -5841.516654672224, -10365.107401026178, -11407.860983355164, -11931.092969309446, 5.0E-4, -0.026000000000000002, 0.987, 192.0, 0.0, 0.0, 0.0, 0.0, 0.0, 0.0, 0.0, 0.0, 0.0, 1.6444992223797965E9, 0.0, 2022-02-11 00:20:22.379
178.0, -8793.511544884628, -10915.742625682667, -10288.955007666947, -16786.09303070224, -2098.6499903976905, -1711.271907242764, -5200.9603620720345, -6406.971085902583, -16858.110351337236, -14924.706807697632, -19403.32584420751, -12450.860434873157, -5849.004489064752, -10371.276482495843, -11420.713236416965, -11943.140559570857, 5.0E-4, -0.026000000000000002, 0.987, 192.0, 0.0, 0.0, 0.0, 0.0, 0.0, 0.0, 0.0, 0.0, 0.0, 1.6444992223798027E9, 0.0, 2022-02-11 00:20:22.379
180.0, -8773.819658019502, -10906.556058711536, -10270.090135346669, -16784.528408590366, -2078.22049596554, -1692.9434767894122, -5177.111050738222, -6404.914725412694, -16848.18617679908, -14914.939095370662, -19391.702937090748, -12449.876958117124, -5850.233835009794, -10363.185151003021, -11417.338123004214, -11938.200824046235, 5.0E-4, -0.026000000000000002, 0.987, 192.0, 0.0, 0.0, 0.0, 0.0, 0.0, 0.0, 0.0, 0.0, 0.0, 1.6444992223798094E9, 0.0, 2022-02-11 00:20:22.379
182.0, -8790.583466360982, -10912.456919247737, -10282.741222708371, -16792.28446391636, -2089.1504990041853, -1698.173784991954, -5185.805879331337, -6398.164498587192, -16853.640002446176, -14910.960484857618, -19390.16066672333, -12450.346344750686, -5846.434038452392, -10365.710898126472, -11414.678265414032, -11939.117245568901, 5.0E-4, -0.026000000000000002, 0.987, 192.0, 0.0, 0.0, 0.0, 0.0, 0.0, 0.0, 0.0, 0.0, 0.0, 1.644499222379816E9, 0.0, 2022-02-11 00:20:22.379
184.0, -8787.990664004166, -10908.970047112709, -10283.255312830845, -16791.502152860423, -2087.31765595885, -1697.1009012580994, -5187.392853187663, -6389.760242671996, -16852.18713905658, -14909.865249379309, -19406.678605875804, -12461.499865233884, -5843.3047942286485, -10361.106438768678, -11423.775425407342, -11937.105588567923, 0.0032500000000000003, -0.026000000000000002, 0.9864999999999999, 192.0, 0.0, 24.0, 127.5, 24.0, 15.0, 104.0, 0.0, 0.0, 0.0, 1.6444992223798227E9, 0.0, 2022-02-11 00:20:22.379
186.0, -8786.895428525857, -10915.005018115642, -10290.541981523274, -16794.497286617432, -2094.894897329199, -1706.466282184873, -5195.595943402761, -6398.7679956874845, -16857.417447259122, -14908.747662156542, -19393.02169001361, -12450.256937772863, -5848.244529753271, -10374.271616252854, -11424.043646340806, -11940.011315347114, 0.0032500000000000003, -0.026000000000000002, 0.9864999999999999, 192.0, 0.0, 0.0, 0.0, 0.0, 0.0, 0.0, 0.0, 0.0, 0.0, 1.6444992223798292E9, 0.0, 2022-02-11 00:20:22.379
188.0, -8812.108196271443, -10935.658029992346, -10306.434071830998, -16795.50311511792, -2105.266106756462, -1709.2826019862416, -5196.132385269688, -6404.355931801311, -16863.228900817503, -14939.503662527046, -19415.194620513277, -12464.651461202082, -5862.460239226847, -10377.087936054222, -11431.68794294452, -11946.359210772422, 0.0032500000000000003, -0.026000000000000002, 0.9864999999999999, 192.0, 0.0, 0.0, 0.0, 0.0, 0.0, 0.0, 0.0, 0.0, 0.0, 1.6444992223798356E9, 0.0, 2022-02-11 00:20:22.379
190.0, -8797.423100164307, -10941.06715215053, -10300.756728739349, -16791.680966816064, -2091.631542638724, -1701.5488984047054, -5189.762138099925, -6397.1810218311575, -16869.263871820436, -14939.123682871304, -19413.831164101503, -12457.096571576187, -5866.528256717713, -10369.801267361792, -11433.945469134507, -11943.900518882338, 0.0032500000000000003, -0.026000000000000002, 0.9864999999999999, 192.0, 0.0, 0.0, 0.0, 0.0, 0.0, 0.0, 0.0, 0.0, 0.0, 1.6444992223798423E9, 0.0, 2022-02-11 00:20:22.379
192.0, -8810.74473985967, -10931.83588169049, -10299.99676942787, -16796.33012966277, -2101.1086822877746, -1712.367142721074, -5198.635780648682, -6407.462824280599, -16873.689517222585, -14929.110101355327, -19411.12660302241, -12454.928452364024, -5862.773163649222, -10373.28813949682, -11428.849271398696, -11949.108475340423, 0.0032500000000000003, -0.026000000000000002, 0.9864999999999999, 192.0, 0.0, 0.0, 0.0, 0.0, 0.0, 0.0, 0.0, 0.0, 0.0, 1.6444992223798487E9, 0.0, 2022-02-11 00:20:22.379
194.0, -8796.909010041834, -10916.815509416523, -10296.934580437492, -16792.150353449626, -2093.9114205731657, -1699.559593148183, -5197.227620747998, -6398.209202076102, -16866.402848530157, -14933.826319435397, -19420.89431534938, -12464.27148154634, -5863.1978467938725, -10365.420325448553, -11435.64420171311, -11950.762504430117, 0.005625, -0.023, 0.98525, 192.0, 0.0, 32.0, 127.5, 48.0, 15.0, 96.0, 0.0, 0.0, 0.0, 1.6444992223798552E9, 0.0, 2022-02-11 00:20:22.379
196.0, -8792.84099255097, -10908.545363968058, -10293.917094936025, -16798.18532445256, -2088.994036792998, -1699.2466687258088, -5213.320876755819, -6403.88654516775, -16863.653583962154, -14922.985723374573, -19398.050832516055, -12451.50863546236, -5855.240625767783, -10354.557377643274, -11429.676285943544, -11946.470969494698, 0.005625, -0.023, 0.98525, 192.0, 0.0, 0.0, 0.0, 0.0, 0.0, 0.0, 0.0, 0.0, 0.0, 1.644499222379862E9, 0.0, 2022-02-11 00:20:22.379
198.0, -8814.969219561723, -10935.63567824789, -10310.90442072206, -16801.04634774284, -2103.254449755484, -1712.501253187806, -5196.445309692062, -6401.450205022122, -16865.464075263033, -14931.278220567492, -19411.84185884498, -12462.617452456649, -5858.481628713802, -10366.917892327057, -11438.16994883656, -11953.802341676039, 0.005625, -0.023, 0.98525, 192.0, 0.0, 0.0, 0.0, 0.0, 0.0, 0.0, 0.0, 0.0, 0.0, 1.6444992223798704E9, 0.0, 2022-02-11 00:20:22.379
200.0, -8806.430853179796, -10932.34997181296, -10304.89180146358, -16799.884057031162, -2095.3642839627605, -1704.8793083285461, -5187.973998543501, -6398.142146842736, -16871.05201137686, -14940.017752649517, -19411.95361756726, -12467.423077514539, -5862.706108415855, -10366.38145046013, -11436.02418136885, -11951.298946297044, 0.005625, -0.023, 0.98525, 192.0, 0.0, 0.0, 0.0, 0.0, 0.0, 0.0, 0.0, 0.0, 0.0, 1.644499222379877E9, 0.0, 2022-02-11 00:20:22.379
202.0, -8832.470635470228, -10961.518998327136, -10317.94522022548, -16811.015225769905, -2113.446845227104, -1720.9949160808226, -5207.867051108725, -6416.068245895893, -16887.748764484975, -14950.567776032422, -19418.547382181572, -12470.149990338086, -5873.323187032126, -10372.103497040689, -11436.940602891518, -11960.194940590256, 0.005625, -0.023, 0.98525, 192.0, 0.0, 0.0, 0.0, 0.0, 0.0, 0.0, 0.0, 0.0, 0.0, 1.6444992223798847E9, 0.0, 2022-02-11 00:20:22.379
204.0, -8845.769923421136, -10972.091373454497, -10319.576897570718, -16812.646903115143, -2108.641220169213, -1713.6188404105712, -5207.17414703061, -6404.2218213345795, -16893.359052343258, -14965.454037839656, -19438.574545213527, -12481.437621288016, -5883.314416803649, -10378.160819788078, -11448.496454774911, -11968.42038254981, 0.0078125, -0.0205, 0.984625, 192.0, 0.0, 40.0, 127.5, 56.0, 15.0, 96.0, 0.0, 0.0, 0.0, 1.6444992223798916E9, 0.0, 2022-02-11 00:20:22.379
206.0, -8857.772810193635, -10993.526696387136, -10313.676037034516, -16821.27467647489, -2109.0659033138636, -1710.1990235089092, -5215.5784029458055, -6410.837937693351, -16900.77983150242, -14964.358802361347, -19428.493908464185, -12477.257845074875, -5874.574884721624, -10372.23760750742, -11439.488701759423, -11960.597271990451, 0.0078125, -0.0205, 0.984625, 192.0, 0.0, 0.0, 0.0, 0.0, 0.0, 0.0, 0.0, 0.0, 0.0, 1.644499222379898E9, 0.0, 2022-02-11 00:20:22.379
208.0, -8894.09439493351, -11024.483862457737, -10324.248412161876, -16824.56038290982, -2118.0513045848975, -1718.9832590798449, -5216.092493068278, -6408.446301036633, -16910.704006040574, -14982.597825836878, -19450.93505989731, -12499.609589530182, -5881.59333248059, -10378.540799443817, -11451.782161209841, -11972.756620974138, 0.0078125, -0.0205, 0.984625, 192.0, 0.0, 0.0, 0.0, 0.0, 0.0, 0.0, 0.0, 0.0, 0.0, 1.6444992223799045E9, 0.0, 2022-02-11 00:20:22.379
210.0, -8918.882479534446, -11049.741333692233, -10316.313542880243, -16821.09586251925, -2101.4663101990595, -1707.6509246410042, -5211.085702310289, -6406.144071357736, -16923.712721313565, -14982.642529325787, -19454.444283776797, -12501.800060486801, -5878.508791745758, -10372.796401118803, -11448.451751286, -11968.353327316443, 0.0078125, -0.0205, 0.984625, 192.0, 0.0, 0.0, 0.0, 0.0, 0.0, 0.0, 0.0, 0.0, 0.0, 1.6444992223799112E9, 0.0, 2022-02-11 00:20:22.379
212.0, -8976.572331973593, -11092.790793513155, -10329.56812734224, -16833.031694058383, -2112.485720215526, -1718.5809276796494, -5221.613373948739, -6419.17513837518, -16943.985753534525, -14993.997215509084, -19462.401504802885, -12504.012883187877, -5879.536971990701, -10368.616624905662, -11449.323469319757, -11973.807152963538, 0.0078125, -0.0205, 0.984625, 192.0, 0.0, 0.0, 0.0, 0.0, 0.0, 0.0, 0.0, 0.0, 0.0, 1.644499222379918E9, 0.0, 2022-02-11 00:20:22.379
214.0, -9008.714140500324, -11125.938430540375, -10334.32904891122, -16841.77122614041, -2109.0211998249533, -1706.756854862792, -5192.824327090303, -6389.268504293979, -16958.73790487503, -15010.761023850564, -19491.414069105875, -12533.67364808007, -5881.2804080582155, -10363.743944614405, -11454.374963566657, -11975.505885542141, 0.008906250000000001, -0.018250000000000002, 0.9833125, 192.0, 0.0, 40.0, 127.5, 64.0, 15.0, 88.0, 0.0, 0.0, 0.0, 1.6444992223799245E9, 0.0, 2022-02-11 00:20:22.379
216.0, -9029.12128318802, -11142.344610970571, -10340.743999569893, -16840.072493561805, -2106.830728868333, -1706.8462618406131, -5198.0769870373, -6380.59602744532, -16975.74758240552, -15002.669692357744, -19491.972862717255, -12532.176081201564, -5891.539858763202, -10384.53106695784, -11445.255451828893, -11967.816885449516, 0.008906250000000001, -0.018250000000000002, 0.9833125, 192.0, 0.0, 0.0, 0.0, 0.0, 0.0, 0.0, 0.0, 0.0, 0.0, 1.6444992223799312E9, 0.0, 2022-02-11 00:20:22.379
218.0, -9055.853969556567, -11156.739134399788, -10343.649726349084, -16837.636153416177, -2114.318563260861, -1709.9084508309902, -5203.039074306378, -6390.654312450209, -16982.296643530924, -15011.990369795605, -19512.067080982575, -12540.088598738743, -5888.812945939654, -10379.412517477575, -11449.83755944223, -11969.985004661681, 0.008906250000000001, -0.018250000000000002, 0.9833125, 192.0, 0.0, 0.0, 0.0, 0.0, 0.0, 0.0, 0.0, 0.0, 0.0, 1.6444992223799376E9, 0.0, 2022-02-11 00:20:22.379
220.0, -9052.881187544011, -11188.992701648796, -10340.408723403063, -16836.339752237767, -2104.1708712781515, -1698.5537646476944, -5200.088644038277, -6388.486193238044, -16985.559998221397, -15020.931067577729, -19503.036976222633, -12532.645467835126, -5888.343559306092, -10378.29493025481, -11449.301117575302, -11965.469952281708, 0.008906250000000001, -0.018250000000000002, 0.9833125, 192.0, 0.0, 0.0, 0.0, 0.0, 0.0, 0.0, 0.0, 0.0, 0.0, 1.644499222379944E9, 0.0, 2022-02-11 00:20:22.379
222.0, -9050.377792165016, -11171.49128574029, -10354.825598576737, -16849.639040188675, -2123.4604267430814, -1709.5508229197053, -5222.395685004674, -6403.7524347010185, -16995.260655315, -15029.380026981835, -19504.24397042322, -12533.897165524622, -5891.7857279522095, -10371.544703429307, -11451.402181554102, -11973.181304118789, 0.008906250000000001, -0.018250000000000002, 0.9833125, 192.0, 0.0, 0.0, 0.0, 0.0, 0.0, 0.0, 0.0, 0.0, 0.0, 1.6444992223799508E9, 0.0, 2022-02-11 00:20:22.379
224.0, -9027.333143631595, -11132.733360854789, -10349.103551996179, -16842.128854051694, -2116.285516772928, -1713.3953229660183, -5223.468568738529, -6406.233478335557, -16983.503637731512, -15026.854279858386, -19513.542296116626, -12538.680438838059, -5893.283294830715, -10375.322148242254, -11460.387582825135, -11979.551551288552, 0.010453125, -0.020125, 0.98565625, 192.0, 0.0, 48.0, 127.5, 40.0, 15.0, 112.0, 0.0, 0.0, 0.0, 1.6444992223799572E9, 0.0, 2022-02-11 00:20:22.379
226.0, -9002.54505903066, -11116.304828680139, -10351.71870609745, -16836.697380149053, -2118.0066010959868, -1707.7179798743703, -5226.150778073165, -6408.245135336535, -16980.642614441233, -14995.383023665312, -19493.068098195567, -12523.14597644162, -5893.149184363983, -10389.001415848901, -11457.325393834757, -11973.047193652057, 0.010453125, -0.020125, 0.98565625, 192.0, 0.0, 0.0, 0.0, 0.0, 0.0, 0.0, 0.0, 0.0, 0.0, 1.644499222379964E9, 0.0, 2022-02-11 00:20:22.379
228.0, -9002.746224730758, -11115.120186224007, -10362.58165390273, -16839.178423783593, -2137.251453072006, -1713.0376950547334, -5240.858225924758, -6416.9623156741045, -16974.92056786067, -15021.579268166932, -19505.138040201433, -12523.794177030824, -5895.049082642685, -10369.018956305858, -11467.98717593994, -11978.769240232616, 0.010453125, -0.020125, 0.98565625, 192.0, 0.0, 0.0, 0.0, 0.0, 0.0, 0.0, 0.0, 0.0, 0.0, 1.6444992223799708E9, 0.0, 2022-02-11 00:20:22.379
230.0, -8974.292454039152, -11079.446802073337, -10346.846025806193, -16840.608935428732, -2125.740304677523, -1701.5041949157949, -5234.376220032718, -6397.0022078755155, -16968.147989290715, -15012.906791318273, -19492.844580751014, -12517.692150794524, -5900.8828879455195, -10367.744906871905, -11475.162085910093, -11981.27263561161, 0.010453125, -0.020125, 0.98565625, 192.0, 0.0, 0.0, 0.0, 0.0, 0.0, 0.0, 0.0, 0.0, 0.0, 1.6444992223799791E9, 0.0, 2022-02-11 00:20:22.379
232.0, -8975.767669173201, -11086.107621921019, -10356.658441622072, -16848.99083959947, -2130.5235779909585, -1704.3652182060741, -5210.303391254352, -6399.595010232331, -16965.286966000436, -15004.837811569907, -19479.098257911, -12515.971066471466, -5897.507774532768, -10364.61566264816, -11466.668423017076, -11983.284292612589, 0.010453125, -0.020125, 0.98565625, 192.0, 0.0, 0.0, 0.0, 0.0, 0.0, 0.0, 0.0, 0.0, 0.0, 1.6444992223799856E9, 0.0, 2022-02-11 00:20:22.379
234.0, -8949.169093271386, -11055.619842483979, -10351.338726441709, -16846.353333753745, -2129.89772914621, -1694.5528023901943, -5221.054580337355, -6400.690245710641, -16958.760256619484, -15000.143945234293, -19488.910673726878, -12518.76503452838, -5896.725463476832, -10346.95778452847, -11471.31758586378, -11985.050080424558, 0.006, -0.02, 0.986, 192.0, 0.0, 24.0, 127.5, 48.0, 15.0, 104.0, 0.0, 0.0, 0.0, 1.6444992223799925E9, 0.0, 2022-02-11 00:20:22.379
236.0, -8943.759971113202, -11047.03677261314, -10352.18809273101, -16842.262964518424, -2133.228139070051, -1710.3107822311858, -5229.347077530275, -6414.168347617191, -16956.435675196135, -14984.900055515775, -19470.38107757343, -12508.796156501312, -5894.512640775757, -10366.850837093692, -11466.958995694995, -11985.206542635744, 0.006, -0.02, 0.986, 192.0, 0.0, 0.0, 0.0, 0.0, 0.0, 0.0, 0.0, 0.0, 0.0, 1.6444992223799987E9, 0.0, 2022-02-11 00:20:22.379
238.0, -8946.0622007921, -11039.347772520516, -10364.995642303902, -16843.134682552183, -2149.7013747336123, -1714.5576136776942, -5239.271252068431, -6422.617307021297, -16964.102323544303, -14983.558950848455, -19488.038955693122, -12505.309284366285, -5903.274524602238, -10386.118040814166, -11480.191228412537, -11995.220124151723, 0.006, -0.02, 0.986, 192.0, 0.0, 0.0, 0.0, 0.0, 0.0, 0.0, 0.0, 0.0, 0.0, 1.6444992223800051E9, 0.0, 2022-02-11 00:20:22.380
240.0, -8927.063218005087, -11035.860900385487, -10358.37952594513, -16843.782883141386, -2144.1804938531513, -1702.0629885271776, -5236.365525289241, -6406.814623691395, -16956.7038961296, -14984.67653807122, -19479.791161989113, -12505.778670999845, -5906.716693248355, -10380.77597388935, -11485.17566742607, -11990.146278160368, 0.006, -0.02, 0.986, 192.0, 0.0, 0.0, 0.0, 0.0, 0.0, 0.0, 0.0, 0.0, 0.0, 1.644499222380012E9, 0.0, 2022-02-11 00:20:22.380
242.0, -8925.945630782322, -11030.56353694958, -10371.634110407127, -16852.567118712323, -2152.1377148792403, -1714.848186355613, -5252.883464441713, -6429.099312913337, -16962.940032832626, -14984.028337482017, -19476.05842066508, -12496.793269728812, -5907.6331147710225, -10368.236645249921, -11486.98615872695, -11994.884847984893, 0.006, -0.02, 0.986, 192.0, 0.0, 0.0, 0.0, 0.0, 0.0, 0.0, 0.0, 0.0, 0.0, 1.6444992223800185E9, 0.0, 2022-02-11 00:20:22.380
244.0, -8909.427691629851, -11010.782243106634, -10364.459200436975, -16846.88977562067, -2147.510903776992, -1715.2505177558087, -5254.783362720414, -6422.729065743574, -16949.037247781427, -14994.332491675914, -19481.445191078805, -12504.683435521536, -5898.580658266623, -10368.840142350215, -11493.870496019184, -12002.909124244348, 0.01, -0.022, 0.988, 192.0, 0.0, 40.0, 127.5, 40.0, 15.0, 112.0, 0.0, 0.0, 0.0, 1.6444992223800251E9, 0.0, 2022-02-11 00:20:22.380
246.0, -8901.112842692477, -10992.833792309022, -10358.37952594513, -16847.94030761007, -2137.810246683389, -1705.7063228733925, -5248.234301595009, -6411.664952238197, -16952.3006024719, -14985.861180527352, -19470.403429317885, -12498.827278474246, -5901.151108878984, -10362.849874836193, -11488.193152927537, -12000.383377120897, 0.01, -0.022, 0.988, 192.0, 0.0, 0.0, 0.0, 0.0, 0.0, 0.0, 0.0, 0.0, 0.0, 1.6444992223800316E9, 0.0, 2022-02-11 00:20:22.380
248.0, -8900.688159547826, -10993.929027787332, -10363.319261469755, -16841.458301718034, -2147.3991450547155, -1702.979410049845, -5245.686202727104, -6414.995362162038, -16946.77972159144, -14980.854389769363, -19474.314984597564, -12499.721348252458, -5896.099614632084, -10353.52919739833, -11491.70237680702, -12001.657426554852, 0.01, -0.022, 0.988, 192.0, 0.0, 0.0, 0.0, 0.0, 0.0, 0.0, 0.0, 0.0, 0.0, 1.6444992223800385E9, 0.0, 2022-02-11 00:20:22.380
250.0, -8872.748478978692, -10979.735670058211, -10351.04815376379, -16836.786787126875, -2137.9443571501206, -1696.7432733468145, -5231.55990023135, -6412.715484227596, -16933.480433640532, -14962.749476760564, -19460.18868210181, -12482.845781188702, -5890.645788984989, -10349.885863052114, -11489.690719806042, -11995.51069682964, 0.01, -0.022, 0.988, 192.0, 0.0, 0.0, 0.0, 0.0, 0.0, 0.0, 0.0, 0.0, 0.0, 1.6444992223800447E9, 0.0, 2022-02-11 00:20:22.380
252.0, -8873.843714457002, -10976.181742689818, -10362.469895180451, -16843.201737785548, -2154.574055024869, -1715.8763666005573, -5267.792077993403, -6429.121664657791, -16941.102378499792, -14969.902034986262, -19456.344182055498, -12488.768993469357, -5894.6020477535785, -10358.67009862305, -11496.239780931448, -12003.959656233747, 0.01, -0.022, 0.988, 192.0, 0.0, 0.0, 0.0, 0.0, 0.0, 0.0, 0.0, 0.0, 0.0, 1.6444992223800514E9, 0.0, 2022-02-11 00:20:22.380
254.0, -8871.608540011472, -10959.59674830398, -10360.212368990466, -16840.921859851107, -2146.0803921318525, -1708.2991252302081, -5264.595778536293, -6439.269356640501, -16930.999390005993, -14968.695040785677, -19465.530749026628, -12494.178115627541, -5895.183193109417, -10360.637052135116, -11506.543935125344, -12011.939229004292, 0.008, -0.02, 0.99, 192.0, 0.0, 32.0, 127.5, 48.0, 15.0, 120.0, 0.0, 0.0, 0.0, 1.644499222380058E9, 0.0, 2022-02-11 00:20:22.380
0.0, -8866.42293529784, -10970.593806575991, -10361.553473657785, -16844.073455819303, -2135.955051893598, -1708.9249740749567, -5228.877690896713, -6414.704789484119, -16936.54262263091, -14957.608575535844, -19452.969068642746, -12479.582426498226, -5896.434890798913, -10367.119058027156, -11496.79857454283, -12007.558287091051, 0.008, -0.02, 0.99, 192.0, 0.0, 0.0, 0.0, 0.0, 0.0, 0.0, 0.0, 0.0, 0.0, 1.6444992223800645E9, 0.0, 2022-02-11 00:20:22.380
2.0, -8873.41903131235, -10958.680326781312, -10371.634110407127, -16845.86159537573, -2149.7237264780674, -1714.8705381000684, -5248.010784150456, -6430.865100725306, -16937.749616831497, -14968.225654152115, -19467.385943816418, -12492.52408653785, -5898.960637922363, -10362.693412625005, -11503.99583625744, -12012.386263893399, 0.008, -0.02, 0.99, 192.0, 0.0, 0.0, 0.0, 0.0, 0.0, 0.0, 0.0, 0.0, 0.0, 1.644499222380071E9, 0.0, 2022-02-11 00:20:22.380
4.0, -8854.80002818108, -10962.144847171885, -10364.928587070535, -16845.794540142364, -2142.1464851077185, -1704.9463635619122, -5263.902874458179, -6426.171234389692, -16932.116977228758, -14966.929252973707, -19462.312097825063, -12491.048871403798, -5899.564135022657, -10358.156008500579, -11509.60612411572, -12007.021845224124, 0.008, -0.02, 0.99, 192.0, 0.0, 0.0, 0.0, 0.0, 0.0, 0.0, 0.0, 0.0, 0.0, 1.6444992223800776E9, 0.0, 2022-02-11 00:20:22.380
6.0, -8860.209150339264, -10963.575358817025, -10372.215255762965, -16856.43397050309, -2153.2553021020058, -1722.62659342606, -5279.437336854618, -6436.9224234726935, -16935.82736680834, -14978.619215323832, -19455.003077388177, -12487.964330668967, -5901.3522745790815, -10362.693412625005, -11512.198926472536, -12012.833298782505, 0.008, -0.02, 0.99, 192.0, 0.0, 0.0, 0.0, 0.0, 0.0, 0.0, 0.0, 0.0, 0.0, 1.644499222380086E9, 0.0, 2022-02-11 00:20:22.380
8.0, -8861.304385817575, -10969.699736797778, -10371.276482495843, -16860.30082229386, -2148.181456110651, -1725.8228928831688, -5249.553054517872, -6440.141074674258, -16936.050884252894, -14984.095392715382, -19469.822283962047, -12505.510450066382, -5904.839146714109, -10372.52818018534, -11517.473938163988, -12026.512566389152, 0.006, -0.02, 0.99, 192.0, 0.0, 24.0, 127.5, 48.0, 15.0, 120.0, 0.0, 0.0, 0.0, 1.6444992223800926E9, 0.0, 2022-02-11 00:20:22.380
10.0, -8853.011888624655, -10958.054477936565, -10366.873188838148, -16863.854749662252, -2139.8889589177325, -1720.9725643363672, -5261.488886057006, -6446.84659801085, -16940.118901743757, -14974.43943911069, -19455.919498910847, -12491.071223148254, -5897.708940232867, -10361.732287613428, -11508.689702593054, -12030.155900735368, 0.006, -0.02, 0.99, 192.0, 0.0, 0.0, 0.0, 0.0, 0.0, 0.0, 0.0, 0.0, 0.0, 1.6444992223800995E9, 0.0, 2022-02-11 00:20:22.380
12.0, -8863.092525373999, -10955.8863587244, -10374.316319741765, -16857.19392981457, -2149.634319500246, -1722.1348550480432, -5268.194409393598, -6437.838844995362, -16938.934259287627, -14967.800971007464, -19464.32375482604, -12489.260731847375, -5901.106405390073, -10365.174456259545, -11515.28346720737, -12036.548499649585, 0.006, -0.02, 0.99, 192.0, 0.0, 0.0, 0.0, 0.0, 0.0, 0.0, 0.0, 0.0, 0.0, 1.644499222380188E9, 0.0, 2022-02-11 00:20:22.380
14.0, -8846.75340017717, -10950.432533077304, -10367.767258616359, -16854.891700135675, -2142.727630463556, -1701.9065263159903, -5262.718232002048, -6427.110007656814, -16929.568878360853, -14952.802950477953, -19454.22076633224, -12491.540609781816, -5895.898448931986, -10361.352307957686, -11514.434100918068, -12025.350275677476, 0.006, -0.02, 0.99, 192.0, 0.0, 0.0, 0.0, 0.0, 0.0, 0.0, 0.0, 0.0, 0.0, 1.6444992223801951E9, 0.0, 2022-02-11 00:20:22.380
16.0, -8862.869007929447, -10956.199283146774, -10383.838162879725, -16859.183235071094, -2155.4904765475367, -1715.7422561338255, -5272.597703051294, -6447.628909066786, -16940.811805821875, -14969.410296608246, -19454.176062843333, -12491.18298187053, -5901.844012957098, -10354.915005554558, -11516.579868385777, -12027.406636167365, 0.006, -0.02, 0.99, 192.0, 0.0, 0.0, 0.0, 0.0, 0.0, 0.0, 0.0, 0.0, 0.0, 1.6444992228622088E9, 0.0, 2022-02-11 00:20:22.862
18.0, -8870.289787088608, -10965.251739651172, -10379.926607600048, -16860.77020892742, -2159.8267149718663, -1719.5197009467722, -5270.9883774505115, -6431.848577481339, -16941.30354419989, -14976.607558322856, -19472.61625201896, -12496.435641817528, -5906.180251381427, -10377.400860476597, -11524.80531034533, -12034.961525793258, 0.008, -0.024, 0.988, 192.0, 0.0, 32.0, 127.5, 32.0, 15.0, 112.0, 0.0, 0.0, 0.0, 1.644499222862408E9, 0.0, 2022-02-11 00:20:22.862
20.0, -8858.577472994028, -10965.519960584637, -10377.982005832435, -16861.999554872462, -2161.6595580172016, -1716.301049745208, -5297.341084163319, -6434.9778217050825, -16946.98088729154, -14982.910750259252, -19461.46273153576, -12495.8991999506, -5909.018922927252, -10364.213331247965, -11523.173633000093, -12031.72052284724, 0.008, -0.024, 0.988, 192.0, 0.0, 0.0, 0.0, 0.0, 0.0, 0.0, 0.0, 0.0, 0.0, 1.6444992228624153E9, 0.0, 2022-02-11 00:20:22.862
22.0, -8867.004080653678, -10962.346012871983, -10390.141354816122, -16861.66427870563, -2172.0084157000083, -1720.7043434029035, -5304.538345877927, -6441.191606663658, -16945.617430879764, -14985.615311338344, -19471.677478751837, -12500.011920930378, -5910.270620616749, -10366.917892327057, -11531.175557515093, -12039.387171195409, 0.008, -0.024, 0.988, 192.0, 0.0, 0.0, 0.0, 0.0, 0.0, 0.0, 0.0, 0.0, 0.0, 1.6444992228624225E9, 0.0, 2022-02-11 00:20:22.862
24.0, -8859.538598005605, -10947.526806298114, -10379.85955236668, -16860.14436008267, -2150.1707613671733, -1710.3554857200963, -5243.898063170679, -6416.515280784998, -16945.192747735113, -14973.970052477129, -19472.035106663123, -12493.440508060517, -5906.537879292712, -10360.704107368483, -11524.939420812061, -12034.022752526136, 0.008, -0.024, 0.988, 192.0, 0.0, 0.0, 0.0, 0.0, 0.0, 0.0, 0.0, 0.0, 0.0, 1.6444992228624291E9, 0.0, 2022-02-11 00:20:22.862
26.0, -8865.305348075075, -10945.7833702306, -10390.051947838301, -16863.608880473243, -2153.344709079827, -1709.1261397750545, -5252.7940574638915, -6425.74655124504, -16947.986715792027, -14959.776694748009, -19463.094408881, -12489.216028358464, -5899.40767281147, -10356.770200344348, -11514.5682113848, -12031.295839702589, 0.008, -0.024, 0.988, 192.0, 0.0, 0.0, 0.0, 0.0, 0.0, 0.0, 0.0, 0.0, 0.0, 1.6444992228624358E9, 0.0, 2022-02-11 00:20:22.862
28.0, -8862.846656184991, -10941.245966106173, -10382.430002979041, -16864.547653740367, -2153.769392224478, -1699.179613492443, -5260.080726156321, -6413.430740050166, -16938.97896277654, -14959.10614241435, -19478.450057321796, -12511.098386180209, -5901.799309468188, -10345.639031605606, -11522.033694032873, -12031.89933680288, 0.006, -0.02, 0.992, 192.0, 0.0, 24.0, 127.5, 48.0, 15.5, 0.0, 0.0, 0.0, 0.0, 1.6444992228624425E9, 0.0, 2022-02-11 00:20:22.862
30.0, -8855.85056017048, -10948.018544676132, -10381.714747156471, -16861.440761261078, -2146.9744619100647, -1705.5498606622054, -5260.32659534533, -6419.756283731018, -16940.4988813995, -14968.315061129935, -19462.535615269615, -12482.46580153296, -5899.40767281147, -10359.184188745521, -11515.886964307663, -12025.484386144208, 0.006, -0.02, 0.992, 192.0, 0.0, 0.0, 0.0, 0.0, 0.0, 0.0, 0.0, 0.0, 0.0, 1.6444992228624494E9, 0.0, 2022-02-11 00:20:22.862
32.0, -8880.415127326862, -10970.414992620348, -10394.477593240452, -16867.140456097182, -2163.4700493180812, -1719.698514902415, -5272.284778628919, -6438.956432218127, -16948.098474514303, -14984.363613648846, -19479.075906166545, -12500.66012151958, -5906.001437425785, -10373.869284852659, -11526.436987690568, -12039.141302006401, 0.006, -0.02, 0.992, 192.0, 0.0, 0.0, 0.0, 0.0, 0.0, 0.0, 0.0, 0.0, 0.0, 1.644499222862456E9, 0.0, 2022-02-11 00:20:22.862
34.0, -8857.504589260172, -10949.583166788003, -10386.766241403371, -16862.603051972754, -2148.986118911042, -1711.0707415426662, -5275.056394941377, -6432.943812959649, -16945.25980296848, -14982.530770603511, -19474.80672297558, -12495.206295872485, -5905.487347303313, -10356.680793366528, -11528.649810391642, -12042.0917322745, 0.006, -0.02, 0.992, 192.0, 0.0, 0.0, 0.0, 0.0, 0.0, 0.0, 0.0, 0.0, 0.0, 1.6444992228624628E9, 0.0, 2022-02-11 00:20:22.862
36.0, -8867.406412053873, -10943.816416718533, -10403.530049744852, -16870.023831131915, -2157.345671337327, -1710.4448926979176, -5279.95142697709, -6426.618269278797, -16946.15387274669, -14970.147904175272, -19465.62015600445, -12488.344310324706, -5904.190946124905, -10356.367868944153, -11524.246516733947, -12040.415351440353, 0.006, -0.02, 0.992, 192.0, 0.0, 0.0, 0.0, 0.0, 0.0, 0.0, 0.0, 0.0, 0.0, 1.6444992228624697E9, 0.0, 2022-02-11 00:20:22.862
38.0, -8870.289787088608, -10948.934966198798, -10394.701110685004, -16868.90624390915, -2155.7810492254557, -1706.041599040222, -5265.914531459157, -6427.668801268197, -16948.7019716146, -14971.936043731695, -19484.842656236015, -12503.454089576495, -5913.4445683294025, -10359.608871890172, -11533.008400560428, -12043.388133452909, 0.008, -0.02, 0.988, 192.0, 0.0, 32.0, 127.5, 48.0, 15.0, 112.0, 0.0, 0.0, 0.0, 1.6444992228624823E9, 0.0, 2022-02-11 00:20:22.862
40.0, -8861.28203407312, -10947.21388187574, -10389.515505971374, -16875.52236026792, -2143.3311275638493, -1700.0736832706552, -5267.456801826573, -6425.567737289398, -16949.01489603697, -14956.71450575763, -19467.162426371866, -12496.212124372974, -5902.223992612839, -10353.775066587337, -11526.727560368487, -12040.303592718077, 0.008, -0.02, 0.988, 192.0, 0.0, 0.0, 0.0, 0.0, 0.0, 0.0, 0.0, 0.0, 0.0, 1.6444992228624892E9, 0.0, 2022-02-11 00:20:22.862
42.0, -8877.487048803217, -10950.343126099484, -10404.558229989796, -16877.265796335436, -2156.2280841145616, -1708.5449944192167, -5279.370281621252, -6429.591051291353, -16955.362791462278, -14965.297575628469, -19484.10504866899, -12501.576543042249, -5911.254097372783, -10351.651650864083, -11525.721731867998, -12045.91388057636, 0.008, -0.02, 0.988, 192.0, 0.0, 0.0, 0.0, 0.0, 0.0, 0.0, 0.0, 0.0, 0.0, 1.644499222862496E9, 0.0, 2022-02-11 00:20:22.862
44.0, -8860.365612550451, -10954.075867423519, -10393.561171717784, -16864.63706071819, -2148.270863088472, -1700.1183867595657, -5267.322691359841, -6422.326734343378, -16946.06446576887, -14972.651299554265, -19479.299423611097, -12502.671778520558, -5905.822623470142, -10361.061735279767, -11529.700342381042, -12043.611650897463, 0.008, -0.02, 0.988, 192.0, 0.0, 0.0, 0.0, 0.0, 0.0, 0.0, 0.0, 0.0, 0.0, 1.6444992228625028E9, 0.0, 2022-02-11 00:20:22.862
46.0, -8882.337377350019, -10961.787219260601, -10402.926552644558, -16872.482523022, -2160.385508583249, -1708.8579188415908, -5271.994205951, -6425.612440778308, -16955.49690192901, -14979.289767657492, -19475.99136543171, -12496.905028451089, -5907.811928726665, -10360.502941668385, -11530.862633092718, -12046.137398020912, 0.008, -0.020999999999999998, 0.989, 192.0, 0.0, 32.0, 127.5, 40.0, 15.0, 120.0, 0.0, 0.0, 0.0, 1.6444992228625095E9, 0.0, 2022-02-11 00:20:22.862
48.0, -8875.631854013427, -10952.935928456298, -10409.117985858678, -16870.53792125439, -2157.0103951704973, -1701.370084449063, -5269.222589638543, -6418.973972675082, -16953.619355394763, -14978.44040136819, -19487.636624292925, -12509.109080923687, -5908.437777571414, -10370.337709228721, -11537.94813608505, -12049.110180033467, 0.008, -0.020999999999999998, 0.989, 192.0, 0.0, 0.0, 0.0, 0.0, 0.0, 0.0, 0.0, 0.0, 0.0, 1.6444992228625164E9, 0.0, 2022-02-11 00:20:22.862
50.0, -8875.207170868774, -10952.712411011746, -10396.377491519153, -16878.33868006929, -2159.4690870605814, -1702.0406367827222, -5289.965008493067, -6429.345182102345, -16954.714590873074, -14972.360726876346, -19472.81741771906, -12496.748566239903, -5906.560231037168, -10349.639993863106, -11533.90247033864, -12043.410485197364, 0.008, -0.020999999999999998, 0.989, 192.0, 0.0, 0.0, 0.0, 0.0, 0.0, 0.0, 0.0, 0.0, 0.0, 1.644499222862524E9, 0.0, 2022-02-11 00:20:22.862
52.0, -8883.834944228523, -10950.566643544036, -10411.420215537575, -16883.77015397193, -2171.471973833081, -1705.4157501954735, -5294.480060873039, -6432.854405981828, -16961.576576420855, -14974.506494344056, -19485.177932402843, -12510.316075124274, -5911.634077028522, -10355.026764276834, -11545.860653622229, -12053.468770202253, 0.008, -0.020999999999999998, 0.989, 192.0, 0.0, 0.0, 0.0, 0.0, 0.0, 0.0, 0.0, 0.0, 0.0, 1.6444992228625312E9, 0.0, 2022-02-11 00:20:22.862
54.0, -8876.928255191833, -10951.036030177598, -10401.853668910702, -16878.606901002753, -2150.260168344995, -1692.8093663226805, -5264.8863512142125, -6419.152786630725, -16956.279212984948, -14964.023526194516, -19484.820304491557, -12504.594028543715, -5904.459167058369, -10347.091894995201, -11543.960755343529, -12048.819607355548, 0.008, -0.020999999999999998, 0.989, 192.0, 0.0, 0.0, 0.0, 0.0, 0.0, 0.0, 0.0, 0.0, 0.0, 1.644499222862538E9, 0.0, 2022-02-11 00:20:22.862
56.0, -8884.907827962379, -10958.79208550359, -10409.67677947006, -16878.33868006929, -2151.6683282456793, -1699.8725175705574, -5273.022386195945, -6431.580356547875, -16965.845759611817, -14969.38794486379, -19486.407278347884, -12498.581409285238, -5906.2249548703385, -10352.85864506467, -11535.198871517048, -12048.23846199971, 0.006, -0.020499999999999997, 0.9875, 192.0, 0.0, 16.0, 127.5, 48.0, 15.0, 104.0, 0.0, 0.0, 0.0, 1.6444992228625448E9, 0.0, 2022-02-11 00:20:22.862
58.0, -8890.42870884284, -10961.049611693576, -10412.91778241608, -16875.656470734655, -2152.6294532572574, -1692.8987733005017, -5273.9835112075225, -6422.617307021297, -16963.990564822026, -14968.471523341123, -19498.2537029092, -12509.757281512891, -5907.83428047112, -10357.016069533358, -11545.57008094431, -12052.082962046023, 0.006, -0.020499999999999997, 0.9875, 192.0, 0.0, 0.0, 0.0, 0.0, 0.0, 0.0, 0.0, 0.0, 0.0, 1.6444992228625517E9, 0.0, 2022-02-11 00:20:22.862
60.0, -8884.103165161987, -10951.237195877695, -10414.482404527951, -16879.456267292055, -2150.0813543893523, -1686.2603051972753, -5257.130295888222, -6410.346199315334, -16970.986660836537, -14967.778619263008, -19485.53556031413, -12496.547400539805, -5909.644771772, -10344.007354260368, -11539.155130285637, -12045.086866031512, 0.006, -0.020499999999999997, 0.9875, 192.0, 0.0, 0.0, 0.0, 0.0, 0.0, 0.0, 0.0, 0.0, 0.0, 1.6444992228625708E9, 0.0, 2022-02-11 00:20:22.862
62.0, -8897.76008102418, -10954.589957545992, -10416.427006295564, -16881.19970335957, -2163.4700493180812, -1698.687875114426, -5270.116659416754, -6429.121664657791, -16972.953614348604, -14978.73097404611, -19496.01852846367, -12506.739796011425, -5914.964486952364, -10359.251243978888, -11545.123046055203, -12049.937194578313, 0.006, -0.020499999999999997, 0.9875, 192.0, 0.0, 0.0, 0.0, 0.0, 0.0, 0.0, 0.0, 0.0, 0.0, 1.6444992228625772E9, 0.0, 2022-02-11 00:20:22.862
64.0, -8885.868952973957, -10958.814437248044, -10413.007189393902, -16881.44557254858, -2153.456467802104, -1689.1213284875548, -5273.290607129408, -6414.347161572834, -16971.88073061475, -14981.68140431421, -19494.655072051894, -12511.210144902487, -5919.948925965897, -10356.613738133161, -11549.548691457354, -12051.121837034445, 0.006, -0.020499999999999997, 0.9875, 192.0, 0.0, 0.0, 0.0, 0.0, 0.0, 0.0, 0.0, 0.0, 0.0, 1.6444992228625839E9, 0.0, 2022-02-11 00:20:22.862
66.0, -8892.350958865996, -10956.869835480433, -10415.91291617309, -16888.173447629626, -2156.5857120258465, -1695.759796590781, -5288.2439241700085, -6426.84178672335, -16976.59694869482, -14971.48900884259, -19489.60357780499, -12503.0517581763, -5915.255059630283, -10351.249319463888, -11544.363086743724, -12052.15001727939, 0.005, -0.02225, 0.98775, 192.0, 0.0, 16.0, 127.5, 32.0, 15.0, 112.0, 0.0, 0.0, 0.0, 1.6444992228625903E9, 0.0, 2022-02-11 00:20:22.862
68.0, -8895.346092623007, -10959.8873209819, -10415.44352953953, -16881.892607437683, -2157.6585957597013, -1688.406072664985, -5271.301301872886, -6406.9263824136715, -16970.852550369807, -14981.904921758764, -19503.43930762283, -12514.875830993156, -5911.052931672684, -10345.974307772436, -11548.274642023402, -12055.10044754749, 0.005, -0.02225, 0.98775, 192.0, 0.0, 0.0, 0.0, 0.0, 0.0, 0.0, 0.0, 0.0, 0.0, 1.6444992228625972E9, 0.0, 2022-02-11 00:20:22.862
70.0, -8881.42095582735, -10951.147788899874, -10405.921686401569, -16879.322156825325, -2148.963767166587, -1683.6451510960044, -5277.135107175721, -6413.69896098363, -16972.12659980376, -14970.43847685319, -19486.250816136697, -12494.580447027738, -5915.45622533038, -10351.00345027488, -11539.937441341574, -12047.947889321791, 0.005, -0.02225, 0.98775, 192.0, 0.0, 0.0, 0.0, 0.0, 0.0, 0.0, 0.0, 0.0, 0.0, 1.6444992228626056E9, 0.0, 2022-02-11 00:20:22.862
72.0, -8901.112842692477, -10961.898977982877, -10423.82543371027, -16889.760421485953, -2164.6993952631233, -1696.43034892444, -5285.718177046559, -6417.610516263308, -16974.853512627305, -14965.05170643946, -19496.398508119408, -12504.325807610252, -5919.926574221441, -10347.695392095495, -11548.028772834394, -12055.86040685897, 0.005, -0.02225, 0.98775, 192.0, 0.0, 0.0, 0.0, 0.0, 0.0, 0.0, 0.0, 0.0, 0.0, 1.644499222862612E9, 0.0, 2022-02-11 00:20:22.862
74.0, -8888.037072186122, -10964.625890806425, -10412.336637060242, -16887.838171462798, -2152.4059358127042, -1684.4945173853062, -5287.439261369617, -6414.7941964619395, -16979.905006874207, -14981.30142465847, -19504.66865356787, -12514.294685637318, -5915.523280563746, -10347.851854306682, -11550.845092635762, -12052.462941701764, 0.005, -0.02225, 0.98775, 192.0, 0.0, 0.0, 0.0, 0.0, 0.0, 0.0, 0.0, 0.0, 0.0, 1.6444992228626187E9, 0.0, 2022-02-11 00:20:22.862
76.0, -8903.325665393551, -10973.141905443896, -10419.064512141289, -16891.883837209207, -2162.1065929063075, -1695.7821483352363, -5303.130185977243, -6431.267432125501, -16987.415193011188, -14988.364575906346, -19501.606464577493, -12507.387996600628, -5919.524242821246, -10364.369793459153, -11548.028772834394, -12056.48625570372, 0.005, -0.02225, 0.98775, 192.0, 0.0, 0.0, 127.5, 32.0, 15.0, 112.0, 0.0, 0.0, 0.0, 1.6444992228626256E9, 0.0, 2022-02-11 00:20:22.862
78.0, -8905.985522983734, -10965.296443140083, -10422.01494240939, -16890.09569765278, -2161.346633594827, -1689.8589360545798, -5288.154517192187, -6417.878737196772, -16982.631919697753, -14990.711509074154, -19514.68223508385, -12516.66397054958, -5919.345428865604, -10359.161837001067, -11553.370839759213, -12057.805008626583, 0.005, -0.02225, 0.98775, 192.0, 0.0, 0.0, 0.0, 0.0, 0.0, 0.0, 0.0, 0.0, 0.0, 1.644499222862633E9, 0.0, 2022-02-11 00:20:22.862
80.0, -8896.977769968244, -10959.909672726355, -10419.44449179703, -16895.05778492186, -2160.318453349883, -1678.8395260381135, -5300.313866175874, -6420.3150773424, -16984.710631932096, -14974.90882574425, -19499.1030691985, -12508.304418123296, -5919.07720793214, -10348.053020006779, -11551.113313569227, -12051.613575412463, 0.005, -0.02225, 0.98775, 192.0, 0.0, 0.0, 0.0, 0.0, 0.0, 0.0, 0.0, 0.0, 0.0, 1.64449922286264E9, 0.0, 2022-02-11 00:20:22.862
82.0, -8917.988409756234, -10968.291576897094, -10435.44834082703, -16897.561180300854, -2175.249418646028, -1701.6159536380715, -5289.495621859506, -6436.028353694482, -16992.421983769178, -14994.891285287296, -19512.491764127226, -12515.032293204344, -5926.877966747042, -10347.158950228566, -11561.372764274212, -12062.498874962197, 0.005, -0.02225, 0.98775, 192.0, 0.0, 0.0, 0.0, 0.0, 0.0, 0.0, 0.0, 0.0, 0.0, 1.6444992228626466E9, 0.0, 2022-02-11 00:20:22.862
84.0, -8903.839755516025, -10983.691928826802, -10431.290916358343, -16895.750688999975, -2163.7159185070896, -1689.4119011654736, -5285.360549135274, -6415.509452284509, -16996.5123530045, -14990.711509074154, -19516.895057784925, -12518.496813594917, -5928.152016180995, -10359.877092823637, -11560.255177051447, -12062.588281940018, 0.005, -0.02225, 0.98775, 192.0, 0.0, 0.0, 0.0, 0.0, 0.0, 0.0, 0.0, 0.0, 0.0, 1.6444992228626533E9, 0.0, 2022-02-11 00:20:22.862
86.0, -8923.799863314613, -10989.324568429538, -10436.25300362742, -16904.19964840408, -2175.4058808572154, -1698.7102268588815, -5306.57235462336, -6428.361705346311, -17007.107079876314, -14996.657073099266, -19512.827040294058, -12512.350083869707, -5937.293879663215, -10356.770200344348, -11561.171598574114, -12061.269529017154, 0.0045000000000000005, -0.020125, 0.9878750000000001, 192.0, 0.0, 16.0, 127.5, 56.0, 15.0, 112.0, 0.0, 0.0, 0.0, 1.6444992228626597E9, 0.0, 2022-02-11 00:20:22.862
88.0, -8933.411113430395, -10993.236123709217, -10436.431817583063, -16902.76913675894, -2169.1026889208188, -1699.2690204702642, -5297.005807996489, -6435.469560083099, -17008.962274666104, -15009.822250583442, -19532.563630648092, -12532.28783992384, -5933.494083105813, -10364.52625567034, -11566.33485154329, -12066.857465130981, 0.0045000000000000005, -0.020125, 0.9878750000000001, 192.0, 0.0, 0.0, 0.0, 0.0, 0.0, 0.0, 0.0, 0.0, 0.0, 1.6444992228626661E9, 0.0, 2022-02-11 00:20:22.862
90.0, -8942.463569934795, -11016.794862365112, -10435.001305937923, -16911.575724074333, -2167.9180464646874, -1695.7374448463256, -5300.71619757607, -6426.305344856423, -17012.471498545587, -15003.742576091598, -19519.15258397491, -12524.397674131116, -5929.448417359402, -10362.492246924907, -11560.344584029268, -12064.622290685451, 0.0045000000000000005, -0.020125, 0.9878750000000001, 192.0, 0.0, 0.0, 0.0, 0.0, 0.0, 0.0, 0.0, 0.0, 0.0, 1.6444992228626728E9, 0.0, 2022-02-11 00:20:22.862
92.0, -8979.209837819319, -11038.61016495349, -10448.97114622249, -16912.335683385812, -2180.6585408042124, -1700.7442356043143, -5308.38284592424, -6427.065304167903, -17026.55309755243, -15023.92620133474, -19538.933877817857, -12542.167310973085, -5935.4610366178795, -10368.013127805369, -11567.899473655161, -12066.43278198633, 0.0045000000000000005, -0.020125, 0.9878750000000001, 192.0, 0.0, 0.0, 0.0, 0.0, 0.0, 0.0, 0.0, 0.0, 0.0, 1.6444992228626792E9, 0.0, 2022-02-11 00:20:22.862
94.0, -9002.701521241846, -11068.00270891222, -10444.098465931233, -16911.06163395186, -2164.0511946739193, -1693.4799186563396, -5301.654970843193, -6421.678533754174, -17028.922382464694, -15019.791128610508, -19544.43240695386, -12544.558947629805, -5932.175330182949, -10360.793514346304, -11568.413563777634, -12062.901206362392, 0.0045000000000000005, -0.020125, 0.9878750000000001, 192.0, 0.0, 0.0, 0.0, 0.0, 0.0, 0.0, 0.0, 0.0, 0.0, 1.6444992228626857E9, 0.0, 2022-02-11 00:20:22.862
96.0, -9075.858780844066, -11120.931639782386, -10468.372460409697, -16922.058692223873, -2180.3903198707485, -1699.2466687258088, -5321.2350989860415, -6438.688211284663, -17077.55977839944, -15040.69000967622, -19566.761799664713, -12557.880587325168, -5948.4921036353235, -10362.827523091737, -11567.653604466153, -12065.158732552378, 0.0032500000000000003, -0.019062500000000003, 0.9869375, 192.0, 0.0, 8.0, 127.5, 56.0, 15.0, 104.0, 0.0, 0.0, 0.0, 1.644499222862692E9, 0.0, 2022-02-11 00:20:22.862
98.0, -9120.47286277686, -11169.479628739313, -10462.203378940032, -16922.81865153535, -2180.9491134821315, -1695.3127617016748, -5301.386749909729, -6421.432664565166, -17086.81340060394, -15057.632631973343, -19595.617901756515, -12576.63370092317, -5947.84390304612, -10366.33674697122, -11575.633177236698, -12069.427915743341, 0.0032500000000000003, -0.019062500000000003, 0.9869375, 192.0, 0.0, 0.0, 0.0, 0.0, 0.0, 0.0, 0.0, 0.0, 0.0, 1.6444992228626988E9, 0.0, 2022-02-11 00:20:22.862
100.0, -9172.507723868815, -11221.782710764732, -10467.053707486833, -16931.53583187292, -2176.5011163355252, -1686.528526130739, -5302.102005732299, -6425.008943678015, -17117.122366085336, -15070.998975157616, -19603.373957082506, -12587.094317328254, -5957.812781073187, -10364.481552181429, -11567.541845743877, -12064.53288370763, 0.0032500000000000003, -0.019062500000000003, 0.9869375, 192.0, 0.0, 0.0, 0.0, 0.0, 0.0, 0.0, 0.0, 0.0, 0.0, 1.6444992228627057E9, 0.0, 2022-02-11 00:20:22.862
102.0, -9187.326930442683, -11214.384283350026, -10476.374384924697, -16938.286058698424, -2183.676026305679, -1687.0649679976664, -5317.211784984086, -6418.8398622083505, -17137.01541865056, -15072.340079824935, -19626.798585271667, -12611.055387384342, -5958.729202595854, -10352.702182853483, -11573.509761513444, -12069.025584343146, 0.0032500000000000003, -0.019062500000000003, 0.9869375, 192.0, 0.0, 0.0, 0.0, 0.0, 0.0, 0.0, 0.0, 0.0, 0.0, 1.644499222862728E9, 0.0, 2022-02-11 00:20:22.862
104.0, -9186.388157175561, -11241.295783674215, -10469.713565077016, -16927.87014578225, -2169.773241254478, -1687.8919825425128, -5287.28279915843, -6415.487100540055, -17115.28952304, -15057.163245339781, -19618.863715990035, -12585.261474282917, -5947.396868157014, -10370.38241271763, -11574.739107458487, -12064.935215107826, 0.0032500000000000003, -0.019062500000000003, 0.9869375, 192.0, 0.0, 0.0, 0.0, 0.0, 0.0, 0.0, 0.0, 0.0, 0.0, 1.6444992228627348E9, 0.0, 2022-02-11 00:20:22.862
106.0, -9215.691294156468, -11264.161618251994, -10485.538600151373, -16937.883727298227, -2188.3922443857487, -1700.4313111819401, -5291.551982349394, -6430.529824558476, -17147.58779377792, -15086.265216620592, -19627.69265504988, -12588.569532462303, -5958.550388640212, -10372.259959251876, -11572.86156092424, -12070.67961343284, 0.003625, -0.02053125, 0.98946875, 192.0, 0.0, 16.0, 127.5, 40.0, 15.5, 0.0, 0.0, 0.0, 0.0, 1.6444992228627415E9, 0.0, 2022-02-11 00:20:22.862
108.0, -9211.91384934352, -11253.253966957804, -10488.69019611957, -16933.59219236281, -2190.4039013867264, -1694.2175262233648, -5298.436319641629, -6425.903013456227, -17146.894889699804, -15080.945501440228, -19642.80243430167, -12604.081643114287, -5964.361842198592, -10373.086973796722, -11587.05491865336, -12076.826343158049, 0.003625, -0.02053125, 0.98946875, 192.0, 0.0, 0.0, 0.0, 0.0, 0.0, 0.0, 0.0, 0.0, 0.0, 1.6444992228627481E9, 0.0, 2022-02-11 00:20:22.862
110.0, -9198.815727092711, -11247.017830254774, -10486.097393762755, -16942.331724444834, -2180.6585408042124, -1684.5168691297615, -5301.722026076559, -6417.096426140836, -17149.68885775672, -15062.281794820046, -19627.536192838692, -12588.748346417946, -5961.187894485938, -10352.277499708833, -11579.4329737941, -12070.232578543733, 0.003625, -0.02053125, 0.98946875, 192.0, 0.0, 0.0, 0.0, 0.0, 0.0, 0.0, 0.0, 0.0, 0.0, 1.6444992228627548E9, 0.0, 2022-02-11 00:20:22.862
112.0, -9204.671884140002, -11230.276373657749, -10489.181934497588, -16944.72336110155, -2185.419462373193, -1694.0834157566328, -5302.325523176852, -6427.132359401269, -17149.979430434636, -15083.046565419027, -19636.387483642993, -12602.785241935879, -5960.2267694743605, -10364.302738225788, -11583.165715118137, -12078.122744336457, 0.003625, -0.02053125, 0.98946875, 192.0, 0.0, 0.0, 0.0, 0.0, 0.0, 0.0, 0.0, 0.0, 0.0, 1.6444992228627615E9, 0.0, 2022-02-11 00:20:22.862
114.0, -9164.77402028728, -11193.865381940053, -10476.754364580436, -16935.134462730224, -2173.5953895563352, -1684.628627852038, -5285.85228751329, -6416.247059851535, -17131.896869170294, -15064.114637865381, -19626.619771316025, -12597.15260233314, -5957.186932228438, -10367.700203382994, -11582.539866273388, -12074.479409990241, 0.003625, -0.02053125, 0.98946875, 192.0, 0.0, 0.0, 0.0, 0.0, 0.0, 0.0, 0.0, 0.0, 0.0, 1.6444992228627684E9, 0.0, 2022-02-11 00:20:22.862
116.0, -9167.925616255478, -11199.475669798336, -10486.611483885228, -16943.605773878786, -2191.8120612874104, -1695.9609622908788, -5305.074787744855, -6423.131397143769, -17126.711264456662, -15044.825082400452, -19608.917189707423, -12581.193456792053, -5955.868179305575, -10374.696299397505, -11580.058822638848, -12073.652395445395, 0.003625, -0.02053125, 0.98946875, 192.0, 0.0, 0.0, 127.5, 24.0, 15.0, 120.0, 0.0, 0.0, 0.0, 1.644499222862775E9, 0.0, 2022-02-11 00:20:22.862
118.0, -9142.66814502098, -11179.537913744201, -10487.282036218887, -16942.152910489192, -2195.5224508669917, -1694.7316163458368, -5304.337180177829, -6421.455016309621, -17116.83179340742, -15068.294414078524, -19618.237867145286, -12593.39750926465, -5958.393926429025, -10368.817790605759, -11591.949950689072, -12082.615444971972, 0.003625, -0.02053125, 0.98946875, 192.0, 0.0, 0.0, 0.0, 0.0, 0.0, 0.0, 0.0, 0.0, 0.0, 1.6444992228627815E9, 0.0, 2022-02-11 00:20:22.862
120.0, -9121.009304643787, -11168.317338027637, -10485.024510028901, -16943.06933201186, -2188.660465319212, -1686.6849883419263, -5308.8522325578015, -6420.136263386758, -17106.840563635895, -15059.085495362939, -19599.55180878065, -12571.179875276075, -5952.783638570743, -10357.753677100382, -11588.731299487508, -12077.608654213984, 0.003625, -0.02053125, 0.98946875, 192.0, 0.0, 0.0, 0.0, 0.0, 0.0, 0.0, 0.0, 0.0, 0.0, 1.6444992228627884E9, 0.0, 2022-02-11 00:20:22.862
122.0, -9127.267793091272, -11171.960672373853, -10487.93023680809, -16947.83025358084, -2195.3659886558044, -1696.117424502066, -5315.021314027466, -6429.725161758085, -17099.866819365838, -15062.840588431429, -19601.40700357044, -12585.864971383211, -5951.531940881246, -10355.563206143763, -11594.475697812522, -12085.655282217895, 0.003625, -0.02053125, 0.98946875, 192.0, 0.0, 0.0, 0.0, 0.0, 0.0, 0.0, 0.0, 0.0, 0.0, 1.644499222862795E9, 0.0, 2022-02-11 00:20:22.862
124.0, -9098.27758053274, -11159.086067567596, -10485.873876318203, -16944.36573319027, -2183.7207297945893, -1691.9600000333787, -5313.0767122598545, -6424.6513157667305, -17091.216694261635, -15057.36441103988, -19599.954140180846, -12576.946625345545, -5952.358955426092, -10377.646729665605, -11597.113203658248, -12086.370538040464, 0.003625, -0.02053125, 0.98946875, 192.0, 0.0, 0.0, 0.0, 0.0, 0.0, 0.0, 0.0, 0.0, 0.0, 1.6444992228628025E9, 0.0, 2022-02-11 00:20:22.862
126.0, -9097.987007854821, -11139.640049891479, -10494.45694618904, -16948.12082625876, -2193.3543316548266, -1694.0610640121777, -5336.031953815455, -6434.620193793798, -17095.95526408616, -15044.333344022436, -19590.655814487436, -12569.078811297275, -5955.555254883201, -10374.115154041667, -11595.4368228241, -12090.952645653802, 0.006, -0.028, 0.988, 192.0, 0.0, 24.0, 127.5, 16.0, 15.0, 112.0, 0.0, 0.0, 0.0, 1.64449922286281E9, 0.0, 2022-02-11 00:20:22.862
128.0, -9087.951074594388, -11128.240660219271, -10496.669768890115, -16944.92452680165, -2192.952000254631, -1691.9152965444682, -5316.8318053283465, -6433.770827504495, -17091.417859961733, -15046.948498123706, -19606.391442583972, -12575.67257591159, -5956.583435128145, -10365.86736033766, -11604.601038050776, -12093.903075921902, 0.006, -0.028, 0.988, 192.0, 0.0, 0.0, 0.0, 0.0, 0.0, 0.0, 0.0, 0.0, 0.0, 1.6444992228628166E9, 0.0, 2022-02-11 00:20:22.862
