%OpenBCI Raw EEG Data
%Number of channels = 16
%Sample Rate = 125 Hz
%Board = OpenBCI_GUI$BoardCytonSerialDaisy
Sample Index, EXG Channel 0, EXG Channel 1, EXG Channel 2, EXG Channel 3, EXG Channel 4, EXG Channel 5, EXG Channel 6, EXG Channel 7, EXG Channel 8, EXG Channel 9, EXG Channel 10, EXG Channel 11, EXG Channel 12, EXG Channel 13, EXG Channel 14, EXG Channel 15, Accel Channel 0, Accel Channel 1, Accel Channel 2, Other, Other, Other, Other, Other, Other, Other, Analog Channel 0, Analog Channel 1, Analog Channel 2, Timestamp, Other, Timestamp (Formatted)
0.0, -10826.402703094805, -10182.784221504238, -7419.32629577235, -12645.45472210106, -10212.981428263358, -6510.169090052735, -9859.28742400258, -7399.969685074054, 0.0, 0.0, 0.0, 0.0, 0.0, 0.0, 0.0, 0.0, 0.0, 0.0, 0.0, 192.0, 0.0, 0.0, 0.0, 0.0, 0.0, 0.0, 0.0, 0.0, 0.0, 1.644587349613376E9, 0.0, 2022-02-12 00:49:09.613
10.0, -10835.43280785475, -10206.924105515971, -7423.394313263216, -12661.056239730864, -10218.479957399364, -6511.264325531045, -9872.899636375862, -7406.004656076987, -9890.691624962286, -11949.108475340423, -8828.760245890648, -7038.2290528093645, -7204.3472176012065, -10230.281678471765, -12348.82472143468, -16802.007472754416, 0.0, 0.0, 0.0, 192.0, 0.0, 0.0, 0.0, 0.0, 0.0, 0.0, 0.0, 0.0, 0.0, 1.644587349613381E9, 0.0, 2022-02-12 00:49:09.613
12.0, -10821.23945012563, -10192.3060646422, -7429.473987755059, -12648.338097135795, -10214.121367230578, -6511.890174375793, -9870.217427041225, -7402.56248743087, -9873.346671264968, -11938.714914168706, -8836.113969816442, -7045.068686612688, -7195.13829888562, -10238.30595473122, -12349.607032490616, -16744.876413926653, 0.0, 0.0, 0.0, 192.0, 0.0, 0.0, 0.0, 0.0, 0.0, 0.0, 0.0, 0.0, 0.0, 1.644587349613384E9, 0.0, 2022-02-12 00:49:09.613
0.0, -5458.608920408359, -5277.626845553737, -3819.5778512451475, -6582.029948476547, -5288.825069525847, -3446.2366636081533, -4961.416716744508, -3807.2620400502733, -4953.88417886307, -5983.494935452335, -4420.236279992614, -3520.2879929885858, -3595.0098747026773, -5124.20447161251, -6175.272902878869, -8400.456118638054, 0.002, 0.11900000000000001, 0.47200000000000003, 192.0, 0.0, 16.0, 3.5, 56.0, 14.5, 64.0, 0.0, 0.0, 0.0, 1.644587349705349E9, 0.0, 2022-02-12 00:49:09.705
2.0, -10918.044855361564, -10557.868845208746, -7636.875824555854, -13183.70708032931, -10586.166153689164, -6900.408196497941, -9919.145395653892, -7629.611507607879, -10436.029486182868, -12444.311373747752, -8810.40946369284, -6948.106819165567, -7491.9694652520975, -10232.829777339672, -12808.890677558265, -17329.75451108867, 0.002, 0.11900000000000001, 0.47200000000000003, 192.0, 0.0, 0.0, 0.0, 0.0, 0.0, 0.0, 0.0, 0.0, 0.0, 1.644587349712369E9, 0.0, 2022-02-12 00:49:09.712
4.0, -10922.850480419456, -10556.639499263705, -7643.983679292641, -13171.570083090077, -10582.455764109583, -6901.03404534269, -9939.329020897034, -7624.403551149792, -10432.497910558928, -12462.885673390112, -8821.250059753664, -6962.478990850329, -7497.8926775327545, -10252.946347349447, -12809.650636869746, -17301.39014737489, 0.002, 0.11900000000000001, 0.47200000000000003, 192.0, 0.0, 0.0, 0.0, 0.0, 0.0, 0.0, 0.0, 0.0, 0.0, 1.644587349720966E9, 0.0, 2022-02-12 00:49:09.720
6.0, -10914.736797182179, -10562.18273188862, -7635.199443721705, -13177.292129670637, -10571.302243626385, -6898.396539496964, -9916.373779341433, -7624.090626727418, -10436.49887281643, -12435.705952132459, -8816.623248651416, -6967.865761264058, -7492.036520485463, -10255.31563226171, -12805.694378101156, -17293.410574604342, 0.002, 0.11900000000000001, 0.47200000000000003, 192.0, 0.0, 0.0, 0.0, 0.0, 0.0, 0.0, 0.0, 0.0, 0.0, 1.644587349727758E9, 0.0, 2022-02-12 00:49:09.727
8.0, -10909.148861068352, -10587.931941501134, -7650.376278206859, -13183.058879740105, -10580.958197231079, -6903.202164554855, -9932.176462671336, -7635.691182099722, -10449.954622978525, -12460.583443711215, -8824.60282142196, -6945.581072042117, -7494.249343186539, -10258.26606252981, -12803.995645522553, -17337.19764199229, 0.006, 0.24, 0.9440000000000001, 192.0, 0.0, 24.0, 3.5, 64.0, 14.5, 64.0, 0.0, 0.0, 0.0, 1.644587349734259E9, 0.0, 2022-02-12 00:49:09.734
10.0, -10927.276125821607, -10571.726926771036, -7647.51525491658, -13166.920920243374, -10579.639444308215, -6893.501507461251, -9922.654619533376, -7617.139234201817, -10433.324925103776, -12440.958612079456, -8832.314173259041, -6952.800685501181, -7494.115232719807, -10252.901643860538, -12807.638979868769, -17282.346461098965, 0.006, 0.24, 0.9440000000000001, 192.0, 0.0, 0.0, 0.0, 0.0, 0.0, 0.0, 0.0, 0.0, 0.0, 1.644587349742221E9, 0.0, 2022-02-12 00:49:09.742
12.0, -10933.154634613353, -10565.624900534738, -7642.84374032542, -13182.32127217308, -10595.464479382574, -6900.005865097745, -9934.456340605777, -7633.321897187459, -10453.73206779147, -12459.398801255084, -8807.526088658105, -6933.913461436447, -7500.172555467196, -10238.529472175775, -12806.119061245807, -17329.799214577582, 0.006, 0.24, 0.9440000000000001, 192.0, 0.0, 0.0, 0.0, 0.0, 0.0, 0.0, 0.0, 0.0, 0.0, 1.644587349750385E9, 0.0, 2022-02-12 00:49:09.750
14.0, -10924.772730442612, -10551.029211405423, -7645.838874082431, -13172.330042401558, -10572.509237826973, -6892.808603383137, -9938.837282519018, -7629.075065740952, -10429.636887268649, -12456.828350642723, -8810.588277648483, -6945.826941231125, -7487.029729727475, -10221.475091156375, -12806.186116479174, -17304.80996427655, 0.006, 0.24, 0.9440000000000001, 192.0, 0.0, 0.0, 0.0, 0.0, 0.0, 0.0, 0.0, 0.0, 0.0, 1.644587349756874E9, 0.0, 2022-02-12 00:49:09.756
16.0, -10906.35489301144, -10549.79986546038, -7631.55610937549, -13183.841190796042, -10575.817296006358, -6891.713367904827, -9934.568099328053, -7619.553222602991, -10425.479462799962, -12438.879899845113, -8810.007132292645, -6958.030993703723, -7493.958770508621, -10248.140722291557, -12806.67785485719, -17297.366833372933, 0.006, 0.24, 0.9440000000000001, 192.0, 0.0, 0.0, 0.0, 0.0, 0.0, 0.0, 0.0, 0.0, 0.0, 1.644587349771817E9, 0.0, 2022-02-12 00:49:09.771
18.0, -10931.21003284574, -10573.738583772014, -7643.0002025366075, -13188.356243176013, -10577.292511140407, -6900.966990109324, -9929.784826014618, -7623.397722649303, -10439.225785639976, -12459.689373933003, -8811.281181726597, -6948.509150565762, -7491.656540829724, -10249.817103125704, -12802.922761788699, -17342.182081005823, 0.006, 0.23800000000000002, 0.9500000000000001, 192.0, 0.0, 24.0, 3.5, 56.0, 14.5, 88.0, 0.0, 0.0, 0.0, 1.644587349780033E9, 0.0, 2022-02-12 00:49:09.780
20.0, -10911.965180869722, -10554.069048651345, -7639.870958312865, -13175.861618025498, -10562.741525500003, -6894.864963873025, -9926.901450979884, -7619.262649925072, -10423.803081965814, -12447.105341804665, -8819.327809730508, -6959.506208837773, -7474.870380743788, -10257.684917173972, -12801.15697397673, -17282.122943654413, 0.006, 0.23800000000000002, 0.9500000000000001, 192.0, 0.0, 0.0, 0.0, 0.0, 0.0, 0.0, 0.0, 0.0, 0.0, 1.644587349786529E9, 0.0, 2022-02-12 00:49:09.786
22.0, -10904.857326132933, -10548.972850915534, -7637.6581356117895, -13185.338757674546, -10567.770668002448, -6899.022388341712, -9929.047218447593, -7631.869033797865, -10433.928422204068, -12446.70301040447, -8810.632981137393, -6944.776409241726, -7466.488476573048, -10258.042545085258, -12801.715767588112, -17335.387150691407, 0.006, 0.23800000000000002, 0.9500000000000001, 192.0, 0.0, 0.0, 0.0, 0.0, 0.0, 0.0, 0.0, 0.0, 0.0, 1.644587349796136E9, 0.0, 2022-02-12 00:49:09.796
24.0, -10912.21105005873, -10558.070010908845, -7644.967156048675, -13177.13566745945, -10560.32753709883, -6892.272161516209, -9930.142453925902, -7619.88849876982, -10423.02077090988, -12458.080048332222, -8820.847728353468, -6939.881377206013, -7489.4437181286485, -10245.100885045635, -12803.034520510975, -17309.4367753788, 0.006, 0.23800000000000002, 0.9500000000000001, 192.0, 0.0, 0.0, 0.0, 0.0, 0.0, 0.0, 0.0, 0.0, 0.0, 1.644587349802532E9, 0.0, 2022-02-12 00:49:09.802
26.0, -10918.737759439678, -10544.346039813285, -7627.823368051454, -13180.13080121646, -10557.645327764194, -6882.415042211419, -9913.91508745135, -7608.869088753354, -10423.043122654333, -12433.94016432049, -8817.763187618637, -6953.918272723946, -7474.400994110227, -10234.774379107283, -12805.046177511953, -17297.85857175095, 0.005, 0.239, 0.9530000000000001, 192.0, 0.0, 16.0, 3.5, 64.0, 14.5, 112.0, 0.0, 0.0, 0.0, 1.644587349809762E9, 0.0, 2022-02-12 00:49:09.809
28.0, -10928.326657811005, -10578.432450107628, -7635.758237333088, -13192.737185089254, -10568.217702891554, -6887.533591691684, -9929.96363997026, -7618.010952235574, -10437.92938446157, -12464.718516435447, -8794.07033849601, -6938.6743830054265, -7477.619645311791, -10217.87646029907, -12802.274561199494, -17337.488214670208, 0.005, 0.239, 0.9530000000000001, 192.0, 0.0, 0.0, 0.0, 0.0, 0.0, 0.0, 0.0, 0.0, 0.0, 1.644587349817188E9, 0.0, 2022-02-12 00:49:09.817
30.0, -10913.619209959414, -10561.020441176945, -7631.243184953116, -13177.493295370734, -10552.035039905912, -6886.125431791, -9922.162881155358, -7621.095492970407, -10428.049913412324, -12445.384257481606, -8806.140280501877, -6939.791970228192, -7469.260092885505, -10236.607222152617, -12802.989817022064, -17280.647728520362, 0.005, 0.239, 0.9530000000000001, 192.0, 0.0, 0.0, 0.0, 0.0, 0.0, 0.0, 0.0, 0.0, 0.0, 1.644587349824549E9, 0.0, 2022-02-12 00:49:09.824
32.0, -10911.674608191803, -10538.355772299263, -7637.971060034163, -13195.531153146167, -10569.201179647587, -6892.674492916405, -9924.688628278807, -7621.184899948228, -10435.046009426835, -12429.112187518143, -8803.815699078525, -6940.328412095119, -7469.930645219165, -10247.760742635815, -12803.839183311366, -17332.727293101227, 0.005, 0.239, 0.9530000000000001, 192.0, 0.0, 0.0, 0.0, 0.0, 0.0, 0.0, 0.0, 0.0, 0.0, 1.644587349832294E9, 0.0, 2022-02-12 00:49:09.832
34.0, -10933.825186947011, -10547.89996718168, -7644.386010692837, -13185.249350696726, -10556.259519607964, -6889.947580092858, -9923.01224744466, -7619.620277836357, -10430.843881469236, -12454.36965875264, -8819.305457986053, -6952.152484911977, -7476.077374944374, -10240.921108832492, -12805.090881000862, -17308.475650367218, 0.005, 0.239, 0.9530000000000001, 192.0, 0.0, 0.0, 0.0, 0.0, 0.0, 0.0, 0.0, 0.0, 0.0, 1.64458734983908E9, 0.0, 2022-02-12 00:49:09.839
36.0, -10906.511355222627, -10549.866920693747, -7630.662039597278, -13184.735260574254, -10563.881464467224, -6888.874696359003, -9926.320305624045, -7619.9332022587305, -10436.92355596108, -12444.333725492208, -8816.131510273399, -6947.145694153988, -7481.732366291567, -10231.600431394629, -12810.097671758853, -17298.551475829063, 0.0045000000000000005, 0.2375, 0.9535, 192.0, 0.0, 16.0, 3.5, 48.0, 14.5, 104.0, 0.0, 0.0, 0.0, 1.644587349846992E9, 0.0, 2022-02-12 00:49:09.846
38.0, -10925.73385545419, -10569.737621514514, -7634.41713266577, -13191.172562977383, -10562.607415033272, -6894.082652817089, -9937.697343551796, -7635.802940821999, -10439.695172273538, -12478.196618341997, -8805.492079912672, -6932.32648758012, -7471.0705841863855, -10236.78603610826, -12811.572886892902, -17342.53970891711, 0.0045000000000000005, 0.2375, 0.9535, 192.0, 0.0, 0.0, 0.0, 0.0, 0.0, 0.0, 0.0, 0.0, 0.0, 1.644587349854901E9, 0.0, 2022-02-12 00:49:09.854
40.0, -10929.667762478324, -10561.66864176615, -7630.058542496985, -13177.537998859645, -10551.073914894332, -6882.526800933695, -9932.288221393612, -7621.430769137236, -10433.861366970703, -12460.002298355377, -8807.704902613748, -6943.144731896488, -7474.915084232698, -10249.615937425606, -12809.6729886142, -17286.727403012206, 0.0045000000000000005, 0.2375, 0.9535, 192.0, 0.0, 0.0, 0.0, 0.0, 0.0, 0.0, 0.0, 0.0, 0.0, 1.644587349861854E9, 0.0, 2022-02-12 00:49:09.861
42.0, -10897.794174885055, -10534.310106552854, -7621.788397048521, -13195.665263612898, -10555.030173662923, -6876.402422952941, -9918.988933442704, -7615.574612089946, -10443.003230452923, -12455.017859341844, -8796.752547830647, -6943.569415041139, -7459.246511369528, -10231.64513488354, -12806.052006012442, -17329.642752366395, 0.0045000000000000005, 0.2375, 0.9535, 192.0, 0.0, 0.0, 0.0, 0.0, 0.0, 0.0, 0.0, 0.0, 0.0, 1.644587349869687E9, 0.0, 2022-02-12 00:49:09.869
44.0, -10918.983628628688, -10550.068086393845, -7630.997315764108, -13181.628368094965, -10547.676449737126, -6882.571504422606, -9925.24742189019, -7614.658190567278, -10434.576622793273, -12460.762257666858, -8816.623248651416, -6949.47027557734, -7471.987005709053, -10231.935707561459, -12804.44268041166, -17304.161763687345, 0.0045000000000000005, 0.2375, 0.9535, 192.0, 0.0, 0.0, 0.0, 0.0, 0.0, 0.0, 0.0, 0.0, 0.0, 1.644587349878851E9, 0.0, 2022-02-12 00:49:09.878
46.0, -10923.699846708758, -10544.770722957937, -7618.8156150359655, -13184.578798363067, -10546.335345069809, -6877.877638086991, -9929.829529503528, -7626.124635472851, -10436.655335027615, -12452.268594773841, -8802.385187433385, -6945.715182508849, -7470.109459174808, -10235.109655274113, -12809.96356129212, -17294.863437993936, 0.00625, 0.23575000000000002, 0.9517500000000001, 192.0, 0.0, 32.0, 3.5, 40.0, 14.5, 88.0, 0.0, 0.0, 0.0, 1.644587349892352E9, 0.0, 2022-02-12 00:49:09.892
48.0, -10912.725140181201, -10542.781417701413, -7629.566804118968, -13191.75370833322, -10554.493731795996, -6878.324672976098, -9931.796483015596, -7614.144100444806, -10447.272413643886, -12474.709746206969, -8802.921629300312, -6942.809455729659, -7470.042403941442, -10225.856033069615, -12804.643846111758, -17339.902203071382, 0.00625, 0.23575000000000002, 0.9517500000000001, 192.0, 0.0, 0.0, 0.0, 0.0, 0.0, 0.0, 0.0, 0.0, 0.0, 1.644587349899371E9, 0.0, 2022-02-12 00:49:09.899
50.0, -10900.431680730782, -10540.99327814499, -7624.738827316622, -13173.157056946404, -10544.949536913578, -6870.702728116838, -9941.787712787118, -7615.88753651232, -10415.331770817253, -12426.407626439051, -8808.196640991764, -6942.809455729659, -7461.548741048425, -10230.527547660775, -12805.403805423237, -17281.385336087387, 0.00625, 0.23575000000000002, 0.9517500000000001, 192.0, 0.0, 0.0, 0.0, 0.0, 0.0, 0.0, 0.0, 0.0, 0.0, 1.644587349907184E9, 0.0, 2022-02-12 00:49:09.907
52.0, -10908.858288390433, -10541.775589200925, -7617.921545257753, -13191.932522288862, -10552.929109684124, -6874.4578211853295, -9934.25517490568, -7611.216021921161, -10435.493044315941, -12459.197635554987, -8798.093652497966, -6932.550005024673, -7465.6167585392905, -10224.067893513191, -12803.81683156691, -17333.06256926806, 0.00625, 0.23575000000000002, 0.9517500000000001, 192.0, 0.0, 0.0, 0.0, 0.0, 0.0, 0.0, 0.0, 0.0, 0.0, 1.644587349915028E9, 0.0, 2022-02-12 00:49:09.915
54.0, -10907.316018023017, -10551.789170716902, -7627.443388395714, -13182.27656868417, -10535.494749008983, -6873.0496612846455, -9932.914070238361, -7625.677600583745, -10434.30840185981, -12470.015879871355, -8806.632018879893, -6949.067944177144, -7449.367040320282, -10208.891059028037, -12802.319264688405, -17309.727348056716, 0.00625, 0.23575000000000002, 0.9517500000000001, 192.0, 0.0, 0.0, 0.0, 0.0, 0.0, 0.0, 0.0, 0.0, 0.0, 1.64458734992167E9, 0.0, 2022-02-12 00:49:09.921
56.0, -10915.228535560196, -10552.012688161456, -7614.7699492895545, -13180.5107808722, -10526.934030882601, -6869.272216471698, -9914.92091595184, -7603.9070014842755, -10427.714637245494, -12444.46783595894, -8803.100443255955, -6946.944528453891, -7458.955938691609, -10203.906620014504, -12795.122002973796, -17296.249246150168, 0.007125, 0.233875, 0.9488750000000001, 192.0, 0.0, 32.0, 3.5, 32.0, 14.5, 72.0, 0.0, 0.0, 0.0, 1.64458734992977E9, 0.0, 2022-02-12 00:49:09.929
58.0, -10921.9787623857, -10538.959269399556, -7618.122710957851, -13183.684728584854, -10533.885423408203, -6872.714385117815, -9923.10165442248, -7610.41135912077, -10436.655335027615, -12467.266615303352, -8789.488230882673, -6939.099066150077, -7462.196941637629, -10219.798710322228, -12793.423270395193, -17339.119892015446, 0.007125, 0.233875, 0.9488750000000001, 192.0, 0.0, 0.0, 0.0, 0.0, 0.0, 0.0, 0.0, 0.0, 0.0, 1.644587349937718E9, 0.0, 2022-02-12 00:49:09.937
60.0, -10912.814547159023, -10536.612336231748, -7617.273344668549, -13166.339774887536, -10520.004990101455, -6872.826143840092, -9916.574945041531, -7604.689312540211, -10422.126701131667, -12444.579594681216, -8797.199582719753, -6942.116551651544, -7453.390354322238, -10235.713152374406, -12792.484497128069, -17282.815847732527, 0.007125, 0.233875, 0.9488750000000001, 192.0, 0.0, 0.0, 0.0, 0.0, 0.0, 0.0, 0.0, 0.0, 0.0, 1.644587349943992E9, 0.0, 2022-02-12 00:49:09.943
62.0, -10878.30345372003, -10523.60362095876, -7614.166452189262, -13184.265873940692, -10539.093379866288, -6862.410230923919, -9929.360142869968, -7604.242277651105, -10433.034352425857, -12458.638841943604, -8799.41240542083, -6923.65401073146, -7454.038554911442, -10214.635457353052, -12798.139488475263, -17330.045083766592, 0.007125, 0.233875, 0.9488750000000001, 192.0, 0.0, 0.0, 0.0, 0.0, 0.0, 0.0, 0.0, 0.0, 0.0, 1.644587349952792E9, 0.0, 2022-02-12 00:49:09.952
64.0, -10893.524991694092, -10534.734789697504, -7624.962344761175, -13182.075402984072, -10511.51132720844, -6855.950576776336, -9909.802366471573, -7603.459966595169, -10424.652448255116, -12460.18111231102, -8814.544536417072, -6944.731705752815, -7453.390354322238, -10208.980466005858, -12795.770203563, -17308.36389164494, 0.007125, 0.233875, 0.9488750000000001, 192.0, 0.0, 0.0, 0.0, 0.0, 0.0, 0.0, 0.0, 0.0, 0.0, 1.644587349959696E9, 0.0, 2022-02-12 00:49:09.959
66.0, -10901.661026675823, -10540.635650233704, -7606.209231163172, -13179.013213993694, -10500.93895208108, -6853.044849997145, -9902.158069867859, -7605.225754407139, -10416.248192339921, -12419.210364724442, -8801.535821144083, -6941.513054551251, -7437.4982640145145, -10209.315742172688, -12786.270712169495, -17291.108344925447, 0.006562500000000001, 0.23293750000000002, 0.9484375, 192.0, 0.0, 24.0, 3.5, 32.0, 14.5, 80.0, 0.0, 0.0, 0.0, 1.644587349967397E9, 0.0, 2022-02-12 00:49:09.967
68.0, -10918.804814673045, -10546.737676470004, -7610.03137946503, -13186.635158852954, -10511.623085930716, -6861.1361814899665, -9917.066683419549, -7600.9118677272645, -10426.552346533817, -12442.143254535587, -8785.755489558636, -6929.688981734394, -7456.027860167964, -10200.68796881294, -12782.940302245654, -17336.460034425265, 0.006562500000000001, 0.23293750000000002, 0.9484375, 192.0, 0.0, 0.0, 0.0, 0.0, 0.0, 0.0, 0.0, 0.0, 0.0, 1.644587349973847E9, 0.0, 2022-02-12 00:49:09.973
70.0, -10914.110948337431, -10531.538490240395, -7608.511460842069, -13168.552597588612, -10495.88745783418, -6852.419001152397, -9908.327151337524, -7604.085815439918, -10423.847785454725, -12452.98385059641, -8790.874039038901, -6942.384772585007, -7441.298060571917, -10216.892983543037, -12787.120078458796, -17280.111286653435, 0.006562500000000001, 0.23293750000000002, 0.9484375, 192.0, 0.0, 0.0, 0.0, 0.0, 0.0, 0.0, 0.0, 0.0, 0.0, 1.644587349981924E9, 0.0, 2022-02-12 00:49:09.981
72.0, -10880.896256076843, -10510.684312663594, -7601.0906816829065, -13178.007385493207, -10511.198402786065, -6852.284890685665, -9907.589543770498, -7610.724283543144, -10417.656352240605, -12448.424094727528, -8776.680681309781, -6925.576260754617, -7433.5643569903805, -10205.73946305984, -12784.326110401882, -17327.76520583215, 0.006562500000000001, 0.23293750000000002, 0.9484375, 192.0, 0.0, 0.0, 0.0, 0.0, 0.0, 0.0, 0.0, 0.0, 0.0, 1.6445873499899E9, 0.0, 2022-02-12 00:49:09.989
74.0, -10915.854384404944, -10524.609449459249, -7619.530870858535, -13171.346565645525, -10511.332513252797, -6849.803847051126, -9916.977276441727, -7604.93518172922, -10428.407541323608, -12456.47072273144, -8804.173326989809, -6944.441133074896, -7439.979307649053, -10210.366274162088, -12791.523372116491, -17306.12871719941, 0.006562500000000001, 0.23293750000000002, 0.9484375, 192.0, 0.0, 0.0, 0.0, 0.0, 0.0, 0.0, 0.0, 0.0, 0.0, 1.644587349997291E9, 0.0, 2022-02-12 00:49:09.997
76.0, -10900.834012130977, -10535.204176331064, -7609.785510276021, -13174.475809869267, -10504.69404514957, -6846.696954571838, -9902.359235567956, -7605.426920107237, -10426.39588432263, -12432.84492884218, -8804.955638045745, -6937.243871360287, -7438.012354136987, -10185.175858160956, -12789.511715115514, -17287.487362323685, 0.009281250000000001, 0.23246875, 0.9502187500000001, 192.0, 0.0, 48.0, 3.5, 32.0, 14.5, 96.0, 0.0, 0.0, 0.0, 1.644587350004581E9, 0.0, 2022-02-12 00:49:10.004
78.0, -10939.54723352757, -10549.308127082364, -7616.736902801622, -13187.685690842354, -10503.956437582545, -6844.372373148486, -9905.689645491797, -7605.449271851692, -10446.490102587952, -12450.41339998405, -8795.210277463231, -6929.443112545385, -7436.961822147588, -10198.095166456123, -12789.511715115514, -17336.661200125363, 0.009281250000000001, 0.23246875, 0.9502187500000001, 192.0, 0.0, 0.0, 0.0, 0.0, 0.0, 0.0, 0.0, 0.0, 0.0, 1.644587350019717E9, 0.0, 2022-02-12 00:49:10.019
80.0, -10928.751340955656, -10531.784359429403, -7616.60279233489, -13177.247426181726, -10497.988521812978, -6848.887425528458, -9907.120157136937, -7604.97988521813, -10441.103332174222, -12430.676809630015, -8796.372568174907, -6950.029069188723, -7450.462275798593, -10195.323550143667, -12787.544761603447, -17277.74200174117, 0.009281250000000001, 0.23246875, 0.9502187500000001, 192.0, 0.0, 0.0, 0.0, 0.0, 0.0, 0.0, 0.0, 0.0, 0.0, 1.644587350027634E9, 0.0, 2022-02-12 00:49:10.027
82.0, -10897.30243650704, -10524.31887678133, -7614.859356267376, -13188.110373987005, -10505.208135272043, -6850.854379040526, -9909.847069960484, -7605.225754407139, -10449.842864256247, -12440.735094634903, -8798.853611809447, -6945.6034237865715, -7451.535159532447, -10210.25451543981, -12790.361081404815, -17329.978028533224, 0.009281250000000001, 0.23246875, 0.9502187500000001, 192.0, 0.0, 0.0, 0.0, 0.0, 0.0, 0.0, 0.0, 0.0, 0.0, 1.644587350035513E9, 0.0, 2022-02-12 00:49:10.035
84.0, -10904.119718565908, -10520.384969757197, -7622.235431937627, -13173.93936800234, -10498.03322530189, -6849.73679181776, -9908.975351926727, -7605.113995684862, -10432.050875669824, -12453.36383025215, -8809.31422821453, -6933.309964336153, -7453.166836877685, -10204.68893107044, -12792.328034916884, -17313.14716495838, 0.009281250000000001, 0.23246875, 0.9502187500000001, 192.0, 0.0, 0.0, 0.0, 0.0, 0.0, 0.0, 0.0, 0.0, 0.0, 1.644587350042183E9, 0.0, 2022-02-12 00:49:10.042
86.0, -10917.709579194734, -10536.99231588749, -7607.460928852669, -13170.966585989785, -10493.339358966276, -6840.952556246824, -9904.415596057845, -7599.369597359848, -10434.129587904166, -12435.683600388003, -8806.229687479698, -6939.702563250371, -7442.773275705967, -10203.414881636487, -12790.919875016198, -17290.169571658324, 0.007640625000000001, 0.232234375, 0.952109375, 192.0, 0.0, 24.0, 3.5, 32.0, 14.5, 104.0, 0.0, 0.0, 0.0, 1.64458735005169E9, 0.0, 2022-02-12 00:49:10.051
88.0, -10924.7280269537, -10538.13225485471, -7617.027475479541, -13179.303786671613, -10503.419995715618, -6857.73871633276, -9924.48746257871, -7615.172280689751, -10448.769980522393, -12442.657344658059, -8796.663140852826, -6922.268202575231, -7432.37971453425, -10211.550916618218, -12789.176438948685, -17339.276354226633, 0.007640625000000001, 0.232234375, 0.952109375, 192.0, 0.0, 0.0, 0.0, 0.0, 0.0, 0.0, 0.0, 0.0, 0.0, 1.6445873500577E9, 0.0, 2022-02-12 00:49:10.057
90.0, -10903.404462743338, -10523.693027936582, -7610.389007376315, -13173.335870902047, -10493.294655477364, -6840.483169613263, -9907.164860625848, -7596.441518836203, -10432.028523925368, -12444.043152814289, -8804.240382223175, -6933.600537014072, -7433.921984901665, -10191.233180908344, -12794.742023318056, -17282.994661688168, 0.007640625000000001, 0.232234375, 0.952109375, 192.0, 0.0, 0.0, 0.0, 0.0, 0.0, 0.0, 0.0, 0.0, 0.0, 1.644587350065063E9, 0.0, 2022-02-12 00:49:10.065
92.0, -10887.44531720225, -10496.423899701107, -7603.012931706064, -13185.428164652369, -10487.88553331918, -6837.823312023082, -9892.613874985442, -7600.55423981598, -10445.663088043106, -12443.79728362528, -8804.709768856737, -6928.32552532262, -7445.231967596051, -10187.187515161933, -12786.67304356969, -17325.842955808992, 0.007640625000000001, 0.232234375, 0.952109375, 192.0, 0.0, 0.0, 0.0, 0.0, 0.0, 0.0, 0.0, 0.0, 0.0, 1.644587350072017E9, 0.0, 2022-02-12 00:49:10.072
94.0, -10905.617285444414, -10510.46079521904, -7608.645571308801, -13171.055992967606, -10480.084774504277, -6834.604660821517, -9894.983159897705, -7591.546486800491, -10425.747683733427, -12440.422170212529, -8803.011036278134, -6940.328412095119, -7443.108551872797, -10188.662730295984, -12785.846029024844, -17308.632112578405, 0.007640625000000001, 0.232234375, 0.952109375, 192.0, 0.0, 0.0, 0.0, 0.0, 0.0, 0.0, 0.0, 0.0, 0.0, 1.644587350079303E9, 0.0, 2022-02-12 00:49:10.079
96.0, -10910.646427946858, -10521.234336046498, -7596.307408369471, -13175.74985930322, -10480.822382071303, -6830.3131258860985, -9895.139622108893, -7590.07127166644, -10428.854576212714, -12430.386236952096, -8799.725329843204, -6927.789083455692, -7432.357362789794, -10186.986349461837, -12789.556418604425, -17291.734193770193, 0.01, 0.234, 0.9520000000000001, 192.0, 0.0, 40.0, 3.5, 40.0, 14.5, 96.0, 0.0, 0.0, 0.0, 1.644587350086461E9, 0.0, 2022-02-12 00:49:10.086
98.0, -10910.244096546663, -10529.303315794865, -7604.108167184373, -13181.091926228039, -10490.277169975898, -6843.366544647997, -9911.188174627803, -7601.537716572013, -10447.16065492161, -12444.51253944785, -8792.21514370622, -6914.847423416069, -7431.575051733858, -10184.639416294029, -12791.72453781659, -17344.52901417363, 0.01, 0.234, 0.9520000000000001, 192.0, 0.0, 0.0, 0.0, 0.0, 0.0, 0.0, 0.0, 0.0, 0.0, 1.644587350094666E9, 0.0, 2022-02-12 00:49:10.094
100.0, -10907.852459889944, -10507.666827162127, -7600.196611904695, -13168.731411544253, -10471.702870333538, -6839.499692857229, -9901.107537878459, -7594.7427862576, -10424.58539302175, -12425.044170027277, -8794.852649551947, -6926.202109599365, -7415.6606096816795, -10178.805610991194, -12792.10451747233, -17282.927606454803, 0.01, 0.234, 0.9520000000000001, 192.0, 0.0, 0.0, 0.0, 0.0, 0.0, 0.0, 0.0, 0.0, 0.0, 1.64458735010242E9, 0.0, 2022-02-12 00:49:10.102
102.0, -10882.43852644426, -10486.767946096415, -7597.514402570057, -13184.154115218416, -10481.738803593971, -6840.594928335539, -9901.576924512021, -7594.183992646217, -10431.626192525173, -12423.16662349303, -8788.16947795981, -6921.016504885734, -7404.663551409669, -10207.862878783093, -12790.204619193628, -17333.06256926806, 0.01, 0.234, 0.9520000000000001, 192.0, 0.0, 0.0, 0.0, 0.0, 0.0, 0.0, 0.0, 0.0, 0.0, 1.644587350110512E9, 0.0, 2022-02-12 00:49:10.110
104.0, -10919.58712572898, -10512.94183885358, -7608.623219564345, -13174.520513358179, -10477.31315819182, -6838.471512612286, -9913.713921751252, -7604.97988521813, -10435.515396060395, -12445.719533648436, -8798.943018787268, -6934.047571903178, -7433.5643569903805, -10201.313817657689, -12794.160877962218, -17319.04802549458, 0.01, 0.234, 0.9520000000000001, 192.0, 0.0, 0.0, 0.0, 0.0, 0.0, 0.0, 0.0, 0.0, 0.0, 1.644587350118535E9, 0.0, 2022-02-12 00:49:10.118
106.0, -10905.214954044219, -10519.960286612546, -7599.7942805044995, -13178.32030991558, -10470.048841243844, -6831.475416597774, -9900.884020433907, -7595.189821146706, -10429.011038423901, -12431.45912068595, -8799.367701931918, -6921.776464197214, -7436.201862836107, -10190.696739041417, -12792.708014572623, -17295.22106590522, 0.01, 0.234, 0.9500000000000001, 192.0, 0.0, 40.0, 3.5, 40.0, 14.5, 88.0, 0.0, 0.0, 0.0, 1.644587350126439E9, 0.0, 2022-02-12 00:49:10.126
108.0, -10923.096349608464, -10525.727036682014, -7611.059559709974, -13189.339719932046, -10478.520152392406, -6839.454989368319, -9916.463186319255, -7600.755405516077, -10444.411390353607, -12457.364792509652, -8797.423100164307, -6918.356647295553, -7434.570185490869, -10185.801707005705, -12791.970407005598, -17348.708790386772, 0.01, 0.234, 0.9500000000000001, 192.0, 0.0, 0.0, 0.0, 0.0, 0.0, 0.0, 0.0, 0.0, 0.0, 1.644587350139852E9, 0.0, 2022-02-12 00:49:10.139
110.0, -10896.363663239916, -10498.189687513077, -7607.684446297222, -13179.683766327355, -10458.560044593816, -6836.750428289227, -9913.110424650959, -7596.0391874360075, -10432.96729719249, -12429.022780540321, -8805.805004335047, -6930.068961390133, -7418.923964372154, -10190.786146019238, -12793.020938994998, -17289.633129791397, 0.01, 0.234, 0.9500000000000001, 192.0, 0.0, 0.0, 0.0, 0.0, 0.0, 0.0, 0.0, 0.0, 0.0, 1.64458735014682E9, 0.0, 2022-02-12 00:49:10.146
112.0, -10897.771823140602, -10511.488975463984, -7607.997370719597, -13196.782850835663, -10469.534751121373, -6847.523969116684, -9905.264962347146, -7599.0343211930185, -10445.841901998747, -12436.868242844135, -8803.994513034168, -6926.336220066098, -7420.399179506205, -10192.015491964281, -12792.305683172428, -17338.538746659608, 0.01, 0.234, 0.9500000000000001, 192.0, 0.0, 0.0, 0.0, 0.0, 0.0, 0.0, 0.0, 0.0, 0.0, 1.644587350154747E9, 0.0, 2022-02-12 00:49:10.154
114.0, -10942.050628906563, -10511.26545801943, -7617.250992924094, -13186.299882686126, -10456.280166659375, -6844.081800470567, -9912.52927929512, -7602.990579961608, -10447.853558999725, -12457.32008902074, -8806.632018879893, -6947.033935431712, -7421.673228940157, -10202.87843976956, -12793.311511672917, -17324.032464508113, 0.01, 0.234, 0.9500000000000001, 192.0, 0.0, 0.0, 0.0, 0.0, 0.0, 0.0, 0.0, 0.0, 0.0, 1.644587350164761E9, 0.0, 2022-02-12 00:49:10.164
116.0, -10910.601724457947, -10523.447158747573, -7602.990579961608, -13187.08219374206, -10463.87975977418, -6835.141102688444, -9918.608953786965, -7606.186879418717, -10442.869119986191, -12418.584515879693, -8798.943018787268, -6926.135054365999, -7420.287420783928, -10205.650056082017, -12796.86543904131, -17306.687510810796, 0.01, 0.234, 0.9420000000000001, 192.0, 0.0, 40.0, 3.5, 40.0, 14.5, 56.0, 0.0, 0.0, 0.0, 1.644587350171042E9, 0.0, 2022-02-12 00:49:10.171
118.0, -10904.902029621844, -10522.307219780352, -7608.511460842069, -13192.647778111432, -10472.999271511946, -6842.472474869785, -9914.540936296098, -7597.670864781245, -10456.54838759284, -12463.80209491278, -8795.992588519168, -6918.110778106544, -7438.526444259459, -10199.34686414562, -12797.513639630513, -17353.82733986704, 0.01, 0.234, 0.9420000000000001, 192.0, 0.0, 0.0, 0.0, 0.0, 0.0, 0.0, 0.0, 0.0, 0.0, 1.644587350177457E9, 0.0, 2022-02-12 00:49:10.177
120.0, -10895.559000439525, -10511.019588830422, -7608.287943397516, -13180.46607738329, -10449.999326467434, -6836.035172466657, -9908.48361354871, -7602.387082861314, -10432.184986136555, -12442.165606280043, -8813.873984083413, -6930.3371823235975, -7425.987115620032, -10192.954265231403, -12791.903351772233, -17295.109307182945, 0.01, 0.234, 0.9420000000000001, 192.0, 0.0, 0.0, 0.0, 0.0, 0.0, 0.0, 0.0, 0.0, 0.0, 1.644587350185381E9, 0.0, 2022-02-12 00:49:10.185
122.0, -10894.73198589468, -10494.12167002221, -7602.431786350226, -13201.90140031593, -10456.481332359474, -6834.06821895459, -9907.902468192873, -7604.041111951007, -10445.976012465479, -12439.215176011941, -8813.628114894404, -6929.934850923401, -7420.04155159492, -10161.77358171625, -12791.09868897184, -17343.590240906506, 0.01, 0.234, 0.9420000000000001, 192.0, 0.0, 0.0, 0.0, 0.0, 0.0, 0.0, 0.0, 0.0, 0.0, 1.644587350192412E9, 0.0, 2022-02-12 00:49:10.192
124.0, -10930.49477702317, -10490.657149631637, -7608.734978286622, -13195.03941476815, -10444.791370009349, -6838.516216101196, -9916.574945041531, -7599.324893870938, -10446.892433988147, -12453.922623863535, -8797.490155397672, -6927.811435200148, -7414.967705603565, -10191.054366952701, -12791.232799438572, -17330.58152563352, 0.01, 0.234, 0.9420000000000001, 192.0, 0.0, 0.0, 0.0, 0.0, 0.0, 0.0, 0.0, 0.0, 0.0, 1.644587350199423E9, 0.0, 2022-02-12 00:49:10.199
126.0, -10913.663913448325, -10524.877670392712, -7599.414300848759, -13191.396080421935, -10445.0148874539, -6829.597870063529, -9907.030750159116, -7596.799146747488, -10446.333640376764, -12436.756484121857, -8791.857515794934, -6936.841539960092, -7383.094118010297, -10196.195268177422, -12792.775069805988, -17303.960597987247, 0.01, 0.23800000000000002, 0.9460000000000001, 192.0, 0.0, 40.0, 3.5, 56.0, 14.5, 72.0, 0.0, 0.0, 0.0, 1.644587350208454E9, 0.0, 2022-02-12 00:49:10.208
128.0, -10890.775727126089, -10523.447158747573, -7606.633914307823, -13199.576818892578, -10463.16450395161, -6844.372373148486, -9912.663389761852, -7600.867164238354, -10461.35401265073, -12461.365754767152, -8790.136431471878, -6920.211842085343, -7427.596441220813, -10193.73657628734, -12795.054947740431, -17355.01198232317, 0.01, 0.23800000000000002, 0.9460000000000001, 192.0, 0.0, 0.0, 0.0, 0.0, 0.0, 0.0, 0.0, 0.0, 0.0, 1.644587350214542E9, 0.0, 2022-02-12 00:49:10.214
130.0, -10903.315055765517, -10496.69212063457, -7604.93518172922, -13182.947121017829, -10446.624213054683, -6835.386971877453, -9919.525375309631, -7606.924486985742, -10437.728218761471, -12440.89155684609, -8803.905106056345, -6925.03981888769, -7423.461368496582, -10200.240933923833, -12794.049119239942, -17298.70793804025, 0.01, 0.23800000000000002, 0.9460000000000001, 192.0, 0.0, 0.0, 0.0, 0.0, 0.0, 0.0, 0.0, 0.0, 0.0, 1.644587350222017E9, 0.0, 2022-02-12 00:49:10.222
132.0, -10908.075977334498, -10480.107126248733, -7601.895344483298, -13196.961664791306, -10447.831207255269, -6834.671716054883, -9908.796537971084, -7602.834117750421, -10452.815646268804, -12443.12673129162, -8797.110175741933, -6917.4849292617955, -7409.759749145478, -10189.310930885189, -12792.8197732949, -17344.81958685155, 0.01, 0.23800000000000002, 0.9460000000000001, 192.0, 0.0, 0.0, 0.0, 0.0, 0.0, 0.0, 0.0, 0.0, 0.0, 1.644587350229652E9, 0.0, 2022-02-12 00:49:10.229
134.0, -10909.931172124288, -10495.306312478342, -7611.528946343536, -13189.674996098876, -10439.762227506904, -6833.777646276671, -9909.601200771476, -7613.227678922139, -10447.183006666066, -12444.490187703394, -8795.858478052436, -6927.163234610944, -7414.163042803174, -10184.192381404922, -12788.8188110374, -17329.866269810947, 0.01, 0.23800000000000002, 0.9460000000000001, 192.0, 0.0, 0.0, 0.0, 0.0, 0.0, 0.0, 0.0, 0.0, 0.0, 1.644587350237931E9, 0.0, 2022-02-12 00:49:10.237
136.0, -10903.896201121355, -10512.964190598035, -7605.672789296244, -13192.5136676447, -10446.467750843496, -6824.121692671978, -9905.19790711378, -7586.539696042502, -10439.136378662155, -12422.674885115015, -8797.154879230844, -6927.185586355399, -7401.958990330576, -10195.301198399211, -12790.629302338279, -17307.76039454465, 0.01, 0.232, 0.9440000000000001, 192.0, 0.0, 40.0, 3.5, 32.0, 14.5, 64.0, 0.0, 0.0, 0.0, 1.644587350244475E9, 0.0, 2022-02-12 00:49:10.244
138.0, -10893.882619605378, -10518.999161600967, -7616.021646979052, -13211.892630087452, -10450.647527056639, -6835.811655022104, -9915.747930496686, -7601.403606105281, -10456.369573637197, -12460.963423366955, -8796.439623408272, -6927.632621244505, -7392.4147954481605, -10186.561666317186, -12791.746889561045, -17358.700020158296, 0.01, 0.232, 0.9440000000000001, 192.0, 0.0, 0.0, 0.0, 0.0, 0.0, 0.0, 0.0, 0.0, 0.0, 1.644587350252324E9, 0.0, 2022-02-12 00:49:10.252
140.0, -10928.393713044372, -10508.829117873802, -7613.182975433228, -13190.636121110454, -10433.414332081597, -6825.529852572662, -9907.701302492775, -7604.354036373382, -10439.53871006235, -12442.836158613702, -8810.722388115215, -6936.215691115343, -7407.7927956334115, -10185.153506416502, -12789.422308137693, -17303.133583442403, 0.01, 0.232, 0.9440000000000001, 192.0, 0.0, 0.0, 0.0, 0.0, 0.0, 0.0, 0.0, 0.0, 0.0, 1.644587350267346E9, 0.0, 2022-02-12 00:49:10.267
142.0, -10913.149823325852, -10488.578437397295, -7606.36569337436, -13204.360092206014, -10449.082904944768, -6837.935070745358, -9912.81985197304, -7613.674713811245, -10454.827303269782, -12456.001336097877, -8795.612608863426, -6935.2098626148545, -7406.406987477182, -10186.740480272829, -12794.250284940039, -17350.228709009734, 0.01, 0.232, 0.9440000000000001, 192.0, 0.0, 0.0, 0.0, 0.0, 0.0, 0.0, 0.0, 0.0, 0.0, 1.644587350273994E9, 0.0, 2022-02-12 00:49:10.273
144.0, -10917.329599538994, -10489.517210664417, -7615.440501623214, -13203.04133928315, -10439.806930995814, -6843.254785925721, -9917.714884008752, -7616.021646979052, -10451.943928235047, -12458.236510543407, -8803.368664189418, -6945.156388897466, -7409.759749145478, -10185.421727349965, -12794.965540762609, -17341.086845527512, 0.01, 0.232, 0.9440000000000001, 192.0, 0.0, 0.0, 0.0, 0.0, 0.0, 0.0, 0.0, 0.0, 0.0, 1.644587350282449E9, 0.0, 2022-02-12 00:49:10.282
146.0, -10908.545363968058, -10515.400530743664, -7613.562955088968, -13197.47575491378, -10434.844843726736, -6821.439483337341, -9896.838354687496, -7586.830268720421, -10451.966279979502, -12444.065504558743, -8805.089748512477, -6937.377981827019, -7398.382711217727, -10174.603483033596, -12794.026767495487, -17309.79440329008, 0.01, 0.234, 0.9460000000000001, 192.0, 0.0, 40.0, 3.5, 40.0, 14.5, 72.0, 0.0, 0.0, 0.0, 1.644587350291399E9, 0.0, 2022-02-12 00:49:10.291
148.0, -10894.709634150224, -10499.88842009168, -7619.419112136258, -13211.557353920622, -10438.510529817406, -6830.603698564017, -9904.281485591113, -7606.812728263465, -10460.951681250535, -12469.568844982248, -8805.201507234753, -6932.661763746949, -7399.857926351778, -10173.48589581083, -12791.970407005598, -17360.979898092737, 0.01, 0.234, 0.9460000000000001, 192.0, 0.0, 0.0, 0.0, 0.0, 0.0, 0.0, 0.0, 0.0, 0.0, 1.64458735029761E9, 0.0, 2022-02-12 00:49:10.297
150.0, -10901.34810225345, -10514.0817778208, -7614.501728356091, -13194.65943511241, -10421.187927864543, -6822.624125793473, -9896.748947709673, -7594.966303702153, -10441.68447753006, -12435.884766088102, -8806.31909445752, -6943.502359807773, -7390.0678622803525, -10196.195268177422, -12790.67400582719, -17302.083051453003, 0.01, 0.234, 0.9460000000000001, 192.0, 0.0, 0.0, 0.0, 0.0, 0.0, 0.0, 0.0, 0.0, 0.0, 1.644587350304613E9, 0.0, 2022-02-12 00:49:10.304
152.0, -10905.483174977682, -10504.761100382937, -7605.9633619741635, -13203.935409061361, -10434.688381515549, -6816.767968746182, -9902.046311145581, -7590.205382133172, -10450.02167821189, -12443.819635369735, -8787.87890528189, -6916.188528083388, -7394.873487338244, -10184.974692460859, -12785.95778774712, -17341.645639138897, 0.01, 0.234, 0.9460000000000001, 192.0, 0.0, 0.0, 0.0, 0.0, 0.0, 0.0, 0.0, 0.0, 0.0, 1.644587350312609E9, 0.0, 2022-02-12 00:49:10.312
154.0, -10912.971009370209, -10493.138193266177, -7615.127577200839, -13202.32608346058, -10429.122797146178, -6821.595945548528, -9904.057968146559, -7596.59798104739, -10446.803027010326, -12465.903158891579, -8796.037292008077, -6928.213766600343, -7408.195127033607, -10178.179762146445, -12788.751755804034, -17327.47463315423, 0.01, 0.234, 0.9460000000000001, 192.0, 0.0, 0.0, 0.0, 0.0, 0.0, 0.0, 0.0, 0.0, 0.0, 1.644587350319571E9, 0.0, 2022-02-12 00:49:10.319
156.0, -10896.229552773184, -10461.242253928454, -7602.722359028145, -13206.461156184812, -10411.464919026484, -6813.34815184452, -9893.351482552467, -7590.272437366538, -10437.012962938901, -12433.694295131481, -8793.779765818092, -6929.353705567563, -7384.591684888803, -10171.787163232228, -12784.460220868616, -17305.838144521495, 0.004, 0.23800000000000002, 0.9500000000000001, 192.0, 0.0, 16.0, 3.5, 56.0, 14.5, 88.0, 0.0, 0.0, 0.0, 1.644587350326189E9, 0.0, 2022-02-12 00:49:10.326
158.0, -10877.498790919637, -10502.816498615324, -7608.533812586524, -13207.466984685301, -10421.210279608998, -6816.432692579352, -9894.692587219786, -7584.617446019345, -10448.099428188734, -12455.286080275308, -8792.908047784334, -6938.540272538695, -7386.558638400869, -10172.211846376878, -12785.063717968907, -17357.694191657807, 0.004, 0.23800000000000002, 0.9500000000000001, 192.0, 0.0, 0.0, 0.0, 0.0, 0.0, 0.0, 0.0, 0.0, 0.0, 1.644587350334177E9, 0.0, 2022-02-12 00:49:10.334
160.0, -10885.72423287919, -10490.903018820647, -7610.098434698396, -13190.189086221348, -10406.301666057308, -6808.698988997816, -9895.944284909283, -7579.49889653908, -10430.888584958147, -12442.836158613702, -8801.804042077547, -6946.2516243757755, -7374.5110481394595, -10166.57920677414, -12786.628340080779, -17294.863437993936, 0.004, 0.23800000000000002, 0.9500000000000001, 192.0, 0.0, 0.0, 0.0, 0.0, 0.0, 0.0, 0.0, 0.0, 0.0, 1.644587350342284E9, 0.0, 2022-02-12 00:49:10.342
162.0, -10894.128488794386, -10495.686292134082, -7604.912829984764, -13208.003426552228, -10408.000398635913, -6812.901116955414, -9888.38939528339, -7583.745727985589, -10438.197605395033, -12449.60873718366, -8788.281236682085, -6926.336220066098, -7363.379879400716, -10169.373174831055, -12787.365947647804, -17340.52805191613, 0.004, 0.23800000000000002, 0.9500000000000001, 192.0, 0.0, 0.0, 0.0, 0.0, 0.0, 0.0, 0.0, 0.0, 0.0, 1.644587350349259E9, 0.0, 2022-02-12 00:49:10.349
164.0, -10912.367512269917, -10479.324815192796, -7613.473548111147, -13198.99567353674, -10410.839070181737, -6807.11201514149, -9894.87140117543, -7578.895399438787, -10444.858425242714, -12450.525158706327, -8790.78463206108, -6931.968859668835, -7381.663606365158, -10178.604445291096, -12788.43883138166, -17331.76616808965, 0.005, 0.23700000000000002, 0.9480000000000001, 192.0, 0.0, 24.0, 3.5, 48.0, 14.5, 72.0, 0.0, 0.0, 0.0, 1.644587350358259E9, 0.0, 2022-02-12 00:49:10.358
166.0, -10900.342273752962, -10481.805858827336, -7601.180088660728, -13193.89947580093, -10407.1063288577, -6802.216983105777, -9881.147430079869, -7573.888608680798, -10445.774846765382, -12412.303675687752, -8794.204448962742, -6918.267240317731, -7383.049414521386, -10176.793953990216, -12790.025805237987, -17304.206467176256, 0.005, 0.23700000000000002, 0.9480000000000001, 192.0, 0.0, 0.0, 0.0, 0.0, 0.0, 0.0, 0.0, 0.0, 0.0, 1.644587350365287E9, 0.0, 2022-02-12 00:49:10.365
168.0, -10907.785404656579, -10504.98461782749, -7605.6951410407, -13204.628313139478, -10407.374549791164, -6803.111052883989, -9896.883058176405, -7582.337568084904, -10457.375402137686, -12454.973155852933, -8787.40951864833, -6925.12922586551, -7373.281702194417, -10162.175913116445, -12786.561284847414, -17355.548424190096, 0.005, 0.23700000000000002, 0.9480000000000001, 192.0, 0.0, 0.0, 0.0, 0.0, 0.0, 0.0, 0.0, 0.0, 0.0, 1.644587350373385E9, 0.0, 2022-02-12 00:49:10.373
170.0, -10904.343236010462, -10484.286902461876, -7600.442481093703, -13192.446612411335, -10385.089860569222, -6790.616427733473, -9885.058985359548, -7576.637873248801, -10435.738913504949, -12448.245280771886, -8787.856553537435, -6932.214728857843, -7363.245768933984, -10152.698773467395, -12787.209485436617, -17296.584522316996, 0.005, 0.23700000000000002, 0.9480000000000001, 192.0, 0.0, 0.0, 0.0, 0.0, 0.0, 0.0, 0.0, 0.0, 0.0, 1.644587350386513E9, 0.0, 2022-02-12 00:49:10.386
172.0, -10882.572636910993, -10484.108088506233, -7592.127632156329, -13208.629275396977, -10398.098575842212, -6796.9196196698695, -9882.600293469464, -7585.198591375183, -10429.480425057463, -12446.926527849022, -8773.149105685843, -6925.3527433100635, -7361.301167166373, -10158.309061325677, -12778.782877776966, -17337.801139092582, 0.005, 0.23700000000000002, 0.9480000000000001, 192.0, 0.0, 0.0, 0.0, 0.0, 0.0, 0.0, 0.0, 0.0, 0.0, 1.644587350394609E9, 0.0, 2022-02-12 00:49:10.394
174.0, -10897.481250462683, -10487.1255740077, -7606.969190474652, -13196.5146299022, -10396.265732796875, -6794.729148713249, -9899.364101810945, -7576.280245337516, -10433.816663481792, -12454.190844796998, -8783.922646513302, -6930.158368367955, -7360.608263088258, -10161.035974149225, -12780.123982444286, -17327.89931629888, 0.006500000000000001, 0.23450000000000001, 0.9460000000000001, 192.0, 0.0, 32.0, 3.5, 32.0, 14.5, 64.0, 0.0, 0.0, 0.0, 1.644587350401578E9, 0.0, 2022-02-12 00:49:10.401
176.0, -10883.846686344945, -10470.093544732756, -7595.1004141688845, -13197.811031080608, -10387.81677339277, -6793.812727190581, -9879.873380645917, -7574.425050547726, -10426.887622700648, -12435.281268987808, -8782.290969168063, -6931.790045713192, -7348.717135038035, -10155.157465357479, -12778.24643591004, -17301.680720052806, 0.006500000000000001, 0.23450000000000001, 0.9460000000000001, 192.0, 0.0, 0.0, 0.0, 0.0, 0.0, 0.0, 0.0, 0.0, 0.0, 1.644587350409066E9, 0.0, 2022-02-12 00:49:10.409
178.0, -10882.885561333367, -10476.284977946876, -7595.681559524723, -13209.076310286084, -10394.544648473817, -6800.942933671825, -9877.347633522468, -7576.436707548703, -10445.081942687268, -12465.076144346733, -8776.837143520968, -6926.1127026215445, -7368.856056792267, -10167.383869574533, -12774.468991097092, -17353.71558114476, 0.006500000000000001, 0.23450000000000001, 0.9460000000000001, 192.0, 0.0, 0.0, 0.0, 0.0, 0.0, 0.0, 0.0, 0.0, 0.0, 1.64458735041714E9, 0.0, 2022-02-12 00:49:10.417
180.0, -10888.451145702738, -10479.190704726065, -7593.178164145728, -13192.156039733416, -10374.919816842059, -6792.136346356434, -9878.375813767412, -7568.077155122418, -10429.25690761291, -12438.768141122835, -8782.045099979056, -6924.5257287652175, -7337.675373277113, -10164.433439306431, -12770.28921488395, -17292.31533912603, 0.006500000000000001, 0.23450000000000001, 0.9460000000000001, 192.0, 0.0, 0.0, 0.0, 0.0, 0.0, 0.0, 0.0, 0.0, 0.0, 1.644587350425034E9, 0.0, 2022-02-12 00:49:10.425
182.0, -10886.506543935126, -10485.024510028901, -7585.8244402199325, -13207.556391663122, -10383.905218113092, -6796.137308613934, -9877.325281778012, -7572.011062146553, -10434.777788493371, -12438.924603334022, -8773.238512663665, -6908.2089553128435, -7362.195236944585, -10162.555892772185, -12772.18911316265, -17333.263734968154, 0.006500000000000001, 0.23450000000000001, 0.9460000000000001, 192.0, 0.0, 0.0, 0.0, 0.0, 0.0, 0.0, 0.0, 0.0, 0.0, 1.644587350432165E9, 0.0, 2022-02-12 00:49:10.432
184.0, -10881.835029343967, -10478.676614603593, -7595.7486147580885, -13203.242504983247, -10386.855648381192, -6791.510497511685, -9894.022034886126, -7577.464887793647, -10429.078093657266, -12457.968289609944, -8778.669986566305, -6915.965010638834, -7361.0105944884535, -10153.861064179071, -12773.8654939968, -17325.887659297903, 0.00625, 0.23325, 0.9440000000000001, 192.0, 0.0, 24.0, 3.5, 32.0, 14.5, 56.0, 0.0, 0.0, 0.0, 1.644587350440204E9, 0.0, 2022-02-12 00:49:10.440
186.0, -10870.726212349678, -10465.64554758615, -7586.0032541755745, -13201.744938104743, -10384.799287891305, -6793.052767879101, -9880.610988212942, -7571.139344112796, -10416.717578973483, -12419.277419957807, -8780.525181356095, -6923.430493286907, -7337.876538977211, -10149.860101921571, -12774.223121908084, -17294.19288566028, 0.00625, 0.23325, 0.9440000000000001, 192.0, 0.0, 0.0, 0.0, 0.0, 0.0, 0.0, 0.0, 0.0, 0.0, 1.644587350446683E9, 0.0, 2022-02-12 00:49:10.446
188.0, -10903.136241809874, -10483.482239661484, -7591.904114711776, -13213.5690109216, -10401.808965421793, -6803.222811606266, -9890.445755773277, -7572.949835413675, -10437.705867017015, -12459.063525088255, -8769.30460563953, -6915.94265889438, -7350.460571105549, -10157.705564225384, -12775.832447508867, -17352.061552055067, 0.00625, 0.23325, 0.9440000000000001, 192.0, 0.0, 0.0, 0.0, 0.0, 0.0, 0.0, 0.0, 0.0, 0.0, 1.64458735045621E9, 0.0, 2022-02-12 00:49:10.456
190.0, -10887.847648602445, -10474.116858734711, -7593.781661246021, -13194.838249068052, -10376.998529076402, -6789.834116677537, -9890.222238328724, -7579.2530273500715, -10426.39588432263, -12446.300679004275, -8778.200599932743, -6912.522841992717, -7347.756010026456, -10157.638508992019, -12780.168685933195, -17293.857609493447, 0.00625, 0.23325, 0.9440000000000001, 192.0, 0.0, 0.0, 0.0, 0.0, 0.0, 0.0, 0.0, 0.0, 0.0, 1.644587350462277E9, 0.0, 2022-02-12 00:49:10.462
192.0, -10860.53381687806, -10452.994460224445, -7583.924541941231, -13211.624409153988, -10377.110287798678, -6789.811764933082, -9876.744136422174, -7567.339547555393, -10432.810834981303, -12445.428960970517, -8770.869227751402, -6903.246868043765, -7330.8357394737895, -10144.003944874281, -12777.330014387371, -17331.922630300836, 0.00625, 0.23325, 0.9440000000000001, 192.0, 0.0, 0.0, 0.0, 0.0, 0.0, 0.0, 0.0, 0.0, 0.0, 1.644587350469338E9, 0.0, 2022-02-12 00:49:10.469
194.0, -10877.029404286075, -10452.25685265742, -7591.099451911385, -13204.740071861754, -10364.81682834826, -6792.650436478906, -9881.125078335415, -7578.984806416608, -10421.567907520284, -12445.630126670614, -8771.986814974167, -6919.720103707326, -7337.898890721666, -10140.986459372814, -12770.043345694941, -17324.166574974846, 0.00625, 0.23325, 0.9440000000000001, 192.0, 0.0, 0.0, 3.5, 64.0, 14.5, 80.0, 0.0, 0.0, 0.0, 1.64458735047729E9, 0.0, 2022-02-12 00:49:10.477
196.0, -10855.14704646433, -10470.317062177308, -7583.164582629751, -13202.750766605232, -10356.256110221877, -6779.284093294632, -9862.394316481867, -7561.148114341273, -10417.298724329321, -12426.98877179489, -8774.221989419699, -6916.74732169477, -7301.309085048329, -10144.048648363192, -12764.008374692008, -17291.28715888109, 0.00625, 0.23325, 0.9440000000000001, 192.0, 0.0, 0.0, 0.0, 0.0, 0.0, 0.0, 0.0, 0.0, 0.0, 1.64458735048389E9, 0.0, 2022-02-12 00:49:10.483
198.0, -10882.036195044064, -10460.459942872518, -7584.483335552613, -13212.429071954379, -10366.090877782211, -6783.709738696783, -9871.156200308347, -7562.623329475324, -10428.87692795717, -12431.280306730308, -8760.16274215731, -6897.122490063011, -7334.903756964655, -10139.690058194406, -12760.38739209025, -17342.33854321701, 0.00625, 0.23325, 0.9440000000000001, 192.0, 0.0, 0.0, 0.0, 0.0, 0.0, 0.0, 0.0, 0.0, 0.0, 1.644587350492093E9, 0.0, 2022-02-12 00:49:10.492
200.0, -10865.406497169317, -10445.0148874539, -7584.840963463898, -13196.693443857843, -10351.80811307527, -6772.802087402593, -9879.560456223542, -7564.411469031748, -10397.025692108356, -12403.072405227711, -8767.136486427366, -6916.814376928137, -7331.305126107351, -10142.86400590706, -12761.57203454638, -17281.541798298575, 0.00625, 0.23325, 0.9440000000000001, 192.0, 0.0, 0.0, 0.0, 0.0, 0.0, 0.0, 0.0, 0.0, 0.0, 1.644587350499949E9, 0.0, 2022-02-12 00:49:10.499
202.0, -10855.728191820168, -10460.191721939054, -7579.320082583437, -13203.175449749882, -10351.71870609745, -6776.512476982174, -9850.458484942734, -7567.6301202333125, -10412.582506249251, -12426.429978183507, -8746.103494894922, -6896.988379596279, -7323.236146358985, -10122.322752752632, -12762.086124668853, -17320.05385399507, 0.00625, 0.23325, 0.9440000000000001, 192.0, 0.0, 0.0, 0.0, 0.0, 0.0, 0.0, 0.0, 0.0, 0.0, 1.644587350513832E9, 0.0, 2022-02-12 00:49:10.513
204.0, -10855.236453442152, -10453.0168119689, -7591.479431567125, -13196.201705479825, -10353.61860437615, -6774.657282192384, -9872.921988120317, -7572.59220750239, -10419.82447145277, -12442.634992913603, -8756.675870022282, -6899.156498808444, -7311.546184008859, -10145.613270475063, -12760.879130468265, -17315.203525448265, 0.005125, 0.23362500000000003, 0.9470000000000001, 192.0, 0.0, 16.0, 3.5, 40.0, 14.5, 88.0, 0.0, 0.0, 0.0, 1.644587350522166E9, 0.0, 2022-02-12 00:49:10.522
206.0, -10854.85647378641, -10450.938099734558, -7585.623274519834, -13200.5155921597, -10350.690525852506, -6769.516380967663, -9866.305871761546, -7555.0684398494295, -10410.68260797055, -12411.968399520923, -8770.958634729222, -6907.404292512452, -7317.0447131448645, -10139.66770644995, -12766.444714837637, -17286.928568712305, 0.005125, 0.23362500000000003, 0.9470000000000001, 192.0, 0.0, 0.0, 0.0, 0.0, 0.0, 0.0, 0.0, 0.0, 0.0, 1.64458735053036E9, 0.0, 2022-02-12 00:49:10.530
208.0, -10889.881657347878, -10471.635815100171, -7591.390024589304, -13215.37950222248, -10350.28819445231, -6778.971168872258, -9855.532330934087, -7560.321099796427, -10438.01879143939, -12441.964440579944, -8764.856608492924, -6908.030141357201, -7307.813442684823, -10127.731874910818, -12761.035592679453, -17339.097540270992, 0.005125, 0.23362500000000003, 0.9470000000000001, 192.0, 0.0, 0.0, 0.0, 0.0, 0.0, 0.0, 0.0, 0.0, 0.0, 1.644587350537946E9, 0.0, 2022-02-12 00:49:10.537
210.0, -10887.735889880169, -10473.26749244541, -7586.606751275868, -13203.823650339085, -10338.128845468622, -6767.035337333124, -9859.600348424954, -7559.069402106929, -10422.081997642756, -12421.110263003144, -8771.092745195954, -6925.889185176991, -7327.080646405298, -10143.355744285076, -12758.018107177986, -17282.569978543517, 0.005125, 0.23362500000000003, 0.9470000000000001, 192.0, 0.0, 0.0, 0.0, 0.0, 0.0, 0.0, 0.0, 0.0, 0.0, 1.644587350544557E9, 0.0, 2022-02-12 00:49:10.544
212.0, -10863.841875057446, -10458.135361449165, -7579.320082583437, -13211.378539964979, -10338.084141979713, -6769.67284317885, -9858.95214783575, -7553.436762504192, -10421.411445309097, -12429.022780540321, -8762.68848928076, -6901.548135465162, -7308.7075124630355, -10131.263450534756, -12757.682831011158, -17323.652484852373, 0.005125, 0.23362500000000003, 0.9470000000000001, 192.0, 0.0, 0.0, 0.0, 0.0, 0.0, 0.0, 0.0, 0.0, 0.0, 1.6445873505523E9, 0.0, 2022-02-12 00:49:10.552
214.0, -10863.461895401704, -10454.73789629196, -7588.752518743578, -13206.28234222917, -10332.227984932422, -6771.751555413193, -9859.71210714723, -7561.9974806305745, -10421.746721475927, -12443.707876647459, -8759.179265401277, -6905.839670400581, -7302.560782737825, -10130.86111913456, -12757.302851355416, -17318.779804561116, 0.0035625, 0.23581250000000004, 0.9505000000000001, 192.0, 0.0, 8.0, 3.5, 56.0, 14.5, 104.0, 0.0, 0.0, 0.0, 1.644587350560398E9, 0.0, 2022-02-12 00:49:10.560
216.0, -10857.918662776789, -10437.080018172266, -7575.430879048215, -13206.32704571808, -10318.481662092408, -6760.598034929995, -9847.955089563739, -7550.799256658466, -10402.524221244363, -12410.22496345341, -8760.810942746513, -6912.768711181726, -7289.194439553552, -10121.182813785412, -12758.420438578181, -17288.537894313085, 0.0035625, 0.23581250000000004, 0.9505000000000001, 192.0, 0.0, 0.0, 0.0, 0.0, 0.0, 0.0, 0.0, 0.0, 0.0, 1.644587350566375E9, 0.0, 2022-02-12 00:49:10.566
218.0, -10885.612474156915, -10466.271396430899, -7583.253989607572, -13214.820708611096, -10335.468987878441, -6772.0868315800235, -9861.76846763712, -7565.953739399164, -10422.909012187602, -12435.214213754442, -8741.610794259404, -6904.029179099701, -7291.58607621027, -10115.52782243822, -12756.118208899285, -17346.093636285503, 0.0035625, 0.23581250000000004, 0.9505000000000001, 192.0, 0.0, 0.0, 0.0, 0.0, 0.0, 0.0, 0.0, 0.0, 0.0, 1.644587350573909E9, 0.0, 2022-02-12 00:49:10.573
220.0, -10878.839895586956, -10459.632928327672, -7590.40654783327, -13203.354263705525, -10330.641011076095, -6775.2607792926765, -9859.466237958222, -7570.8040679459655, -10422.439625554041, -12440.623335912625, -8759.961576457212, -6908.097196590566, -7302.650189715647, -10134.392694758499, -12761.952014202121, -17291.555379814552, 0.0035625, 0.23581250000000004, 0.9505000000000001, 192.0, 0.0, 0.0, 0.0, 0.0, 0.0, 0.0, 0.0, 0.0, 0.0, 1.644587350583284E9, 0.0, 2022-02-12 00:49:10.583
222.0, -10873.7660495956, -10458.381230638175, -7586.606751275868, -13216.295923745147, -10342.286269937309, -6770.030471090135, -9861.969633337216, -7562.846846919876, -10435.06836117129, -12436.980001566411, -8763.873131736891, -6908.432472757397, -7313.423730543105, -10142.796950673694, -12761.460275824104, -17332.14614774539, 0.0035625, 0.23581250000000004, 0.9505000000000001, 192.0, 0.0, 0.0, 0.0, 0.0, 0.0, 0.0, 0.0, 0.0, 0.0, 1.644587350589392E9, 0.0, 2022-02-12 00:49:10.589
224.0, -10834.762255521091, -10457.442457371051, -7592.418204834248, -13205.343568962047, -10330.059865720257, -6772.2656455356655, -9859.421534469311, -7556.498951494569, -10428.273430856876, -12434.945992820978, -8772.456201607729, -6911.785234425693, -7311.21090784203, -10131.330505768121, -12757.615775777791, -17316.678740582316, 0.00778125, 0.23190625000000004, 0.95225, 192.0, 0.0, 48.0, 3.5, 16.0, 14.5, 104.0, 0.0, 0.0, 0.0, 1.644587350597956E9, 0.0, 2022-02-12 00:49:10.597
226.0, -10883.422003200294, -10472.239312200465, -7579.185972116706, -13203.153098005427, -10319.867470248637, -6761.648566919394, -9846.725743618697, -7558.220035817628, -10420.1597476196, -12428.486338673394, -8775.630149320383, -6901.436376742885, -7300.280904803384, -10129.81058714516, -12755.514711798993, -17289.007280946647, 0.00778125, 0.23190625000000004, 0.95225, 192.0, 0.0, 0.0, 0.0, 0.0, 0.0, 0.0, 0.0, 0.0, 0.0, 1.644587350604492E9, 0.0, 2022-02-12 00:49:10.604
228.0, -10887.065337546508, -10460.906977761624, -7581.64466400679, -13218.553449935132, -10336.161891956555, -6768.622311189451, -9858.66157515783, -7565.193780087684, -10433.146111148133, -12446.926527849022, -8744.181244871765, -6893.657969672438, -7282.757137150424, -10101.692092620384, -12761.594386290835, -17346.361857218966, 0.00778125, 0.23190625000000004, 0.95225, 192.0, 0.0, 0.0, 0.0, 0.0, 0.0, 0.0, 0.0, 0.0, 0.0, 1.644587350613987E9, 0.0, 2022-02-12 00:49:10.613
230.0, -10890.194581770253, -10457.68832656006, -7582.851658207376, -13198.436879925357, -10322.840252261192, -6756.462962205764, -9860.561473436532, -7547.982936857097, -10418.259849340899, -12426.161757250042, -8758.620471789895, -6904.207993055344, -7283.003006339432, -10124.24500277579, -12763.471932825081, -17288.157914657346, 0.00778125, 0.23190625000000004, 0.95225, 192.0, 0.0, 0.0, 0.0, 0.0, 0.0, 0.0, 0.0, 0.0, 0.0, 1.644587350620098E9, 0.0, 2022-02-12 00:49:10.620
232.0, -10855.10234297542, -10434.10723615971, -7576.481411037614, -13205.18710675086, -10320.247449904376, -6759.592206429506, -9847.731572119186, -7541.523282709513, -10429.458073313008, -12440.109245790154, -8757.189960144755, -6899.201202297355, -7299.453890258538, -10123.86502312005, -12760.09681941233, -17317.058720238056, 0.00778125, 0.23190625000000004, 0.95225, 192.0, 0.0, 0.0, 0.0, 0.0, 0.0, 0.0, 0.0, 0.0, 0.0, 1.644587350634212E9, 0.0, 2022-02-12 00:49:10.634
234.0, -10856.309337176006, -10461.555178350829, -7586.807916975966, -13208.85279284153, -10326.751807540872, -6760.933311096825, -9866.61879618392, -7551.268643292027, -10434.10723615971, -12439.192824267486, -8775.36192838692, -6903.157461065944, -7310.562707252826, -10128.849462133583, -12757.258147866505, -17317.86338303845, 0.005890625, 0.23295312500000004, 0.953125, 192.0, 0.0, 16.0, 3.5, 40.0, 14.5, 104.0, 0.0, 0.0, 0.0, 1.644587350642258E9, 0.0, 2022-02-12 00:49:10.642
236.0, -10876.939997308255, -10464.349146407742, -7574.581512758913, -13207.04230154065, -10312.893725978582, -6758.631081417929, -9842.724781361198, -7549.279338035505, -10414.191831850032, -12419.478585657906, -8759.179265401277, -6898.083615074589, -7287.853334886234, -10125.966087098848, -12757.146389144229, -17288.493190824174, 0.005890625, 0.23295312500000004, 0.953125, 192.0, 0.0, 0.0, 0.0, 0.0, 0.0, 0.0, 0.0, 0.0, 0.0, 1.644587350649626E9, 0.0, 2022-02-12 00:49:10.649
238.0, -10871.799096083534, -10456.570739337294, -7576.436707548703, -13215.401853966934, -10322.99671447238, -6765.761287899171, -9844.021182539605, -7557.683593950701, -10432.341448347743, -12439.997487067878, -8742.326050081974, -6894.105004561545, -7282.48891621696, -10120.646371918485, -12750.373810574272, -17345.2442699962, 0.005890625, 0.23295312500000004, 0.953125, 192.0, 0.0, 0.0, 0.0, 0.0, 0.0, 0.0, 0.0, 0.0, 0.0, 1.644587350657296E9, 0.0, 2022-02-12 00:49:10.657
240.0, -10858.231587199163, -10447.25006189943, -7585.802088475477, -13202.348435205036, -10304.109490407645, -6762.0508983195905, -9841.316621460512, -7530.280355248494, -10418.885698185648, -12425.93823980549, -8759.40278284583, -6909.706522191349, -7274.621102168692, -10126.10019756558, -12754.173607131674, -17286.593292545473, 0.005890625, 0.23295312500000004, 0.953125, 192.0, 0.0, 0.0, 0.0, 0.0, 0.0, 0.0, 0.0, 0.0, 0.0, 1.644587350665174E9, 0.0, 2022-02-12 00:49:10.665
242.0, -10835.946897977221, -10444.433742098063, -7575.7885069594995, -13208.204592252327, -10316.179432413512, -6759.122819795945, -9848.826807597496, -7537.6340791742905, -10425.59122152224, -12424.306562460251, -8754.239529876653, -6901.1681558094215, -7284.724090662491, -10115.170194526934, -12753.212482120096, -17321.730234829218, 0.005890625, 0.23295312500000004, 0.953125, 192.0, 0.0, 0.0, 0.0, 0.0, 0.0, 0.0, 0.0, 0.0, 0.0, 1.644587350672079E9, 0.0, 2022-02-12 00:49:10.672
244.0, -10872.983738539666, -10454.290861402853, -7588.730166999122, -13210.99856030924, -10302.790737484782, -6761.492104708208, -9841.942470305261, -7540.360991997838, -10425.457111055508, -12433.426074198018, -8755.535931055061, -6901.861059887536, -7268.496724187938, -10115.796043371683, -12751.938432686144, -17318.690397583294, 0.002, 0.24, 0.9580000000000001, 192.0, 0.0, 8.0, 3.5, 64.0, 14.5, 120.0, 0.0, 0.0, 0.0, 1.644587350679719E9, 0.0, 2022-02-12 00:49:10.679
246.0, -10866.837008814457, -10449.775809022882, -7577.554294771468, -13206.841135840552, -10297.001635670858, -6758.362860484464, -9831.906537044828, -7534.035448316986, -10416.181137106554, -12415.924658289512, -8753.837198476458, -6902.442205243374, -7280.9466458495435, -10124.915555109448, -12750.507921041004, -17287.17443790131, 0.002, 0.24, 0.9580000000000001, 192.0, 0.0, 0.0, 0.0, 0.0, 0.0, 0.0, 0.0, 0.0, 0.0, 1.644587350686647E9, 0.0, 2022-02-12 00:49:10.686
248.0, -10863.81952331299, -10461.085791717267, -7578.940102927698, -13212.80905161012, -10309.250391632366, -6765.113087309967, -9843.641202883864, -7540.383343742293, -10427.401712823119, -12444.601946425671, -8735.553471512017, -6890.752242893249, -7284.768794151401, -10110.945714824882, -12749.949127429622, -17342.42795019483, 0.002, 0.24, 0.9580000000000001, 192.0, 0.0, 0.0, 0.0, 0.0, 0.0, 0.0, 0.0, 0.0, 0.0, 1.644587350694634E9, 0.0, 2022-02-12 00:49:10.694
250.0, -10851.079028973465, -10446.11012293221, -7581.555257028968, -13201.5661241491, -10296.442842059474, -6755.635947660917, -9847.865682585918, -7549.033468846496, -10416.494061528929, -12422.093739759177, -8750.886768208358, -6902.665722687927, -7276.073965558287, -10119.707598651363, -12752.094894897331, -17290.013109447136, 0.002, 0.24, 0.9580000000000001, 192.0, 0.0, 0.0, 0.0, 0.0, 0.0, 0.0, 0.0, 0.0, 0.0, 1.644587350701257E9, 0.0, 2022-02-12 00:49:10.701
252.0, -10857.181055209763, -10435.15776814911, -7568.54654175598, -13216.698255145342, -10307.261086375844, -6752.104372036979, -9837.51682490311, -7534.370724483815, -10430.530957046862, -12423.323085704218, -8760.386259601863, -6904.744434922271, -7268.921407332588, -10109.604610157563, -12754.687697254145, -17326.178231975824, 0.002, 0.24, 0.9580000000000001, 192.0, 0.0, 0.0, 0.0, 0.0, 0.0, 0.0, 0.0, 0.0, 0.0, 1.644587350709793E9, 0.0, 2022-02-12 00:49:10.709
254.0, -10885.7689363681, -10468.908902276624, -7577.375480815826, -13213.501955688234, -10300.868487461627, -6771.0362995906235, -9844.244699984158, -7546.6194804453235, -10428.564003534795, -12433.090798031188, -8742.05782914851, -6905.906725633947, -7276.141020791652, -10114.231421259812, -12754.575938531869, -17325.37356917543, 0.008, 0.23800000000000002, 0.9520000000000001, 192.0, 0.0, 32.0, 3.5, 56.0, 14.5, 96.0, 0.0, 0.0, 0.0, 1.644587350717236E9, 0.0, 2022-02-12 00:49:10.717
0.0, -10872.827276328479, -10464.036221985367, -7570.826419690421, -13208.428109696879, -10302.0307781733, -6764.755459398682, -9839.461426670721, -7543.311422265938, -10421.612611009194, -12422.451367670461, -8745.276480350076, -6904.543269222173, -7259.511322916905, -10125.76492139875, -12754.352421087317, -17293.76820251563, 0.008, 0.23800000000000002, 0.9520000000000001, 192.0, 0.0, 0.0, 0.0, 0.0, 0.0, 0.0, 0.0, 0.0, 0.0, 1.644587350724143E9, 0.0, 2022-02-12 00:49:10.724
2.0, -10863.439543657249, -10469.914730777113, -7581.041166906496, -13220.587458680566, -10296.979283926403, -6765.247197776699, -9846.323412218502, -7543.06555307693, -10437.482349572463, -12447.775894138324, -8747.377544328874, -6893.0768243166, -7264.093430530243, -10118.277087006223, -12757.034630421953, -17345.668953140852, 0.008, 0.23800000000000002, 0.9520000000000001, 192.0, 0.0, 0.0, 0.0, 0.0, 0.0, 0.0, 0.0, 0.0, 0.0, 1.644587350731784E9, 0.0, 2022-02-12 00:49:10.731
4.0, -10856.063467986998, -10443.45026534203, -7580.728242484122, -13205.097699773038, -10293.201839113455, -6751.255005747677, -9842.970650550205, -7536.605898929346, -10422.931363932057, -12424.574783393715, -8766.82356200499, -6909.594763469072, -7276.386889980661, -10118.411197472955, -12755.872339710277, -17283.620510532917, 0.008, 0.23800000000000002, 0.9520000000000001, 192.0, 0.0, 0.0, 0.0, 0.0, 0.0, 0.0, 0.0, 0.0, 0.0, 1.644587350739851E9, 0.0, 2022-02-12 00:49:10.739
6.0, -10833.979944465154, -10450.379306123175, -7577.911922682753, -13217.659380156922, -10295.2805513478, -6755.188912771811, -9825.111606730416, -7536.49414020707, -10425.188890122045, -12418.115129246133, -8756.184131644266, -6902.129280821, -7284.612331940214, -10116.153671282967, -12755.00062167652, -17320.165612717345, 0.008, 0.23800000000000002, 0.9520000000000001, 192.0, 0.0, 0.0, 0.0, 0.0, 0.0, 0.0, 0.0, 0.0, 0.0, 1.644587350747748E9, 0.0, 2022-02-12 00:49:10.747
8.0, -10873.788401340056, -10462.35984115122, -7582.02464366253, -13205.120051517493, -10289.402042556054, -6755.725354638738, -9851.598423909954, -7544.227843788606, -10429.189852379544, -12441.249184757375, -8758.106381667421, -6904.967952366824, -7275.20224752453, -10126.301363265678, -12755.24649086553, -17323.85365055247, 0.012, 0.242, 0.9500000000000001, 192.0, 0.0, 48.0, 3.5, 72.0, 14.5, 88.0, 0.0, 0.0, 0.0, 1.644587350762056E9, 0.0, 2022-02-12 00:49:10.762
10.0, -10870.636805371858, -10445.439570598552, -7566.557236499458, -13205.388272450957, -10287.949179166459, -6742.2696044766435, -9846.837502340974, -7544.8536926333545, -10421.500852286918, -12417.489280401383, -8739.241509347143, -6895.155536550944, -7261.321814217784, -10107.168270011935, -12759.828598478867, -17285.967443700727, 0.012, 0.242, 0.9500000000000001, 192.0, 0.0, 0.0, 0.0, 0.0, 0.0, 0.0, 0.0, 0.0, 0.0, 1.64458735077089E9, 0.0, 2022-02-12 00:49:10.770
12.0, -10858.902139532822, -10448.010021210912, -7571.318158068438, -13215.781833622676, -10291.212533856933, -6749.735087124716, -9839.640240626364, -7530.302706992949, -10432.296744858832, -12434.968344565434, -8739.599137258427, -6890.685187659882, -7255.331546703762, -10088.66102560294, -12753.704220498112, -17342.383246705922, 0.012, 0.242, 0.9500000000000001, 192.0, 0.0, 0.0, 0.0, 0.0, 0.0, 0.0, 0.0, 0.0, 0.0, 1.644587350777954E9, 0.0, 2022-02-12 00:49:10.777
14.0, -10853.783590052557, -10447.205358410522, -7571.765192957544, -13197.207533980314, -10274.672242960007, -6754.406601715876, -9830.386618421868, -7525.228861001595, -10419.48919528594, -12417.690446101482, -8754.261881621109, -6900.9893418537795, -7235.058514482798, -10120.266392262745, -12747.825711706366, -17281.072411665013, 0.012, 0.242, 0.9500000000000001, 192.0, 0.0, 0.0, 0.0, 0.0, 0.0, 0.0, 0.0, 0.0, 0.0, 1.644587350784004E9, 0.0, 2022-02-12 00:49:10.784
16.0, -10853.560072608003, -10450.759285778915, -7562.109239352852, -13203.846002083541, -10282.562408752729, -6745.778828356127, -9829.045513754549, -7532.806102371944, -10429.659239013105, -12434.253088742864, -8731.105474365411, -6877.832934598081, -7251.732915846457, -10112.018598558736, -12750.731438485556, -17314.75649055916, 0.012, 0.242, 0.9500000000000001, 192.0, 0.0, 0.0, 0.0, 0.0, 0.0, 0.0, 0.0, 0.0, 0.0, 1.644587350792052E9, 0.0, 2022-02-12 00:49:10.792
18.0, -10837.891499744834, -10435.001305937923, -7569.664128978745, -13204.896534072941, -10274.69459470446, -6750.539749925108, -9837.382714436379, -7550.620442702823, -10423.892488943637, -12444.065504558743, -8733.63122148886, -6894.1273563059995, -7261.590035151248, -10102.250886231766, -12747.289269839439, -17317.57281036053, 0.006, 0.24, 0.9540000000000001, 192.0, 0.0, 24.0, 3.5, 64.0, 14.5, 104.0, 0.0, 0.0, 0.0, 1.64458735080004E9, 0.0, 2022-02-12 00:49:10.800
20.0, -10836.14806367732, -10430.10627390221, -7570.312329567949, -13200.001502037228, -10279.164943595522, -6743.007212043669, -9826.810339309019, -7534.594241928368, -10410.190869592532, -12409.17443146401, -8742.25899484861, -6897.681283674394, -7253.789276336346, -10092.036139015692, -12754.061848409397, -17286.19096114528, 0.006, 0.24, 0.9540000000000001, 192.0, 0.0, 0.0, 0.0, 0.0, 0.0, 0.0, 0.0, 0.0, 0.0, 1.644587350806607E9, 0.0, 2022-02-12 00:49:10.806
22.0, -10842.853587013911, -10448.457056100018, -7571.251102835072, -13209.433938197368, -10291.391347812576, -6754.786581371615, -9844.132941261882, -7539.198701286162, -10422.529032531862, -12432.17437650852, -8736.1122651234, -6878.056452042634, -7253.34224144724, -10107.749415367773, -12757.90634845571, -17338.158767003868, 0.006, 0.24, 0.9540000000000001, 192.0, 0.0, 0.0, 0.0, 0.0, 0.0, 0.0, 0.0, 0.0, 0.0, 1.644587350813569E9, 0.0, 2022-02-12 00:49:10.813
24.0, -10843.211214925197, -10431.290916358343, -7571.608730746357, -13193.47479265628, -10273.755821437338, -6749.980956313724, -9837.673287114298, -7535.711829151133, -10415.242363839432, -12429.693332873981, -8735.620526745382, -6884.6725684014045, -7250.995308279433, -10114.343179982088, -12758.107514155809, -17285.162780900333, 0.006, 0.24, 0.9540000000000001, 192.0, 0.0, 0.0, 0.0, 0.0, 0.0, 0.0, 0.0, 0.0, 0.0, 1.644587350821655E9, 0.0, 2022-02-12 00:49:10.821
26.0, -10823.116996659875, -10437.30353561682, -7561.282224808005, -13207.779909107676, -10271.140667336067, -6739.028601530624, -9824.865737541406, -7532.403770971749, -10420.1597476196, -12423.032513026299, -8729.339686553441, -6874.301358974142, -7243.775694820368, -10099.56867689713, -12752.877205953266, -17313.817717292037, 0.006, 0.24, 0.9540000000000001, 192.0, 0.0, 0.0, 0.0, 0.0, 0.0, 0.0, 0.0, 0.0, 0.0, 1.644587350831739E9, 0.0, 2022-02-12 00:49:10.831
28.0, -10847.100418460419, -10444.344335120242, -7574.603864503368, -13201.968455549295, -10265.284510288777, -6741.911976565359, -9824.642220096854, -7519.9091458212315, -10422.68549474305, -12427.391103195085, -8737.63218374636, -6881.520972433206, -7234.052685982309, -10100.507450164254, -12748.228043106563, -17315.94113301529, 0.01, 0.24, 0.9560000000000001, 192.0, 0.0, 40.0, 3.5, 64.0, 14.5, 112.0, 0.0, 0.0, 0.0, 1.644587350838162E9, 0.0, 2022-02-12 00:49:10.838
30.0, -10870.078011760475, -10439.248137384431, -7562.198646330673, -13199.889743314952, -10266.245635300354, -6737.575738141029, -9830.543080633055, -7521.138491766274, -10411.06258762629, -12412.147213476565, -8736.20167210122, -6890.0146353262235, -7247.463732655494, -10101.289761220189, -12746.171682616674, -17278.166684885822, 0.01, 0.24, 0.9560000000000001, 192.0, 0.0, 0.0, 0.0, 0.0, 0.0, 0.0, 0.0, 0.0, 0.0, 1.644587350844513E9, 0.0, 2022-02-12 00:49:10.844
32.0, -10866.926415792277, -10446.467750843496, -7566.289015565993, -13211.803223109631, -10272.861751659126, -6747.1422847679005, -9832.80060682304, -7534.482483206092, -10433.101407659222, -12444.311373747752, -8727.216270830188, -6883.107946289533, -7244.267433198385, -10088.258694202745, -12750.820845463377, -17339.209298993268, 0.01, 0.24, 0.9560000000000001, 192.0, 0.0, 0.0, 0.0, 0.0, 0.0, 0.0, 0.0, 0.0, 0.0, 1.644587350852639E9, 0.0, 2022-02-12 00:49:10.852
34.0, -10844.373505636871, -10438.599936795228, -7567.428954533215, -13195.128821745971, -10258.109600318623, -6730.400828170876, -9830.833653310974, -7520.065608032419, -10415.331770817253, -12423.613658382137, -8736.671058734782, -6893.121527805511, -7234.276203426863, -10098.361682696544, -12748.898595440221, -17281.675908765308, 0.01, 0.24, 0.9560000000000001, 192.0, 0.0, 0.0, 0.0, 0.0, 0.0, 0.0, 0.0, 0.0, 0.0, 1.644587350859566E9, 0.0, 2022-02-12 00:49:10.859
36.0, -10818.736054746634, -10431.514433802895, -7561.125762596818, -13208.383406207968, -10265.373917266597, -6735.608784628962, -9828.732589332174, -7532.7613988830335, -10416.717578973483, -12407.721568074414, -8734.145311611332, -6876.111850275022, -7233.784465048846, -10079.094478976069, -12752.184301875152, -17308.81092653405, 0.01, 0.24, 0.9560000000000001, 192.0, 0.0, 0.0, 0.0, 0.0, 0.0, 0.0, 0.0, 0.0, 0.0, 1.644587350866788E9, 0.0, 2022-02-12 00:49:10.866
38.0, -10844.28409865905, -10444.746666520437, -7567.518361511035, -13199.599170637033, -10269.106658590634, -6737.3969241853865, -9825.670400341798, -7519.283296976483, -10426.641753511638, -12430.162719507542, -8741.856663448414, -6880.895123588458, -7232.421008637072, -10099.456918174854, -12748.406857062204, -17316.81285104905, 0.014, 0.242, 0.9480000000000001, 192.0, 0.0, 56.0, 3.5, 72.0, 14.5, 80.0, 0.0, 0.0, 0.0, 1.644587350881978E9, 0.0, 2022-02-12 00:49:10.881
40.0, -10843.613546325392, -10426.597050022729, -7555.291957293983, -13195.017063023695, -10255.002707839336, -6722.845938544981, -9816.081501970471, -7511.236668972572, -10411.82254693777, -12406.559277362738, -8729.25027957562, -6880.515143932717, -7210.248078137408, -10097.445261173876, -12749.055057651409, -17274.165722628324, 0.014, 0.242, 0.9480000000000001, 192.0, 0.0, 0.0, 0.0, 0.0, 0.0, 0.0, 0.0, 0.0, 0.0, 1.644587350890081E9, 0.0, 2022-02-12 00:49:10.890
42.0, -10841.512482346592, -10430.10627390221, -7559.7623061850445, -13209.076310286084, -10264.993937610858, -6722.890642033893, -9815.209783936714, -7513.293029462461, -10427.401712823119, -12434.253088742864, -8722.142424838832, -6877.989396809268, -7236.354915661206, -10077.082821975091, -12743.735342471045, -17325.28416219761, 0.014, 0.242, 0.9480000000000001, 192.0, 0.0, 0.0, 0.0, 0.0, 0.0, 0.0, 0.0, 0.0, 0.0, 1.644587350897848E9, 0.0, 2022-02-12 00:49:10.897
44.0, -10853.62712784137, -10425.323000588776, -7565.2831870655045, -13193.743013589743, -10251.292318259755, -6726.221051957733, -9818.339028160457, -7528.648677903257, -10407.955695147002, -12418.539812390783, -8741.834311703959, -6891.154574293444, -7229.224709179964, -10086.291740690678, -12743.400066304215, -17276.982042429692, 0.014, 0.242, 0.9480000000000001, 192.0, 0.0, 0.0, 0.0, 0.0, 0.0, 0.0, 0.0, 0.0, 0.0, 1.644587350906102E9, 0.0, 2022-02-12 00:49:10.906
46.0, -10838.271479400573, -10442.846768241736, -7552.945024126176, -13208.830441097074, -10268.74903067935, -6724.924650779325, -9826.251545697636, -7519.998552799053, -10426.842919211736, -12411.901344287557, -8723.483529506151, -6886.125431791, -7223.547366088315, -10073.618301584518, -12742.774217459468, -17311.24726667968, 0.014, 0.242, 0.9480000000000001, 192.0, 0.0, 0.0, 0.0, 0.0, 0.0, 0.0, 0.0, 0.0, 0.0, 1.644587350915417E9, 0.0, 2022-02-12 00:49:10.915
48.0, -10821.977057692655, -10431.469730313986, -7563.964434142642, -13201.879048571474, -10258.064896829712, -6717.056836731057, -9820.216574694703, -7518.38922719827, -10417.857517940703, -12428.441635184483, -8714.743997424126, -6871.753260106238, -7221.111025942687, -10082.894275533472, -12747.490435539537, -17313.728310314218, 0.008, 0.24, 0.9480000000000001, 192.0, 0.0, 32.0, 3.5, 64.0, 14.5, 80.0, 0.0, 0.0, 0.0, 1.644587350921854E9, 0.0, 2022-02-12 00:49:10.921
50.0, -10855.214101697697, -10416.471709784473, -7568.300672566971, -13201.767289849198, -10253.326327005188, -6716.498043119675, -9820.37303690589, -7528.291049991972, -10409.587372492239, -12397.9762074919, -8731.0607708765, -6880.090460788067, -7219.032313708343, -10076.054641730147, -12746.126979127763, -17276.982042429692, 0.008, 0.24, 0.9480000000000001, 192.0, 0.0, 0.0, 0.0, 0.0, 0.0, 0.0, 0.0, 0.0, 0.0, 1.644587350928173E9, 0.0, 2022-02-12 00:49:10.928
52.0, -10853.113037718897, -10440.075151929279, -7570.200570845673, -13210.842098098052, -10255.337984006166, -6724.209394956755, -9823.882260785373, -7523.552480167446, -10436.521224560884, -12428.285172973297, -8734.368829055886, -6884.73962363477, -7204.861307723679, -10089.890371547983, -12749.18916811814, -17336.370627447443, 0.008, 0.24, 0.9480000000000001, 192.0, 0.0, 0.0, 0.0, 0.0, 0.0, 0.0, 0.0, 0.0, 0.0, 1.644587350934655E9, 0.0, 2022-02-12 00:49:10.934
54.0, -10869.899197804833, -10442.73500951946, -7573.978015658619, -13196.000539779729, -10248.02896356928, -6723.471787389731, -9824.195185207747, -7510.1637852387175, -10437.68351527256, -12409.085024486189, -8748.763352485103, -6886.728928891293, -7222.09450269872, -10089.152763980957, -12750.7090867411, -17279.79836223106, 0.008, 0.24, 0.9480000000000001, 192.0, 0.0, 0.0, 0.0, 0.0, 0.0, 0.0, 0.0, 0.0, 0.0, 1.644587350941417E9, 0.0, 2022-02-12 00:49:10.941
56.0, -10838.159720678297, -10417.298724329321, -7563.316233553438, -13209.724510875287, -10267.050298100747, -6723.695304834284, -9830.5207288886, -7519.707980121134, -10446.803027010326, -12402.871239527612, -8749.63507051886, -6879.285797987676, -7232.331601659251, -10076.94871150836, -12750.99965941902, -17310.84493527948, 0.009000000000000001, 0.237, 0.9490000000000001, 192.0, 0.0, 40.0, 3.5, 40.0, 14.5, 88.0, 0.0, 0.0, 0.0, 1.644587350948921E9, 0.0, 2022-02-12 00:49:10.948
58.0, -10876.425907185783, -10448.881739244669, -7575.296768581483, -13206.505859673724, -10256.477922973387, -6718.330886165009, -9833.404103923334, -7527.508738936036, -10445.260756642909, -12411.856640798645, -8741.342573325941, -6889.232324270288, -7232.823340037267, -10076.367566152521, -12751.491397797037, -17321.32790342902, 0.009000000000000001, 0.237, 0.9490000000000001, 192.0, 0.0, 0.0, 0.0, 0.0, 0.0, 0.0, 0.0, 0.0, 0.0, 1.644587350956879E9, 0.0, 2022-02-12 00:49:10.956
60.0, -10870.659157116314, -10447.339468877253, -7571.184047601706, -13204.315388717103, -10255.874425873093, -6710.70894130575, -9832.062999256015, -7505.782843325477, -10436.342410605243, -12378.30667237123, -8742.594271015438, -6891.512202204729, -7222.76505503238, -10068.969138737815, -12751.379639074761, -17278.99369943067, 0.009000000000000001, 0.237, 0.9490000000000001, 192.0, 0.0, 0.0, 0.0, 0.0, 0.0, 0.0, 0.0, 0.0, 0.0, 1.644587350964865E9, 0.0, 2022-02-12 00:49:10.964
62.0, -10856.152874964819, -10420.495023786429, -7572.279283080016, -13209.791566108654, -10257.304937518233, -6723.158862967356, -9816.059150226016, -7520.356180710338, -10452.122742190688, -12415.656437356049, -8740.783779714558, -6872.759088606726, -7225.670781811569, -10060.989565967271, -12749.747961729523, -17336.14711000289, 0.009000000000000001, 0.237, 0.9490000000000001, 192.0, 0.0, 0.0, 0.0, 0.0, 0.0, 0.0, 0.0, 0.0, 0.0, 1.644587350971421E9, 0.0, 2022-02-12 00:49:10.971
64.0, -10837.332706133451, -10420.852651697714, -7575.162658114751, -13189.831458310064, -10243.446855955943, -6722.443607144786, -9818.18256594927, -7512.331904450883, -10432.788483236847, -12404.860544784135, -8751.892596708847, -6877.721175875804, -7225.693133556025, -10078.468630131321, -12746.350496572317, -17283.88873146638, 0.009000000000000001, 0.237, 0.9490000000000001, 192.0, 0.0, 0.0, 0.0, 0.0, 0.0, 0.0, 0.0, 0.0, 0.0, 1.644587350979463E9, 0.0, 2022-02-12 00:49:10.979
66.0, -10829.911926974288, -10425.747683733427, -7563.9867858870975, -13205.768252106698, -10251.113504304112, -6721.773054811127, -9822.116472973405, -7524.245384245562, -10434.978954193468, -12395.45046036845, -8750.30562285252, -6870.076879272089, -7207.968200202966, -10076.23345568579, -12748.183339617652, -17313.728310314218, 0.0085, 0.2365, 0.9475, 192.0, 0.0, 32.0, 3.5, 48.0, 14.5, 72.0, 0.0, 0.0, 0.0, 1.644587350987483E9, 0.0, 2022-02-12 00:49:10.987
68.0, -10870.457991416215, -10434.263698370898, -7570.602902245868, -13208.651627141433, -10251.046449070745, -6719.537880365597, -9814.785100792064, -7509.023846271497, -10432.922593703579, -12408.056844241244, -8745.25412860562, -6871.93207406188, -7230.2305376804525, -10068.276234659701, -12744.830577949355, -17319.42800515032, 0.0085, 0.2365, 0.9475, 192.0, 0.0, 0.0, 0.0, 0.0, 0.0, 0.0, 0.0, 0.0, 0.0, 1.644587350994937E9, 0.0, 2022-02-12 00:49:10.994
70.0, -10880.851552587934, -10450.379306123175, -7566.892512666287, -13198.66039736991, -10249.884158359071, -6717.772092553627, -9809.84536526744, -7505.224049714095, -10434.598974537728, -12388.476716098396, -8738.25803259111, -6880.69395788836, -7218.540575330327, -10047.936147205372, -12750.485569296548, -17278.032574419092, 0.0085, 0.2365, 0.9475, 192.0, 0.0, 0.0, 0.0, 0.0, 0.0, 0.0, 0.0, 0.0, 0.0, 1.644587351009549E9, 0.0, 2022-02-12 00:49:11.009
72.0, -10847.14512194933, -10433.861366970703, -7565.014966132041, -13210.573877164588, -10240.429370454476, -6724.276450190121, -9830.788949822063, -7516.265811475017, -10454.536730591863, -12424.798300838269, -8731.641916232338, -6871.239169983765, -7230.208185935997, -10072.858342273039, -12753.48070305356, -17339.119892015446, 0.0085, 0.2365, 0.9475, 192.0, 0.0, 0.0, 0.0, 0.0, 0.0, 0.0, 0.0, 0.0, 0.0, 1.644587351017435E9, 0.0, 2022-02-12 00:49:11.017
74.0, -10862.456066901215, -10420.673837742072, -7566.892512666287, -13198.034548525162, -10223.352637690621, -6723.203566456266, -9825.625696852887, -7510.208488727629, -10434.844843726736, -12398.69146331447, -8747.288137351054, -6881.968007322313, -7203.386092589628, -10070.958443994337, -12746.506958783504, -17284.33576635549, 0.0085, 0.2365, 0.9475, 192.0, 0.0, 0.0, 0.0, 0.0, 0.0, 0.0, 0.0, 0.0, 0.0, 1.644587351024726E9, 0.0, 2022-02-12 00:49:11.024
76.0, -10856.354040664917, -10424.96537267749, -7555.649585205268, -13215.267743500202, -10237.993030308848, -6724.455264145764, -9831.191281222258, -7520.266773732516, -10441.68447753006, -12391.136573688576, -8729.809073187003, -6875.642463641461, -7213.287915383329, -10079.51916212072, -12751.871377452777, -17319.09272898349, 0.0085, 0.2365, 0.9475, 192.0, 0.0, 0.0, 3.5, 40.0, 14.5, 96.0, 0.0, 0.0, 0.0, 1.64458735103265E9, 0.0, 2022-02-12 00:49:11.032
78.0, -10859.19271221074, -10440.701000774026, -7571.608730746357, -13212.362016721014, -10245.749085634838, -6724.634078101406, -9839.528481904088, -7516.15405275274, -10440.030448440368, -12424.463024671439, -8732.625392988371, -6887.466536458318, -7213.66789503907, -10079.51916212072, -12752.027839663964, -17326.04412150909, 0.0085, 0.2365, 0.9475, 192.0, 0.0, 0.0, 0.0, 0.0, 0.0, 0.0, 0.0, 0.0, 0.0, 1.644587351039788E9, 0.0, 2022-02-12 00:49:11.039
80.0, -10846.51927310458, -10442.332678119265, -7566.132553354807, -13203.600132894533, -10237.07660878618, -6722.0189240001355, -9832.510034145122, -7513.337732951371, -10436.387114094152, -12416.684617600993, -8750.484436808161, -6885.633693412983, -7199.742758243413, -10076.367566152521, -12756.76640948849, -17280.781838987095, 0.0085, 0.2365, 0.9475, 192.0, 0.0, 0.0, 0.0, 0.0, 0.0, 0.0, 0.0, 0.0, 0.0, 1.644587351047194E9, 0.0, 2022-02-12 00:49:11.047
82.0, -10852.822465040977, -10436.454169327519, -7567.227788833116, -13215.491260944757, -10255.650908428539, -6725.550499624074, -9847.463351185723, -7514.656485874234, -10450.78163752337, -12432.576707908716, -8737.676887235271, -6877.430603197886, -7224.195566677519, -10067.85155151505, -12758.152217644718, -17340.840976338503, 0.0085, 0.2365, 0.9475, 192.0, 0.0, 0.0, 0.0, 0.0, 0.0, 0.0, 0.0, 0.0, 0.0, 1.644587351055333E9, 0.0, 2022-02-12 00:49:11.055
84.0, -10876.425907185783, -10424.361875577197, -7570.178219101217, -13209.076310286084, -10236.987201808359, -6714.240516929689, -9831.66066785582, -7508.018017771008, -10437.504701316919, -12418.539812390783, -8751.40085833083, -6894.2391150282765, -7215.388979362128, -10060.877807244993, -12756.14056064374, -17286.503885567654, 0.0085, 0.2365, 0.9475, 192.0, 0.0, 0.0, 0.0, 0.0, 0.0, 0.0, 0.0, 0.0, 0.0, 1.644587351061352E9, 0.0, 2022-02-12 00:49:11.061
86.0, -10874.77187809609, -10429.055741912813, -7559.851713162865, -13210.685635886864, -10243.960946078414, -6716.766264053138, -9820.12716771688, -7502.743006079556, -10451.139265434655, -12415.36586467813, -8736.447541290228, -6870.0545275276345, -7207.208240891486, -10078.200409197856, -12752.743095486534, -17312.029577735615, 0.0085, 0.2365, 0.9475, 192.0, 0.0, 0.0, 3.5, 48.0, 14.5, 80.0, 0.0, 0.0, 0.0, 1.644587351068718E9, 0.0, 2022-02-12 00:49:11.068
88.0, -10868.401630926328, -10437.39294259464, -7567.540713255491, -13209.791566108654, -10237.07660878618, -6716.341580908487, -9833.247641712147, -7514.5670788964135, -10451.943928235047, -12433.716646875937, -8732.021895888078, -6880.090460788067, -7207.297647869307, -10069.99731898276, -12753.57011003138, -17324.99358951969, 0.0085, 0.2365, 0.9475, 192.0, 0.0, 0.0, 0.0, 0.0, 0.0, 0.0, 0.0, 0.0, 0.0, 1.6445873510783E9, 0.0, 2022-02-12 00:49:11.078
90.0, -10831.52125257507, -10428.116968645689, -7562.623329475324, -13203.75659510572, -10237.92597507548, -6716.56509835304, -9831.794778322552, -7512.309552706427, -10438.935212962058, -12401.17250694901, -8747.77987572907, -6884.136126534478, -7204.526031556849, -10077.149877208458, -12757.727534500067, -17287.75558325715, 0.0085, 0.2365, 0.9475, 192.0, 0.0, 0.0, 0.0, 0.0, 0.0, 0.0, 0.0, 0.0, 0.0, 1.644587351085487E9, 0.0, 2022-02-12 00:49:11.085
92.0, -10862.903101790322, -10437.504701316919, -7567.183085344206, -13215.178336522382, -10250.197082781444, -6720.230784443711, -9828.71023758772, -7510.566116638914, -10453.64266081365, -12426.385274694596, -8744.002430916124, -6883.756146878737, -7198.960447187477, -10065.951653236349, -12756.229967621563, -17345.087807785014, 0.0085, 0.2365, 0.9475, 192.0, 0.0, 0.0, 0.0, 0.0, 0.0, 0.0, 0.0, 0.0, 0.0, 1.644587351091677E9, 0.0, 2022-02-12 00:49:11.091
94.0, -10884.070203789497, -10436.632983283162, -7563.405640531259, -13200.202667737327, -10236.629573897073, -6712.631191328906, -9825.603345108431, -7500.843107800854, -10450.558120078817, -12431.16854800803, -8743.868320449392, -6880.291626488165, -7217.221822407463, -10056.94390022086, -12756.565243788391, -17290.057812936047, 0.0085, 0.2365, 0.9475, 192.0, 0.0, 0.0, 0.0, 0.0, 0.0, 0.0, 0.0, 0.0, 0.0, 1.644587351099341E9, 0.0, 2022-02-12 00:49:11.099
96.0, -10860.19854071123, -10432.296744858832, -7552.408582259248, -13212.987865565761, -10231.935707561459, -6718.420293142831, -9815.746225803641, -7507.772148582, -10453.888530002658, -12416.014065267333, -8724.645820217827, -6876.2236089972985, -7204.503679812394, -10050.886577473471, -12750.127941385263, -17316.119946970935, 0.00525, 0.23525000000000001, 0.94275, 192.0, 0.0, 8.0, 3.5, 40.0, 14.5, 40.0, 0.0, 0.0, 0.0, 1.644587351107535E9, 0.0, 2022-02-12 00:49:11.107
98.0, -10842.205386424708, -10431.737951247449, -7564.411469031748, -13209.858621342019, -10223.844376068637, -6719.470825132231, -9831.526557389088, -7513.561250395925, -10451.899224746136, -12436.421207955029, -8739.263861091598, -6882.862077100525, -7199.787461732324, -10060.475475844798, -12752.944261186633, -17330.00038027768, 0.00525, 0.23525000000000001, 0.94275, 192.0, 0.0, 0.0, 0.0, 0.0, 0.0, 0.0, 0.0, 0.0, 0.0, 1.644587351114681E9, 0.0, 2022-02-12 00:49:11.114
100.0, -10862.567825623491, -10420.87500344217, -7555.806047416455, -13207.75755736322, -10223.084416757158, -6712.2735634176215, -9820.015408994605, -7498.317360677405, -10433.324925103776, -12410.247315197865, -8753.926605454279, -6884.337292234575, -7194.4230430630505, -10062.218911912312, -12750.642031507736, -17287.777935001606, 0.00525, 0.23525000000000001, 0.94275, 192.0, 0.0, 0.0, 0.0, 0.0, 0.0, 0.0, 0.0, 0.0, 0.0, 1.644587351129289E9, 0.0, 2022-02-12 00:49:11.129
102.0, -10877.141163008353, -10456.414277126107, -7551.44745724767, -13217.838194112563, -10239.177672764978, -6714.75460705216, -9833.962897534717, -7499.971389767098, -10454.02264046939, -12431.593231152681, -8735.86639593439, -6873.608454896028, -7197.395825075606, -10052.60766179653, -12750.351458829817, -17343.3443717175, 0.00525, 0.23525000000000001, 0.94275, 192.0, 0.0, 0.0, 0.0, 0.0, 0.0, 0.0, 0.0, 0.0, 0.0, 1.644587351137125E9, 0.0, 2022-02-12 00:49:11.137
104.0, -10880.806849099023, -10449.30642238932, -7556.700117194667, -13208.47281318579, -10226.59364063664, -6717.906203020359, -9833.717028345709, -7507.034541014975, -10444.724314775982, -12433.157853264554, -8743.689506493749, -6891.512202204729, -7205.4648048239715, -10071.51723760572, -12752.206653619607, -17295.064603694034, 0.00525, 0.23525000000000001, 0.94275, 192.0, 0.0, 0.0, 0.0, 0.0, 0.0, 0.0, 0.0, 0.0, 0.0, 1.644587351145328E9, 0.0, 2022-02-12 00:49:11.145
106.0, -10858.231587199163, -10435.470692571485, -7549.391096757781, -13226.778891894686, -10245.83849261266, -6716.475691375219, -9833.113531245415, -7497.266828688005, -10455.319041647797, -12432.576707908716, -8738.190977357743, -6895.22259178431, -7188.969217415955, -10066.219874169812, -12756.721705999578, -17321.931400529313, 0.004625000000000001, 0.237625, 0.9413750000000001, 192.0, 0.0, 16.0, 3.5, 64.0, 14.5, 48.0, 0.0, 0.0, 0.0, 1.644587351151819E9, 0.0, 2022-02-12 00:49:11.151
108.0, -10865.875883802877, -10449.574643322783, -7560.902245152265, -13223.04615057065, -10240.205853009922, -6723.740008323194, -9842.009525538628, -7514.790596340967, -10459.454114372029, -12440.444521956984, -8745.902329194823, -6901.212859298332, -7207.789386247324, -10067.762144537228, -12760.14152290124, -17338.13641525941, 0.004625000000000001, 0.237625, 0.9413750000000001, 192.0, 0.0, 0.0, 0.0, 0.0, 0.0, 0.0, 0.0, 0.0, 0.0, 1.644587351159834E9, 0.0, 2022-02-12 00:49:11.159
110.0, -10866.993471025644, -10431.156805891611, -7554.1296665823065, -13222.286191259169, -10229.07468427118, -6715.872194274926, -9834.409932423823, -7494.696378075645, -10448.658221800117, -12414.538850133284, -8750.976175186179, -6894.864963873025, -7201.039159421821, -10063.51531309072, -12758.688659511645, -17290.4824960807, 0.004625000000000001, 0.237625, 0.9413750000000001, 192.0, 0.0, 0.0, 0.0, 0.0, 0.0, 0.0, 0.0, 0.0, 0.0, 1.644587351167837E9, 0.0, 2022-02-12 00:49:11.167
112.0, -10862.076087245476, -10433.347276848232, -7558.577663728913, -13227.270630272704, -10239.401190209532, -6727.986839769703, -9831.794778322552, -7503.659427602223, -10457.107181204223, -12445.384257481606, -8734.502939522617, -6888.1370887919775, -7196.501755297394, -10059.290833388666, -12757.258147866505, -17350.89926134339, 0.004625000000000001, 0.237625, 0.9413750000000001, 192.0, 0.0, 0.0, 0.0, 0.0, 0.0, 0.0, 0.0, 0.0, 0.0, 1.644587351174206E9, 0.0, 2022-02-12 00:49:11.174
114.0, -10881.432697943772, -10450.133436934166, -7562.9362538976975, -13213.61371441051, -10228.918222059992, -6715.671028574829, -9838.187377236769, -7517.986895798075, -10446.065419443301, -12429.358056707151, -8739.934413425257, -6889.388786481475, -7199.496889054405, -10077.641615586474, -12759.403915334215, -17301.054871208056, 0.004625000000000001, 0.237625, 0.9413750000000001, 192.0, 0.0, 0.0, 0.0, 0.0, 0.0, 0.0, 0.0, 0.0, 0.0, 1.644587351181424E9, 0.0, 2022-02-12 00:49:11.181
116.0, -10873.542532151048, -10440.231614140464, -7561.863370163843, -13220.878031358485, -10242.753951877827, -6715.514566363641, -9841.987173794172, -7514.052988773941, -10450.02167821189, -12429.447463684972, -8724.936392895746, -6878.570542165106, -7199.541592543315, -10061.99539446776, -12764.8130374924, -17326.737025587205, 0.0033125000000000003, 0.2358125, 0.9386875000000001, 192.0, 0.0, 8.0, 3.5, 40.0, 14.5, 32.0, 0.0, 0.0, 0.0, 1.644587351189259E9, 0.0, 2022-02-12 00:49:11.189
118.0, -10866.524084392082, -10439.292840873342, -7573.598036002879, -13220.453348213834, -10237.210719252911, -6711.625362828418, -9841.406028438334, -7499.256133944528, -10459.387059138664, -12444.289022003297, -8739.308564580508, -6888.405309725441, -7209.778691503846, -10064.431734613388, -12766.891749726743, -17337.085883270014, 0.0033125000000000003, 0.2358125, 0.9386875000000001, 192.0, 0.0, 0.0, 0.0, 0.0, 0.0, 0.0, 0.0, 0.0, 0.0, 1.644587351196642E9, 0.0, 2022-02-12 00:49:11.196
120.0, -10863.730116335168, -10439.292840873342, -7560.857541663354, -13215.781833622676, -10218.92699228847, -6708.876098260414, -9826.206842208725, -7502.698302590645, -10452.994460224445, -12421.825518825714, -8748.293965851542, -6893.03212082769, -7184.588275502715, -10065.616377069518, -12761.81790373539, -17293.120001926425, 0.0033125000000000003, 0.2358125, 0.9386875000000001, 192.0, 0.0, 0.0, 0.0, 0.0, 0.0, 0.0, 0.0, 0.0, 0.0, 1.644587351203841E9, 0.0, 2022-02-12 00:49:11.203
122.0, -10857.426924398771, -10442.220919396988, -7565.149076598773, -13233.5738222091, -10230.527547660775, -6717.1462437088785, -9832.487682400666, -7508.599163126846, -10462.739820806959, -12443.998449325378, -8735.754637212114, -6886.50541144674, -7181.66019697907, -10055.692202531363, -12760.09681941233, -17354.319078245055, 0.0033125000000000003, 0.2358125, 0.9386875000000001, 192.0, 0.0, 0.0, 0.0, 0.0, 0.0, 0.0, 0.0, 0.0, 0.0, 1.644587351212137E9, 0.0, 2022-02-12 00:49:11.212
124.0, -10853.314203418995, -10435.649506527127, -7566.065498121441, -13214.977170822283, -10217.518832387786, -6707.289124404088, -9839.193205737258, -7502.67595084619, -10437.705867017015, -12420.976152536412, -8743.287175093554, -6876.603588653039, -7191.405557561584, -10056.966251965316, -12755.179435632162, -17300.160801429844, 0.0033125000000000003, 0.2358125, 0.9386875000000001, 192.0, 0.0, 0.0, 0.0, 0.0, 0.0, 0.0, 0.0, 0.0, 0.0, 1.644587351219916E9, 0.0, 2022-02-12 00:49:11.219
126.0, -10859.349174421928, -10430.843881469236, -7563.003309131063, -13229.706970418332, -10231.198099994434, -6713.368798895932, -9848.983269808683, -7509.448529416148, -10442.757361263915, -12424.686542115993, -8729.451445275718, -6881.610379411028, -7184.051833635787, -10061.347193878555, -12763.04724968043, -17328.56986863254, 0.004, 0.23800000000000002, 0.9440000000000001, 192.0, 0.0, 16.0, 3.5, 56.0, 14.5, 64.0, 0.0, 0.0, 0.0, 1.644587351228035E9, 0.0, 2022-02-12 00:49:11.228
128.0, -10897.995340585154, -10453.508550346918, -7574.44740229218, -13240.011124612229, -10225.654867369518, -6716.654505330862, -9838.165025492313, -7517.159881253229, -10478.877780303692, -12451.374524995628, -8740.783779714558, -6901.525783720706, -7211.633886293636, -10059.961385722327, -12762.264938624496, -17343.567889162052, 0.004, 0.23800000000000002, 0.9440000000000001, 192.0, 0.0, 0.0, 0.0, 0.0, 0.0, 0.0, 0.0, 0.0, 0.0, 1.644587351236649E9, 0.0, 2022-02-12 00:49:11.236
130.0, -10880.069241531997, -10442.10916067471, -7560.365803285337, -13224.744883149253, -10212.333227674155, -6705.948019736769, -9822.049417740038, -7496.976256010086, -10451.183968923566, -12423.636010126593, -8734.502939522617, -6890.931056848891, -7189.371548816151, -10073.014804484226, -12757.347554844328, -17301.32309214152, 0.004, 0.23800000000000002, 0.9440000000000001, 192.0, 0.0, 0.0, 0.0, 0.0, 0.0, 0.0, 0.0, 0.0, 0.0, 1.644587351242631E9, 0.0, 2022-02-12 00:49:11.242
132.0, -10890.10517479243, -10448.546463077839, -7565.439649276692, -13237.977115866795, -10226.92891680347, -6712.765301795638, -9836.913327802817, -7517.830433586888, -10475.815591313314, -12440.533928934805, -8730.077294120467, -6884.73962363477, -7188.119851126654, -10063.80588576864, -12756.632299021758, -17355.883700356924, 0.004, 0.23800000000000002, 0.9440000000000001, 192.0, 0.0, 0.0, 0.0, 0.0, 0.0, 0.0, 0.0, 0.0, 0.0, 1.64458735125708E9, 0.0, 2022-02-12 00:49:11.257
134.0, -10870.972081538688, -10446.311288632309, -7574.223884847628, -13227.292982017158, -10215.529527131263, -6708.943153493781, -9841.338973204967, -7492.9082385192205, -10460.63875682816, -12436.778835866313, -8753.837198476458, -6897.03308308519, -7178.128621355131, -10074.601778340553, -12763.516636313992, -17306.262827666145, 0.004, 0.23800000000000002, 0.9440000000000001, 192.0, 0.0, 0.0, 0.0, 0.0, 0.0, 0.0, 0.0, 0.0, 0.0, 1.644587351264123E9, 0.0, 2022-02-12 00:49:11.264
136.0, -10866.121752991887, -10433.25786987041, -7557.7730009285215, -13227.985886095274, -10229.320553460188, -6712.251211673166, -9840.131979004382, -7498.205601955128, -10460.281128916875, -12431.146196263577, -8751.959651942212, -6881.543324177662, -7199.720406498958, -10070.80198178315, -12764.410706092205, -17326.200583720278, 0.004, 0.23800000000000002, 0.9440000000000001, 192.0, 0.0, 0.0, 3.5, 72.0, 14.5, 72.0, 0.0, 0.0, 0.0, 1.644587351272751E9, 0.0, 2022-02-12 00:49:11.272
138.0, -10896.698939406746, -10461.890454517657, -7568.881817922809, -13236.412493754924, -10231.30985871671, -6714.374627396421, -9836.131016746882, -7511.907221306232, -10472.865161045214, -12447.75354239387, -8736.447541290228, -6896.2954755181645, -7197.194659375508, -10062.978871223793, -12763.538988058448, -17342.182081005823, 0.004, 0.23800000000000002, 0.9440000000000001, 192.0, 0.0, 0.0, 0.0, 0.0, 0.0, 0.0, 0.0, 0.0, 0.0, 1.644587351279373E9, 0.0, 2022-02-12 00:49:11.279
140.0, -10897.078919062486, -10465.73495456397, -7560.20934107415, -13229.148176806948, -10218.479957399364, -6705.590391825484, -9832.979420778684, -7508.442700915659, -10462.292785917853, -12428.687504373493, -8745.410590816808, -6893.0768243166, -7182.598970246193, -10066.488095103276, -12763.918967714188, -17298.842048506984, 0.004, 0.23800000000000002, 0.9440000000000001, 192.0, 0.0, 0.0, 0.0, 0.0, 0.0, 0.0, 0.0, 0.0, 0.0, 1.644587351286933E9, 0.0, 2022-02-12 00:49:11.286
142.0, -10878.616378142402, -10453.508550346918, -7556.074268349918, -13243.453293258346, -10219.30697194421, -6705.366874380931, -9833.068827756504, -7505.022884013997, -10472.418126156108, -12464.539702479804, -8729.272631320075, -6890.55107719315, -7188.879810438134, -10065.146990435958, -12759.04628742293, -17361.739857404216, 0.004, 0.23800000000000002, 0.9440000000000001, 192.0, 0.0, 0.0, 0.0, 0.0, 0.0, 0.0, 0.0, 0.0, 0.0, 1.644587351294799E9, 0.0, 2022-02-12 00:49:11.294
144.0, -10858.477456388171, -10434.084884415255, -7564.433820776203, -13229.908136118429, -10207.415843893987, -6699.622476055918, -9834.342877190456, -7500.999570012042, -10453.910881747113, -12439.371638223129, -8742.817788459992, -6896.206068540343, -7167.869170650145, -10054.775781008695, -12754.374772831772, -17305.927551499313, 0.004, 0.23800000000000002, 0.9440000000000001, 192.0, 0.0, 0.0, 0.0, 0.0, 0.0, 0.0, 0.0, 0.0, 0.0, 1.644587351302897E9, 0.0, 2022-02-12 00:49:11.302
146.0, -10847.636860327348, -10429.636887268649, -7549.59226245788, -13233.149139064448, -10214.747216075328, -6699.309551633543, -9823.010542751616, -7497.557401365924, -10450.245195656444, -12427.949896806467, -8732.893613921835, -6893.41210048343, -7169.545551484293, -10057.502693832243, -12756.565243788391, -17330.20154597778, 0.002, 0.23800000000000002, 0.9500000000000001, 192.0, 0.0, 8.0, 3.5, 56.0, 14.5, 88.0, 0.0, 0.0, 0.0, 1.644587351308993E9, 0.0, 2022-02-12 00:49:11.308
148.0, -10882.371471210894, -10443.047933941834, -7557.817704417433, -13236.345438521557, -10219.374027177577, -6710.910107005848, -9833.269993456603, -7503.122985735296, -10464.013870240911, -12436.84589109968, -8732.379523799364, -6878.525838676195, -7189.237438349419, -10059.693164788863, -12754.665345509691, -17348.038238053112, 0.002, 0.23800000000000002, 0.9500000000000001, 192.0, 0.0, 0.0, 0.0, 0.0, 0.0, 0.0, 0.0, 0.0, 0.0, 1.644587351317964E9, 0.0, 2022-02-12 00:49:11.317
150.0, -10881.432697943772, -10453.754419535926, -7552.520340981525, -13229.014066340216, -10214.948381775426, -6710.1054442054565, -9834.208766723725, -7513.270677718006, -10455.900187003635, -12429.60392589616, -8733.385352299852, -6889.120565548011, -7168.763240428358, -10063.89529274646, -12759.225101378574, -17304.698205554272, 0.002, 0.23800000000000002, 0.9500000000000001, 192.0, 0.0, 0.0, 0.0, 0.0, 0.0, 0.0, 0.0, 0.0, 0.0, 1.64458735132517E9, 0.0, 2022-02-12 00:49:11.325
152.0, -10872.044965272542, -10447.45122759953, -7555.090791593885, -13238.513557733722, -10229.275849971276, -6709.948981994269, -9837.494473158655, -7515.550555652447, -10463.209207440521, -12447.08299006021, -8725.338724295942, -6876.737699119771, -7175.692281209503, -10050.819522240106, -12760.432095579159, -17368.02069759616, 0.002, 0.23800000000000002, 0.9500000000000001, 192.0, 0.0, 0.0, 0.0, 0.0, 0.0, 0.0, 0.0, 0.0, 0.0, 1.644587351331771E9, 0.0, 2022-02-12 00:49:11.331
154.0, -10878.8175438425, -10439.583413551261, -7561.63985271929, -13225.683656416377, -10220.35750393361, -6699.577772567007, -9838.835577825974, -7503.793538068955, -10460.236425427966, -12446.166568537543, -8739.465026791695, -6886.773632380204, -7186.2646563368635, -10051.266557129211, -12762.399049091227, -17315.650560337373, 0.002, 0.23800000000000002, 0.9500000000000001, 192.0, 0.0, 0.0, 0.0, 0.0, 0.0, 0.0, 0.0, 0.0, 0.0, 1.644587351339087E9, 0.0, 2022-02-12 00:49:11.339
156.0, -10875.688299618758, -10441.997401952434, -7555.180198571707, -13240.994601368262, -10238.462416942408, -6705.433929614298, -9841.629545882886, -7504.754663080534, -10462.650413829138, -12435.46008294345, -8732.312468565997, -6886.818335869114, -7170.864304407157, -10060.766048522717, -12761.437924079648, -17334.71659835775, 0.002, 0.23600000000000002, 0.9460000000000001, 192.0, 0.0, 8.0, 3.5, 48.0, 14.5, 72.0, 0.0, 0.0, 0.0, 1.644587351347183E9, 0.0, 2022-02-12 00:49:11.347
158.0, -10886.081860790475, -10448.188835166555, -7561.081059107907, -13241.888671146473, -10220.089283000147, -6710.820700028026, -9837.60623188093, -7509.850860816344, -10468.148942965145, -12454.392010497095, -8743.957727427212, -6912.075807103612, -7181.794307445802, -10062.934167734882, -12764.701278770122, -17355.771941634648, 0.002, 0.23600000000000002, 0.9460000000000001, 192.0, 0.0, 0.0, 0.0, 0.0, 0.0, 0.0, 0.0, 0.0, 0.0, 1.644587351355085E9, 0.0, 2022-02-12 00:49:11.355
160.0, -10876.850590330434, -10442.667954286093, -7552.319175281427, -13233.439711742367, -10202.699625813917, -6693.565153308529, -9822.205879951225, -7496.506869376525, -10460.079963216778, -12432.84492884218, -8751.512617053106, -6901.79400465417, -7180.319092311752, -10061.011917711725, -12760.521502556981, -17306.396938132875, 0.002, 0.23600000000000002, 0.9460000000000001, 192.0, 0.0, 0.0, 0.0, 0.0, 0.0, 0.0, 0.0, 0.0, 0.0, 1.644587351361748E9, 0.0, 2022-02-12 00:49:11.361
162.0, -10880.046889787542, -10455.207282925521, -7552.363878770338, -13242.514519991222, -10221.095111500636, -6690.70413001825, -9828.643182354353, -7497.870325788299, -10460.705812061526, -12438.902251589567, -8736.268727334587, -6875.798925852648, -7162.527103725327, -10044.024591925692, -12760.342688601339, -17358.185930035823, 0.002, 0.23600000000000002, 0.9460000000000001, 192.0, 0.0, 0.0, 0.0, 0.0, 0.0, 0.0, 0.0, 0.0, 0.0, 1.644587351377059E9, 0.0, 2022-02-12 00:49:11.377
164.0, -10892.832087615978, -10442.980878708468, -7554.39788751577, -13227.516499461712, -10203.817213036682, -6694.816850998027, -9832.152406233836, -7503.570020624402, -10453.35208813573, -12440.869205101635, -8736.291079079041, -6891.713367904827, -7169.746717184391, -10061.3248421341, -12761.348517101827, -17311.694301568783, 0.002, 0.23600000000000002, 0.9460000000000001, 192.0, 0.0, 0.0, 0.0, 0.0, 0.0, 0.0, 0.0, 0.0, 0.0, 1.6445873513847E9, 0.0, 2022-02-12 00:49:11.384
166.0, -10885.143087523353, -10450.222843911988, -7551.335698525393, -13242.76038918023, -10220.02222776678, -6701.477670845708, -9818.763711305108, -7501.62541885679, -10465.869065030702, -12446.658306915559, -8740.627317503371, -6883.756146878737, -7166.684528194014, -10056.273347887201, -12760.85677872381, -17337.37645594793, 0.004, 0.234, 0.9480000000000001, 192.0, 0.0, 16.0, 3.5, 40.0, 14.5, 80.0, 0.0, 0.0, 0.0, 1.644587351392007E9, 0.0, 2022-02-12 00:49:11.392
168.0, -10895.424889972794, -10450.178140423077, -7562.176294586217, -13241.352229279546, -10222.972658034882, -6696.225010898711, -9829.492548643655, -7494.741081564556, -10474.385079668175, -12463.980908868421, -8749.098628651933, -6901.481080231796, -7184.409461547072, -10056.139237420468, -12761.236758379551, -17352.173310777343, 0.004, 0.234, 0.9480000000000001, 192.0, 0.0, 0.0, 0.0, 0.0, 0.0, 0.0, 0.0, 0.0, 0.0, 1.644587351399332E9, 0.0, 2022-02-12 00:49:11.399
170.0, -10890.39574747035, -10448.814684011304, -7551.536864225491, -13229.729322162786, -10209.472204383876, -6690.458260829242, -9818.696656071741, -7498.33971242186, -10468.283053431876, -12431.637934641592, -8754.39599208784, -6901.123452320511, -7158.481437978917, -10055.111057175525, -12764.634223536757, -17302.686548553294, 0.004, 0.234, 0.9480000000000001, 192.0, 0.0, 0.0, 0.0, 0.0, 0.0, 0.0, 0.0, 0.0, 0.0, 1.644587351408904E9, 0.0, 2022-02-12 00:49:11.408
172.0, -10878.951654309232, -10450.714582290004, -7550.218111302628, -13249.823540428108, -10221.765663834294, -6700.89652548987, -9833.582917878975, -7514.880003318787, -10479.347166937252, -12440.310411490253, -8740.515558781095, -6887.466536458318, -7175.513467253861, -10037.721399989296, -12764.09778166983, -17364.265604527667, 0.004, 0.234, 0.9480000000000001, 192.0, 0.0, 0.0, 0.0, 0.0, 0.0, 0.0, 0.0, 0.0, 0.0, 1.644587351415103E9, 0.0, 2022-02-12 00:49:11.415
174.0, -10887.512372435614, -10435.716561760493, -7561.505742252558, -13228.634086684477, -10212.243820696332, -6693.833374241994, -9829.447845154744, -7505.447567158648, -10459.990556238956, -12448.200577282976, -8747.466951306695, -6884.180830023388, -7172.853609663679, -10056.139237420468, -12763.67309852518, -17321.216144706745, 0.004, 0.234, 0.9480000000000001, 192.0, 0.0, 0.0, 0.0, 0.0, 0.0, 0.0, 0.0, 0.0, 0.0, 1.644587351421978E9, 0.0, 2022-02-12 00:49:11.421
176.0, -10867.82048557049, -10431.961468692001, -7552.2521200480605, -13234.28907803167, -10212.35557941861, -6687.41842358332, -9811.186469934759, -7496.10453797633, -10460.102314961234, -12432.666114886537, -8746.215253617198, -6883.242056756265, -7157.922644367533, -10052.071219929603, -12761.706145013111, -17332.526127401128, 0.004, 0.234, 0.9480000000000001, 192.0, 0.0, 0.0, 3.5, 40.0, 14.5, 88.0, 0.0, 0.0, 0.0, 1.644587351429072E9, 0.0, 2022-02-12 00:49:11.429
178.0, -10880.650386887835, -10452.860349757713, -7563.472695764625, -13235.965458865818, -10212.914373029993, -6694.481574831197, -9826.787987564563, -7502.29597119045, -10469.959434266024, -12450.011068583855, -8736.358134312408, -6880.850420099548, -7171.557208485271, -10051.80299899614, -12760.56620604589, -17352.3968282219, 0.004, 0.234, 0.9480000000000001, 192.0, 0.0, 0.0, 0.0, 0.0, 0.0, 0.0, 0.0, 0.0, 0.0, 1.644587351437041E9, 0.0, 2022-02-12 00:49:11.437
180.0, -10865.272386702585, -10429.189852379544, -7548.20645430165, -13227.494147717256, -10206.052387482214, -6684.870324715415, -9824.932792774773, -7499.367892666804, -10455.944890492547, -12435.79535911028, -8744.91885243879, -6881.163344521921, -7164.047022348288, -10048.450237327843, -12761.57203454638, -17306.396938132875, 0.004, 0.234, 0.9480000000000001, 192.0, 0.0, 0.0, 0.0, 0.0, 0.0, 0.0, 0.0, 0.0, 0.0, 1.644587351443596E9, 0.0, 2022-02-12 00:49:11.443
182.0, -10871.508523405615, -10427.289954100843, -7543.333774010393, -13239.944069378862, -10205.53829735974, -6686.32318810501, -9816.975571748682, -7496.6633315877125, -10456.481332359474, -12439.885728345602, -8726.63512547435, -6873.004957795734, -7143.550472682771, -10026.50082427273, -12757.414610077692, -17360.063476570067, 0.004, 0.234, 0.9480000000000001, 192.0, 0.0, 0.0, 0.0, 0.0, 0.0, 0.0, 0.0, 0.0, 0.0, 1.644587351451731E9, 0.0, 2022-02-12 00:49:11.451
184.0, -10876.33650020796, -10433.146111148133, -7549.279338035505, -13225.370731994002, -10197.357558889098, -6685.94320844927, -9809.80066177853, -7484.928665748676, -10451.832169512769, -12431.749693363869, -8726.232794074154, -6890.349911493053, -7158.03440308981, -10027.4172457954, -12753.48070305356, -17309.168554445336, 0.004, 0.234, 0.9480000000000001, 192.0, 0.0, 0.0, 0.0, 0.0, 0.0, 0.0, 0.0, 0.0, 0.0, 1.644587351459564E9, 0.0, 2022-02-12 00:49:11.459
186.0, -10844.820540525978, -10416.248192339921, -7540.942137353675, -13233.797339653653, -10201.02324497977, -6682.255170614144, -9805.978513476672, -7494.606971097824, -10455.140227692154, -12416.192879222976, -8722.120073094376, -6862.723155346293, -7154.771048399335, -10047.310298360622, -12759.605081034313, -17328.815737821547, 0.002, 0.234, 0.9440000000000001, 192.0, 0.0, 8.0, 3.5, 40.0, 14.5, 64.0, 0.0, 0.0, 0.0, 1.644587351466736E9, 0.0, 2022-02-12 00:49:11.466
188.0, -10855.750543564624, -10445.104294431721, -7557.415373017237, -13237.820653655608, -10205.180669448457, -6691.218220140722, -9826.005676508626, -7495.188116453662, -10456.369573637197, -12444.110208047654, -8733.072427877478, -6861.940844290358, -7160.113115324154, -10041.141216890957, -12756.09585715483, -17352.218014266255, 0.002, 0.234, 0.9440000000000001, 192.0, 0.0, 0.0, 0.0, 0.0, 0.0, 0.0, 0.0, 0.0, 0.0, 1.644587351474223E9, 0.0, 2022-02-12 00:49:11.474
190.0, -10876.15768625232, -10436.655335027615, -7546.507721723047, -13227.42709248389, -10191.099070441613, -6688.670121272818, -9816.170908948292, -7500.753700823034, -10443.53967231985, -12432.88963233109, -8741.566090770495, -6867.461725170819, -7151.910025109056, -10045.835083226571, -12760.745020001534, -17305.681682310307, 0.002, 0.234, 0.9440000000000001, 192.0, 0.0, 0.0, 0.0, 0.0, 0.0, 0.0, 0.0, 0.0, 0.0, 1.644587351482246E9, 0.0, 2022-02-12 00:49:11.482
192.0, -10876.850590330434, -10413.387169049642, -7547.178274056706, -13239.675848445399, -10197.938704244936, -6693.073414930513, -9806.850231510429, -7488.057909972419, -10466.740783064459, -12447.060638315754, -8726.188090585243, -6873.720213618304, -7155.061621077254, -10044.203405881335, -12755.291194354439, -17363.90797661638, 0.002, 0.234, 0.9440000000000001, 192.0, 0.0, 0.0, 0.0, 0.0, 0.0, 0.0, 0.0, 0.0, 0.0, 1.644587351489354E9, 0.0, 2022-02-12 00:49:11.489
194.0, -10872.715517606202, -10433.347276848232, -7551.268643292027, -13222.487356959267, -10183.2536081378, -6682.881019458892, -9807.409025121811, -7482.067642458397, -10449.373477622687, -12438.455216700462, -8725.58459348495, -6878.704652631838, -7145.137446539098, -10033.720437731796, -12750.440865807637, -17309.74969980117, 0.002, 0.234, 0.9440000000000001, 192.0, 0.0, 0.0, 0.0, 0.0, 0.0, 0.0, 0.0, 0.0, 0.0, 1.644587351503822E9, 0.0, 2022-02-12 00:49:11.503
196.0, -10858.00806975461, -10448.278242144375, -7543.333774010393, -13233.797339653653, -10193.356596631598, -6680.467031057719, -9800.32352212948, -7484.43692737066, -10452.078038701778, -12433.426074198018, -8729.11616910889, -6857.112867488011, -7154.994565843888, -10032.55814702012, -12750.217348363085, -17326.558211631564, 0.008, 0.232, 0.9460000000000001, 192.0, 0.0, 32.0, 3.5, 32.0, 14.5, 72.0, 0.0, 0.0, 0.0, 1.644587351512159E9, 0.0, 2022-02-12 00:49:11.512
198.0, -10881.879732832878, -10449.529939833874, -7557.214207317139, -13236.256031543737, -10198.139869945035, -6688.84893522846, -9818.696656071741, -7495.523392620492, -10469.422992399097, -12449.69814416148, -8732.49128252164, -6870.658024627927, -7159.017879845844, -10037.475530800288, -12751.156121630207, -17349.84872935399, 0.008, 0.232, 0.9460000000000001, 192.0, 0.0, 0.0, 0.0, 0.0, 0.0, 0.0, 0.0, 0.0, 0.0, 1.644587351518953E9, 0.0, 2022-02-12 00:49:11.518
200.0, -10892.832087615978, -10431.782654736358, -7549.301689779961, -13228.701141917843, -10191.2555326528, -6685.116193904423, -9821.512975873111, -7499.814927555911, -10460.147018450143, -12430.430940441007, -8738.101570379922, -6878.414079953919, -7151.708859408958, -10044.136350647968, -12754.53123504296, -17304.161763687345, 0.008, 0.232, 0.9460000000000001, 192.0, 0.0, 0.0, 0.0, 0.0, 0.0, 0.0, 0.0, 0.0, 0.0, 1.644587351526588E9, 0.0, 2022-02-12 00:49:11.526
202.0, -10870.122715249387, -10426.351180833719, -7551.335698525393, -13251.969307895817, -10200.620913579574, -6696.381473109898, -9813.421644380289, -7495.7692618095, -10470.250006943943, -12460.806961155768, -8739.353268069419, -6872.602626395539, -7159.844894390691, -10036.134426132969, -12758.845121722832, -17364.24325278321, 0.008, 0.232, 0.9460000000000001, 192.0, 0.0, 0.0, 0.0, 0.0, 0.0, 0.0, 0.0, 0.0, 0.0, 1.644587351534816E9, 0.0, 2022-02-12 00:49:11.534
204.0, -10893.033253316076, -10454.78259978087, -7555.761343927544, -13240.61462171252, -10186.338148872632, -6701.522374334619, -9816.081501970471, -7504.397035169249, -10467.009003997922, -12446.61360342665, -8756.742925255649, -6900.31878952012, -7154.726344910425, -10041.476493057788, -12759.403915334215, -17319.249191194678, 0.007, 0.233, 0.9450000000000001, 192.0, 0.0, 24.0, 3.5, 40.0, 14.5, 64.0, 0.0, 0.0, 0.0, 1.644587351542524E9, 0.0, 2022-02-12 00:49:11.542
206.0, -10895.849573117444, -10487.237332729976, -7545.658355433746, -13246.269613059714, -10195.927047243958, -6695.4874033316855, -9814.025141480583, -7488.102613461329, -10470.965262766513, -12452.581519196216, -8733.340648810941, -6877.654120642438, -7136.88965283509, -10050.618356540008, -12759.470970567581, -17335.185984991313, 0.007, 0.233, 0.9450000000000001, 192.0, 0.0, 0.0, 0.0, 0.0, 0.0, 0.0, 0.0, 0.0, 0.0, 1.644587351549401E9, 0.0, 2022-02-12 00:49:11.549
208.0, -10899.53761095257, -10469.825323799292, -7553.995556115575, -13246.314316548625, -10193.557762331697, -6698.907220233348, -9820.551850861531, -7498.987913011064, -10482.387004183174, -12479.940054409512, -8733.430055788762, -6878.88346658748, -7161.409516502562, -10053.121751919003, -12763.494284569537, -17358.945889347302, 0.007, 0.233, 0.9450000000000001, 192.0, 0.0, 0.0, 0.0, 0.0, 0.0, 0.0, 0.0, 0.0, 0.0, 1.644587351556425E9, 0.0, 2022-02-12 00:49:11.556
210.0, -10892.58621842697, -10461.443419628551, -7545.591300200379, -13239.38527576748, -10181.040785436724, -6682.501039803153, -9797.484850583656, -7482.447622114137, -10469.98178601048, -12452.98385059641, -8742.102532637422, -6883.398518967452, -7152.669984420537, -10053.3229176191, -12761.370868846283, -17307.067490466536, 0.007, 0.233, 0.9450000000000001, 192.0, 0.0, 0.0, 0.0, 0.0, 0.0, 0.0, 0.0, 0.0, 0.0, 1.644587351565507E9, 0.0, 2022-02-12 00:49:11.565
212.0, -10893.882619605378, -10462.650413829138, -7541.5679861984245, -13250.71761020632, -10196.888172255538, -6681.316397347021, -9807.029045466072, -7484.48163085957, -10483.21401872802, -12463.824446657234, -8732.49128252164, -6878.279969487187, -7148.55726344076, -10021.561088748109, -12757.794589733434, -17363.036258582622, 0.007, 0.233, 0.9450000000000001, 192.0, 0.0, 0.0, 0.0, 0.0, 0.0, 0.0, 0.0, 0.0, 0.0, 1.644587351572239E9, 0.0, 2022-02-12 00:49:11.572
214.0, -10915.049721604553, -10471.747573822448, -7548.586433957391, -13236.412493754924, -10178.984424946837, -6684.490345059675, -9810.068882711994, -7485.487459360059, -10476.64260585816, -12460.851664644679, -8748.472779807184, -6887.153612035944, -7144.623356416626, -10047.444408827354, -12762.28729036895, -17314.51062137015, 0.0085, 0.23450000000000001, 0.9485000000000001, 192.0, 0.0, 40.0, 3.5, 48.0, 14.5, 96.0, 0.0, 0.0, 0.0, 1.64458735157905E9, 0.0, 2022-02-12 00:49:11.579
216.0, -10938.675515493813, -10488.287864719376, -7541.076247820408, -13246.71664794882, -10170.222541120356, -6675.013205410624, -9795.808469749507, -7479.676005801679, -10492.199419999055, -12456.18015005352, -8756.340593855452, -6893.970894094813, -7139.79537961428, -10033.876899942983, -12757.973403689075, -17327.85461280997, 0.0085, 0.23450000000000001, 0.9485000000000001, 192.0, 0.0, 0.0, 0.0, 0.0, 0.0, 0.0, 0.0, 0.0, 0.0, 1.644587351586854E9, 0.0, 2022-02-12 00:49:11.586
218.0, -10982.395527648394, -10533.728961197015, -7553.63792820429, -13253.645688729965, -10176.97276794586, -6681.383452580387, -9800.994074463139, -7481.173572680184, -10505.811632372337, -12482.845781188702, -8762.107343924921, -6907.627809957005, -7128.6195073866265, -10037.721399989296, -12756.38642983275, -17347.837072353017, 0.0085, 0.23450000000000001, 0.9485000000000001, 192.0, 0.0, 0.0, 0.0, 0.0, 0.0, 0.0, 0.0, 0.0, 0.0, 1.644587351594883E9, 0.0, 2022-02-12 00:49:11.594
220.0, -10998.399376678393, -10527.22460356052, -7552.699154937167, -13241.687505446376, -10162.690003238917, -6670.095821630457, -9796.389615105345, -7480.905351746721, -10499.910771836136, -12468.9429961375, -8780.659291822827, -6917.4849292617955, -7127.770141097324, -10042.951708191838, -12758.018107177986, -17296.025728705612, 0.0085, 0.23450000000000001, 0.9485000000000001, 192.0, 0.0, 0.0, 0.0, 0.0, 0.0, 0.0, 0.0, 0.0, 0.0, 1.644587351601997E9, 0.0, 2022-02-12 00:49:11.601
222.0, -11035.838548641033, -10584.981511233034, -7558.376498028815, -13256.551415509155, -10179.453811580397, -6674.230894354689, -9792.79098424804, -7475.742098777545, -10520.27321103492, -12481.594083499203, -8790.963446016724, -6917.641391472983, -7163.063545592255, -10042.303507602634, -12758.308679855905, -17356.353086990486, 0.0085, 0.23450000000000001, 0.9485000000000001, 192.0, 0.0, 0.0, 0.0, 0.0, 0.0, 0.0, 0.0, 0.0, 0.0, 1.644587351609381E9, 0.0, 2022-02-12 00:49:11.609
224.0, -11079.245636373238, -10611.66949411267, -7562.623329475324, -13235.116092576516, -10170.267244609267, -6667.659481484829, -9806.336141387957, -7480.055985457419, -10532.834891418803, -12486.064432390265, -8810.476518926205, -6914.266278060231, -7165.32107178224, -10047.08678091607, -12762.466104324592, -17313.840069036494, 0.00825, 0.23625000000000002, 0.9472500000000001, 192.0, 0.0, 32.0, 3.5, 56.0, 14.5, 72.0, 0.0, 0.0, 0.0, 1.64458735162455E9, 0.0, 2022-02-12 00:49:11.624
226.0, -11088.834534744565, -10609.501374900507, -7543.870215877321, -13245.420246770413, -10171.653052765496, -6663.770277949605, -9796.344911616436, -7471.0705841863855, -10547.56469101485, -12482.085821877221, -8789.868210538412, -6904.498565733263, -7145.629184917115, -10030.211213852312, -12766.779991004467, -17323.741891830196, 0.00825, 0.23625000000000002, 0.9472500000000001, 192.0, 0.0, 0.0, 0.0, 0.0, 0.0, 0.0, 0.0, 0.0, 0.0, 1.64458735163105E9, 0.0, 2022-02-12 00:49:11.631
228.0, -11092.299055135138, -10634.244756012531, -7553.146189826273, -13253.779799196696, -10166.445096307409, -6663.323243060499, -9793.863867981896, -7469.304796374417, -10540.255670577964, -12509.33259836824, -8779.295835411052, -6917.596687984073, -7140.980022070411, -10022.812786437606, -12760.230929879062, -17347.501796186185, 0.00825, 0.23625000000000002, 0.9472500000000001, 192.0, 0.0, 0.0, 0.0, 0.0, 0.0, 0.0, 0.0, 0.0, 0.0, 1.64458735163903E9, 0.0, 2022-02-12 00:49:11.639
230.0, -11088.789831255655, -10616.43041568165, -7554.330832282404, -13239.295868789659, -10156.252700835788, -6656.595367979452, -9776.831838706952, -7462.107534659807, -10539.093379866288, -12484.61156900067, -8802.07226301101, -6922.625830486516, -7133.6710016335255, -10025.60675449452, -12762.510807813504, -17293.634092048895, 0.00825, 0.23625000000000002, 0.9472500000000001, 192.0, 0.0, 0.0, 0.0, 0.0, 0.0, 0.0, 0.0, 0.0, 0.0, 1.644587351647075E9, 0.0, 2022-02-12 00:49:11.647
232.0, -11080.653796273924, -10606.439185910129, -7548.049992090463, -13252.706915462843, -10158.331413070133, -6662.228007582189, -9776.340100328935, -7466.019089939487, -10546.9388421701, -12502.850592476201, -8799.568867632017, -6916.143824594477, -7134.967402811933, -10021.963420148304, -12759.739191501045, -17354.140264289414, 0.00825, 0.23625000000000002, 0.9472500000000001, 192.0, 0.0, 0.0, 0.0, 0.0, 0.0, 0.0, 0.0, 0.0, 0.0, 1.644587351654158E9, 0.0, 2022-02-12 00:49:11.654
234.0, -11082.866618974998, -10619.537308160938, -7543.154960054751, -13234.020857098205, -10143.400447773987, -6657.355327290932, -9780.721042242176, -7468.678947529668, -10521.077873835311, -12475.55911249627, -8796.439623408272, -6915.897955405469, -7111.296905433764, -10028.870109184994, -12755.00062167652, -17306.843973021983, 0.008125, 0.23512500000000003, 0.946625, 192.0, 0.0, 32.0, 3.5, 40.0, 14.5, 72.0, 0.0, 0.0, 0.0, 1.644587351661649E9, 0.0, 2022-02-12 00:49:11.661
236.0, -11116.215421702316, -10648.125189319277, -7540.428047231204, -13246.269613059714, -10155.068058379658, -6662.138600604368, -9769.36635605888, -7449.52350253147, -10550.269252093942, -12489.730118480937, -8789.242361693665, -6917.127301350511, -7141.471760448428, -10036.60381276653, -12758.845121722832, -17320.76910981764, 0.008125, 0.23512500000000003, 0.946625, 192.0, 0.0, 0.0, 0.0, 0.0, 0.0, 0.0, 0.0, 0.0, 0.0, 1.644587351669785E9, 0.0, 2022-02-12 00:49:11.669
