%OpenBCI Raw EEG Data
%Number of channels = 16
%Sample Rate = 125 Hz
%Board = OpenBCI_GUI$BoardCytonSerialDaisy
Sample Index, EXG Channel 0, EXG Channel 1, EXG Channel 2, EXG Channel 3, EXG Channel 4, EXG Channel 5, EXG Channel 6, EXG Channel 7, EXG Channel 8, EXG Channel 9, EXG Channel 10, EXG Channel 11, EXG Channel 12, EXG Channel 13, EXG Channel 14, EXG Channel 15, Accel Channel 0, Accel Channel 1, Accel Channel 2, Other, Other, Other, Other, Other, Other, Other, Analog Channel 0, Analog Channel 1, Analog Channel 2, Timestamp, Other, Timestamp (Formatted)
0.0, -10822.915830959777, -10534.690086208593, -7469.818886496889, -12869.955643410165, -9913.892735706895, -7207.14118565812, -9355.836731891242, -7607.103300941384, 0.0, 0.0, 0.0, 0.0, 0.0, 0.0, 0.0, 0.0, 0.0, 0.0, 0.0, 192.0, 0.0, 0.0, 0.0, 0.0, 0.0, 0.0, 0.0, 0.0, 0.0, 1.644587461730225E9, 0.0, 2022-02-12 00:51:01.730
56.0, -10808.722473230657, -10501.006007314445, -7460.006470681009, -12859.986765383097, -9897.486555276699, -7198.267543109363, -9331.808606601788, -7595.301579868982, -10659.658689458214, -12846.419256498726, -8742.035477404055, -7038.787846420747, -7066.012271167311, -9948.336773912522, -12447.328859249219, -17006.59298975384, 0.008, 0.23600000000000002, 0.9520000000000001, 192.0, 0.0, 32.0, 3.5, 48.0, 14.5, 96.0, 0.0, 0.0, 0.0, 1.644587461730232E9, 0.0, 2022-02-12 00:51:01.730
58.0, -3791.816984631656, -3375.8510203183914, -3004.074454793269, -4700.057768828603, -3667.9436168603443, -2103.8802986002324, -3616.244031935219, -2449.505323112646, -10678.881189689779, -12859.673840960722, -8729.518500509084, -7024.013343335789, -7090.219210412409, -9935.149244683891, -12446.278327259819, -17059.03018224599, 0.008, 0.23600000000000002, 0.9520000000000001, 192.0, 0.0, 0.0, 0.0, 0.0, 0.0, 0.0, 0.0, 0.0, 0.0, 1.64458746183146E9, 0.0, 2022-02-12 00:51:01.831
2.0, -7581.30938783996, -6753.266662748655, -6017.5142905133125, -9384.826944449776, -7321.492710291471, -4202.463233764557, -7220.4851770979385, -4907.504309118308, -6463.386888907778, -8787.811850048525, -6058.306224144248, -4317.32884852038, -5134.754494995415, -7410.475004968048, -8752.853721720425, -12789.176438948685, 0.008, 0.23600000000000002, 0.9520000000000001, 192.0, 0.0, 0.0, 0.0, 0.0, 0.0, 0.0, 0.0, 0.0, 0.0, 1.644587461838889E9, 0.0, 2022-02-12 00:51:01.838
4.0, -7568.770059200533, -6769.002290845191, -6003.075063595184, -9397.589790533757, -7333.562652297337, -4203.73728319851, -7222.452130610005, -4899.435329369942, -6467.298444187456, -8780.681643567283, -6054.48407584239, -4302.643752413243, -5153.909939993613, -7404.261220009473, -8757.324070611487, -12803.72742458909, 0.008, 0.23600000000000002, 0.9520000000000001, 192.0, 0.0, 0.0, 0.0, 0.0, 0.0, 0.0, 0.0, 0.0, 0.0, 1.644587461845055E9, 0.0, 2022-02-12 00:51:01.845
6.0, -7579.677710494722, -6771.840962391015, -6010.674656709988, -9398.550915545335, -7331.886271463189, -4209.369922801247, -7232.644526081625, -4910.432387641953, -6476.730880347595, -8807.548440402561, -6052.517122330323, -4309.930421105673, -5165.465791877007, -7409.089196811819, -8761.481495080174, -12846.799236154466, 0.006, 0.238, 0.9520000000000001, 192.0, 0.0, 16.0, 3.5, 64.0, 14.5, 96.0, 0.0, 0.0, 0.0, 1.644587461853116E9, 0.0, 2022-02-12 00:51:01.853
8.0, -7546.373611256316, -6753.981918571225, -6000.9069443830185, -9391.219543363994, -7322.073855647309, -4201.680922708621, -7221.558060831793, -4912.309934176199, -6457.798952793951, -8764.49898058164, -6068.4092126380465, -4307.292915259947, -5151.786524270359, -7410.765577645967, -8762.219102647197, -12792.708014572623, 0.006, 0.238, 0.9520000000000001, 192.0, 0.0, 0.0, 0.0, 0.0, 0.0, 0.0, 0.0, 0.0, 0.0, 1.64458746186105E9, 0.0, 2022-02-12 00:51:01.861
10.0, -7593.424033334736, -6784.223828819255, -6006.830156663676, -9412.520755829903, -7344.425600102616, -4211.985076902518, -7237.651316839614, -4907.660771329495, -6479.61425538233, -8800.55234438805, -6067.872770771119, -4308.18698503816, -5148.92550098008, -7415.615906192769, -8768.231721905675, -12855.494064747581, 0.006, 0.238, 0.9520000000000001, 192.0, 0.0, 0.0, 0.0, 0.0, 0.0, 0.0, 0.0, 0.0, 0.0, 1.644587461869791E9, 0.0, 2022-02-12 00:51:01.869
12.0, -7601.358902616371, -6773.964378114269, -6011.099339854639, -9405.390549348658, -7328.891137706178, -4205.838347177309, -7226.274278911863, -4903.615105583084, -6478.094336759369, -8821.004190564656, -6074.019500496328, -4329.510549248523, -5156.949777239535, -7429.071656354864, -8771.003338218134, -12823.911049832232, 0.006, 0.238, 0.9520000000000001, 192.0, 0.0, 0.0, 0.0, 0.0, 0.0, 0.0, 0.0, 0.0, 0.0, 1.644587461876086E9, 0.0, 2022-02-12 00:51:01.876
14.0, -7592.1052804118735, -6783.10624159649, -6006.472528752391, -9420.43327336708, -7337.8318354883, -4214.0637891368615, -7227.7047905570025, -4909.8735940305705, -6480.575380393909, -8814.812757350535, -6074.980625507907, -4334.070305117405, -5149.30548063582, -7434.7937029354225, -8772.746774285648, -12826.593259166868, 0.006, 0.238, 0.9520000000000001, 192.0, 0.0, 0.0, 0.0, 0.0, 0.0, 0.0, 0.0, 0.0, 0.0, 1.644587461883738E9, 0.0, 2022-02-12 00:51:01.883
16.0, -7594.563972301958, -6799.221849348766, -6023.772778960798, -9428.211680437527, -7344.291489635884, -4225.262013108971, -7248.111933244698, -4916.8026348117155, -6489.359615964844, -8842.953603619768, -6084.368358179136, -4345.447343045156, -5151.071268447789, -7437.252394825506, -8784.682605824783, -12875.990614413096, 0.006, 0.236, 0.9480000000000001, 192.0, 0.0, 24.0, 3.5, 40.0, 14.5, 64.0, 0.0, 0.0, 0.0, 1.644587461891726E9, 0.0, 2022-02-12 00:51:01.891
18.0, -7600.576591560435, -6817.237355379743, -6015.413226534513, -9416.655828554134, -7333.696762764069, -4223.183300874627, -7240.065305240787, -4924.536338393252, -6481.04476702747, -8816.109158528943, -6090.135108248604, -4334.472636517601, -5167.790373300359, -7439.532272759948, -8789.331768671485, -12825.29685798846, 0.006, 0.236, 0.9480000000000001, 192.0, 0.0, 0.0, 0.0, 0.0, 0.0, 0.0, 0.0, 0.0, 0.0, 1.644587461905364E9, 0.0, 2022-02-12 00:51:01.905
20.0, -7626.996353506608, -6804.921544184869, -6011.099339854639, -9444.193177723071, -7358.283681664906, -4233.800379490898, -7252.67168911358, -4928.7161146063945, -6510.0573313304585, -8827.217975523232, -6086.938808791496, -4336.618403985311, -5180.799088573348, -7441.5439297609255, -8797.199582719753, -12896.062480933962, 0.006, 0.236, 0.9480000000000001, 192.0, 0.0, 0.0, 0.0, 0.0, 0.0, 0.0, 0.0, 0.0, 0.0, 1.644587461913608E9, 0.0, 2022-02-12 00:51:01.913
22.0, -7641.972022291663, -6798.417186548375, -6022.0963981266505, -9437.085322986284, -7338.54709131087, -4229.017106177462, -7250.592976879237, -4930.437198929453, -6503.24004927159, -8848.60859496696, -6094.024311783828, -4346.76609596802, -5174.317082681308, -7457.19015087964, -8801.64757986636, -12870.603843999368, 0.006, 0.236, 0.9480000000000001, 192.0, 0.0, 0.0, 0.0, 0.0, 0.0, 0.0, 0.0, 0.0, 0.0, 1.644587461920888E9, 0.0, 2022-02-12 00:51:01.920
24.0, -7630.259708197083, -6831.944803231336, -6020.263555081315, -9450.071686514817, -7357.881350264711, -4234.850911480297, -7258.550197905326, -4927.509120405808, -6516.248764544579, -8848.921519389334, -6098.204087996971, -4339.546482508956, -5163.007099986923, -7463.694508516134, -8809.35893170344, -12874.805971956966, 0.006, 0.236, 0.9480000000000001, 192.0, 0.0, 0.0, 0.0, 0.0, 0.0, 0.0, 0.0, 0.0, 0.0, 1.644587461928003E9, 0.0, 2022-02-12 00:51:01.928
26.0, -7640.854435068898, -6834.8952334994365, -6030.344191830658, -9462.789829109888, -7367.9396352695985, -4235.029725435939, -7268.027337554377, -4944.965832825403, -6528.631630972819, -8877.554104036582, -6098.651122886076, -4352.197569870659, -5180.2402949619645, -7463.895674216232, -8820.490100442184, -12922.728112069144, 0.009000000000000001, 0.235, 0.9460000000000001, 192.0, 0.0, 48.0, 3.5, 40.0, 14.5, 64.0, 0.0, 0.0, 0.0, 1.644587461936132E9, 0.0, 2022-02-12 00:51:01.936
28.0, -7626.705780828689, -6824.680486283361, -6032.422904065002, -9453.24563422747, -7360.608263088258, -4225.060847408873, -7265.792163108846, -4935.533396665263, -6518.819215156939, -8852.006060124166, -6106.8542131011745, -4371.800049757963, -5184.621236875205, -7465.840275983844, -8825.586298177994, -12871.207341099662, 0.009000000000000001, 0.235, 0.9460000000000001, 192.0, 0.0, 0.0, 0.0, 0.0, 0.0, 0.0, 0.0, 0.0, 0.0, 1.644587461948183E9, 0.0, 2022-02-12 00:51:01.948
30.0, -7635.713533844178, -6834.358791632509, -6034.300450599248, -9465.092058788785, -7377.8414580633, -4234.716801013566, -7271.6706719005915, -4939.333193222666, -6527.983430383615, -8862.489028273705, -6101.467442687445, -4334.964374895618, -5189.382158444186, -7461.258168370506, -8835.532824460606, -12932.27230695156, 0.009000000000000001, 0.235, 0.9460000000000001, 192.0, 0.0, 0.0, 0.0, 0.0, 0.0, 0.0, 0.0, 0.0, 0.0, 1.644587461951795E9, 0.0, 2022-02-12 00:51:01.951
32.0, -7659.249920755616, -6834.805826521615, -6035.820369222209, -9460.979337809007, -7370.59949285978, -4234.582690546834, -7278.376195237183, -4943.580024669173, -6530.598584484886, -8878.47052555925, -6110.765768380853, -4356.556160039444, -5178.653321105638, -7455.312604345394, -8840.427856496317, -12905.36080662737, 0.009000000000000001, 0.235, 0.9460000000000001, 192.0, 0.0, 0.0, 0.0, 0.0, 0.0, 0.0, 0.0, 0.0, 0.0, 1.644587461958258E9, 0.0, 2022-02-12 00:51:01.958
34.0, -7657.774705621566, -6839.834969024059, -6025.538566772767, -9471.775230380921, -7383.228228477029, -4237.8907487262195, -7285.215829040508, -4948.139780538057, -6543.473189291142, -8873.150810378887, -6119.706466162976, -4358.500761807056, -5183.838925819269, -7471.607026053313, -8848.832112411514, -12907.417167117259, 0.009000000000000001, 0.235, 0.9460000000000001, 192.0, 0.0, 0.0, 0.0, 0.0, 0.0, 0.0, 0.0, 0.0, 0.0, 1.644587461965641E9, 0.0, 2022-02-12 00:51:01.965
36.0, -7670.112868560895, -6870.412155438919, -6043.86699722612, -9487.086175332806, -7393.934714071121, -4251.882940755241, -7302.963114138021, -4967.049356347246, -6563.835628489927, -8912.311066664584, -6127.4625214889675, -4376.113936437838, -5203.195536517565, -7480.391261624249, -8863.360746307462, -12957.619185163878, 0.006500000000000001, 0.23349999999999999, 0.9480000000000001, 192.0, 0.0, 16.0, 3.5, 32.0, 14.5, 88.0, 0.0, 0.0, 0.0, 1.644587461973703E9, 0.0, 2022-02-12 00:51:01.973
38.0, -7691.8387641714535, -6869.361623449519, -6038.48022681239, -9483.040509586395, -7387.117432012253, -4249.379545376247, -7296.525811734893, -4959.852094632637, -6562.941558711715, -8904.42090087186, -6139.018373372362, -4391.827212789919, -5213.454987222551, -7494.606971097824, -8873.32962433453, -12908.244181662105, 0.006500000000000001, 0.23349999999999999, 0.9480000000000001, 192.0, 0.0, 0.0, 0.0, 0.0, 0.0, 0.0, 0.0, 0.0, 0.0, 1.644587461980268E9, 0.0, 2022-02-12 00:51:01.980
40.0, -7687.56958098049, -6880.515143932717, -6037.42969482299, -9499.513745249957, -7399.27678099594, -4254.185170434138, -7297.129308835186, -4967.5187429808075, -6579.839477519927, -8921.72115108027, -6130.301193034791, -4372.112974180338, -5206.972981330512, -7483.408747125715, -8873.933121434822, -12966.51517945709, 0.006500000000000001, 0.23349999999999999, 0.9480000000000001, 192.0, 0.0, 0.0, 0.0, 0.0, 0.0, 0.0, 0.0, 0.0, 0.0, 1.644587461988631E9, 0.0, 2022-02-12 00:51:01.988
42.0, -7683.300397789526, -6870.83683858357, -6050.281947884792, -9496.362149281758, -7393.867658837755, -4255.548626845912, -7308.752215951946, -4970.536228482274, -6574.028023961548, -8924.403360414906, -6138.839559416719, -4387.848602276874, -5196.959399814535, -7473.864552243299, -8882.404432583384, -12947.315030969981, 0.006500000000000001, 0.23349999999999999, 0.9480000000000001, 192.0, 0.0, 0.0, 0.0, 0.0, 0.0, 0.0, 0.0, 0.0, 0.0, 1.644587461996265E9, 0.0, 2022-02-12 00:51:01.996
44.0, -7698.432528785769, -6872.043832784157, -6042.280023369793, -9509.21440234356, -7400.014388562965, -4254.408687878691, -7311.054445630843, -4972.07849884969, -6567.590721558419, -8907.997179984712, -6142.572300740755, -4383.2888464079915, -5210.750426143459, -7508.956791038131, -8891.859220487979, -12954.445237451226, 0.006500000000000001, 0.23349999999999999, 0.9480000000000001, 192.0, 0.0, 0.0, 0.0, 0.0, 0.0, 0.0, 0.0, 0.0, 0.0, 1.644587462003678E9, 0.0, 2022-02-12 00:51:02.003
46.0, -7702.567601510001, -6893.166231294422, -6045.699840271454, -9524.36888508426, -7416.644086437713, -4268.646749096722, -7321.4480068025605, -4988.417624046519, -6580.599436831408, -8935.221604731274, -6140.35947803968, -4389.5696865999325, -5214.46081572304, -7509.761453838522, -8896.910714734879, -13006.994188665652, 0.00625, 0.23275, 0.9470000000000001, 192.0, 0.0, 24.0, 3.5, 32.0, 14.5, 72.0, 0.0, 0.0, 0.0, 1.644587462011006E9, 0.0, 2022-02-12 00:51:02.011
48.0, -7706.0991771339395, -6876.245960741754, -6040.268366368815, -9512.522460522945, -7410.3185427568615, -4270.636054353244, -7320.9786201689985, -4978.314635552721, -6583.862791521882, -8940.653078633915, -6153.6364142461325, -4407.20521297517, -5226.7319234290035, -7523.530128422992, -8904.934990994334, -12957.03803980804, 0.00625, 0.23275, 0.9470000000000001, 192.0, 0.0, 0.0, 0.0, 0.0, 0.0, 0.0, 0.0, 0.0, 0.0, 1.64458746201925E9, 0.0, 2022-02-12 00:51:02.019
50.0, -7695.996188640141, -6897.010731340734, -6038.212005878926, -9536.036495689928, -7419.795682405911, -4267.350347918314, -7321.336248080283, -4979.4322227754865, -6598.704349840206, -8942.307107723607, -6148.02612638785, -4391.067253478438, -5216.092493068278, -7505.693436347657, -8911.23818293073, -13015.934886447774, 0.00625, 0.23275, 0.9470000000000001, 192.0, 0.0, 0.0, 0.0, 0.0, 0.0, 0.0, 0.0, 0.0, 0.0, 1.644587462033108E9, 0.0, 2022-02-12 00:51:02.033
52.0, -7715.039874916062, -6906.107891334044, -6055.065221198228, -9531.499091565502, -7417.180528304641, -4274.011167765995, -7335.440198831582, -4992.530345026296, -6598.659646351296, -8952.164227028397, -6158.576149770755, -4403.316009439946, -5218.662943680638, -7508.48740440457, -8919.553031868105, -12994.030176881573, 0.00625, 0.23275, 0.9470000000000001, 192.0, 0.0, 0.0, 0.0, 0.0, 0.0, 0.0, 0.0, 0.0, 0.0, 1.64458746204067E9, 0.0, 2022-02-12 00:51:02.040
54.0, -7728.137997166872, -6909.930039635902, -6049.5666920622225, -9546.631222561744, -7434.369019790772, -4285.209391738104, -7333.40619008615, -5001.7392637418825, -6605.298114454522, -8953.259462506707, -6172.41187958859, -4406.199384474681, -5239.51712125744, -7514.209450985129, -8935.445122175828, -13001.741528718654, 0.00625, 0.23275, 0.9470000000000001, 192.0, 0.0, 0.0, 0.0, 0.0, 0.0, 0.0, 0.0, 0.0, 0.0, 1.644587462048536E9, 0.0, 2022-02-12 00:51:02.048
56.0, -7733.569471069512, -6913.752187937759, -6057.00982296584, -9555.236644177037, -7433.229080823551, -4299.581563422867, -7348.493617593482, -5015.954973215458, -6622.039571051547, -8978.583988974571, -6176.301083123813, -4408.255744964569, -5240.455894524562, -7540.830378631399, -8941.681258878858, -13055.408067155848, 0.004125, 0.232375, 0.9475, 192.0, 0.0, 8.0, 3.5, 32.0, 14.5, 80.0, 0.0, 0.0, 0.0, 1.644587462055834E9, 0.0, 2022-02-12 00:51:02.055
58.0, -7747.092276464972, -6910.131205336, -6047.622090294611, -9548.151141184706, -7428.46815925457, -4288.5621534064, -7342.860977990745, -4996.330141583699, -6609.366131945388, -8944.318764724585, -6175.250551134414, -4418.179919502726, -5245.730906216015, -7554.107314837852, -8946.017497303188, -13002.702653730234, 0.004125, 0.232375, 0.9475, 192.0, 0.0, 0.0, 0.0, 0.0, 0.0, 0.0, 0.0, 0.0, 0.0, 1.644587462063224E9, 0.0, 2022-02-12 00:51:02.063
60.0, -7744.34301189697, -6954.320604124142, -6052.472418841412, -9570.525237384467, -7452.228063610562, -4299.738025634054, -7357.568425842336, -5016.983153460402, -6632.544890945541, -8984.350739044039, -6174.244722633925, -4406.892288552795, -5226.396647262174, -7541.478579220603, -8953.415924717894, -13065.287538205093, 0.004125, 0.232375, 0.9475, 192.0, 0.0, 0.0, 0.0, 0.0, 0.0, 0.0, 0.0, 0.0, 0.0, 1.644587462071573E9, 0.0, 2022-02-12 00:51:02.071
62.0, -7746.712296809233, -6945.044630175189, -6062.843628268675, -9566.434868149146, -7448.04828739742, -4298.687493644654, -7359.468324121038, -5009.450615578963, -6635.472969469187, -8989.983378646777, -6200.03863573535, -4425.176015517237, -5248.949557417579, -7541.031544331497, -8962.021346333187, -13043.271069916615, 0.004125, 0.232375, 0.9475, 192.0, 0.0, 0.0, 0.0, 0.0, 0.0, 0.0, 0.0, 0.0, 0.0, 1.644587462079054E9, 0.0, 2022-02-12 00:51:02.079
64.0, -7775.881323323408, -6953.314775623653, -6049.00789845084, -9572.983929274551, -7452.675098499668, -4299.0004180670285, -7363.335175911806, -5018.547775572273, -6636.009411336114, -8990.028082135688, -6185.532353583855, -4422.963192816162, -5251.050621396377, -7536.516491951525, -8967.25165453573, -13039.180700681294, 0.004125, 0.232375, 0.9475, 192.0, 0.0, 0.0, 0.0, 0.0, 0.0, 0.0, 0.0, 0.0, 0.0, 1.64458746208527E9, 0.0, 2022-02-12 00:51:02.085
66.0, -7792.667483409344, -6965.2059036738765, -6060.407288123047, -9586.104403269817, -7459.514732302992, -4314.132549063272, -7370.59949285978, -5030.28244141131, -6658.7411354471615, -9019.286515627684, -6186.851106506719, -4430.4957306976, -5262.204141879576, -7554.554349726957, -8973.0184046052, -13087.460468704758, 0.004125, 0.232375, 0.9475, 192.0, 0.0, 0.0, 3.5, 48.0, 14.5, 80.0, 0.0, 0.0, 0.0, 1.644587462092834E9, 0.0, 2022-02-12 00:51:02.092
68.0, -7782.899771082374, -6971.129115954533, -6058.82031426672, -9579.37652818877, -7447.780066463955, -4317.485310731568, -7366.889103280199, -5025.253298908866, -6656.12598134589, -9011.038721923676, -6210.3427899292465, -4445.02436459355, -5258.6055110222715, -7566.937216155197, -8977.555808729627, -13037.01258146913, 0.004125, 0.232375, 0.9475, 192.0, 0.0, 0.0, 0.0, 0.0, 0.0, 0.0, 0.0, 0.0, 0.0, 1.64458746210078E9, 0.0, 2022-02-12 00:51:02.100
70.0, -7779.256436736159, -6975.66652007896, -6058.3732793776135, -9604.991627334552, -7470.8917702307435, -4325.442531757657, -7373.013481260954, -5030.863586767147, -6674.923798432804, -9023.935678474389, -6206.5876968607545, -4438.743524401609, -5269.490810572006, -7573.039242391496, -8980.081555853076, -13098.479878721224, 0.004125, 0.232375, 0.9475, 192.0, 0.0, 0.0, 0.0, 0.0, 0.0, 0.0, 0.0, 0.0, 0.0, 1.644587462108948E9, 0.0, 2022-02-12 00:51:02.108
72.0, -7785.671387394833, -6979.041633491712, -6071.471401628423, -9612.971200105096, -7465.214427139095, -4332.349220794346, -7384.994016288998, -5045.883959041114, -6676.1754961223005, -9030.238870410785, -6225.631383136676, -4460.849399667907, -5255.409211565163, -7582.538733785002, -8990.363358302517, -13086.476991948724, 0.004125, 0.232375, 0.9475, 192.0, 0.0, 0.0, 0.0, 0.0, 0.0, 0.0, 0.0, 0.0, 0.0, 1.64458746211575E9, 0.0, 2022-02-12 00:51:02.115
74.0, -7764.772506329121, -6981.165049214966, -6062.217779423926, -9619.587316463867, -7470.154162663718, -4329.9352323931735, -7384.591684888803, -5049.23672070941, -6661.89273141536, -9005.383730576485, -6225.273755225391, -4447.527759972544, -5262.382955835218, -7586.897323953787, -8998.030006650688, -13086.097012292983, 0.004125, 0.232375, 0.9475, 192.0, 0.0, 0.0, 0.0, 0.0, 0.0, 0.0, 0.0, 0.0, 0.0, 1.644587462123427E9, 0.0, 2022-02-12 00:51:02.123
76.0, -7835.515777530168, -7023.901584613513, -6082.6696256005325, -9632.886604414774, -7487.186191938662, -4343.547444766456, -7403.0989292977965, -5051.293081199298, -6704.316342391532, -9057.575053879626, -6234.259156496425, -4468.381937549346, -5291.373168393751, -7569.887646423298, -9006.009579421232, -13133.594469260512, 0.006, 0.234, 0.9500000000000001, 192.0, 0.0, 24.0, 3.5, 40.0, 14.5, 88.0, 0.0, 0.0, 0.0, 1.644587462131546E9, 0.0, 2022-02-12 00:51:02.131
78.0, -7862.047298198617, -7023.722770657871, -6079.160401721049, -9617.687418185165, -7480.905351746721, -4347.324889579402, -7401.13197578573, -5057.529217902329, -6717.503871620163, -9054.334050933607, -6254.576892206299, -4476.473269042167, -5286.433432869128, -7600.107204926873, -9016.917230715422, -13083.59361691399, 0.006, 0.234, 0.9500000000000001, 192.0, 0.0, 0.0, 0.0, 0.0, 0.0, 0.0, 0.0, 0.0, 0.0, 1.644587462138125E9, 0.0, 2022-02-12 00:51:02.138
80.0, -7844.210606123282, -7034.161035318499, -6080.166230221538, -9648.063438899928, -7497.467994388104, -4359.506590307545, -7403.65772290918, -5056.836313824215, -6731.518415393641, -9062.783010337713, -6251.917034616117, -4474.551019019011, -5286.969874736056, -7600.956571216175, -9020.69467552837, -13142.334001342537, 0.006, 0.234, 0.9500000000000001, 192.0, 0.0, 0.0, 0.0, 0.0, 0.0, 0.0, 0.0, 0.0, 0.0, 1.64458746215314E9, 0.0, 2022-02-12 00:51:02.153
82.0, -7864.438934855335, -7053.987032650356, -6091.4762129159235, -9641.044991140961, -7490.628360584779, -4360.557122296944, -7410.743225901512, -5060.211427236966, -6738.134531752412, -9074.584731410114, -6273.95585464905, -4491.717158760686, -5287.28279915843, -7610.545469587501, -9028.651896554458, -13127.023056390652, 0.006, 0.234, 0.9500000000000001, 192.0, 0.0, 0.0, 0.0, 0.0, 0.0, 0.0, 0.0, 0.0, 0.0, 1.644587462161288E9, 0.0, 2022-02-12 00:51:02.161
84.0, -7811.487652240712, -7031.165901561488, -6076.902875531063, -9645.917671432218, -7502.318322934905, -4359.350128096357, -7414.587725947825, -5069.979139563935, -6739.408581186364, -9068.773277851735, -6282.874200686718, -4494.131147161859, -5322.576203653361, -7606.946838730198, -9037.100855958564, -13126.508966268178, 0.006, 0.234, 0.9500000000000001, 192.0, 0.0, 0.0, 0.0, 0.0, 0.0, 0.0, 0.0, 0.0, 0.0, 1.64458746216821E9, 0.0, 2022-02-12 00:51:02.168
86.0, -7872.597321581522, -7049.136704103555, -6086.290608202292, -9668.805857754453, -7511.884869561776, -4368.0896601783825, -7420.935621373132, -5078.539857690318, -6749.802142358082, -9094.746004908802, -6280.303750074358, -4496.3439698629345, -5318.150558251209, -7620.581402847934, -9045.259242684751, -13174.431106380356, 0.008, 0.23800000000000002, 0.9500000000000001, 192.0, 0.0, 32.0, 3.5, 56.0, 14.5, 88.0, 0.0, 0.0, 0.0, 1.644587462176237E9, 0.0, 2022-02-12 00:51:02.176
88.0, -7883.147344964426, -7042.587642978149, -6084.748337834876, -9659.731049505597, -7500.5972386118465, -4363.127572909305, -7419.616868450269, -5068.995662807902, -6745.845883589493, -9069.51088541876, -6276.682767472597, -4506.111682189904, -5311.132110492243, -7628.717437829667, -9054.065830000143, -13121.435120276825, 0.008, 0.23800000000000002, 0.9500000000000001, 192.0, 0.0, 0.0, 0.0, 0.0, 0.0, 0.0, 0.0, 0.0, 0.0, 1.644587462183793E9, 0.0, 2022-02-12 00:51:02.183
90.0, -7872.060879714594, -7076.092907916654, -6083.988378523395, -9676.96424448064, -7512.421311428704, -4366.547389810967, -7422.276726040451, -5076.7517181338935, -6753.579587171029, -9078.876266345533, -6270.938369147583, -4480.854210955406, -5312.406159926196, -7607.572687574946, -9059.094972502586, -13179.37084190498, 0.008, 0.23800000000000002, 0.9500000000000001, 192.0, 0.0, 0.0, 0.0, 0.0, 0.0, 0.0, 0.0, 0.0, 0.0, 1.64458746219094E9, 0.0, 2022-02-12 00:51:02.190
92.0, -7889.60699911201, -7090.152155179043, -6104.082596788717, -9678.238293914592, -7510.387302683271, -4384.741709797587, -7424.914231886177, -5085.24538102691, -6764.420183231853, -9117.477729019849, -6299.503898561466, -4511.856080514918, -5279.258522898976, -7629.276231441049, -9060.614891125548, -13164.104600442006, 0.008, 0.23800000000000002, 0.9500000000000001, 192.0, 0.0, 0.0, 0.0, 0.0, 0.0, 0.0, 0.0, 0.0, 0.0, 1.644587462198295E9, 0.0, 2022-02-12 00:51:02.198
94.0, -7881.94035076384, -7079.1998003959425, -6091.96795129394, -9688.810669041952, -7514.701189363145, -4389.904962766763, -7429.1610633326845, -5092.420290997064, -6776.065442093068, -9114.683760962935, -6307.81874749884, -4521.355571908423, -5341.0163928289885, -7646.46472292718, -9073.020109298242, -13166.496237098723, 0.008, 0.23800000000000002, 0.9500000000000001, 192.0, 0.0, 0.0, 0.0, 0.0, 0.0, 0.0, 0.0, 0.0, 0.0, 1.644587462205567E9, 0.0, 2022-02-12 00:51:02.205
96.0, -7905.141461508449, -7080.943236463456, -6097.689997874499, -9696.499669134579, -7519.573869654402, -4399.538564627, -7444.740229218034, -5103.953791136002, -6784.045014863613, -9129.19004311443, -6284.997616409972, -4520.9979439971385, -5337.641279416237, -7650.242167740127, -9077.736327378312, -13214.887763844463, 0.006, 0.24, 0.9520000000000001, 192.0, 0.0, 24.0, 3.5, 64.0, 14.5, 96.0, 0.0, 0.0, 0.0, 1.644587462213342E9, 0.0, 2022-02-12 00:51:02.213
98.0, -7892.557429380111, -7102.624428585104, -6099.880468831118, -9687.983654497106, -7505.358160180826, -4397.191631459193, -7445.634298996246, -5107.418311526574, -6776.601883959996, -9111.532164994736, -6298.587477038798, -4528.75399932313, -5330.488721190539, -7635.937051288731, -9084.374795481539, -13164.998670220217, 0.006, 0.24, 0.9520000000000001, 192.0, 0.0, 0.0, 0.0, 0.0, 0.0, 0.0, 0.0, 0.0, 0.0, 1.644587462220722E9, 0.0, 2022-02-12 00:51:02.220
100.0, -7917.65843840342, -7114.806129313247, -6100.01457929785, -9711.877669319829, -7532.403770971749, -4412.949611300184, -7451.37869732126, -5113.430930785052, -6792.605732989995, -9127.915993680477, -6300.017988683938, -4509.620906069387, -5321.771540852969, -7646.08474327144, -9095.28244677573, -13227.449444228345, 0.006, 0.24, 0.9520000000000001, 192.0, 0.0, 0.0, 0.0, 0.0, 0.0, 0.0, 0.0, 0.0, 0.0, 1.644587462228127E9, 0.0, 2022-02-12 00:51:02.228
102.0, -7921.301772749636, -7115.946068280467, -6114.677323660532, -9706.200326228181, -7521.160843510729, -4413.843681078396, -7451.4681042990815, -5116.694285475527, -6799.445366793319, -9149.910110224499, -6311.7750062674295, -4523.0543044870265, -5327.962974067089, -7664.346118491426, -9101.85385964559, -13212.652589398933, 0.006, 0.24, 0.9520000000000001, 192.0, 0.0, 0.0, 0.0, 0.0, 0.0, 0.0, 0.0, 0.0, 0.0, 1.644587462235934E9, 0.0, 2022-02-12 00:51:02.235
104.0, -7912.830461601075, -7115.543736880271, -6104.775500866831, -9717.197384500192, -7527.933422080687, -4420.750370115086, -7457.972461935576, -5132.675782761072, -6804.653323251406, -9133.369819327572, -6323.889651762206, -4534.744266837152, -5342.625718429771, -7674.203237796216, -9110.392226027516, -13210.685635886864, 0.006, 0.24, 0.9520000000000001, 192.0, 0.0, 0.0, 0.0, 0.0, 0.0, 0.0, 0.0, 0.0, 0.0, 1.644587462243896E9, 0.0, 2022-02-12 00:51:02.243
106.0, -7947.252148062247, -7126.071408518721, -6119.460596973968, -9739.012687088572, -7546.977108356608, -4435.770742389052, -7475.049194699431, -5137.950794452524, -6826.692143284338, -9172.463020379904, -6329.902271020684, -4542.299156463046, -5357.735497681559, -7671.56573195049, -9120.651676732503, -13264.106305135048, 0.008, 0.234, 0.9540000000000001, 192.0, 0.0, 32.0, 3.5, 40.0, 14.5, 104.0, 0.0, 0.0, 0.0, 1.644587462252033E9, 0.0, 2022-02-12 00:51:02.252
108.0, -7952.728325453798, -7138.588385413693, -6113.470329459945, -9725.35577122638, -7540.271585020017, -4440.30814651348, -7477.351424378327, -5141.080038676267, -6822.06533218209, -9150.893586980532, -6337.63597460222, -4555.062002547026, -5355.768544169491, -7681.534609977557, -9127.938345424933, -13211.467946942801, 0.008, 0.234, 0.9540000000000001, 192.0, 0.0, 0.0, 0.0, 0.0, 0.0, 0.0, 0.0, 0.0, 0.0, 1.644587462258698E9, 0.0, 2022-02-12 00:51:02.258
110.0, -7944.882863149985, -7152.468818720439, -6112.106873048172, -9744.69003018022, -7548.340564768382, -4448.064201839471, -7471.495267331036, -5126.149073380122, -6840.125541701978, -9172.507723868815, -6329.991677998505, -4540.80158958454, -5348.683041177159, -7674.985548852152, -9131.8051972157, -13270.454200560356, 0.008, 0.234, 0.9540000000000001, 192.0, 0.0, 0.0, 0.0, 0.0, 0.0, 0.0, 0.0, 0.0, 0.0, 1.644587462266524E9, 0.0, 2022-02-12 00:51:02.266
112.0, -7942.021839859705, -7131.45817893245, -6121.628716186133, -9742.901890623796, -7542.663221676734, -4450.0311553515385, -7480.704186046623, -5133.30163160582, -6843.612413837006, -9168.886741267055, -6341.569881626354, -4572.071680077515, -5350.135904566754, -7700.891220675853, -9131.447569304415, -13250.449389272857, 0.008, 0.234, 0.9540000000000001, 192.0, 0.0, 0.0, 0.0, 0.0, 0.0, 0.0, 0.0, 0.0, 0.0, 1.644587462280149E9, 0.0, 2022-02-12 00:51:02.280
114.0, -7949.040287618672, -7167.399784016584, -6110.072864302739, -9754.904777396296, -7552.430934003703, -4455.797905421007, -7475.853857499821, -5134.419218828585, -6840.997259735735, -9179.325005927683, -6347.068410762359, -4565.5449706965655, -5360.954148883123, -7694.364511294903, -9138.153092641007, -13241.441636257368, 0.008, 0.234, 0.9540000000000001, 192.0, 0.0, 0.0, 0.0, 0.0, 0.0, 0.0, 0.0, 0.0, 0.0, 1.644587462288288E9, 0.0, 2022-02-12 00:51:02.288
116.0, -7956.90810166694, -7178.843877177701, -6122.500434219889, -9764.538379256534, -7570.8040679459655, -4480.094251643926, -7498.116194977307, -5150.534826580862, -6859.97389077829, -9198.301636970238, -6351.695221864608, -4561.678118905797, -5379.215524103109, -7701.897049176342, -9148.323136368172, -13297.119831695538, 0.008, 0.232, 0.9520000000000001, 192.0, 0.0, 32.0, 3.5, 32.0, 14.5, 96.0, 0.0, 0.0, 0.0, 1.644587462296155E9, 0.0, 2022-02-12 00:51:02.296
118.0, -7982.120869412526, -7187.426947048539, -6126.16612031056, -9758.123428597859, -7567.45130627767, -4482.463536556189, -7507.280410203983, -5164.884646521169, -6854.765934320204, -9198.68161662598, -6377.3550244993, -4574.57507545651, -5375.393375801251, -7717.0738836614955, -9160.504837096314, -13247.923642149406, 0.008, 0.232, 0.9520000000000001, 192.0, 0.0, 0.0, 0.0, 0.0, 0.0, 0.0, 0.0, 0.0, 0.0, 1.64458746230285E9, 0.0, 2022-02-12 00:51:02.302
120.0, -7992.5367823287, -7204.011941434377, -6124.7579604098755, -9778.463516052188, -7586.07030940894, -4492.275952372069, -7515.572907396902, -5170.2043617015315, -6881.230399755287, -9219.848718625155, -6364.92745458215, -4579.872438892417, -5387.999759674044, -7718.593802284456, -9171.725412812879, -13311.290837680202, 0.008, 0.232, 0.9520000000000001, 192.0, 0.0, 0.0, 0.0, 0.0, 0.0, 0.0, 0.0, 0.0, 0.0, 1.644587462310836E9, 0.0, 2022-02-12 00:51:02.310
122.0, -8007.803023791675, -7192.053758150788, -6138.392524527612, -9778.93290268575, -7575.654396492768, -4492.499469816622, -7519.6185731433125, -5171.456059391029, -6887.108908547033, -9227.649477440058, -6370.135411040236, -4596.345674555979, -5372.152372855231, -7724.584069798479, -9176.441630892949, -13298.01390147375, 0.008, 0.232, 0.9520000000000001, 192.0, 0.0, 0.0, 0.0, 0.0, 0.0, 0.0, 0.0, 0.0, 0.0, 1.644587462318885E9, 0.0, 2022-02-12 00:51:02.318
124.0, -7983.909008968951, -7201.8214704777565, -6128.647163945099, -9780.206952119703, -7579.230675605617, -4502.133071676859, -7510.1637852387175, -5174.048861747845, -6890.1263940485, -9224.140253560574, -6381.735966412541, -4596.166860600336, -5390.3243410973955, -7731.580165812989, -9180.956683272922, -13282.300625121668, 0.008, 0.232, 0.9520000000000001, 192.0, 0.0, 0.0, 0.0, 0.0, 0.0, 0.0, 0.0, 0.0, 0.0, 1.644587462326036E9, 0.0, 2022-02-12 00:51:02.326
126.0, -7983.931360713406, -7223.502662599405, -6138.459579760979, -9797.686016283753, -7597.335588614415, -4517.3546096509235, -7532.9402128386755, -5200.98271381649, -6903.55979246614, -9250.515312017837, -6382.898257124217, -4597.776186201118, -5397.789823745468, -7734.0388577030735, -9189.137421743562, -13343.186777017925, 0.002, 0.23800000000000002, 0.9520000000000001, 192.0, 0.0, 8.0, 3.5, 56.0, 14.5, 96.0, 0.0, 0.0, 0.0, 1.644587462332455E9, 0.0, 2022-02-12 00:51:02.332
128.0, -8008.853555781074, -7209.644581037114, -6132.871643647152, -9797.03781569455, -7588.417242576747, -4517.823996284485, -7530.258003504039, -5186.677597365093, -6886.5501149356505, -9238.221852567418, -6399.7067689546075, -4616.842224221495, -5394.034730676977, -7731.915441979819, -9199.151003259542, -13292.62713106002, 0.002, 0.23800000000000002, 0.9520000000000001, 192.0, 0.0, 0.0, 0.0, 0.0, 0.0, 0.0, 0.0, 0.0, 0.0, 1.644587462340586E9, 0.0, 2022-02-12 00:51:02.340
130.0, -8033.999268293294, -7254.638642625648, -6133.206919813982, -9816.774406048586, -7605.069292195952, -4536.308888949024, -7539.712791408634, -5205.207193518543, -6907.963086123835, -9256.036192898297, -6392.1295275842585, -4611.030770663116, -5416.967620488122, -7766.895922052375, -9208.896363842054, -13349.132341043038, 0.002, 0.23800000000000002, 0.9520000000000001, 192.0, 0.0, 0.0, 0.0, 0.0, 0.0, 0.0, 0.0, 0.0, 0.0, 1.644587462348588E9, 0.0, 2022-02-12 00:51:02.348
132.0, -8050.226634767847, -7250.391811179139, -6151.691812478521, -9815.142728703348, -7603.102338683884, -4552.268034490113, -7548.631137446301, -5213.477338967006, -6924.928060165413, -9268.754335493366, -6410.055626637415, -4625.626459792431, -5416.542937343471, -7780.5304861701115, -9217.77000639081, -13344.684343896432, 0.002, 0.23800000000000002, 0.9520000000000001, 192.0, 0.0, 0.0, 0.0, 0.0, 0.0, 0.0, 0.0, 0.0, 0.0, 1.644587462355221E9, 0.0, 2022-02-12 00:51:02.355
134.0, -8023.538651888211, -7254.459828670005, -6144.561605997277, -9820.37303690589, -7602.588248561412, -4550.703412378241, -7543.557291454947, -5213.902022111657, -6930.203071856866, -9273.202332639972, -6416.694094740641, -4633.5166255851545, -5398.281562123485, -7774.875494822919, -9227.045980339764, -13330.625096634043, 0.002, 0.23800000000000002, 0.9520000000000001, 192.0, 0.0, 0.0, 0.0, 0.0, 0.0, 0.0, 0.0, 0.0, 0.0, 1.644587462363075E9, 0.0, 2022-02-12 00:51:02.363
136.0, -8051.16540803497, -7268.29555848784, -6148.674326977054, -9840.37784819339, -7620.60375459239, -4565.410860229834, -7559.807009673955, -5229.74940893047, -6944.932871452913, -9296.537553851313, -6410.927344671171, -4631.326154628534, -5432.032696250999, -7787.861858351453, -9234.7796839213, -13389.253722340312, -0.002, 0.24, 0.9440000000000001, 192.0, 127.5, 120.0, 3.5, 64.0, 14.5, 64.0, 0.0, 0.0, 0.0, 1.644587462371308E9, 0.0, 2022-02-12 00:51:02.371
138.0, -8042.358820719579, -7269.01081431041, -6146.439152531523, -9829.336086432468, -7613.093568455407, -4565.388508485378, -7560.522265496525, -5230.308202541853, -6938.048534160678, -9282.232437399916, -6426.819434978895, -4657.432992152333, -5415.604164076348, -7792.823945620531, -9240.121750846118, -13338.336448471124, -0.002, 0.24, 0.9440000000000001, 192.0, 0.0, 0.0, 0.0, 0.0, 0.0, 0.0, 0.0, 0.0, 0.0, 1.644587462378206E9, 0.0, 2022-02-12 00:51:02.378
140.0, -8059.971995350361, -7303.879535660689, -6146.662669976076, -9852.358383221434, -7632.092551242417, -4584.231029061202, -7567.473658022125, -5243.495731770484, -6956.198150658388, -9309.166289468561, -6427.981725690571, -4645.720678057752, -5430.490425883583, -7795.953189844274, -9244.145064848073, -13393.925236931473, -0.002, 0.24, 0.9440000000000001, 192.0, 0.0, 0.0, 0.0, 0.0, 0.0, 0.0, 0.0, 0.0, 0.0, 1.644587462385743E9, 0.0, 2022-02-12 00:51:02.385
142.0, -8089.878629431561, -7301.912582148622, -6164.655824262599, -9859.130961791392, -7635.266498955071, -4595.317494311034, -7580.102393639374, -5261.131258145721, -6959.841485004603, -9334.155539769596, -6444.969051476604, -4653.610843850475, -5445.376687690818, -7808.671332439343, -9253.152817863562, -13395.355748576612, -0.002, 0.24, 0.9440000000000001, 192.0, 0.0, 0.0, 0.0, 0.0, 0.0, 0.0, 0.0, 0.0, 0.0, 1.64458746240079E9, 0.0, 2022-02-12 00:51:02.400
144.0, -8085.318873562679, -7325.918355693621, -6163.091202150727, -9860.76263913663, -7639.133350745839, -4596.323322811523, -7567.83128593341, -5248.435467295107, -6965.295310651697, -9310.261524946873, -6450.668746312707, -4666.954835290294, -5432.412675906739, -7811.957038874274, -9261.758239478855, -13380.491838513833, -0.002, 0.24, 0.9440000000000001, 192.0, 0.0, 0.0, 0.0, 0.0, 0.0, 0.0, 0.0, 0.0, 0.0, 1.644587462408076E9, 0.0, 2022-02-12 00:51:02.408
146.0, -8110.218716885891, -7338.100056421764, -6170.3108156097915, -9883.159087080847, -7657.461781199191, -4615.434064320811, -7588.350187343382, -5269.781383249925, -7000.901639569001, -9354.8085516463, -6455.56377834842, -4667.267759712668, -5463.6380629108035, -7821.054198867584, -9269.111963404652, -13438.919298520006, 0.004, 0.228, 0.9460000000000001, 192.0, 0.0, 16.0, 3.5, 16.0, 14.5, 72.0, 0.0, 0.0, 0.0, 1.644587462415368E9, 0.0, 2022-02-12 00:51:02.415
148.0, -8105.971885439383, -7345.6325943032025, -6174.60235054521, -9875.693604432774, -7643.4695891701695, -4620.8431864789945, -7595.458042080169, -5278.118583931754, -6993.7937848322135, -9351.858121378198, -6472.8416768123725, -4690.111242545991, -5459.950025075677, -7845.238786368226, -9278.365585609148, -13392.897056686528, 0.004, 0.228, 0.9460000000000001, 192.0, 0.0, 0.0, 0.0, 0.0, 0.0, 0.0, 0.0, 0.0, 0.0, 1.644587462423421E9, 0.0, 2022-02-12 00:51:02.423
150.0, -8107.98354244036, -7348.784190271401, -6173.1271354111595, -9899.498212277676, -7670.761069150099, -4639.618651821453, -7605.9633619741635, -5294.368302150763, -7015.050293809211, -9365.895016896131, -6477.692005359174, -4689.3065797456, -5457.692498885692, -7854.447705083812, -9288.580332825224, -13445.915394534517, 0.004, 0.228, 0.9460000000000001, 192.0, 0.0, 0.0, 0.0, 0.0, 0.0, 0.0, 0.0, 0.0, 0.0, 1.644587462431388E9, 0.0, 2022-02-12 00:51:02.431
152.0, -8120.254650146324, -7347.711306537546, -6186.225257661969, -9902.068662890037, -7666.514237703591, -4648.15701820338, -7608.667923053256, -5295.262371928975, -7008.188308261431, -9377.517924012891, -6478.161391992735, -4722.40951328391, -5463.727469888624, -7873.379632637458, -9294.905876506076, -13444.596641611653, 0.004, 0.228, 0.9460000000000001, 192.0, 0.0, 0.0, 0.0, 0.0, 0.0, 0.0, 0.0, 0.0, 0.0, 1.644587462438058E9, 0.0, 2022-02-12 00:51:02.438
154.0, -8122.534528080765, -7370.487734137504, -6178.424498847067, -9909.489442049198, -7662.513275446091, -4655.890721784916, -7605.449271851692, -5298.8162992973685, -7005.90843032699, -9366.923197141075, -6496.288656745989, -4730.925527921382, -5452.752763361069, -7864.818914511075, -9301.45493763148, -13428.749254792841, 0.006, 0.229, 0.9470000000000001, 192.0, 0.0, 32.0, 3.5, 24.0, 14.5, 80.0, 0.0, 0.0, 0.0, 1.644587462445985E9, 0.0, 2022-02-12 00:51:02.445
156.0, -8156.71034535293, -7407.412815977671, -6182.358405871201, -9925.694456779296, -7683.94859837873, -4671.78281209264, -7624.112978471873, -5317.323543706363, -7037.670259197982, -9402.015435935908, -6489.896057831772, -4715.033437613659, -5495.131670848331, -7869.624539568966, -9312.429644159038, -13490.708290422952, 0.006, 0.229, 0.9470000000000001, 192.0, 0.0, 0.0, 0.0, 0.0, 0.0, 0.0, 0.0, 0.0, 0.0, 1.644587462453358E9, 0.0, 2022-02-12 00:51:02.453
158.0, -8151.591795872664, -7393.420623948649, -6189.17568793007, -9908.01422691515, -7668.682356915755, -4667.044242268114, -7617.31804815746, -5320.966878052578, -7037.20087256442, -9395.779299232878, -6505.586982439397, -4722.990658639748, -5483.508763731571, -7866.607054067499, -9315.111853493674, -13438.807539797728, 0.006, 0.229, 0.9470000000000001, 192.0, 0.0, 0.0, 0.0, 0.0, 0.0, 0.0, 0.0, 0.0, 0.0, 1.644587462460253E9, 0.0, 2022-02-12 00:51:02.460
160.0, -8129.731789795374, -7379.271969708439, -6185.599408817221, -9931.796483015596, -7687.636636213856, -4674.867352827472, -7623.956516260686, -5320.229270485553, -7053.942329161446, -9399.512040556912, -6504.201174283168, -4720.084931860559, -5469.494219958094, -7878.118202461983, -9318.978705284442, -13488.942502610982, 0.006, 0.229, 0.9470000000000001, 192.0, 0.0, 0.0, 0.0, 0.0, 0.0, 0.0, 0.0, 0.0, 0.0, 1.644587462468068E9, 0.0, 2022-02-12 00:51:02.468
162.0, -8143.209891701925, -7412.620772435757, -6197.669350823087, -9927.974334713737, -7695.370339795392, -4698.135518805447, -7632.494882642613, -5331.7404188800365, -7045.91805290199, -9409.346808117249, -6505.6540376727635, -4744.716554250307, -5484.648702698792, -7902.414548684901, -9324.588993142725, -13487.467287476933, 0.006, 0.229, 0.9470000000000001, 192.0, 0.0, 0.0, 0.0, 0.0, 0.0, 0.0, 0.0, 0.0, 0.0, 1.644587462475743E9, 0.0, 2022-02-12 00:51:02.475
164.0, -8159.213740731924, -7423.662534196679, -6198.697531068031, -9941.318326153556, -7704.0428166440515, -4710.138405577946, -7638.619260623367, -5349.443000488639, -7052.645927983038, -9421.416750123113, -6514.1029970768695, -4753.009051443226, -5474.255141527074, -7923.246374517247, -9341.777484628856, -13481.722889151919, 0.005, 0.2315, 0.9445000000000001, 192.0, 0.0, 16.0, 3.5, 40.0, 14.5, 56.0, 0.0, 0.0, 0.0, 1.644587462484074E9, 0.0, 2022-02-12 00:51:02.484
166.0, -8203.224325564424, -7456.407839823704, -6207.5264701278775, -9960.317308940568, -7716.112758649917, -4732.736019222262, -7648.230510739149, -5354.785067413458, -7079.043338184755, -9454.363221450236, -6519.713284935151, -4763.626130059496, -5501.412511040272, -7916.85377560303, -9348.885339365643, -13546.565299816764, 0.005, 0.2315, 0.9445000000000001, 192.0, 0.0, 0.0, 0.0, 0.0, 0.0, 0.0, 0.0, 0.0, 0.0, 1.644587462490307E9, 0.0, 2022-02-12 00:51:02.490
168.0, -8205.86183141015, -7456.43019156816, -6214.254345208925, -9959.624404862452, -7716.760959239121, -4732.758370966718, -7654.980737564652, -5360.752983183024, -7087.201724910942, -9444.081419000795, -6538.309936321966, -4773.37149064201, -5512.208403612185, -7913.724531379286, -9357.960147614498, -13494.753956169363, 0.005, 0.2315, 0.9445000000000001, 192.0, 0.0, 0.0, 0.0, 0.0, 0.0, 0.0, 0.0, 0.0, 0.0, 1.644587462498471E9, 0.0, 2022-02-12 00:51:02.498
170.0, -8206.979418632915, -7462.7333835045565, -6219.03761852236, -9979.338643472034, -7740.051476961551, -4749.723345008296, -7667.140086548339, -5362.652881461726, -7103.049111729755, -9458.542997663379, -6552.257424862079, -4778.177115699901, -5516.298772847506, -7950.359040541535, -9370.790048931844, -13548.934584729026, 0.005, 0.2315, 0.9445000000000001, 192.0, 0.0, 0.0, 0.0, 0.0, 0.0, 0.0, 0.0, 0.0, 0.0, 1.644587462506542E9, 0.0, 2022-02-12 00:51:02.506
172.0, -8220.904555428571, -7475.071546443885, -6229.878214583185, -9978.802201605105, -7739.649145561355, -4762.352080625544, -7680.104098332417, -5379.282579336475, -7112.325085678707, -9486.102698576773, -6564.819105245961, -4796.684360108896, -5521.886708961333, -7962.049002891661, -9380.28954032535, -13547.034686450326, 0.005, 0.2315, 0.9445000000000001, 192.0, 0.0, 0.0, 0.0, 0.0, 0.0, 0.0, 0.0, 0.0, 0.0, 1.644587462513679E9, 0.0, 2022-02-12 00:51:02.513
174.0, -8205.884183154605, -7486.470936116092, -6213.561441130811, -9982.69140514033, -7736.944584482263, -4761.748583525251, -7670.895179616831, -5384.378777072284, -7108.860565288135, -9474.345680993281, -6564.550884312497, -4786.693130337373, -5518.75746473759, -7962.563093014132, -9390.928970686075, -13531.790796731806, 0.0015, 0.23275, 0.9432500000000001, 192.0, 127.5, 120.0, 3.5, 40.0, 14.5, 56.0, 0.0, 0.0, 0.0, 1.644587462527964E9, 0.0, 2022-02-12 00:51:02.527
176.0, -8217.618848993641, -7498.5408781219585, -6216.400112676634, -10006.585419963052, -7750.042706733073, -4775.249037176256, -7683.926246634275, -5386.524544539994, -7117.890670048078, -9501.905381906674, -6553.620881273852, -4793.979799029804, -5535.275403890062, -7963.1442383699705, -9395.19815387704, -13587.379585192155, 0.0015, 0.23275, 0.9432500000000001, 192.0, 0.0, 0.0, 0.0, 0.0, 0.0, 0.0, 0.0, 0.0, 0.0, 1.644587462536211E9, 0.0, 2022-02-12 00:51:02.536
178.0, -8233.734456745919, -7519.707980121134, -6221.205737734525, -9995.722472157773, -7749.640375332878, -4788.458918149343, -7692.33050254947, -5396.962809200622, -7117.26482120333, -9491.02008235694, -6568.77536401455, -4818.47731095282, -5537.935261480244, -7976.376471087512, -9400.964903946508, -13542.094950925703, 0.0015, 0.23275, 0.9432500000000001, 192.0, 0.0, 0.0, 0.0, 0.0, 0.0, 0.0, 0.0, 0.0, 0.0, 1.644587462543007E9, 0.0, 2022-02-12 00:51:02.543
180.0, -8263.529332104843, -7538.036410574486, -6218.255307466425, -10014.185013077857, -7761.129171982905, -4805.222726490823, -7694.47627001718, -5396.918105711711, -7144.913929094545, -9517.842175703308, -6567.121334924857, -4813.090540539091, -5535.834197501445, -7994.347273629579, -9408.653904039134, -13594.107460273202, 0.0015, 0.23275, 0.9432500000000001, 192.0, 0.0, 0.0, 0.0, 0.0, 0.0, 0.0, 0.0, 0.0, 0.0, 1.64458746255063E9, 0.0, 2022-02-12 00:51:02.550
182.0, -8290.26201847339, -7557.705945695156, -6237.880139098184, -10012.151004332425, -7763.163180728338, -4817.225613263323, -7713.832880715476, -5414.486576853583, -7159.844894390691, -9543.79255101592, -6585.785041545038, -4829.697886669384, -5547.702973807213, -8002.4386051224, -9420.097997200251, -13597.326111474767, 0.0015, 0.23275, 0.9432500000000001, 192.0, 0.0, 0.0, 0.0, 0.0, 0.0, 0.0, 0.0, 0.0, 0.0, 1.644587462558495E9, 0.0, 2022-02-12 00:51:02.558
184.0, -8282.885942803137, -7565.529056254513, -6232.9404035735615, -10014.944972389338, -7763.140828983883, -4819.907822597959, -7709.518994035601, -5415.313591398429, -7165.701051437981, -9535.097722422806, -6605.87925981036, -4836.246947794789, -5543.947880738721, -8007.065416224649, -9427.988162992975, -13577.254244953901, 0.0015, 0.23275, 0.9432500000000001, 192.0, 0.0, 0.0, 3.5, 48.0, 14.5, 72.0, 0.0, 0.0, 0.0, 1.644587462565812E9, 0.0, 2022-02-12 00:51:02.565
186.0, -8313.59723968473, -7592.328797856427, -6238.7518571319415, -10037.810806967116, -7773.690852366788, -4833.341221015599, -7708.200241112739, -5430.892757283778, -7180.9225894120445, -9559.461123879091, -6604.627562120862, -4839.711468185362, -5552.57565409847, -8000.6504655659755, -9434.470168885013, -13636.240498571457, 0.0015, 0.23275, 0.9432500000000001, 192.0, 0.0, 0.0, 0.0, 0.0, 0.0, 0.0, 0.0, 0.0, 0.0, 1.644587462573117E9, 0.0, 2022-02-12 00:51:02.573
188.0, -8346.878987178683, -7601.045978193996, -6239.310650743324, -10030.41237955241, -7773.690852366788, -4831.977764603826, -7714.637543515867, -5429.015210749532, -7179.469726022449, -9554.163760443183, -6618.485643683153, -4864.320738830655, -5556.040174489042, -8012.876869783029, -9437.688820086578, -13581.679890356052, 0.0015, 0.23275, 0.9432500000000001, 192.0, 0.0, 0.0, 0.0, 0.0, 0.0, 0.0, 0.0, 0.0, 0.0, 1.644587462580269E9, 0.0, 2022-02-12 00:51:02.580
190.0, -8366.302653110344, -7657.819409110476, -6233.119217529204, -10055.044001942159, -7781.603369903966, -4837.543348973197, -7706.412101556314, -5425.863614781334, -7198.8263367207455, -9577.655443865711, -6619.9385070727485, -4880.659864027484, -5556.151933211319, -8019.537689630711, -9444.550805634357, -13627.74683567844, 0.0015, 0.23275, 0.9432500000000001, 192.0, 0.0, 0.0, 0.0, 0.0, 0.0, 0.0, 0.0, 0.0, 0.0, 1.644587462589577E9, 0.0, 2022-02-12 00:51:02.589
192.0, -8383.401737618655, -7695.996188640141, -6242.238729266969, -10057.837969999073, -7776.842448334986, -4847.199302577889, -7720.516052307613, -5433.016173007032, -7197.239362864419, -9601.862383110809, -6628.990963577147, -4899.077701458657, -5571.261712463107, -8027.092579256604, -9447.143607991173, -13626.383379266666, 0.0015, 0.23275, 0.9432500000000001, 192.0, 0.0, 0.0, 0.0, 0.0, 0.0, 0.0, 0.0, 0.0, 0.0, 1.644587462595736E9, 0.0, 2022-02-12 00:51:02.595
194.0, -8419.23158398051, -7703.685188732767, -6234.549729174344, -10062.442429356865, -7770.829829076509, -4852.67547996944, -7702.567601510001, -5425.260117681041, -7204.928362957045, -9591.200601005627, -6650.426286509787, -4928.626707628573, -5562.522180381082, -8042.358820719579, -9451.01045978194, -13603.964579577992, 0.0015, 0.23275, 0.9432500000000001, 192.0, 0.0, 0.0, 3.5, 32.0, 14.5, 72.0, 0.0, 0.0, 0.0, 1.644587462603156E9, 0.0, 2022-02-12 00:51:02.603
196.0, -8456.58134896533, -7762.1573522278495, -6253.325194516801, -10074.08768821808, -7785.581980417011, -4875.317797102666, -7716.537441794568, -5454.004461050566, -7237.606613350704, -9630.226746824592, -6669.157048363334, -4910.5217946197745, -5558.856494290411, -8054.071134814159, -9454.989070294985, -13664.64956577415, 0.0015, 0.23275, 0.9432500000000001, 192.0, 0.0, 0.0, 0.0, 0.0, 0.0, 0.0, 0.0, 0.0, 0.0, 1.644587462610771E9, 0.0, 2022-02-12 00:51:02.610
198.0, -8495.763956995483, -7762.067945250028, -6249.324232259301, -10070.511409105231, -7789.11355604095, -4873.328491846143, -7722.19243314176, -5434.223167207619, -7241.629927352658, -9628.885642157275, -6697.320246377021, -4931.621841385584, -5581.834087590467, -8067.303367531702, -9462.834532598798, -13615.02869308337, 0.0015, 0.23275, 0.9432500000000001, 192.0, 0.0, 0.0, 0.0, 0.0, 0.0, 0.0, 0.0, 0.0, 0.0, 1.644587462618843E9, 0.0, 2022-02-12 00:51:02.618
200.0, -8506.358683867298, -7804.022169592639, -6250.911206115628, -10086.872886046516, -7811.778224918631, -4889.3323408761435, -7737.77159902711, -5453.26685348354, -7272.028299811876, -9647.459941799634, -6692.224048641211, -4937.433294943964, -5582.8175643465, -8056.5298267042435, -9476.15617229416, -13663.979013440492, 0.0015, 0.23275, 0.9432500000000001, 192.0, 0.0, 0.0, 0.0, 0.0, 0.0, 0.0, 0.0, 0.0, 0.0, 1.644587462625472E9, 0.0, 2022-02-12 00:51:02.625
202.0, -8493.171154638667, -7785.067890294539, -6257.326156774301, -10083.274255189212, -7806.190288804804, -4887.231276897344, -7736.452846104246, -5462.162847776753, -7279.292616759851, -9663.86612222983, -6698.594295810974, -4935.488693176352, -5598.240268020662, -8062.028355840249, -9485.186277054105, -13668.695231520562, 0.0015, 0.23275, 0.9432500000000001, 192.0, 0.0, 0.0, 0.0, 0.0, 0.0, 0.0, 0.0, 0.0, 0.0, 1.644587462633393E9, 0.0, 2022-02-12 00:51:02.633
204.0, -8489.952503437104, -7794.3215124990365, -6248.117238058715, -10090.292702948178, -7809.386588261913, -4902.095186960124, -7733.43536060278, -5481.966493364155, -7266.8650468427, -9647.90697668874, -6700.315380134032, -4949.525588694285, -5606.421006491305, -8071.773716422763, -9486.25916078796, -13647.908109177126, 0.00275, 0.232375, 0.9436250000000002, 192.0, 0.0, 16.0, 3.5, 32.0, 14.5, 64.0, 0.0, 0.0, 0.0, 1.644587462648449E9, 0.0, 2022-02-12 00:51:02.648
206.0, -8471.53466600593, -7795.953189844274, -6253.682822428086, -10105.313075222144, -7825.412789036369, -4918.54607087923, -7746.064096220029, -5474.188086293708, -7273.659977157114, -9683.49095386159, -6687.530182305597, -4945.189350269956, -5597.256791264629, -8087.866972430584, -9492.562352724357, -13713.264609964444, 0.00275, 0.232375, 0.9436250000000002, 192.0, 0.0, 0.0, 0.0, 0.0, 0.0, 0.0, 0.0, 0.0, 0.0, 1.644587462655073E9, 0.0, 2022-02-12 00:51:02.655
208.0, -8469.701822960595, -7781.335148970503, -6250.352412504246, -10095.008921028248, -7825.4351407808235, -4924.625745371073, -7758.983404515196, -5489.789603923512, -7253.029317024865, -9668.939968221184, -6702.170574923823, -4965.954120868936, -5615.54051822907, -8109.682275018964, -9498.59732372729, -13664.738972751973, 0.00275, 0.232375, 0.9436250000000002, 192.0, 0.0, 0.0, 0.0, 0.0, 0.0, 0.0, 0.0, 0.0, 0.0, 1.644587462663814E9, 0.0, 2022-02-12 00:51:02.663
210.0, -8481.592951010818, -7773.288520966593, -6249.681860170586, -10115.371360227033, -7849.686783514832, -4945.368164225598, -7764.01254701764, -5497.411548782772, -7281.326625505284, -9678.461811359146, -6694.0792434310015, -4954.398268985542, -5617.149843829852, -8104.2508011163245, -9507.850945931787, -13718.696083867084, 0.00275, 0.232375, 0.9436250000000002, 192.0, 0.0, 0.0, 0.0, 0.0, 0.0, 0.0, 0.0, 0.0, 0.0, 1.644587462671082E9, 0.0, 2022-02-12 00:51:02.671
212.0, -8475.58033175234, -7784.73261412771, -6261.349470776257, -10114.253773004268, -7847.339850347024, -4953.88417886307, -7775.6354541344, -5499.9149441617665, -7273.794087623845, -9697.460794146156, -6690.860592229437, -4953.928882351981, -5605.638695435369, -8122.4451211029445, -9511.40487330018, -13723.457005436065, 0.00275, 0.232375, 0.9436250000000002, 192.0, 0.0, 0.0, 0.0, 0.0, 0.0, 0.0, 0.0, 0.0, 0.0, 1.644587462677683E9, 0.0, 2022-02-12 00:51:02.677
214.0, -8440.823369124339, -7791.9745793312295, -6260.701270187053, -10127.15072955498, -7862.9413679768295, -4961.774344655793, -7782.765660615642, -5514.667095502269, -7268.474372443482, -9688.698910319676, -6702.394092368376, -4971.832629660682, -5619.8767566534, -8126.960173482916, -9522.558393783378, -13703.00515925946, 0.003375, 0.2351875, 0.9438125000000002, 192.0, 0.0, 16.0, 3.5, 56.0, 14.5, 64.0, 0.0, 0.0, 0.0, 1.644587462685805E9, 0.0, 2022-02-12 00:51:02.685
216.0, -8478.620168998263, -7814.996876120195, -6274.402889538156, -10148.049610620692, -7883.147344964426, -4988.238810090877, -7805.877364382431, -5529.307488120496, -7294.6259134561915, -9719.812538601464, -6712.407673884353, -4985.534249011785, -5636.662916739335, -8139.1195224666035, -9537.109379423784, -13771.87088392626, 0.003375, 0.2351875, 0.9438125000000002, 192.0, 0.0, 0.0, 0.0, 0.0, 0.0, 0.0, 0.0, 0.0, 0.0, 1.644587462694143E9, 0.0, 2022-02-12 00:51:02.694
218.0, -8488.499640047508, -7812.761701674664, -6273.95585464905, -10143.445151262898, -7876.08419371655, -4994.162022371534, -7803.932762614819, -5539.745752781124, -7295.497631489949, -9714.738692610108, -6722.510662378152, -4997.715949739927, -5624.503567755648, -8148.082571993181, -9544.41839986067, -13724.395778703187, 0.003375, 0.2351875, 0.9438125000000002, 192.0, 0.0, 0.0, 0.0, 0.0, 0.0, 0.0, 0.0, 0.0, 0.0, 1.644587462701058E9, 0.0, 2022-02-12 00:51:02.701
220.0, -8457.318956532354, -7788.711224640754, -6260.544807975866, -10160.34307007111, -7893.451499158324, -5001.1804701305, -7796.981370089218, -5548.19471218523, -7312.216736342519, -9729.468492206155, -6724.410560656854, -5004.242659120877, -5649.582225034503, -8163.61703438962, -9550.766295285976, -13774.575445005352, 0.003375, 0.2351875, 0.9438125000000002, 192.0, 0.0, 0.0, 0.0, 0.0, 0.0, 0.0, 0.0, 0.0, 0.0, 1.644587462707339E9, 0.0, 2022-02-12 00:51:02.707
222.0, -8468.986567138025, -7802.859878880964, -6277.710947717542, -10153.682250223428, -7889.763461323198, -5011.3058103687545, -7801.272905024637, -5559.5493983685255, -7303.678369960591, -9742.857187134885, -6733.9324037948145, -5011.3058103687545, -5649.425762823315, -8161.583025644187, -9555.951899999607, -13778.710517729583, 0.003375, 0.2351875, 0.9438125000000002, 192.0, 0.0, 0.0, 0.0, 0.0, 0.0, 0.0, 0.0, 0.0, 0.0, 1.644587462715634E9, 0.0, 2022-02-12 00:51:02.715
224.0, -8453.653270441684, -7801.83169863602, -6271.184238336592, -10155.67155547995, -7893.697368347332, -5007.662476022539, -7798.456585223268, -5536.214177157185, -7294.558858222826, -9720.393683957302, -6741.375534698432, -4996.196031116967, -5648.174065133818, -8175.530514184298, -9565.473743137569, -13752.53662497242, 0.004, 0.24, 0.9460000000000001, 192.0, 0.0, 16.0, 3.5, 64.0, 14.5, 72.0, 0.0, 0.0, 0.0, 1.644587462723331E9, 0.0, 2022-02-12 00:51:02.723
226.0, -8464.404459524687, -7805.586791704512, -6278.113279117737, -10178.2021138909, -7923.648705917443, -5029.544833844285, -7818.908431399875, -5556.017822744587, -7324.845471959767, -9747.528701726043, -6743.744819610694, -4999.168813129522, -5649.045783167575, -8167.193313502469, -9572.693356596632, -13813.936866991147, 0.004, 0.24, 0.9460000000000001, 192.0, 0.0, 0.0, 0.0, 0.0, 0.0, 0.0, 0.0, 0.0, 0.0, 1.644587462730532E9, 0.0, 2022-02-12 00:51:02.730
228.0, -8475.714442219072, -7800.222373035237, -6284.14825012067, -10164.768715473261, -7915.825595358086, -5032.070580967735, -7823.892870413408, -5562.812753059001, -7317.312934078328, -9733.134178296827, -6747.678726634828, -5025.700333797972, -5659.953434461765, -8196.228229549914, -9586.573789903377, -13765.098305356301, 0.004, 0.24, 0.9460000000000001, 192.0, 0.0, 0.0, 0.0, 0.0, 0.0, 0.0, 0.0, 0.0, 0.0, 1.644587462738052E9, 0.0, 2022-02-12 00:51:02.738
230.0, -8455.86609314276, -7786.0513670505725, -6269.463154013533, -10179.654977280496, -7936.702124679342, -5038.820807793237, -7829.8384344385195, -5568.713613595201, -7329.539338295382, -9737.671582421253, -6736.100523006979, -5003.885031209592, -5676.225504425229, -8187.175773045514, -9602.421176722191, -13806.516087831986, 0.004, 0.24, 0.9460000000000001, 192.0, 0.0, 0.0, 0.0, 0.0, 0.0, 0.0, 0.0, 0.0, 0.0, 1.644587462746002E9, 0.0, 2022-02-12 00:51:02.746
232.0, -8470.171209594157, -7793.807422376564, -6278.917941918128, -10185.06409943868, -7929.23664203127, -5051.695412599494, -7834.845225196508, -5584.404538202827, -7339.552919811359, -9761.766762944075, -6734.222976472733, -5009.56237430124, -5683.243952184195, -8194.417738249032, -9604.410481978714, -13816.417910625687, 0.004, 0.24, 0.9460000000000001, 192.0, 0.0, 0.0, 0.0, 0.0, 0.0, 0.0, 0.0, 0.0, 0.0, 1.644587462754213E9, 0.0, 2022-02-12 00:51:02.754
234.0, -8455.329651275832, -7814.25926855317, -6267.987938879483, -10188.863895996083, -7926.152101296438, -5057.015127779857, -7831.872443183952, -5583.354006213428, -7319.838681201778, -9744.891195880318, -6746.136456267412, -5028.494301854886, -5671.1963619227845, -8197.591685961686, -9603.114080800306, -13791.048680668913, 0.004, 0.24, 0.9460000000000001, 192.0, 0.0, 0.0, 3.5, 64.0, 14.5, 56.0, 0.0, 0.0, 0.0, 1.644587462760544E9, 0.0, 2022-02-12 00:51:02.760
236.0, -8465.656157214184, -7842.042486911117, -6280.996654152472, -10209.606314850607, -7950.4037440304455, -5078.9868925794235, -7851.877254471452, -5607.471538480704, -7335.797826742867, -9784.386728332845, -6749.846845846992, -5030.125979200123, -5670.034071211108, -8188.4274707350105, -9610.937191359662, -13855.287594233465, 0.004, 0.24, 0.9460000000000001, 192.0, 0.0, 0.0, 0.0, 0.0, 0.0, 0.0, 0.0, 0.0, 0.0, 1.644587462775643E9, 0.0, 2022-02-12 00:51:02.775
238.0, -8496.926247707159, -7834.353486818492, -6283.343587320279, -10191.903733242003, -7943.452351504845, -5076.081165800234, -7858.31455687458, -5608.030332092087, -7331.841567974278, -9766.661794979787, -6767.996462344702, -5053.5729591337395, -5666.3236816315275, -8201.525592985821, -9625.018790366506, -13807.007826210001, 0.004, 0.24, 0.9460000000000001, 192.0, 0.0, 0.0, 0.0, 0.0, 0.0, 0.0, 0.0, 0.0, 0.0, 1.644587462783655E9, 0.0, 2022-02-12 00:51:02.783
240.0, -8491.874753460259, -7839.628498509944, -6280.236694840992, -10208.3099136722, -7961.579616258099, -5095.013093353879, -7865.51181858919, -5620.122625842408, -7350.639385061191, -9775.73660322864, -6768.868180378459, -5045.861607296659, -5684.115670217952, -8219.004657149871, -9633.80302593744, -13853.03006804348, 0.004, 0.24, 0.9460000000000001, 192.0, 0.0, 0.0, 0.0, 0.0, 0.0, 0.0, 0.0, 0.0, 0.0, 1.644587462790349E9, 0.0, 2022-02-12 00:51:02.790
242.0, -8512.952448481614, -7846.088152657528, -6301.046168928882, -10218.2117364659, -7969.000395417261, -5115.889622675136, -7885.002539754217, -5630.315021314028, -7365.749164312979, -9788.27593186807, -6785.989616631225, -5052.9247585445355, -5674.817344524544, -8231.208709622468, -9647.057610399439, -13865.189417027166, 0.004, 0.24, 0.9460000000000001, 192.0, 0.0, 0.0, 0.0, 0.0, 0.0, 0.0, 0.0, 0.0, 0.0, 1.644587462798188E9, 0.0, 2022-02-12 00:51:02.798
244.0, -8495.58514303984, -7831.8947949284075, -6288.037453655894, -10228.582945893162, -7977.136430398993, -5123.243346600932, -7882.566199608589, -5642.362611575439, -7376.790926073901, -9794.601475548921, -6790.147041099911, -5075.410613466574, -5711.541260664614, -8252.644032555108, -9657.04884017096, -13845.1175505063, 0.006, 0.24, 0.9440000000000001, 192.0, 0.0, 24.0, 3.5, 64.0, 14.5, 64.0, 0.0, 0.0, 0.0, 1.6445874628066E9, 0.0, 2022-02-12 00:51:02.806
246.0, -8489.818392970372, -7875.32423440507, -6300.420320084134, -10253.706306660928, -8000.002264976772, -5141.6164805431945, -7897.519516649189, -5656.958300704754, -7398.650932151191, -9818.204917693725, -6790.147041099911, -5069.219180252455, -5726.6063364274905, -8256.577939579242, -9666.570683308923, -13912.84333620588, 0.006, 0.24, 0.9440000000000001, 192.0, 0.0, 0.0, 0.0, 0.0, 0.0, 0.0, 0.0, 0.0, 0.0, 1.644587462812946E9, 0.0, 2022-02-12 00:51:02.812
248.0, -8535.080675492367, -7883.907304275907, -6312.803186512374, -10242.016344310803, -7989.049910193671, -5145.885663734158, -7897.586571882555, -5653.851408225466, -7389.643179135702, -9816.550888604032, -6809.34718958702, -5087.1452793056105, -5728.103903305996, -8269.58665485223, -9676.316043891436, -13861.859007103325, 0.006, 0.24, 0.9440000000000001, 192.0, 0.0, 0.0, 0.0, 0.0, 0.0, 0.0, 0.0, 0.0, 0.0, 1.644587462820845E9, 0.0, 2022-02-12 00:51:02.820
250.0, -8535.907690037215, -7886.8353827995525, -6311.640895800698, -10258.2213590409, -8013.30155292768, -5157.575626084284, -7904.873240574985, -5669.698795044279, -7405.244696765506, -9829.067865499004, -6807.715512241783, -5073.801287865793, -5735.8823103764435, -8261.20475068149, -9686.888419018796, -13906.048405891468, 0.006, 0.24, 0.9440000000000001, 192.0, 0.0, 0.0, 0.0, 0.0, 0.0, 0.0, 0.0, 0.0, 0.0, 1.644587462827903E9, 0.0, 2022-02-12 00:51:02.827
252.0, -8541.629736617773, -7880.46513562979, -6334.5514338673875, -10259.338946263666, -8014.888526784007, -5164.9740534989905, -7914.99858081324, -5673.185667179307, -7411.7267026575455, -9847.016316296616, -6830.9613264753025, -5102.255058557398, -5728.37212423946, -8273.11823047617, -9693.6386458443, -13915.61495251834, 0.006, 0.24, 0.9440000000000001, 192.0, 0.0, 0.0, 0.0, 0.0, 0.0, 0.0, 0.0, 0.0, 0.0, 1.64458746283612E9, 0.0, 2022-02-12 00:51:02.836
254.0, -8531.146768468234, -7876.955911750307, -6319.888689504706, -10259.383649752575, -8016.475500640333, -5177.826306560792, -7917.278458747681, -5696.476184901737, -7408.6198101782575, -9827.927926531784, -6841.6454603249385, -5121.991648911435, -5735.167054553874, -8284.897599804115, -9699.181878469215, -13888.74815568306, 0.004, 0.23600000000000002, 0.9420000000000001, 192.0, 0.0, 16.0, 3.5, 48.0, 14.5, 56.0, 0.0, 0.0, 0.0, 1.644587462842571E9, 0.0, 2022-02-12 00:51:02.842
0.0, -8546.189492486656, -7906.817842342597, -6327.734151808519, -10278.159115095033, -8046.426838210445, -5201.876783594702, -7930.935374609873, -5687.535487119614, -7434.95016514661, -9854.928833833794, -6838.315050401098, -5100.466919000974, -5765.252502590716, -8296.565210409786, -9706.87087856184, -13955.602223348884, 0.004, 0.23600000000000002, 0.9420000000000001, 192.0, 0.0, 0.0, 0.0, 0.0, 0.0, 0.0, 0.0, 0.0, 0.0, 1.644587462850546E9, 0.0, 2022-02-12 00:51:02.850
2.0, -8569.83763812037, -7912.495185434245, -6332.6738873331415, -10259.406001497031, -8036.346201461101, -5196.802937603347, -7939.4290375028895, -5697.2584959576725, -7433.676115712657, -9839.32731620399, -6852.441352896853, -5120.96346866649, -5764.4701915347805, -8303.762472124396, -9717.107977522372, -13907.680083236704, 0.004, 0.23600000000000002, 0.9420000000000001, 192.0, 0.0, 0.0, 0.0, 0.0, 0.0, 0.0, 0.0, 0.0, 0.0, 1.644587462858708E9, 0.0, 2022-02-12 00:51:02.858
4.0, -8569.591768931361, -7918.776025626186, -6330.371657654245, -10280.416641285019, -8057.379192993545, -5201.250934749954, -7947.609775973532, -5707.4732431737475, -7442.885034428244, -9831.638316111364, -6849.40151565093, -5126.171425124577, -5767.085345636052, -8305.349445980723, -9726.048675304493, -13948.248499423087, 0.004, 0.23600000000000002, 0.9420000000000001, 192.0, 0.0, 0.0, 0.0, 0.0, 0.0, 0.0, 0.0, 0.0, 0.0, 1.644587462865545E9, 0.0, 2022-02-12 00:51:02.865
6.0, -8572.36338524382, -7929.326049009092, -6349.683564863631, -10285.490487276375, -8071.259626300291, -5218.640591936182, -7963.211293603336, -5718.783225868133, -7450.596386265324, -9883.851991158961, -6854.631823853472, -5125.880852446658, -5776.361319585004, -8307.137585537146, -9738.476245221646, -13959.759647817571, 0.004, 0.23600000000000002, 0.9420000000000001, 192.0, 0.0, 0.0, 0.0, 0.0, 0.0, 0.0, 0.0, 0.0, 0.0, 1.644587462873123E9, 0.0, 2022-02-12 00:51:02.873
8.0, -8571.782239887982, -7941.284232292681, -6347.917777051661, -10306.322313108722, -8065.202303552903, -5224.2061763055535, -7954.203540587848, -5729.154435295396, -7447.780066463955, -9869.211598540736, -6876.782402608682, -5144.92453872258, -5772.941502683342, -8320.123949065679, -9749.093323837915, -13934.122196927334, 0.006, 0.234, 0.9460000000000001, 192.0, 0.0, 24.0, 3.5, 40.0, 14.5, 72.0, 0.0, 0.0, 0.0, 1.644587462881141E9, 0.0, 2022-02-12 00:51:02.881
10.0, -8600.236010579589, -7974.744793742275, -6355.986756800027, -10329.27755466432, -8087.062309630193, -5249.933034173612, -7958.182151100893, -5733.669487675368, -7480.033633712964, -9908.930648437816, -6881.073937544101, -5169.511457623417, -5779.043528919641, -8335.636059717663, -9753.764838429075, -14007.234753040642, 0.006, 0.234, 0.9460000000000001, 192.0, 0.0, 0.0, 0.0, 0.0, 0.0, 0.0, 0.0, 0.0, 0.0, 1.644587462896341E9, 0.0, 2022-02-12 00:51:02.896
12.0, -8600.727748957604, -7982.791421746186, -6358.221931245557, -10310.90442072206, -8072.757193178796, -5243.495731770484, -7955.38818304398, -5728.014496328175, -7478.67017730119, -9912.082244406014, -6897.435414485385, -5191.103242767244, -5815.543927615157, -8358.770115228906, -9758.235187320137, -13956.652755338284, 0.006, 0.234, 0.9460000000000001, 192.0, 0.0, 0.0, 0.0, 0.0, 0.0, 0.0, 0.0, 0.0, 0.0, 1.64458746290279E9, 0.0, 2022-02-12 00:51:02.902
14.0, -8636.557595319462, -7998.974084731828, -6355.8526463332955, -10334.686676822505, -8100.4957080478325, -5261.377127334729, -7969.179209372904, -5747.594624471024, -7505.134642736273, -9928.689590536307, -6904.543269222173, -5172.059556491323, -5806.066787966107, -8364.26864436491, -9765.119524612372, -13996.48356395764, 0.006, 0.234, 0.9460000000000001, 192.0, 0.0, 0.0, 0.0, 0.0, 0.0, 0.0, 0.0, 0.0, 0.0, 1.644587462910993E9, 0.0, 2022-02-12 00:51:02.910
16.0, -8663.491447388107, -8006.1713464464365, -6373.801097130907, -10334.463159377952, -8114.577307054676, -5275.145801919199, -7990.748642772275, -5760.558636255102, -7514.075340518397, -9931.975296971237, -6907.404292512452, -5184.241257219464, -5804.412758876415, -8371.46590607952, -9778.463516052188, -14010.051072842012, 0.006, 0.234, 0.9460000000000001, 192.0, 0.0, 0.0, 0.0, 0.0, 0.0, 0.0, 0.0, 0.0, 0.0, 1.644587462917899E9, 0.0, 2022-02-12 00:51:02.917
18.0, -8640.938537232701, -7991.732119528308, -6370.560094184887, -10341.749828070382, -8116.70072277793, -5268.619092538249, -7989.809869505152, -5761.586816500047, -7516.042294030463, -9917.647828775385, -6926.135054365999, -5211.063350565833, -5820.930698028887, -8384.496973096964, -9791.874562725374, -13981.57495040595, 0.008, 0.24, 0.9560000000000001, 192.0, 0.0, 32.0, 3.5, 64.0, 14.5, 112.0, 0.0, 0.0, 0.0, 1.644587462925603E9, 0.0, 2022-02-12 00:51:02.925
20.0, -8648.404019880774, -7991.039215450194, -6371.387108729734, -10362.469895180451, -8130.424693873489, -5283.103022945288, -7995.375453874523, -5771.622749760479, -7526.167634268718, -9958.730335084241, -6918.624868229016, -5202.234411505987, -5823.4564451523365, -8381.61359806223, -9797.797775006029, -14048.361962838408, 0.008, 0.24, 0.9560000000000001, 192.0, 0.0, 0.0, 0.0, 0.0, 0.0, 0.0, 0.0, 0.0, 0.0, 1.644587462933497E9, 0.0, 2022-02-12 00:51:02.933
22.0, -8638.256327898065, -8017.324866929635, -6369.621320917764, -10344.879072294125, -8120.70168503543, -5282.186601422621, -7997.700035297876, -5775.400194573426, -7524.535956923481, -9944.134645954926, -6932.661763746949, -5214.729036656504, -5806.603229833035, -8383.08881319628, -9801.150536674326, -14000.730395404149, 0.008, 0.24, 0.9560000000000001, 192.0, 0.0, 0.0, 0.0, 0.0, 0.0, 0.0, 0.0, 0.0, 0.0, 1.644587462941656E9, 0.0, 2022-02-12 00:51:02.941
24.0, -8606.472147282619, -8011.938096515906, -6355.807942844384, -10356.278461966333, -8143.209891701925, -5285.740528791014, -8001.63394232201, -5774.707290495311, -7513.449491673648, -9934.925727239339, -6925.866833432536, -5193.003141045945, -5830.541948144669, -8379.154906172145, -9804.74916753163, -14031.084064374456, 0.008, 0.24, 0.9560000000000001, 192.0, 0.0, 0.0, 0.0, 0.0, 0.0, 0.0, 0.0, 0.0, 0.0, 1.644587462947667E9, 0.0, 2022-02-12 00:51:02.947
26.0, -8669.079383501934, -8031.048838025194, -6375.298664009412, -10355.496150910396, -8146.18267371448, -5304.985380767033, -8021.236422209314, -5807.743168800255, -7539.668087919723, -9955.198759460302, -6941.960089440357, -5206.213022019032, -5847.082239041596, -8388.676749310107, -9811.409987379311, -14046.462064559706, 0.008, 0.24, 0.9560000000000001, 192.0, 0.0, 0.0, 0.0, 0.0, 0.0, 0.0, 0.0, 0.0, 0.0, 1.644587462955044E9, 0.0, 2022-02-12 00:51:02.955
28.0, -8679.070613273456, -8021.0799599981265, -6376.125678554258, -10356.747848599893, -8141.019420745304, -5302.772558065958, -8010.529936615221, -5791.426395347881, -7553.526169482014, -9943.173520943346, -6966.681118807926, -5225.36846701723, -5846.210521007839, -8402.199554705567, -9814.56158334751, -14011.705101931704, 0.01, 0.23600000000000002, 0.9540000000000001, 192.0, 0.0, 40.0, 3.5, 48.0, 14.5, 104.0, 0.0, 0.0, 0.0, 1.644587462963402E9, 0.0, 2022-02-12 00:51:02.963
30.0, -8717.023875358567, -8052.819437124663, -6377.891466366228, -10381.491229711919, -8159.861941321128, -5312.7861395819355, -8013.0333319942165, -5808.05609322263, -7580.21415236165, -9962.865407808473, -6961.47316234984, -5218.729998914004, -5845.15998901844, -8401.730168072007, -9818.964877005206, -14074.938186995769, 0.01, 0.23600000000000002, 0.9540000000000001, 192.0, 0.0, 0.0, 0.0, 0.0, 0.0, 0.0, 0.0, 0.0, 0.0, 1.644587462971088E9, 0.0, 2022-02-12 00:51:02.971
32.0, -8706.63031418685, -8052.998251080305, -6387.7932891599285, -10369.711860383972, -8155.749220341351, -5313.657857615693, -8017.481329140822, -5802.758729786722, -7578.828344205421, -9953.500026881698, -6975.443002634407, -5240.858225924758, -5848.44569545337, -8408.100415241768, -9824.932792774773, -14030.97230565218, 0.01, 0.23600000000000002, 0.9540000000000001, 192.0, 0.0, 0.0, 0.0, 0.0, 0.0, 0.0, 0.0, 0.0, 0.0, 1.644587462977669E9, 0.0, 2022-02-12 00:51:02.977
34.0, -8703.63518042984, -8079.3062543042015, -6389.424966505167, -10387.570904203762, -8173.630615905598, -5324.72197112107, -8012.474538382833, -5794.868563993999, -7601.761234016566, -9964.54178864262, -6991.871534809057, -5242.780475947914, -5854.726535645311, -8419.85743282526, -9837.762694092118, -14065.97513746919, 0.01, 0.23600000000000002, 0.9540000000000001, 192.0, 0.0, 0.0, 0.0, 0.0, 0.0, 0.0, 0.0, 0.0, 0.0, 1.644587462985716E9, 0.0, 2022-02-12 00:51:02.985
36.0, -8720.913078893791, -8109.905792463517, -6395.459937508099, -10400.512564243385, -8174.725851383907, -5324.498453676517, -8035.407428193978, -5817.376770660493, -7602.9682282171525, -9983.11608828498, -7000.946343057913, -5247.072010883333, -5889.930533162419, -8418.00223803547, -9844.669383128808, -14083.588312099972, 0.008, 0.23500000000000001, 0.9540000000000001, 192.0, 0.0, 24.0, 3.5, 40.0, 14.5, 104.0, 0.0, 0.0, 0.0, 1.644587462993713E9, 0.0, 2022-02-12 00:51:02.993
38.0, -8752.406686831318, -8101.054501659215, -6397.0022078755155, -10397.048043852812, -8186.929903856505, -5334.757904381502, -8042.738800375319, -5815.700389826345, -7607.416225363759, -9976.410564948388, -7007.070721038666, -5254.55984527586, -5880.207524324361, -8407.228697208011, -9855.688793145275, -14050.395971583841, 0.008, 0.23500000000000001, 0.9540000000000001, 192.0, 0.0, 0.0, 0.0, 0.0, 0.0, 0.0, 0.0, 0.0, 0.0, 1.64458746300238E9, 0.0, 2022-02-12 00:51:03.002
40.0, -8748.808055974014, -8084.134231106548, -6403.998303890026, -10413.096596371723, -8206.040645365792, -5352.371079012284, -8043.789332364719, -5828.86556731052, -7631.489054142125, -10000.93042861586, -7007.517755927773, -5256.482095299018, -5883.604989481568, -8444.243186026, -9860.293252503068, -14121.474518951718, 0.008, 0.23500000000000001, 0.9540000000000001, 192.0, 0.0, 0.0, 0.0, 0.0, 0.0, 0.0, 0.0, 0.0, 0.0, 1.644587463008679E9, 0.0, 2022-02-12 00:51:03.008
42.0, -8753.859550220914, -8110.50928956381, -6407.708693469607, -10405.429948023551, -8193.367206259634, -5357.266111047997, -8055.1216668035595, -5833.246509223761, -7621.944859259708, -9988.100527298515, -7023.275735768764, -5278.409156609673, -5884.476707515324, -8454.43558149762, -9864.830656627495, -14076.88278876338, 0.008, 0.23500000000000001, 0.9540000000000001, 192.0, 0.0, 0.0, 0.0, 0.0, 0.0, 0.0, 0.0, 0.0, 0.0, 1.644587463023457E9, 0.0, 2022-02-12 00:51:03.023
44.0, -8743.82361696048, -8110.799862241729, -6409.072149881381, -10424.987724421946, -8210.376883790123, -5359.322471537885, -8052.461809213378, -5832.5536051456465, -7637.479321656147, -9989.64279766593, -7018.648924666515, -5273.894104229701, -5857.989890335785, -8447.81946513885, -9872.251435786657, -14110.633922890893, 0.008, 0.23500000000000001, 0.9540000000000001, 192.0, 0.0, 0.0, 0.0, 0.0, 0.0, 0.0, 0.0, 0.0, 0.0, 1.644587463029967E9, 0.0, 2022-02-12 00:51:03.029
46.0, -8750.506788552617, -8127.787188027763, -6416.381170318266, -10426.351180833719, -8219.563450761254, -5369.604273987326, -8064.330585519146, -5841.024916294207, -7644.721286859666, -10015.168489833892, -7029.400113749518, -5286.388729380218, -5913.891603218509, -8454.770857664449, -9879.448697501266, -14130.616382433938, 0.008, 0.2335, 0.958, 192.0, 0.0, 32.0, 3.5, 32.0, 15.0, 8.0, 0.0, 0.0, 0.0, 1.644587463038037E9, 0.0, 2022-02-12 00:51:03.038
48.0, -8739.77795121407, -8120.2770018907795, -6402.545440500431, -10417.63400049615, -8220.681037984019, -5361.624701216781, -8063.101239574104, -5850.010317565241, -7628.225699451649, -9998.069405325581, -7036.686782441948, -5290.434395126628, -5915.411521841469, -8458.347136777298, -9884.47784000371, -14093.154858726843, 0.008, 0.2335, 0.958, 192.0, 0.0, 0.0, 0.0, 0.0, 0.0, 0.0, 0.0, 0.0, 0.0, 1.644587463046038E9, 0.0, 2022-02-12 00:51:03.046
50.0, -8766.488285838162, -8128.815368272707, -6408.1557283587135, -10435.694210016038, -8235.030857924326, -5376.533314768471, -8066.968091364872, -5854.525369945213, -7646.08474327144, -10019.08004511357, -7034.7645324187915, -5278.811488009869, -5903.185117624416, -8458.794171666405, -9893.127965107915, -14162.825246194036, 0.008, 0.2335, 0.958, 192.0, 0.0, 0.0, 0.0, 0.0, 0.0, 0.0, 0.0, 0.0, 0.0, 1.644587463053168E9, 0.0, 2022-02-12 00:51:03.053
52.0, -8773.998471975145, -8137.75606605483, -6413.006056905515, -10425.166538377589, -8226.24662235339, -5377.360329313317, -8067.2139605538805, -5846.568148919124, -7650.9797753071525, -10006.406606007411, -7045.828645924169, -5291.641389327216, -5910.471786316846, -8466.147895592201, -9900.749909967173, -14115.014864804134, 0.008, 0.2335, 0.958, 192.0, 0.0, 0.0, 0.0, 0.0, 0.0, 0.0, 0.0, 0.0, 0.0, 1.644587463060605E9, 0.0, 2022-02-12 00:51:03.060
54.0, -8778.982910988678, -8156.352717441645, -6416.850556951828, -10446.579509565772, -8252.286404643823, -5393.677102765692, -8078.523943248266, -5876.161858577951, -7672.213932539694, -10018.543603246642, -7049.360221548107, -5304.247773200009, -5903.810966469165, -8475.06624162987, -9910.830546716517, -14148.006039620166, 0.008, 0.2335, 0.958, 192.0, 0.0, 0.0, 0.0, 0.0, 0.0, 0.0, 0.0, 0.0, 0.0, 1.644587463070043E9, 0.0, 2022-02-12 00:51:03.070
56.0, -8809.35893170344, -8167.439182691477, -6433.569661804398, -10458.627099827183, -8266.72563156195, -5407.177556416697, -8107.380045340067, -5873.792573665688, -7689.737700192654, -10058.955557221838, -7063.39711706604, -5315.691866361126, -5938.456170374891, -8491.226552871056, -9928.175500413836, -14176.169237633854, 0.01, 0.23375, 0.956, 192.0, 0.0, 48.0, 3.5, 40.0, 14.5, 104.0, 0.0, 0.0, 0.0, 1.644587463076203E9, 0.0, 2022-02-12 00:51:03.076
58.0, -8794.673835596304, -8173.116525783125, -6428.451112324133, -10452.949756735536, -8267.68675657353, -5409.390379117773, -8109.07877791867, -5879.291102801693, -7683.456860000713, -10049.456065828332, -7074.818858482702, -5317.882337317746, -5920.798292255198, -8501.597762298317, -9934.858672005972, -14141.41227500585, 0.01, 0.23375, 0.956, 192.0, 0.0, 0.0, 0.0, 0.0, 0.0, 0.0, 0.0, 0.0, 0.0, 1.644587463082767E9, 0.0, 2022-02-12 00:51:03.082
60.0, -8792.908047784334, -8161.583025644187, -6427.914670457205, -10471.814629055814, -8283.40003292561, -5420.700361812158, -8112.342132609146, -5898.960637922363, -7705.003941655629, -10065.504618347242, -7083.1337074200765, -5330.466369446083, -5942.524187865757, -8495.92041920667, -9943.978183743739, -14207.215810682275, 0.01, 0.23375, 0.956, 192.0, 0.0, 0.0, 0.0, 0.0, 0.0, 0.0, 0.0, 0.0, 0.0, 1.644587463090283E9, 0.0, 2022-02-12 00:51:03.090
62.0, -8825.295725500075, -8180.00086307536, -6435.737781016563, -10465.779658052881, -8285.54580039332, -5423.539033357983, -8120.679333290975, -5884.700224959877, -7691.481136260169, -10045.142179148457, -7081.904361475034, -5337.931852094156, -5953.409487415492, -8507.520974578974, -9948.15795995688, -14159.360725803463, 0.01, 0.23375, 0.956, 192.0, 0.0, 0.0, 0.0, 0.0, 0.0, 0.0, 0.0, 0.0, 0.0, 1.644587463098446E9, 0.0, 2022-02-12 00:51:03.098
64.0, -8815.170385261821, -8201.77146217483, -6431.647411781241, -10479.794201826358, -8298.174536010569, -5439.073495754421, -8125.820234515695, -5900.614667012056, -7708.736682979666, -10059.491999088765, -7087.894628989056, -5333.953241581112, -5949.162655968983, -8514.11473919329, -9959.892625795917, -14193.245970397707, 0.01, 0.23375, 0.956, 192.0, 0.0, 0.0, 0.0, 0.0, 0.0, 0.0, 0.0, 0.0, 0.0, 1.644587463106433E9, 0.0, 2022-02-12 00:51:03.106
66.0, -8824.133434788399, -8206.644142466086, -6433.212033893113, -10487.17027749661, -8306.131757036657, -5446.65073712477, -8139.164225955514, -5909.153033393984, -7714.637543515867, -10083.497772633764, -7091.247390657353, -5335.24964275952, -5953.342432182126, -8524.262431176, -9961.054916507592, -14210.993255495223, 0.008, 0.233875, 0.954, 192.0, 0.0, 24.0, 3.5, 40.0, 14.5, 96.0, 0.0, 0.0, 0.0, 1.644587463112856E9, 0.0, 2022-02-12 00:51:03.112
68.0, -8824.334600488497, -8193.881296382106, -6429.345182102345, -10496.93798982358, -8302.577829668264, -5455.278510484518, -8139.097170722148, -5922.631135300534, -7710.837746958465, -10068.544455593164, -7103.987884996878, -5354.360384268807, -5960.427935174458, -8528.0622277334, -9967.894550310917, -14175.90101670039, 0.008, 0.233875, 0.954, 192.0, 0.0, 0.0, 0.0, 0.0, 0.0, 0.0, 0.0, 0.0, 0.0, 1.644587463121215E9, 0.0, 2022-02-12 00:51:03.121
70.0, -8849.793237423091, -8210.086311112203, -6444.857292754328, -10512.114824308734, -8321.621515944185, -5474.70217641618, -8143.187539957469, -5927.749684780799, -7737.525729838101, -10103.435528687898, -7113.867356046124, -5363.993986129044, -5973.235484747349, -8546.033030275468, -9974.711832369785, -14247.851282102023, 0.008, 0.233875, 0.954, 192.0, 0.0, 0.0, 0.0, 0.0, 0.0, 0.0, 0.0, 0.0, 0.0, 1.644587463128899E9, 0.0, 2022-02-12 00:51:03.128
72.0, -8852.31898454654, -8231.856910211673, -6456.949586504649, -10503.375292226709, -8320.570983954785, -5469.807144380467, -8159.034926776282, -5931.214205171372, -7739.738552539176, -10097.780537340706, -7138.141350524587, -5384.915218939212, -5970.575627157167, -8550.011640788513, -9984.88187609695, -14206.277037415151, 0.008, 0.233875, 0.954, 192.0, 0.0, 0.0, 0.0, 0.0, 0.0, 0.0, 0.0, 0.0, 0.0, 1.64458746314251E9, 0.0, 2022-02-12 00:51:03.142
74.0, -8841.500740230173, -8246.2961371298, -6451.674574813196, -10519.356789512252, -8338.340620796755, -5477.026757839532, -8158.699650609452, -5936.6903825629215, -7750.7132590667325, -10101.356816453555, -7139.124827280621, -5377.963826413611, -5985.081909308661, -8552.850312334336, -9991.87797211146, -14231.936840049844, 0.008, 0.233875, 0.954, 192.0, 0.0, 0.0, 0.0, 0.0, 0.0, 0.0, 0.0, 0.0, 0.0, 1.644587463150741E9, 0.0, 2022-02-12 00:51:03.150
76.0, -8886.003063440688, -8253.314584888767, -6459.0506504834475, -10524.609449459249, -8340.151112097636, -5490.6389702128145, -8167.796810602762, -5950.6602228474885, -7758.357555670447, -10122.09923530808, -7147.573786684727, -5390.525506797494, -5983.584342430156, -8556.337184469365, -9996.393024491434, -14253.930956593867, 0.007, 0.2369375, 0.954, 192.0, 0.0, 24.0, 3.5, 64.0, 14.5, 104.0, 0.0, 0.0, 0.0, 1.644587463158562E9, 0.0, 2022-02-12 00:51:03.158
78.0, -8883.164391894865, -8252.375811621645, -6458.782429549984, -10526.330533782308, -8339.771132441894, -5483.933446876222, -8166.969796057916, -5953.454190904402, -7749.014526488129, -10108.62113340153, -7145.428019217017, -5403.936553470678, -5982.779679629765, -8561.254568249533, -10006.674826940874, -14215.642418341926, 0.007, 0.2369375, 0.954, 192.0, 0.0, 0.0, 0.0, 0.0, 0.0, 0.0, 0.0, 0.0, 0.0, 1.644587463165263E9, 0.0, 2022-02-12 00:51:03.165
80.0, -8889.556990809082, -8266.882093773138, -6469.444211655165, -10545.731847969515, -8365.207417632035, -5496.293961560007, -8175.597569417664, -5955.555254883201, -7782.475087937723, -10138.952450627381, -7153.675812921026, -5389.899657952745, -6015.90496491253, -8558.438248448163, -10014.587344478054, -14278.137895838965, 0.007, 0.2369375, 0.954, 192.0, 0.0, 0.0, 0.0, 0.0, 0.0, 0.0, 0.0, 0.0, 0.0, 1.644587463173088E9, 0.0, 2022-02-12 00:51:03.173
82.0, -8869.440420799307, -8248.82188425325, -6472.28288320099, -10538.221661832531, -8359.105391395735, -5511.403740811795, -8184.404156733055, -5973.079022536162, -7772.886189566397, -10138.974802371837, -7176.809868432269, -5399.600315046348, -6019.727113214388, -8569.234141020077, -10019.594135236042, -14238.999991297722, 0.007, 0.2369375, 0.954, 192.0, 0.0, 0.0, 0.0, 0.0, 0.0, 0.0, 0.0, 0.0, 0.0, 1.644587463181417E9, 0.0, 2022-02-12 00:51:03.181
84.0, -8896.32956937904, -8253.403991866588, -6464.370365663811, -10557.0418306639, -8373.23169389149, -5514.242412357618, -8196.876430139117, -5971.827324846665, -7779.234084991705, -10131.598726701586, -7176.116964354153, -5423.583736846893, -6007.433653763968, -8590.870629652814, -10029.294792329645, -14269.912453879411, 0.007, 0.2369375, 0.954, 192.0, 0.0, 0.0, 0.0, 0.0, 0.0, 0.0, 0.0, 0.0, 0.0, 1.64458746318828E9, 0.0, 2022-02-12 00:51:03.188
86.0, -8948.453837448817, -8303.717768635484, -6474.540409390976, -10556.125409141232, -8386.285112653388, -5529.821578242967, -8209.19224133399, -5989.70872041091, -7795.2602857661595, -10153.570491501152, -7163.532932225816, -5425.394228147773, -6013.558031744723, -8593.664597709727, -10038.615469767508, -14297.203933859342, 0.0075, 0.23846875, 0.9530000000000001, 192.0, 0.0, 32.0, 3.5, 64.0, 14.5, 96.0, 0.0, 0.0, 0.0, 1.644587463194912E9, 0.0, 2022-02-12 00:51:03.194
88.0, -8919.86595629048, -8311.697341406028, -6471.679386100696, -10555.90189169668, -8384.385214374688, -5529.374543353862, -8203.023159864326, -5994.514345468801, -7798.344826500992, -10154.352802557089, -7174.932321898023, -5425.505986870049, -6013.558031744723, -8600.347769301865, -10051.065391429114, -14263.92218636539, 0.0075, 0.23846875, 0.9530000000000001, 192.0, 0.0, 0.0, 0.0, 0.0, 0.0, 0.0, 0.0, 0.0, 0.0, 1.64458746320289E9, 0.0, 2022-02-12 00:51:03.202
90.0, -8912.57928759805, -8293.681835375051, -6476.261493714034, -10573.313900627363, -8403.048920994868, -5538.00231671361, -8209.125186100626, -5991.608618689611, -7814.326323786537, -10153.01169788977, -7177.391013788107, -5428.791693304979, -6043.777590248298, -8583.293388282465, -10051.98181295178, -14327.490547596282, 0.0075, 0.23846875, 0.9530000000000001, 192.0, 0.0, 0.0, 0.0, 0.0, 0.0, 0.0, 0.0, 0.0, 0.0, 1.644587463210985E9, 0.0, 2022-02-12 00:51:03.210
92.0, -8923.933973781344, -8298.085129032746, -6486.766813608028, -10559.142894642699, -8392.409490634143, -5541.3550783819055, -8216.188337348502, -5998.917639126496, -7806.234992293716, -10168.233235863834, -7199.7651099878685, -5443.566196389937, -6043.799941992753, -8611.166013618233, -10057.681507787885, -14286.005709887233, 0.0075, 0.23846875, 0.9530000000000001, 192.0, 0.0, 0.0, 0.0, 0.0, 0.0, 0.0, 0.0, 0.0, 0.0, 1.644587463217999E9, 0.0, 2022-02-12 00:51:03.217
94.0, -8920.469453390771, -8322.850861889227, -6478.764889093029, -10583.372185632252, -8408.90507804216, -5547.1665319402855, -8218.19999434948, -5997.196554803438, -7822.685876212821, -10175.452849322897, -7200.860345466179, -5441.688649855691, -6046.079819927195, -8616.128100887312, -10064.744659035761, -14312.336064855584, 0.0075, 0.23846875, 0.9530000000000001, 192.0, 0.0, 0.0, 0.0, 0.0, 0.0, 0.0, 0.0, 0.0, 0.0, 1.64458746322575E9, 0.0, 2022-02-12 00:51:03.225
96.0, -8950.689011894347, -8333.713809694507, -6489.829002598406, -10589.071880468355, -8415.565897889841, -5555.771953555579, -8220.904555428571, -6009.065331109206, -7826.753893703687, -10181.644282537018, -7206.448281580006, -5453.624481394825, -6049.544340317767, -8626.052275425467, -10067.739792792772, -14332.430283120906, 0.00575, 0.238234375, 0.9495, 192.0, 0.0, 16.0, 3.5, 56.0, 14.5, 72.0, 0.0, 0.0, 0.0, 1.644587463233419E9, 0.0, 2022-02-12 00:51:03.233
98.0, -8974.87359939499, -8339.525263252886, -6487.1020897748585, -10584.243903666009, -8414.71653160054, -5564.109154237408, -8223.720875229941, -6007.388950275058, -7822.596469235, -10179.185590646934, -7218.115892185676, -5466.1638100342525, -6054.349965375658, -8628.309801615453, -10076.032289985693, -14297.896837937456, 0.00575, 0.238234375, 0.9495, 192.0, 0.0, 0.0, 0.0, 0.0, 0.0, 0.0, 0.0, 0.0, 0.0, 1.644587463240826E9, 0.0, 2022-02-12 00:51:03.240
100.0, -8960.836703877058, -8347.460132534521, -6492.287694488489, -10608.652008611203, -8436.487130700008, -5569.71944209569, -8234.293250357301, -6009.042979364751, -7853.821856239064, -10214.009608508302, -7208.057607180787, -5466.856714112368, -6052.6735845415105, -8626.968696948135, -10080.2791214322, -14359.878225312023, 0.00575, 0.238234375, 0.9495, 192.0, 0.0, 0.0, 0.0, 0.0, 0.0, 0.0, 0.0, 0.0, 0.0, 1.644587463248098E9, 0.0, 2022-02-12 00:51:03.248
102.0, -8962.267215522197, -8334.473769005986, -6495.819270112428, -10600.247752696008, -8433.380238220721, -5568.110116494909, -8241.95989870547, -6022.699895226943, -7847.116332902472, -10202.498460113819, -7229.33646790224, -5479.284284029518, -6068.431564382501, -8633.85303424037, -10086.023519757215, -14318.885125980989, 0.00575, 0.238234375, 0.9495, 192.0, 0.0, 0.0, 0.0, 0.0, 0.0, 0.0, 0.0, 0.0, 0.0, 1.644587463256206E9, 0.0, 2022-02-12 00:51:03.256
104.0, -8972.191390060352, -8347.236615089967, -6491.661845643741, -10620.118453516776, -8441.315107502354, -5570.904084551822, -8236.237852124912, -6011.747540443843, -7854.26889112817, -10193.49070709833, -7235.438494138539, -5480.401871252283, -6067.716308559931, -8637.250499397576, -10090.918551792927, -14340.07457972462, 0.00575, 0.238234375, 0.9495, 192.0, 0.0, 0.0, 0.0, 0.0, 0.0, 0.0, 0.0, 0.0, 0.0, 1.644587463270258E9, 0.0, 2022-02-12 00:51:03.270
106.0, -8973.554846472127, -8379.959568972537, -6505.542278950486, -10616.877450570757, -8445.785456393416, -5592.048834806542, -8252.241701154911, -6035.663907011021, -7863.343699377025, -10213.629628852563, -7233.67270632657, -5486.034510855021, -6079.115698232138, -8642.771380278038, -10097.825240829616, -14368.03661203821, 0.00575, 0.238234375, 0.9495, 192.0, 0.0, 0.0, 3.5, 56.0, 14.5, 72.0, 0.0, 0.0, 0.0, 1.644587463277704E9, 0.0, 2022-02-12 00:51:03.277
108.0, -8998.320579328607, -8364.067478664814, -6498.590886424886, -10609.300209200408, -8443.48322671452, -5593.769919129601, -8252.420515110554, -6036.088590155672, -7858.8957022304185, -10215.864803298093, -7248.201340222519, -5488.649664956291, -6078.981587765406, -8660.272796186542, -10102.787328098695, -14329.569259830627, 0.00575, 0.238234375, 0.9495, 192.0, 0.0, 0.0, 0.0, 0.0, 0.0, 0.0, 0.0, 0.0, 0.0, 1.644587463285678E9, 0.0, 2022-02-12 00:51:03.285
110.0, -8998.58880026207, -8364.26864436491, -6502.703607404663, -10625.371113463774, -8466.259654314477, -5606.957448358232, -8268.111439718181, -6051.243072896371, -7884.331987420558, -10234.327344218176, -7240.177063963064, -5501.9489529072, -6075.137087719094, -8671.33690969192, -10108.397615956977, -14393.56230420617, 0.00575, 0.238234375, 0.9495, 192.0, 0.0, 0.0, 0.0, 0.0, 0.0, 0.0, 0.0, 0.0, 0.0, 1.64458746329366E9, 0.0, 2022-02-12 00:51:03.293
112.0, -9013.810338236135, -8398.958551759548, -6514.997066855081, -10615.245773225519, -8466.885503159227, -5602.867079122911, -8273.677024087552, -6041.788284991776, -7884.622560098477, -10236.629573897073, -7268.004985809921, -5508.0733308879535, -6099.165213008549, -8675.248464971599, -10121.495738207786, -14359.542949145192, 0.00575, 0.238234375, 0.9495, 192.0, 0.0, 0.0, 0.0, 0.0, 0.0, 0.0, 0.0, 0.0, 0.0, 1.64458746330027E9, 0.0, 2022-02-12 00:51:03.300
114.0, -9010.614038779026, -8399.405586648654, -6505.408168483755, -10634.736494390547, -8475.110945118779, -5614.221765306207, -8277.610931111685, -6049.142008917572, -7892.80329856912, -10241.032867554768, -7272.967073078999, -5496.986865638121, -6097.734701363409, -8667.067726500956, -10129.29649702269, -14379.011318565765, 0.00575, 0.238234375, 0.9495, 192.0, 0.0, 0.0, 0.0, 0.0, 0.0, 0.0, 0.0, 0.0, 0.0, 1.64458746330829E9, 0.0, 2022-02-12 00:51:03.308
116.0, -8999.169945617909, -8407.876897797216, -6513.767720910039, -10648.527520719472, -8481.592951010818, -5624.280050311095, -8283.310625947788, -6056.987471221384, -7903.688598118854, -10255.807370639726, -7264.071078785787, -5507.358075065384, -6104.753149122375, -8678.981206295635, -10132.828072646627, -14412.002493381799, 0.00575, 0.238234375, 0.9495, 192.0, 0.0, 0.0, 3.5, 56.0, 14.5, 72.0, 0.0, 0.0, 0.0, 1.644587463316351E9, 0.0, 2022-02-12 00:51:03.316
118.0, -9024.628582552503, -8406.71460708554, -6508.470357474132, -10644.526558461972, -8480.788288210428, -5624.034181122087, -8281.410727669088, -6058.775610777809, -7889.025853756172, -10232.896832573037, -7283.360634250717, -5525.708857263191, -6103.25558224387, -8696.952008837701, -10132.2916307797, -14371.344670217595, 0.00575, 0.238234375, 0.9495, 192.0, 0.0, 0.0, 0.0, 0.0, 0.0, 0.0, 0.0, 0.0, 0.0, 1.644587463323403E9, 0.0, 2022-02-12 00:51:03.323
120.0, -9061.17368473693, -8433.179072520623, -6510.169090052735, -10663.279672059974, -8493.573486038862, -5627.252832323651, -8284.338806192733, -6052.405363608046, -7910.1929557553485, -10274.560484237729, -7265.367479964195, -5525.105360162897, -6111.950410836985, -8691.945218079713, -10138.907747138472, -14431.940249435933, 0.00575, 0.238234375, 0.9495, 192.0, 0.0, 0.0, 0.0, 0.0, 0.0, 0.0, 0.0, 0.0, 0.0, 1.644587463329974E9, 0.0, 2022-02-12 00:51:03.329
122.0, -9056.502170145772, -8420.975020048025, -6523.021343114537, -10649.44394224214, -8485.839782457326, -5629.130378857896, -8294.441794686532, -6061.614282323633, -7915.132691279971, -10277.287397061276, -7279.024395826387, -5540.997450470621, -6087.028215769317, -8686.29022673252, -10144.853311163582, -14392.869400128056, 0.00575, 0.238234375, 0.9495, 192.0, 0.0, 0.0, 0.0, 0.0, 0.0, 0.0, 0.0, 0.0, 0.0, 1.644587463337922E9, 0.0, 2022-02-12 00:51:03.337
124.0, -9035.35741989105, -8431.457988197564, -6515.824081399927, -10664.35255579383, -8504.525840821963, -5638.741628973678, -8303.382492468654, -6078.646311598577, -7926.2191565298035, -10265.083344588678, -7293.865954144711, -5529.32983986495, -6119.751169651887, -8699.38834898333, -10156.587977002619, -14415.33290330564, 0.00575, 0.238234375, 0.9495, 192.0, 0.0, 0.0, 0.0, 0.0, 0.0, 0.0, 0.0, 0.0, 0.0, 1.644587463345952E9, 0.0, 2022-02-12 00:51:03.345
126.0, -9054.289347444696, -8439.415209223653, -6522.239032058601, -10669.15818085172, -8512.68422754815, -5648.30817560055, -8305.058873302803, -6072.387823151091, -7934.690467678365, -10301.159060139546, -7298.8503931582445, -5539.075200447464, -6125.495567976901, -8707.233811287142, -10164.656956750985, -14444.591336797635, 0.006, 0.23800000000000002, 0.9440000000000001, 192.0, 0.0, 24.0, 3.5, 56.0, 14.5, 64.0, 0.0, 0.0, 0.0, 1.644587463352528E9, 0.0, 2022-02-12 00:51:03.352
128.0, -9036.452655369361, -8431.368581219744, -6516.248764544579, -10663.190265082154, -8503.452957088108, -5638.0934283844745, -8298.107480777202, -6065.816410281231, -7923.916926850907, -10280.953083151948, -7298.91744839161, -5543.322031893973, -6124.243870287403, -8712.084139833945, -10164.433439306431, -14398.792612408712, 0.006, 0.23800000000000002, 0.9440000000000001, 192.0, 0.0, 0.0, 0.0, 0.0, 0.0, 0.0, 0.0, 0.0, 0.0, 1.644587463360647E9, 0.0, 2022-02-12 00:51:03.360
130.0, -9043.336992661594, -8450.836950640316, -6519.646229701785, -10685.609064770826, -8522.898974764226, -5644.173102876318, -8302.935457579548, -6075.450012141468, -7940.166645069915, -10277.823838928205, -7296.749329179446, -5543.634956316347, -6119.795873140797, -8716.107453835899, -10170.557817287186, -14460.706944549913, 0.006, 0.23800000000000002, 0.9440000000000001, 192.0, 0.0, 0.0, 0.0, 0.0, 0.0, 0.0, 0.0, 0.0, 0.0, 1.644587463368602E9, 0.0, 2022-02-12 00:51:03.368
132.0, -9090.454469973381, -8459.174151322146, -6526.195290827191, -10674.097916376342, -8523.323657908877, -5651.772695991122, -8311.317361750289, -6093.0631867722495, -7925.258031518225, -10291.793679212771, -7315.033056143887, -5558.409459401305, -6124.042704587306, -8719.929602137758, -10174.782296989239, -14426.531127277749, 0.006, 0.23800000000000002, 0.9440000000000001, 192.0, 0.0, 0.0, 0.0, 0.0, 0.0, 0.0, 0.0, 0.0, 0.0, 1.644587463376617E9, 0.0, 2022-02-12 00:51:03.376
134.0, -9077.758679122768, -8455.799037909394, -6519.8026919129725, -10689.721785750602, -8534.723047581083, -5650.722164001723, -8310.780919883362, -6081.283817444303, -7950.493151008267, -10303.438938073987, -7312.73082646499, -5555.079049477465, -6140.4935885064115, -8717.113282336388, -10183.678291282451, -14447.09473217663, 0.006, 0.23800000000000002, 0.9440000000000001, 192.0, 0.0, 0.0, 0.0, 0.0, 0.0, 0.0, 0.0, 0.0, 0.0, 1.644587463390399E9, 0.0, 2022-02-12 00:51:03.390
136.0, -9079.211542512363, -8454.81556115336, -6535.426561287232, -10706.284428391986, -8541.83090231787, -5664.289672886094, -8324.326077023277, -6099.276971730826, -7957.645709233965, -10321.163871427045, -7323.750236481457, -5560.555226869014, -6141.052382117794, -8712.642933445328, -10186.785183761738, -14479.05772674772, 0.008, 0.242, 0.9400000000000001, 192.0, 0.0, 32.0, 3.5, 72.0, 14.5, 48.0, 0.0, 0.0, 0.0, 1.644587463399265E9, 0.0, 2022-02-12 00:51:03.399
138.0, -9073.735365120812, -8472.540494506418, -6532.274965319034, -10693.812154985924, -8544.557815141417, -5659.998137950675, -8326.382437513166, -6098.964047308451, -7953.734153954287, -10293.805336213749, -7336.043695931876, -5574.726232853679, -6129.854158145686, -8738.794474458036, -10194.608294321097, -14435.784749482245, 0.008, 0.242, 0.9400000000000001, 192.0, 0.0, 0.0, 0.0, 0.0, 0.0, 0.0, 0.0, 0.0, 0.0, 1.644587463406835E9, 0.0, 2022-02-12 00:51:03.406
140.0, -9094.36602525306, -8491.673587760162, -6536.901776421282, -10717.348541897361, -8563.489742695063, -5675.286731158106, -8337.491254507453, -6111.078692803228, -7983.037290935194, -10331.602136087673, -7334.099094164264, -5573.586293886458, -6165.482838807445, -8740.1132273809, -10203.504288614307, -14497.654378134535, 0.008, 0.242, 0.9400000000000001, 192.0, 0.0, 0.0, 0.0, 0.0, 0.0, 0.0, 0.0, 0.0, 0.0, 1.644587463413318E9, 0.0, 2022-02-12 00:51:03.413
142.0, -9112.04625511721, -8498.043834929924, -6544.456666047176, -10707.290256892475, -8556.873626336292, -5670.190533422296, -8340.575795242286, -6111.816300370253, -7979.550418800166, -10326.394179629586, -7354.036850218398, -5597.077977308986, -6156.609196258688, -8750.998526930634, -10210.54508811773, -14466.406639386016, 0.008, 0.242, 0.9400000000000001, 192.0, 0.0, 0.0, 0.0, 0.0, 0.0, 0.0, 0.0, 0.0, 0.0, 1.644587463421311E9, 0.0, 2022-02-12 00:51:03.421
144.0, -9124.89850817901, -8497.06035817389, -6540.634517745319, -10721.729483810603, -8564.808495617926, -5683.422766139837, -8345.135551111169, -6116.465463216957, -7966.586407016088, -10325.164833684545, -7341.5869285567915, -5569.697090351235, -6170.355519098702, -8743.555396027017, -10215.507175386809, -14478.074249991687, 0.008, 0.242, 0.9400000000000001, 192.0, 0.0, 0.0, 0.0, 0.0, 0.0, 0.0, 0.0, 0.0, 0.0, 1.644587463428859E9, 0.0, 2022-02-12 00:51:03.428
146.0, -9145.66327877799, -8514.628829315761, -6549.172884127246, -10729.17261471422, -8571.514018954518, -5690.083585987519, -8359.865350707216, -6131.038800601817, -8010.149956959482, -10375.52331394235, -7355.780286285912, -5599.335503498973, -6179.296216880824, -8756.899387466836, -10226.101902258624, -14515.49107020987, 0.006, 0.242, 0.9400000000000001, 192.0, 0.0, 24.0, 3.5, 72.0, 14.5, 48.0, 0.0, 0.0, 0.0, 1.644587463435729E9, 0.0, 2022-02-12 00:51:03.435
148.0, -9115.957810396887, -8475.401517796698, -6542.57911951293, -10723.539975111482, -8560.248739749044, -5687.356673163971, -8357.876045450694, -6125.540271465811, -8000.806927777163, -10331.33391515421, -7363.893969523188, -5618.781521175089, -6160.811324216285, -8749.009221674112, -10225.431349924964, -14461.980993983865, 0.006, 0.242, 0.9400000000000001, 192.0, 0.0, 0.0, 0.0, 0.0, 0.0, 0.0, 0.0, 0.0, 0.0, 1.644587463442488E9, 0.0, 2022-02-12 00:51:03.442
150.0, -9102.65852244598, -8518.339218895342, -6544.76959046955, -10745.422332933227, -8584.120402827311, -5697.41495816886, -8362.36874608621, -6124.176815054037, -8016.699018084886, -10350.891691552602, -7370.5771411153255, -5598.620247676403, -6166.086335907738, -8760.676832279782, -10233.433274439963, -14525.906983126044, 0.006, 0.242, 0.9400000000000001, 192.0, 0.0, 0.0, 0.0, 0.0, 0.0, 0.0, 0.0, 0.0, 0.0, 1.644587463451035E9, 0.0, 2022-02-12 00:51:03.451
152.0, -9135.627345517558, -8532.845501046837, -6560.236997632623, -10736.392228173283, -8574.576207944896, -5700.723016348245, -8366.235597876977, -6140.717105950965, -8006.953657502372, -10354.624432876639, -7388.03385353492, -5614.221765306207, -6185.040615205839, -8768.276425394586, -10238.797693109238, -14492.066442020709, 0.006, 0.242, 0.9400000000000001, 192.0, 0.0, 0.0, 0.0, 0.0, 0.0, 0.0, 0.0, 0.0, 0.0, 1.644587463457663E9, 0.0, 2022-02-12 00:51:03.457
154.0, -9137.214319373885, -8511.231364158555, -6553.687936507218, -10751.904338825267, -8581.482896981584, -5693.346940677994, -8366.950853699547, -6134.056286103283, -8012.161613960459, -10357.463104422462, -7386.379824445227, -5609.550250715048, -6179.095051180727, -8764.610739303916, -10245.12323679009, -14507.10916603913, 0.006, 0.242, 0.9400000000000001, 192.0, 0.0, 0.0, 0.0, 0.0, 0.0, 0.0, 0.0, 0.0, 0.0, 1.644587463465158E9, 0.0, 2022-02-12 00:51:03.465
156.0, -9133.52628153876, -8520.216765429588, -6569.825896003949, -10759.056897050965, -8595.65390296625, -5704.411054183371, -8388.050900465358, -6146.461504275979, -8020.5435181312, -10353.708011353972, -7378.757879585967, -5622.760131688134, -6197.982275245461, -8769.237550406164, -10250.688821159461, -14540.50267225536, 0.006, 0.24, 0.936, 192.0, 0.0, 24.0, 3.5, 64.0, 14.5, 32.0, 0.0, 0.0, 0.0, 1.644587463473159E9, 0.0, 2022-02-12 00:51:03.473
158.0, -9136.387304829039, -8508.795024012927, -6559.857017976883, -10755.234748749108, -8588.970731374113, -5705.171013494852, -8384.765194030428, -6140.985326884428, -8016.0284657512275, -10350.0423252633, -7393.46532743756, -5630.0468003805645, -6185.711167539498, -8773.976120230689, -10257.796675896248, -14492.401718187539, 0.006, 0.24, 0.936, 192.0, 0.0, 0.0, 0.0, 0.0, 0.0, 0.0, 0.0, 0.0, 0.0, 1.644587463481219E9, 0.0, 2022-02-12 00:51:03.481
160.0, -9158.537883584248, -8560.136981026768, -6561.309881366477, -10774.904283869779, -8609.89196418428, -5723.499443948203, -8384.809897519339, -6153.412896801579, -8039.609556151576, -10376.685604654027, -7379.719004597546, -5626.649335223357, -6197.244667678437, -8778.804097033037, -10263.876350388093, -14557.937032930498, 0.006, 0.24, 0.936, 192.0, 0.0, 0.0, 0.0, 0.0, 0.0, 0.0, 0.0, 0.0, 0.0, 1.644587463487981E9, 0.0, 2022-02-12 00:51:03.487
162.0, -9187.48339265387, -8562.305100238931, -6576.039680962525, -10766.880007610323, -8600.548935001962, -5726.56163293858, -8394.488202868486, -6166.198094630015, -8040.570681163154, -10391.080128083246, -7394.448804193593, -5640.418009807827, -6187.521658840377, -8796.998417019657, -10270.045431857758, -14530.422035506015, 0.006, 0.24, 0.936, 192.0, 0.0, 0.0, 0.0, 0.0, 0.0, 0.0, 0.0, 0.0, 0.0, 1.644587463495769E9, 0.0, 2022-02-12 00:51:03.495
164.0, -9172.91005526901, -8541.920309295692, -6567.166038413768, -10778.681728682724, -8614.407016564253, -5720.459606702281, -8390.196667933067, -6164.655824262599, -8044.68340214293, -10382.430002979041, -7403.031874064431, -5635.254756838651, -6219.216432478003, -8793.824469307003, -10277.712080205927, -14541.843776922677, 0.006, 0.24, 0.936, 192.0, 0.0, 0.0, 0.0, 0.0, 0.0, 0.0, 0.0, 0.0, 0.0, 1.644587463503866E9, 0.0, 2022-02-12 00:51:03.503
166.0, -9167.8138575332, -8558.102972281335, -6584.466288622176, -10792.830382922933, -8626.65577252576, -5734.742371409223, -8419.47745316952, -6174.512943567389, -8052.618271424565, -10400.847840410213, -7407.479871211037, -5636.148826616863, -6224.871423825196, -8787.051890737044, -10290.2290571009, -14579.685280285512, 0.006, 0.242, 0.9440000000000001, 192.0, 0.0, 24.0, 3.5, 72.0, 14.5, 64.0, 0.0, 0.0, 0.0, 1.644587463517681E9, 0.0, 2022-02-12 00:51:03.517
168.0, -9170.049031978731, -8553.45380943463, -6582.789907788027, -10784.85081015239, -8616.03869390949, -5733.289508019628, -8413.442482166587, -6171.629568532654, -8049.176102778448, -10366.359098715675, -7427.037647609431, -5657.360632104949, -6203.5925631037435, -8802.899277555856, -10303.841269474182, -14536.613468720136, 0.006, 0.242, 0.9440000000000001, 192.0, 0.0, 0.0, 0.0, 0.0, 0.0, 0.0, 0.0, 0.0, 0.0, 1.644587463525414E9, 0.0, 2022-02-12 00:51:03.525
170.0, -9193.138384001062, -8585.729728428094, -6577.224323418656, -10802.687502227725, -8633.89773772928, -5741.403191256904, -8413.844813566782, -6183.185420416048, -8074.50062924631, -10408.089805613734, -7409.625638678746, -5648.218768622729, -6222.077455768283, -8800.507640899139, -10304.623580530117, -14600.852382284687, 0.006, 0.242, 0.9440000000000001, 192.0, 0.0, 0.0, 0.0, 0.0, 0.0, 0.0, 0.0, 0.0, 0.0, 1.644587463533552E9, 0.0, 2022-02-12 00:51:03.533
172.0, -9195.552372402237, -8581.214676048121, -6581.381747887343, -10789.969359632654, -8621.85014746787, -5735.703496420801, -8420.595040392285, -6182.023129704372, -8070.812591411185, -10412.806023693804, -7409.603286934292, -5654.991347192687, -6223.083284268771, -8813.806928850046, -10306.858754975648, -14568.375297591127, 0.006, 0.242, 0.9440000000000001, 192.0, 0.0, 0.0, 0.0, 0.0, 0.0, 0.0, 0.0, 0.0, 0.0, 1.644587463540665E9, 0.0, 2022-02-12 00:51:03.540
174.0, -9184.10827924112, -8569.032975319979, -6574.117430939368, -10804.363883061873, -8633.048371439978, -5740.33030752305, -8420.818557836837, -6192.37198738718, -8073.584207723643, -10401.272523554866, -7422.008505106986, -5652.487951813692, -6207.638228850154, -8800.172364732309, -10308.781004998804, -14577.494809328891, 0.006, 0.242, 0.9440000000000001, 192.0, 0.0, 0.0, 0.0, 0.0, 0.0, 0.0, 0.0, 0.0, 0.0, 1.644587463548207E9, 0.0, 2022-02-12 00:51:03.548
176.0, -9203.353131217138, -8570.754059643037, -6587.193201445723, -10816.456176812193, -8646.302955901976, -5747.438162259837, -8431.033305052913, -6186.001740217417, -8083.888361917539, -10426.999381422924, -7432.223252323062, -5658.366460605438, -6228.894737827151, -8808.330751458496, -10308.982170698902, -14611.245943456406, 0.006, 0.23800000000000002, 0.9440000000000001, 192.0, 0.0, 24.0, 3.5, 56.0, 14.5, 64.0, 0.0, 0.0, 0.0, 1.644587463556446E9, 0.0, 2022-02-12 00:51:03.556
178.0, -9194.635950879569, -8569.345899742353, -6588.377843901854, -10813.282229099541, -8640.916185488246, -5756.892950164432, -8438.47643595653, -6207.615877105699, -8075.484106002344, -10413.409520794097, -7444.203787351106, -5671.710452045257, -6238.997726320949, -8818.724312630215, -10321.722665038427, -14569.179960391517, 0.006, 0.23800000000000002, 0.9440000000000001, 192.0, 0.0, 0.0, 0.0, 0.0, 0.0, 0.0, 0.0, 0.0, 0.0, 1.64458746356326E9, 0.0, 2022-02-12 00:51:03.563
180.0, -9212.8749743551, -8612.75298747456, -6590.054224736003, -10827.296772873018, -8659.42342989724, -5757.652909475913, -8443.684392414618, -6203.257286936914, -8095.108937634103, -10424.652448255116, -7444.427304795659, -5674.973806735731, -6247.066706069316, -8823.015847565634, -10328.964630241946, -14629.395559954115, 0.006, 0.23800000000000002, 0.9440000000000001, 192.0, 0.0, 0.0, 0.0, 0.0, 0.0, 0.0, 0.0, 0.0, 0.0, 1.644587463569697E9, 0.0, 2022-02-12 00:51:03.569
182.0, -9253.152817863562, -8624.912336458247, -6603.264105709089, -10819.406607080295, -8659.33402291942, -5760.916264166387, -8452.133351818724, -6211.214507963003, -8099.579286525165, -10424.116006388189, -7443.265014083983, -5675.532600347114, -6256.521493973911, -8838.706772173258, -10338.933508269014, -14595.040928726308, 0.006, 0.23800000000000002, 0.9440000000000001, 192.0, 0.0, 0.0, 0.0, 0.0, 0.0, 0.0, 0.0, 0.0, 0.0, 1.644587463577782E9, 0.0, 2022-02-12 00:51:03.577
184.0, -9215.266611011817, -8609.84726069537, -6600.000751018614, -10835.43280785475, -8661.591549109406, -5764.269025834683, -8449.227625039533, -6208.353484672723, -8113.258554131813, -10433.950773948523, -7443.399124550716, -5677.4772021147255, -6253.079325327793, -8832.090655814489, -10342.107455981668, -14602.640521841113, 0.007, 0.23700000000000002, 0.9450000000000001, 192.0, 0.0, 32.0, 3.5, 48.0, 14.5, 72.0, 0.0, 0.0, 0.0, 1.644587463586178E9, 0.0, 2022-02-12 00:51:03.586
186.0, -9220.072236069707, -8606.248629838066, -6611.198974990723, -10858.209235454708, -8672.543903892507, -5773.947331183831, -8472.182866595134, -6216.958906288017, -8119.807615257218, -10460.012907983411, -7465.19207539464, -5711.809481598078, -6246.530264202388, -8840.070228585033, -10350.355249685676, -14648.171025296573, 0.007, 0.23700000000000002, 0.9450000000000001, 192.0, 0.0, 0.0, 0.0, 0.0, 0.0, 0.0, 0.0, 0.0, 0.0, 1.644587463593085E9, 0.0, 2022-02-12 00:51:03.593
188.0, -9239.16062583454, -8613.043560152479, -6602.459442908698, -10837.399761366816, -8673.706194604183, -5770.594569515535, -8463.15276183519, -6212.5779643747765, -8111.828042486673, -10444.769018264893, -7469.863589985799, -5702.287638460117, -6266.110392345237, -8842.551272219573, -10357.820732333748, -14599.354815406183, 0.007, 0.23700000000000002, 0.9450000000000001, 192.0, 0.0, 0.0, 0.0, 0.0, 0.0, 0.0, 0.0, 0.0, 0.0, 1.644587463600388E9, 0.0, 2022-02-12 00:51:03.600
190.0, -9248.526006761314, -8666.33011893393, -6609.857870323404, -10856.085819731454, -8688.01131105558, -5787.33602611256, -8464.069183357857, -6224.603202891732, -8139.208929444424, -10467.92542552059, -7469.550665563424, -5683.333359162016, -6272.5029912594555, -8844.94290887629, -10359.38535444562, -14656.307060278305, 0.007, 0.23700000000000002, 0.9450000000000001, 192.0, 0.0, 0.0, 0.0, 0.0, 0.0, 0.0, 0.0, 0.0, 0.0, 1.644587463608596E9, 0.0, 2022-02-12 00:51:03.608
192.0, -9268.55316979327, -8649.05222046998, -6614.082350025457, -10845.826369026467, -8673.639139370816, -5788.43126159087, -8478.06137538688, -6245.14445604616, -8128.256574661324, -10470.115896477211, -7468.522485318481, -5700.410091925871, -6269.083174357793, -8846.239310054698, -10368.370755716653, -14633.70944663399, 0.007, 0.23700000000000002, 0.9450000000000001, 192.0, 0.0, 0.0, 0.0, 0.0, 0.0, 0.0, 0.0, 0.0, 0.0, 1.644587463616385E9, 0.0, 2022-02-12 00:51:03.616
194.0, -9256.863207443144, -8628.488615571096, -6604.202878976212, -10864.154799479818, -8687.117241277367, -5787.492488323747, -8473.702785218095, -6220.915165056606, -8129.642382817553, -10452.390963124153, -7465.125020161274, -5712.055350787085, -6283.634159998198, -8866.221769597742, -10369.287177239321, -14638.42566471406, 0.0055, 0.23550000000000001, 0.9445000000000001, 192.0, 0.0, 16.0, 3.5, 40.0, 14.5, 64.0, 0.0, 0.0, 0.0, 1.644587463623267E9, 0.0, 2022-02-12 00:51:03.623
196.0, -9262.987585423898, -8625.89581321428, -6623.69360014124, -10872.603758883924, -8692.682825646738, -5800.925886741386, -8480.542419021418, -6230.191139005558, -8143.3440021686565, -10483.415184428119, -7478.893694745743, -5720.839586358022, -6262.914092888128, -8870.42389755534, -10374.271616252854, -14675.708374465512, 0.0055, 0.23550000000000001, 0.9445000000000001, 192.0, 0.0, 0.0, 0.0, 0.0, 0.0, 0.0, 0.0, 0.0, 0.0, 1.644587463638232E9, 0.0, 2022-02-12 00:51:03.638
198.0, -9282.791231011299, -8659.110505474866, -6619.6479343948295, -10864.19950296873, -8687.586627910929, -5797.126090183984, -8489.77368948146, -6237.678973398087, -8142.651098090541, -10467.545445864851, -7491.72359606309, -5724.415865470871, -6285.288189087891, -8878.157601136876, -10380.507752955884, -14630.177871010052, 0.0055, 0.23550000000000001, 0.9445000000000001, 192.0, 0.0, 0.0, 0.0, 0.0, 0.0, 0.0, 0.0, 0.0, 0.0, 1.644587463645948E9, 0.0, 2022-02-12 00:51:03.645
200.0, -9268.575521537725, -8661.010403753568, -6616.652800637818, -10879.421040942794, -8707.211459542688, -5805.038607721163, -8493.707596505594, -6245.524435701899, -8155.860979063628, -10484.488068161972, -7477.552590078425, -5694.553934878581, -6287.858639700251, -8868.367537065451, -10391.415404250074, -14692.561589784813, 0.0055, 0.23550000000000001, 0.9445000000000001, 192.0, 0.0, 0.0, 0.0, 0.0, 0.0, 0.0, 0.0, 0.0, 0.0, 1.644587463652795E9, 0.0, 2022-02-12 00:51:03.652
202.0, -9298.951542252487, -8680.679938874238, -6629.683867655262, -10878.281101975574, -8704.372787996863, -5814.6722095814, -8508.906782735203, -6260.81302890933, -8156.889159308573, -10492.378233954696, -7493.467032130603, -5727.522757950158, -6285.422299554622, -8886.517153563162, -10396.176325819055, -14665.940662138542, 0.0055, 0.23550000000000001, 0.9445000000000001, 192.0, 0.0, 0.0, 0.0, 0.0, 0.0, 0.0, 0.0, 0.0, 0.0, 1.644587463660565E9, 0.0, 2022-02-12 00:51:03.660
204.0, -9274.945768707486, -8684.882066831835, -6623.470082696686, -10899.761128397124, -8711.614753200383, -5812.05705548013, -8509.599686813317, -6262.601168465754, -8165.874560579606, -10501.475393948007, -7508.129776493285, -5739.793865656122, -6289.691482745587, -8890.85339198749, -10405.027616623356, -14671.61800523019, 0.00775, 0.23475000000000001, 0.9472500000000001, 192.0, 0.0, 40.0, 3.5, 40.0, 14.5, 88.0, 0.0, 0.0, 0.0, 1.644587463668711E9, 0.0, 2022-02-12 00:51:03.668
206.0, -9309.099234235196, -8667.872389301347, -6634.780065391072, -10914.625038459902, -8718.63320095935, -5820.796587562155, -8518.003942728514, -6262.847037654762, -8180.783174131296, -10532.27609780742, -7511.035503272475, -5748.891025649432, -6287.366901322234, -8886.383043096428, -10408.693302714028, -14718.19904067505, 0.00775, 0.23475000000000001, 0.9472500000000001, 192.0, 0.0, 0.0, 0.0, 0.0, 0.0, 0.0, 0.0, 0.0, 0.0, 1.644587463675128E9, 0.0, 2022-02-12 00:51:03.675
208.0, -9332.009772301886, -8703.34460775192, -6633.081332812469, -10905.885506377877, -8709.983075855145, -5816.862680538021, -8509.666742046684, -6266.468020256522, -8169.920226326017, -10511.690141164081, -7519.7750353545, -5773.455592805814, -6283.05301464236, -8890.607522798482, -10413.700093472016, -14665.270109804882, 0.00775, 0.23475000000000001, 0.9472500000000001, 192.0, 0.0, 0.0, 0.0, 0.0, 0.0, 0.0, 0.0, 0.0, 0.0, 1.644587463683329E9, 0.0, 2022-02-12 00:51:03.683
210.0, -9331.6521443906, -8712.285305534042, -6632.9695740901925, -10919.810643173534, -8734.905270922813, -5832.061866767629, -8523.949506753625, -6282.740090219986, -8194.395386504577, -10521.837833146792, -7515.550555652447, -5746.5664442260795, -6317.720570292541, -8904.309142149585, -10420.360913319697, -14726.357427401237, 0.00775, 0.23475000000000001, 0.9472500000000001, 192.0, 0.0, 0.0, 0.0, 0.0, 0.0, 0.0, 0.0, 0.0, 0.0, 1.644587463690201E9, 0.0, 2022-02-12 00:51:03.690
212.0, -9341.911595095587, -8710.787738655537, -6638.781027648572, -10901.325750508995, -8728.40091328632, -5831.860701067531, -8531.370285912786, -6285.087023387793, -8193.680130682007, -10520.541431968384, -7523.127797022796, -5757.496447264725, -6316.267706902946, -8910.835851530535, -10426.954677934013, -14701.479935822481, 0.00775, 0.23475000000000001, 0.9472500000000001, 192.0, 0.0, 0.0, 0.0, 0.0, 0.0, 0.0, 0.0, 0.0, 0.0, 1.644587463698439E9, 0.0, 2022-02-12 00:51:03.698
214.0, -9319.001057028898, -8703.121090307366, -6635.338859002454, -10913.552154726047, -8739.845006447436, -5828.127959743495, -8527.034047488458, -6273.017081381927, -8194.708310926952, -10521.681370935605, -7532.716695394122, -5753.115505351485, -6306.365884109246, -8917.362560911484, -10430.285087857854, -14705.078566679786, 0.008875000000000001, 0.234375, 0.9456250000000002, 192.0, 0.0, 40.0, 3.5, 40.0, 14.5, 64.0, 0.0, 0.0, 0.0, 1.64458746370483E9, 0.0, 2022-02-12 00:51:03.704
216.0, -9318.106987250685, -8711.480642733652, -6647.073524841491, -10923.29751530856, -8745.611756516904, -5829.6255266220005, -8534.991268514546, -6272.614749981732, -8205.10187209867, -10553.197330617588, -7529.766265126022, -5763.509066523203, -6318.592288326298, -8918.278982434153, -10431.916765203092, -14740.640192108178, 0.008875000000000001, 0.234375, 0.9456250000000002, 192.0, 0.0, 0.0, 0.0, 0.0, 0.0, 0.0, 0.0, 0.0, 0.0, 1.644587463714379E9, 0.0, 2022-02-12 00:51:03.714
218.0, -9333.105007780196, -8704.082215318944, -6646.090048085457, -10918.558945484036, -8734.190015100243, -5829.245546966261, -8542.07677150688, -6284.81880245433, -8199.022197606826, -10540.032153133412, -7539.422218730715, -5776.227209118272, -6305.829442242318, -8918.681313834348, -10434.442512326541, -14692.159258384618, 0.008875000000000001, 0.234375, 0.9456250000000002, 192.0, 0.0, 0.0, 0.0, 0.0, 0.0, 0.0, 0.0, 0.0, 0.0, 1.644587463721562E9, 0.0, 2022-02-12 00:51:03.721
220.0, -9337.396542715614, -8731.641916232338, -6647.185283563767, -10942.251794606662, -8761.481495080174, -5838.700334870856, -8550.726896611082, -6290.451442057067, -8210.57804949022, -10542.893176423691, -7536.203567529151, -5774.059089906107, -6324.426093629133, -8900.777566525647, -10447.138303177155, -14756.308764971349, 0.008875000000000001, 0.234375, 0.9456250000000002, 192.0, 0.0, 0.0, 0.0, 0.0, 0.0, 0.0, 0.0, 0.0, 0.0, 1.644587463728126E9, 0.0, 2022-02-12 00:51:03.728
222.0, -9364.173932573072, -8742.862491948903, -6652.974385377692, -10921.755244941145, -8758.933396212267, -5848.4680471978245, -8557.901806581236, -6307.863450987751, -8217.52944201582, -10558.85232196478, -7553.8390939043875, -5778.95412194182, -6338.440637402611, -8930.058351762098, -10454.849655014235, -14733.733503071488, 0.008875000000000001, 0.234375, 0.9456250000000002, 192.0, 0.0, 0.0, 0.0, 0.0, 0.0, 0.0, 0.0, 0.0, 0.0, 1.644587463735722E9, 0.0, 2022-02-12 00:51:03.735
224.0, -9344.482045707948, -8729.451445275718, -6646.581786463474, -10937.7814457156, -8752.563149042506, -5840.287308727183, -8542.702620351627, -6288.90917168965, -8223.564413018754, -10555.097228896288, -7549.860483391343, -5778.797659730632, -6328.315297164357, -8933.925203552866, -10455.184931181066, -14736.818043806321, 0.0074375000000000005, 0.2341875, 0.9488125000000001, 192.0, 0.0, 24.0, 3.5, 40.0, 14.5, 96.0, 0.0, 0.0, 0.0, 1.644587463743566E9, 0.0, 2022-02-12 00:51:03.743
226.0, -9352.014583589385, -8733.519462766584, -6656.84123716846, -10948.107951653952, -8762.599082302939, -5844.847064596065, -8553.051478034435, -6296.844040971285, -8235.500244557887, -10570.922263970646, -7552.453285748159, -5784.3632441000045, -6326.281288418924, -8934.48399716425, -10455.944890492547, -14778.168771048639, 0.0074375000000000005, 0.2341875, 0.9488125000000001, 192.0, 0.0, 0.0, 0.0, 0.0, 0.0, 0.0, 0.0, 0.0, 0.0, 1.644587463751663E9, 0.0, 2022-02-12 00:51:03.751
228.0, -9369.851275664721, -8724.042323117534, -6659.344632547454, -10943.481140551703, -8757.994622945145, -5843.528311673202, -8562.707431639128, -6303.527212563421, -8226.53719503131, -10526.017609359933, -7558.085925350896, -5802.848136764543, -6326.370695396745, -8940.966003056288, -10462.717469062503, -14727.229145434994, 0.0074375000000000005, 0.2341875, 0.9488125000000001, 192.0, 0.0, 0.0, 0.0, 0.0, 0.0, 0.0, 0.0, 0.0, 0.0, 1.644587463765108E9, 0.0, 2022-02-12 00:51:03.765
230.0, -9368.465467508491, -8756.765277000104, -6655.611891223418, -10964.625890806425, -8779.83227727798, -5857.945186846875, -8573.749193400048, -6312.959648723561, -8240.216462637956, -10577.448973351595, -7558.7117741956445, -5797.327255884083, -6336.674849590641, -8936.406247187406, -10470.719393577505, -14789.009367109462, 0.0074375000000000005, 0.2341875, 0.9488125000000001, 192.0, 0.0, 0.0, 0.0, 0.0, 0.0, 0.0, 0.0, 0.0, 0.0, 1.64458746377328E9, 0.0, 2022-02-12 00:51:03.773
232.0, -9370.52182799838, -8757.234663633664, -6668.262978585122, -10959.529693070614, -8756.742925255649, -5859.956843847853, -8565.859027607326, -6311.640895800698, -8229.420570066044, -10590.61415083577, -7567.9206929112315, -5797.260200650716, -6337.859492046773, -8944.318764724585, -10479.347166937252, -14767.171712776628, 0.0074375000000000005, 0.2341875, 0.9488125000000001, 192.0, 0.0, 0.0, 0.0, 0.0, 0.0, 0.0, 0.0, 0.0, 0.0, 1.644587463781098E9, 0.0, 2022-02-12 00:51:03.781
234.0, -9360.150618571117, -8745.142369883344, -6656.997699379647, -10973.477181610726, -8767.248245149642, -5857.54285544668, -8561.70160313864, -6318.189956926103, -8245.133846418124, -10576.174923917642, -7583.589265774402, -5805.150366443439, -6357.864303334272, -8937.859110577001, -10478.676614603593, -14766.635270909701, 0.00571875, 0.23509375, 0.95140625, 192.0, 0.0, 16.0, 3.5, 48.0, 14.5, 104.0, 0.0, 0.0, 0.0, 1.644587463789383E9, 0.0, 2022-02-12 00:51:03.789
236.0, -9389.364348574203, -8757.391125844852, -6665.469010528209, -10974.237140922207, -8783.721480813203, -5859.152181047461, -8573.928007355691, -6305.4941660754885, -8254.432172111532, -10598.325502672853, -7565.394945787782, -5806.223250177294, -6352.365774198267, -8950.554901427615, -10481.157658238133, -14808.187163852117, 0.00571875, 0.23509375, 0.95140625, 192.0, 0.0, 0.0, 0.0, 0.0, 0.0, 0.0, 0.0, 0.0, 0.0, 1.644587463795744E9, 0.0, 2022-02-12 00:51:03.795
238.0, -9380.624816492178, -8766.242416649153, -6664.887865172371, -10963.865931494944, -8776.16659118731, -5856.559378690646, -8572.318681754909, -6301.806128240362, -8248.911291231072, -10582.008729220477, -7575.363823814849, -5820.43895965087, -6348.118942751759, -8954.82408461858, -10486.0750420183, -14751.30197421336, 0.00571875, 0.23509375, 0.95140625, 192.0, 0.0, 0.0, 0.0, 0.0, 0.0, 0.0, 0.0, 0.0, 0.0, 1.644587463803865E9, 0.0, 2022-02-12 00:51:03.803
240.0, -9373.136982099652, -8754.641861276848, -6659.590501736463, -10980.31681541405, -8791.946922772757, -5855.866474612531, -8569.703527653639, -6304.7342067640075, -8260.467143114465, -10578.991243719012, -7573.4415737916925, -5802.602267575535, -6350.756448597485, -8955.181712529864, -10486.253855973942, -14807.293094073904, 0.00571875, 0.23509375, 0.95140625, 192.0, 0.0, 0.0, 0.0, 0.0, 0.0, 0.0, 0.0, 0.0, 0.0, 1.644587463810342E9, 0.0, 2022-02-12 00:51:03.810
242.0, -9392.448889309037, -8763.806076503524, -6666.474839028698, -10969.990309475697, -8786.202524447743, -5866.841181140087, -8591.585885475384, -6322.72736105053, -8251.079410443237, -10581.069955953355, -7577.554294771468, -5815.566279359613, -6336.16075946817, -8957.662756164404, -10489.114879264222, -14785.187218807605, 0.00571875, 0.23509375, 0.95140625, 192.0, 0.0, 0.0, 0.0, 0.0, 0.0, 0.0, 0.0, 0.0, 0.0, 1.644587463817653E9, 0.0, 2022-02-12 00:51:03.817
244.0, -9374.120458855685, -8764.834256748469, -6656.304795301533, -10980.294463669594, -8790.69522508326, -5864.203675294361, -8585.863838894826, -6321.609773827765, -8253.024012210848, -10589.0495287239, -7584.282169852516, -5807.094968211051, -6356.478495178044, -8948.766761871191, -10495.328664222798, -14779.867503627242, 8.593749999999999E-4, 0.23154687499999999, 0.9497031250000001, 192.0, 127.5, 112.0, 3.5, 16.0, 14.5, 80.0, 0.0, 0.0, 0.0, 1.644587463825362E9, 0.0, 2022-02-12 00:51:03.825
246.0, -9379.551932758324, -8777.261826665619, -6669.492324530163, -10993.45964115377, -8796.50667864164, -5868.428154996414, -8584.835658649881, -6313.160814423659, -8260.087163458726, -10622.48773842904, -7579.521248283536, -5814.828671792588, -6362.267596991968, -8952.052468306121, -10495.88745783418, -14824.436882071124, 8.593749999999999E-4, 0.23154687499999999, 0.9497031250000001, 192.0, 0.0, 0.0, 0.0, 0.0, 0.0, 0.0, 0.0, 0.0, 0.0, 1.644587463833493E9, 0.0, 2022-02-12 00:51:03.833
248.0, -9377.09324086824, -8772.523256841094, -6668.642958240862, -10984.340129416005, -8785.64373083636, -5872.607931209556, -8587.294350539965, -6325.834253529818, -8255.862683756672, -10597.364377661273, -7592.842887978899, -5823.1658724744175, -6354.198617243603, -8942.48592167925, -10499.88842009168, -14772.670241912634, 8.593749999999999E-4, 0.23154687499999999, 0.9497031250000001, 192.0, 0.0, 0.0, 0.0, 0.0, 0.0, 0.0, 0.0, 0.0, 0.0, 1.644587463840008E9, 0.0, 2022-02-12 00:51:03.840
