%OpenBCI Raw EEG Data
%Number of channels = 16
%Sample Rate = 125 Hz
%Board = OpenBCI_GUI$BoardCytonSerialDaisy
Sample Index, EXG Channel 0, EXG Channel 1, EXG Channel 2, EXG Channel 3, EXG Channel 4, EXG Channel 5, EXG Channel 6, EXG Channel 7, EXG Channel 8, EXG Channel 9, EXG Channel 10, EXG Channel 11, EXG Channel 12, EXG Channel 13, EXG Channel 14, EXG Channel 15, Accel Channel 0, Accel Channel 1, Accel Channel 2, Other, Other, Other, Other, Other, Other, Other, Analog Channel 0, Analog Channel 1, Analog Channel 2, Timestamp, Other, Timestamp (Formatted)
80.0, -12537.42874114856, -12023.80800531006, -8202.263200552845, -12959.653193909311, -11736.543385570454, -8806.36379794643, -10956.534559313603, -8493.618189527773, -11838.847319942393, -13833.539346878451, -11034.22922304025, -9749.294489538013, -9214.707817400435, -13039.20305242575, -13142.69162925382, -17767.915757646057, 0.0, 0.0, 0.0, 192.0, 0.0, 0.0, 0.0, 0.0, 0.0, 0.0, 0.0, 0.0, 0.0, 1.644587220479087E9, 0.0, 2022-02-12 00:47:00.479
82.0, -12523.078921208255, -12011.492194115186, -8215.584840248208, -12959.161455531295, -11724.741664498051, -8804.821527579013, -10954.232329634706, -8493.104099405302, -11827.894965159294, -13840.580146381873, -11033.357505006494, -9748.109847081882, -9206.191802762962, -13047.316735663026, -13138.087169896027, -17745.56401319075, 0.0, 0.0, 0.0, 192.0, 0.0, 0.0, 0.0, 0.0, 0.0, 0.0, 0.0, 0.0, 0.0, 1.644587220479092E9, 0.0, 2022-02-12 00:47:00.479
0.0, -5996.637761192055, -6060.116715445128, -3822.729447213346, -6393.291818295935, -5855.330032745604, -4658.885855541927, -5297.072863229855, -4576.609084201942, -5913.578678796134, -6908.566583224128, -5522.959592695188, -4875.96599769187, -4601.86655543644, -6524.764779182051, -6569.960006470681, -8876.391813324906, 0.006, 0.23800000000000002, 0.9540000000000001, 192.0, 0.0, 24.0, 3.5, 56.0, 14.5, 104.0, 0.0, 0.0, 0.0, 1.644587220535393E9, 0.0, 2022-02-12 00:47:00.535
2.0, -11996.56122881904, -12134.002105474723, -7652.410286952292, -12767.7634677605, -11688.531838480454, -9312.899030792598, -10591.262351424975, -9160.14720918503, -11976.556417531541, -14236.362485451995, -10253.12516130509, -9495.602189970277, -9121.344580810617, -13422.647228556541, -12790.718709316101, -17547.348743361086, 0.006, 0.23800000000000002, 0.9540000000000001, 192.0, 0.0, 0.0, 0.0, 0.0, 0.0, 0.0, 0.0, 0.0, 0.0, 1.644587220541532E9, 0.0, 2022-02-12 00:47:00.541
4.0, -12008.09472895798, -12135.83494852006, -7638.909833301286, -12766.914101471199, -11689.671777447675, -9301.991379498408, -10582.411060620674, -9141.282336864751, -11981.160876889335, -14231.422749927373, -10237.948326819936, -9486.370919510236, -9097.316455521162, -13408.342112105145, -12790.785764549466, -17533.0883303986, 0.006, 0.23800000000000002, 0.9540000000000001, 192.0, 0.0, 0.0, 0.0, 0.0, 0.0, 0.0, 0.0, 0.0, 0.0, 1.644587220547957E9, 0.0, 2022-02-12 00:47:00.547
6.0, -12001.836240510493, -12120.814576246094, -7643.871920570365, -12773.463162596603, -11689.3588530253, -9296.515202106859, -10582.321653642852, -9149.172502657473, -11991.621493294419, -14247.91833733539, -10238.529472175775, -9492.562352724357, -9099.015188099766, -13385.275111827268, -12787.343595903349, -17576.964804764368, 0.006, 0.23800000000000002, 0.9540000000000001, 192.0, 0.0, 0.0, 0.0, 0.0, 0.0, 0.0, 0.0, 0.0, 0.0, 1.644587220554607E9, 0.0, 2022-02-12 00:47:00.554
8.0, -12011.961580748748, -12117.573573300073, -7631.623164608856, -12753.860682709299, -11664.771934124463, -9289.250885158883, -10568.865903480757, -9134.733275739345, -11965.246434837156, -14200.33147339004, -10240.317611732198, -9494.238733558504, -9088.912199605966, -13404.251742869825, -12782.67208131219, -17503.159344572945, 0.002, 0.242, 0.9560000000000001, 192.0, 0.0, 8.0, 3.5, 72.0, 14.5, 112.0, 0.0, 0.0, 0.0, 1.644587220561019E9, 0.0, 2022-02-12 00:47:00.561
10.0, -11985.720632758217, -12116.008951188202, -7623.017742993563, -12766.020031692986, -11678.920588364672, -9294.88352476162, -10567.748316257992, -9133.794502472223, -11980.42326932231, -14231.176880738365, -10218.524660888275, -9461.471076187025, -9080.217371012852, -13395.5122107878, -12784.639034824257, -17568.33703140462, 0.002, 0.242, 0.9560000000000001, 192.0, 0.0, 0.0, 0.0, 0.0, 0.0, 0.0, 0.0, 0.0, 0.0, 1.644587220569273E9, 0.0, 2022-02-12 00:47:00.569
12.0, -11981.876132711905, -12113.952590698313, -7640.295641457516, -12757.235796122051, -11669.286986504434, -9293.944751494499, -10579.706499541582, -9136.834339718145, -11973.963615174725, -14231.199232482819, -10225.565460391696, -9475.776192638421, -9059.206731224864, -13396.786260221752, -12785.220180180095, -17535.971705433334, 0.002, 0.242, 0.9560000000000001, 192.0, 0.0, 0.0, 0.0, 0.0, 0.0, 0.0, 0.0, 0.0, 0.0, 1.644587220577044E9, 0.0, 2022-02-12 00:47:00.577
14.0, -11968.778010461094, -12095.981788156247, -7624.045923238507, -12763.293118869438, -11670.136352793736, -9286.143992679596, -10572.263368637965, -9134.66622050598, -11959.814960934516, -14203.639531569426, -10233.299163973232, -9485.007463098462, -9082.050214058187, -13387.197361850425, -12785.756622047022, -17523.879411683014, 0.002, 0.242, 0.9560000000000001, 192.0, 0.0, 0.0, 0.0, 0.0, 0.0, 0.0, 0.0, 0.0, 0.0, 1.644587220583773E9, 0.0, 2022-02-12 00:47:00.583
16.0, -11998.394071864375, -12121.842756491036, -7626.392856406314, -12768.255206138518, -11672.684451661642, -9292.804812527278, -10570.51993257045, -9143.09282816563, -11972.197827362756, -14240.00581979821, -10226.615992381096, -9473.965701337542, -9100.400996255994, -13386.012719394294, -12783.499095857036, -17577.38948790902, 0.002, 0.239, 0.9530000000000001, 192.0, 0.0, 8.0, 3.5, 48.0, 14.5, 88.0, 0.0, 0.0, 0.0, 1.644587220598773E9, 0.0, 2022-02-12 00:47:00.598
18.0, -12008.340598146988, -12107.87291620647, -7620.626106336846, -12755.134732143251, -11659.340460221823, -9284.668777545545, -10571.414002348662, -9133.548633283215, -11964.821751692505, -14209.13806070543, -10225.252535969323, -9491.467117246046, -9085.626493171036, -13389.767812462786, -12779.609892321812, -17505.37216727402, 0.002, 0.239, 0.9530000000000001, 192.0, 0.0, 0.0, 0.0, 0.0, 0.0, 0.0, 0.0, 0.0, 0.0, 1.644587220606543E9, 0.0, 2022-02-12 00:47:00.606
20.0, -11991.196810149768, -12107.403529572908, -7620.469644125658, -12771.898540484732, -11671.432753972143, -9295.26350441736, -10576.174923917642, -9140.298860108716, -11981.853780967449, -14208.221639182764, -10214.50134688632, -9480.715928163043, -9076.104650033076, -13387.376175806068, -12778.380546376771, -17569.342859905108, 0.002, 0.239, 0.9530000000000001, 192.0, 0.0, 0.0, 0.0, 0.0, 0.0, 0.0, 0.0, 0.0, 0.0, 1.644587220614058E9, 0.0, 2022-02-12 00:47:00.614
22.0, -12001.389205621386, -12128.25770714971, -7633.388952420825, -12757.861644966799, -11650.511521161976, -9283.998225211886, -10578.052470451888, -9139.605956030602, -11971.951958173748, -14232.607392383505, -10227.532413903764, -9474.099811804273, -9071.343728464095, -13382.88347517055, -12776.8159242649, -17539.927964201925, 0.002, 0.239, 0.9530000000000001, 192.0, 0.0, 0.0, 0.0, 0.0, 0.0, 0.0, 0.0, 0.0, 0.0, 1.644587220621225E9, 0.0, 2022-02-12 00:47:00.621
24.0, -11990.816830494026, -12106.688273750338, -7624.336495916426, -12765.215368892596, -11652.88080607424, -9286.099289190684, -10564.194388889598, -9122.261002333284, -11968.152161616346, -14214.703645074804, -10222.279753956765, -9471.484657703002, -9047.583824108104, -13385.632739738554, -12773.038479451952, -17520.549001759173, 0.002, 0.239, 0.9530000000000001, 192.0, 0.0, 0.0, 0.0, 0.0, 0.0, 0.0, 0.0, 0.0, 0.0, 1.644587220628587E9, 0.0, 2022-02-12 00:47:00.628
26.0, -11988.76047000414, -12102.553201026107, -7630.9079087862865, -12771.496209084537, -11657.93230032114, -9290.74845203739, -10567.368336602252, -9122.529223266749, -11980.51267630013, -14240.162282009398, -10217.83175681016, -9483.44284098659, -9082.519600691749, -13401.502478301822, -12770.512732328503, -17573.96967100736, 0.004, 0.2355, 0.9535, 192.0, 0.0, 24.0, 3.5, 32.0, 14.5, 104.0, 0.0, 0.0, 0.0, 1.644587220636862E9, 0.0, 2022-02-12 00:47:00.636
28.0, -11976.51171404263, -12079.977939126247, -7625.163510461272, -12745.836406449844, -11633.501843631488, -9265.222759869428, -10556.080705652323, -9113.789691184724, -11951.678925952785, -14213.228429940753, -10223.956134790915, -9481.20766654106, -9066.962786550856, -13390.997158407827, -12769.976290461576, -17497.70551892585, 0.004, 0.2355, 0.9535, 192.0, 0.0, 0.0, 0.0, 0.0, 0.0, 0.0, 0.0, 0.0, 0.0, 1.644587220644745E9, 0.0, 2022-02-12 00:47:00.644
30.0, -11954.137617842867, -12087.331663052042, -7616.580440590435, -12758.867473467288, -11649.081009516836, -9266.608568025656, -10562.47330456654, -9122.037484888731, -11962.56422550252, -14191.971920963755, -10205.918277015482, -9442.896776544665, -9049.260204942251, -13358.430666736445, -12769.261034639007, -17557.205862665876, 0.004, 0.2355, 0.9535, 192.0, 0.0, 0.0, 0.0, 0.0, 0.0, 0.0, 0.0, 0.0, 0.0, 1.644587220650887E9, 0.0, 2022-02-12 00:47:00.650
32.0, -11986.65940602534, -12104.229581860254, -7625.275269183549, -12752.094894897331, -11634.977058765538, -9269.469591315936, -10559.433467320618, -9122.640981989025, -11951.768332930606, -14230.886308060446, -10226.034847025257, -9484.49337297599, -9069.667347629947, -13382.145867603525, -12768.791648005445, -17529.288533841198, 0.004, 0.2355, 0.9535, 192.0, 0.0, 0.0, 0.0, 0.0, 0.0, 0.0, 0.0, 0.0, 0.0, 1.644587220658323E9, 0.0, 2022-02-12 00:47:00.658
34.0, -11999.444603853775, -12113.885535464948, -7609.2490684090935, -12758.28632811145, -11640.028553012438, -9268.620225026634, -10561.556883043871, -9118.483557520338, -11964.195902847756, -14217.587020109537, -10214.143718975034, -9480.246541529483, -9049.103742731064, -13366.387887762534, -12768.523427071981, -17514.290513311687, 0.004, 0.2355, 0.9535, 192.0, 0.0, 0.0, 0.0, 0.0, 0.0, 0.0, 0.0, 0.0, 0.0, 1.644587220666434E9, 0.0, 2022-02-12 00:47:00.666
36.0, -12007.200659179767, -12119.58523030105, -7620.715513314666, -12769.52925557247, -11651.271480473457, -9283.88646648961, -10571.458705837573, -9131.604031515602, -11973.807152963538, -14260.055334574621, -10193.244837909322, -9482.191143297094, -9076.46227794436, -13381.564722247687, -12773.306700385416, -17574.90844427448, 0.004, 0.23375, 0.9477500000000001, 192.0, 0.0, 16.0, 3.5, 32.0, 14.5, 56.0, 0.0, 0.0, 0.0, 1.6445872206743E9, 0.0, 2022-02-12 00:47:00.674
38.0, -11988.671063026317, -12112.410320330897, -7616.781606290532, -12751.42434256367, -11631.4454831416, -9266.49680930338, -10565.267272623452, -9118.237688331328, -11957.333917299977, -14230.774549338168, -10220.938649289448, -9486.281512532416, -9073.489495931804, -13377.586111734643, -12774.804267263922, -17500.208914304843, 0.004, 0.23375, 0.9477500000000001, 192.0, 0.0, 0.0, 0.0, 0.0, 0.0, 0.0, 0.0, 0.0, 0.0, 1.644587220681161E9, 0.0, 2022-02-12 00:47:00.681
40.0, -11961.111362112924, -12101.837945203537, -7608.1314811863285, -12764.969499703588, -11641.481416402034, -9269.000204682376, -10559.366412087253, -9127.04427564672, -11957.915062655815, -14225.857165558002, -10202.744329302828, -9459.72764011951, -9065.50992316126, -13364.97972786185, -12770.937415473154, -17558.882243500026, 0.004, 0.23375, 0.9477500000000001, 192.0, 0.0, 0.0, 0.0, 0.0, 0.0, 0.0, 0.0, 0.0, 0.0, 1.644587220689135E9, 0.0, 2022-02-12 00:47:00.689
42.0, -11969.2250453502, -12087.756346196693, -7619.50851911408, -12749.837368707344, -11628.11507321776, -9270.49777156088, -10565.311976112363, -9135.560290284193, -11941.128902569879, -14237.122444763476, -10204.063082225692, -9469.405945468658, -9055.071658500632, -13392.785297964252, -12771.272691639984, -17531.23313560881, 0.004, 0.23375, 0.9477500000000001, 192.0, 0.0, 0.0, 0.0, 0.0, 0.0, 0.0, 0.0, 0.0, 0.0, 1.644587220696944E9, 0.0, 2022-02-12 00:47:00.696
44.0, -11978.121039643413, -12097.121727123467, -7604.666960795756, -12757.861644966799, -11620.135500447215, -9258.69605048848, -10541.060333378355, -9111.487461505827, -11947.096818339447, -14203.214848424775, -10200.263285668289, -9463.795657610377, -9051.74124857679, -13377.474353012367, -12764.187188647651, -17514.402272033964, 0.004, 0.23375, 0.9477500000000001, 192.0, 0.0, 0.0, 0.0, 0.0, 0.0, 0.0, 0.0, 0.0, 0.0, 1.644587220704136E9, 0.0, 2022-02-12 00:47:00.704
46.0, -11996.270656141121, -12103.782546971148, -7616.714551057166, -12755.022973420975, -11627.131596461726, -9263.948710435476, -10555.052525407378, -9106.570077725659, -11964.911158670326, -14253.372162982485, -10179.945549958415, -9463.549788421367, -9056.725687590324, -13375.239178566835, -12758.845121722832, -17566.884168015025, 0.007, 0.232875, 0.9488750000000001, 192.0, 0.0, 40.0, 3.5, 32.0, 14.5, 88.0, 0.0, 0.0, 0.0, 1.6445872207189E9, 0.0, 2022-02-12 00:47:00.718
48.0, -11971.683737240284, -12084.53769499513, -7616.066350467962, -12737.119226112274, -11607.529116574422, -9245.620279982124, -10553.33144108432, -9109.140528338019, -11941.307716525522, -14227.24297371423, -10202.431404880454, -9464.689727388588, -9049.416667153439, -13369.941815130927, -12761.124999657273, -17490.396498488964, 0.007, 0.232875, 0.9488750000000001, 192.0, 0.0, 0.0, 0.0, 0.0, 0.0, 0.0, 0.0, 0.0, 0.0, 1.644587220726536E9, 0.0, 2022-02-12 00:47:00.726
50.0, -11952.774161431094, -12088.896285163913, -7610.612524820867, -12759.828598478867, -11620.783701036418, -9255.790323709289, -10542.557900256861, -9104.983103869332, -11961.536045257575, -14228.248802214719, -10194.004797220803, -9445.891910301676, -9040.878300771512, -13371.506437242799, -12758.062810666897, -17553.04843819719, 0.007, 0.232875, 0.9488750000000001, 192.0, 0.0, 0.0, 0.0, 0.0, 0.0, 0.0, 0.0, 0.0, 0.0, 1.644587220733339E9, 0.0, 2022-02-12 00:47:00.733
52.0, -11969.917949428314, -12069.137343065422, -7613.719417300155, -12747.758656473, -11612.714721288052, -9246.760218949345, -10556.259519607964, -9103.507888735281, -11953.17649283129, -14239.514081420193, -10201.11265195759, -9464.801486110866, -9055.518693389737, -13374.74744018882, -12755.090028654342, -17527.500394284772, 0.007, 0.232875, 0.9488750000000001, 192.0, 0.0, 0.0, 0.0, 0.0, 0.0, 0.0, 0.0, 0.0, 0.0, 1.644587220741161E9, 0.0, 2022-02-12 00:47:00.741
54.0, -11966.587539504473, -12069.651433187895, -7600.174260160239, -12750.552624529913, -11617.00625622347, -9231.024590852809, -10555.879539952224, -9110.079301605141, -11945.219271805201, -14196.934008232834, -10182.851276737605, -9453.804427838853, -9039.939527504388, -13351.948660844406, -12754.888862954243, -17509.864867909535, 0.007, 0.232875, 0.9488750000000001, 192.0, 0.0, 0.0, 0.0, 0.0, 0.0, 0.0, 0.0, 0.0, 0.0, 1.644587220749629E9, 0.0, 2022-02-12 00:47:00.749
56.0, -11973.270711096611, -12091.511439265185, -7609.941972487209, -12750.306755340906, -11613.027645710426, -9230.957535619442, -10559.411115576162, -9115.08609236313, -11958.585614989473, -14239.178805253365, -10175.162276644978, -9450.898701059665, -9041.794722294178, -13360.934062115439, -12757.369906588783, -17568.18056919343, 0.0085, 0.23243750000000002, 0.9494375000000002, 192.0, 0.0, 40.0, 3.5, 32.0, 14.5, 88.0, 0.0, 0.0, 0.0, 1.644587220756531E9, 0.0, 2022-02-12 00:47:00.756
58.0, -11956.596309732951, -12072.177180311344, -7604.443443351203, -12724.110510839286, -11593.112241400748, -9228.342381518172, -10548.637574748705, -9094.298970019696, -11927.002600074125, -14215.62006659747, -10188.550971573708, -9452.060991771341, -9056.725687590324, -13371.841713409629, -12751.089066396842, -17489.0777455661, 0.0085, 0.23243750000000002, 0.9494375000000002, 192.0, 0.0, 0.0, 0.0, 0.0, 0.0, 0.0, 0.0, 0.0, 0.0, 1.64458722076409E9, 0.0, 2022-02-12 00:47:00.764
60.0, -11940.883033380871, -12047.970241066247, -7598.319065370449, -12739.37675230226, -11607.730282274519, -9236.29960254426, -10544.927185169123, -9096.534144465226, -11931.830576876471, -14218.302275932107, -10166.892131196515, -9433.464340384524, -9051.137751476497, -13359.816474892674, -12746.819883205877, -17547.080522427623, 0.0085, 0.23243750000000002, 0.9494375000000002, 192.0, 0.0, 0.0, 0.0, 0.0, 0.0, 0.0, 0.0, 0.0, 0.0, 1.644587220770795E9, 0.0, 2022-02-12 00:47:00.770
62.0, -11976.80228672055, -12072.53480822263, -7614.166452189262, -12736.113397611785, -11598.946046703584, -9236.6795822, -10555.499560296485, -9105.050159102699, -11948.057943351025, -14221.208002711297, -10181.130192414546, -9445.355468434747, -9029.702428543858, -13360.710544670887, -12749.367982073783, -17524.79583320568, 0.0085, 0.23243750000000002, 0.9494375000000002, 192.0, 0.0, 0.0, 0.0, 0.0, 0.0, 0.0, 0.0, 0.0, 0.0, 1.644587220779084E9, 0.0, 2022-02-12 00:47:00.779
64.0, -11962.720687713705, -12081.520209493663, -7603.7281875286335, -12741.880147681255, -11602.857601983262, -9222.39681749306, -10550.783342216415, -9102.010321856776, -11951.567167230507, -14217.184688709342, -10179.498515069308, -9443.209700967038, -9041.280632171707, -13365.940852873428, -12750.61967976328, -17509.306074298154, 0.0085, 0.23243750000000002, 0.9494375000000002, 192.0, 0.0, 0.0, 0.0, 0.0, 0.0, 0.0, 0.0, 0.0, 0.0, 1.644587220786046E9, 0.0, 2022-02-12 00:47:00.786
66.0, -11966.855760437938, -12081.788430427127, -7613.630010322334, -12748.563319273391, -11604.645741539687, -9229.974058863409, -10556.036002163411, -9105.56424922517, -11965.581711003984, -14246.286659990152, -10176.525733056753, -9442.15916897764, -9044.968670006832, -13336.682419381432, -12748.272746595472, -17562.1455981905, 0.00825, 0.23421875000000003, 0.9497187500000002, 192.0, 0.0, 32.0, 3.5, 48.0, 14.5, 88.0, 0.0, 0.0, 0.0, 1.644587220793751E9, 0.0, 2022-02-12 00:47:00.793
68.0, -11965.402897048343, -12063.035316829124, -7612.467719610659, -12730.368999286771, -11592.084061155803, -9220.407512236538, -10560.685165010114, -9105.631304458537, -11937.865547879404, -14215.91063927539, -10188.953302973903, -9440.77336082141, -9038.330201903605, -13347.970050331362, -12748.47391229557, -17488.40719323244, 0.00825, 0.23421875000000003, 0.9497187500000002, 192.0, 0.0, 0.0, 0.0, 0.0, 0.0, 0.0, 0.0, 0.0, 0.0, 1.644587220801621E9, 0.0, 2022-02-12 00:47:00.801
70.0, -11960.1725888458, -12055.323964992043, -7599.369597359848, -12750.99965941902, -11604.511631072955, -9221.212175036928, -10548.883443937713, -9096.288275276218, -11952.55064398654, -14223.756101579202, -10173.217674877367, -9436.951212519552, -9039.69365831538, -13361.984594104839, -12749.99383091853, -17549.494510828794, 0.00825, 0.23421875000000003, 0.9497187500000002, 192.0, 0.0, 0.0, 0.0, 0.0, 0.0, 0.0, 0.0, 0.0, 0.0, 1.644587220809643E9, 0.0, 2022-02-12 00:47:00.809
72.0, -11968.934472672281, -12051.255947501177, -7616.155757445784, -12740.13671161374, -11589.044223909883, -9217.948820346453, -10555.521912040938, -9102.546763723703, -11946.470969494698, -14221.543278878127, -10178.224465635356, -9459.63823314169, -9044.968670006832, -13349.489968954322, -12747.021048905975, -17525.645199494982, 0.00825, 0.23421875000000003, 0.9497187500000002, 192.0, 0.0, 0.0, 0.0, 0.0, 0.0, 0.0, 0.0, 0.0, 0.0, 1.644587220816101E9, 0.0, 2022-02-12 00:47:00.816
74.0, -11950.427228263286, -12046.316211976555, -7603.594077061901, -12732.179490587652, -11600.398910093178, -9211.10918654313, -10556.37127833024, -9090.32035950665, -11940.056018836025, -14204.734767047736, -10178.716204013373, -9434.24665144046, -9025.992038964278, -13357.424838235956, -12751.401990819215, -17501.61707420553, 0.00825, 0.23421875000000003, 0.9497187500000002, 192.0, 0.0, 0.0, 0.0, 0.0, 0.0, 0.0, 0.0, 0.0, 0.0, 1.644587220824232E9, 0.0, 2022-02-12 00:47:00.824
76.0, -11980.669138511317, -12076.558122224586, -7611.5960015769015, -12744.76352271599, -11602.969360705538, -9222.799148893255, -10563.27796736693, -9100.691568933913, -11962.206597591234, -14240.564613409593, -10170.177837631445, -9430.670372327611, -9048.008507252754, -13364.510341228288, -12754.978269932064, -17563.441999368908, 0.007125, 0.235109375, 0.9538593750000002, 192.0, 0.0, 24.0, 3.5, 48.0, 14.5, 120.0, 0.0, 0.0, 0.0, 1.644587220833002E9, 0.0, 2022-02-12 00:47:00.833
78.0, -11983.79838273506, -12076.312253035576, -7615.775777790043, -12733.051208621408, -11588.284264598402, -9211.265648754317, -10554.963118429556, -9090.65563567348, -11952.684754453274, -14225.47718590226, -10179.990253447326, -9442.673259100111, -9051.450675898872, -13358.587128947633, -12752.072543152875, -17492.49756246776, 0.007125, 0.235109375, 0.9538593750000002, 192.0, 0.0, 0.0, 0.0, 0.0, 0.0, 0.0, 0.0, 0.0, 0.0, 1.644587220845725E9, 0.0, 2022-02-12 00:47:00.845
80.0, -11953.109437597925, -12059.973127838746, -7609.159661431273, -12749.792665218434, -11594.051014667872, -9212.047959810252, -10550.425714305129, -9096.601199698593, -11969.247397094656, -14230.729845849259, -10170.937796942926, -9423.204889679539, -9032.36228613404, -13344.5502334297, -12755.134732143251, -17548.37692360603, 0.007125, 0.235109375, 0.9538593750000002, 192.0, 0.0, 0.0, 0.0, 0.0, 0.0, 0.0, 0.0, 0.0, 0.0, 1.644587220854183E9, 0.0, 2022-02-12 00:47:00.854
82.0, -11967.191036604767, -12046.271508487644, -7617.988600491119, -12740.583746502847, -11585.333834330302, -9212.517346443814, -10559.455819065073, -9107.285333548229, -11959.390277789866, -14232.026247027667, -10180.839619736627, -9445.266061456927, -9049.617832853537, -13360.129399315048, -12757.414610077692, -17530.651990252973, 0.007125, 0.235109375, 0.9538593750000002, 192.0, 0.0, 0.0, 0.0, 0.0, 0.0, 0.0, 0.0, 0.0, 0.0, 1.644587220862081E9, 0.0, 2022-02-12 00:47:00.862
84.0, -11928.947201841736, -12045.064514287056, -7601.5600683164685, -12742.304830825906, -11580.550561016866, -9197.094642769653, -10541.909699667656, -9082.407841969472, -11944.54871947154, -14210.747386306213, -10190.227352407856, -9445.601337623757, -9030.037704710687, -13351.345163744112, -12750.418514063182, -17501.348853272066, 0.007125, 0.235109375, 0.9538593750000002, 192.0, 0.0, 0.0, 0.0, 0.0, 0.0, 0.0, 0.0, 0.0, 0.0, 1.64458722086866E9, 0.0, 2022-02-12 00:47:00.868
86.0, -11964.285309825578, -12049.825435856037, -7606.030417207529, -12743.042438392931, -11591.480564055511, -9199.285113726273, -10563.61324353376, -9099.842202644611, -11956.193978332756, -14237.34596220803, -10171.474238809853, -9418.265154154917, -9038.374905392517, -13322.600820374588, -12751.670211752678, -17560.849197012092, 0.004562500000000001, 0.23655468750000003, 0.9499296875000001, 192.0, 0.0, 8.0, 3.5, 56.0, 14.5, 72.0, 0.0, 0.0, 0.0, 1.644587220876787E9, 0.0, 2022-02-12 00:47:00.876
88.0, -11984.603045535452, -12052.798217868592, -7601.984751461119, -12718.813147403378, -11566.513665498933, -9184.622369363591, -10545.150702613677, -9078.65274890098, -11938.379638001876, -14203.974807736256, -10164.142866628512, -9418.041636710363, -9023.086312185087, -13331.407407689978, -12748.272746595472, -17484.69680365286, 0.004562500000000001, 0.23655468750000003, 0.9499296875000001, 192.0, 0.0, 0.0, 0.0, 0.0, 0.0, 0.0, 0.0, 0.0, 0.0, 1.644587220884498E9, 0.0, 2022-02-12 00:47:00.884
90.0, -11948.974364873691, -12041.644697385394, -7594.295751368493, -12742.014258147987, -11572.794505690874, -9185.069404252697, -10528.409246016652, -9072.863647087055, -11959.926719656793, -14211.820270040069, -10156.252700835788, -9419.561555333323, -9033.12224544552, -13329.976896044838, -12739.510862768992, -17539.480929312816, 0.004562500000000001, 0.23655468750000003, 0.9499296875000001, 192.0, 0.0, 0.0, 0.0, 0.0, 0.0, 0.0, 0.0, 0.0, 0.0, 1.644587220891842E9, 0.0, 2022-02-12 00:47:00.891
92.0, -11963.502998769642, -12047.836130599515, -7611.998332977097, -12729.877260908755, -11573.509761513444, -9186.72343334239, -10549.50929278246, -9082.117269291553, -11952.952975386737, -14234.797863340124, -10171.2507213653, -9416.186441920572, -9029.143634932476, -13339.677553138443, -12743.400066304215, -17523.1865076049, 0.004562500000000001, 0.23655468750000003, 0.9499296875000001, 192.0, 0.0, 0.0, 0.0, 0.0, 0.0, 0.0, 0.0, 0.0, 0.0, 1.644587220898147E9, 0.0, 2022-02-12 00:47:00.898
94.0, -11947.65561195083, -12032.480482158719, -7600.487184582614, -12732.917098154676, -11567.05010736586, -9169.177313944974, -10527.001086115968, -9063.051231271176, -11942.134731070368, -14199.52681058965, -10169.507285297786, -9408.966828461507, -9017.341913860073, -13330.02159953375, -12745.367019816282, -17494.35275725755, 0.004562500000000001, 0.23655468750000003, 0.9499296875000001, 192.0, 0.0, 0.0, 0.0, 0.0, 0.0, 0.0, 0.0, 0.0, 0.0, 1.644587220906315E9, 0.0, 2022-02-12 00:47:00.906
96.0, -11958.853835922937, -12021.32696167552, -7607.50563234158, -12748.228043106563, -11570.67108996762, -9177.760383815812, -10536.947612398579, -9069.712051118857, -11965.2240830927, -14226.52771789166, -10163.271148594755, -9418.131043688183, -9022.482815084793, -13338.895242082506, -12739.28734532444, -17551.394409107495, 0.008, 0.23600000000000002, 0.9440000000000001, 192.0, 0.0, 32.0, 3.5, 48.0, 14.5, 64.0, 0.0, 0.0, 0.0, 1.644587220914584E9, 0.0, 2022-02-12 00:47:00.914
98.0, -11961.916024913315, -12031.452301913776, -7602.0294549500295, -12728.558507985892, -11550.643926935665, -9183.05774725172, -10530.532661739906, -9069.577940652125, -11945.643954949852, -14207.416976382374, -10172.658881265985, -9428.77047404891, -9018.235983638286, -13335.117797269559, -12736.828653434355, -17477.723059382806, 0.008, 0.23600000000000002, 0.9440000000000001, 192.0, 0.0, 0.0, 0.0, 0.0, 0.0, 0.0, 0.0, 0.0, 0.0, 1.644587220921488E9, 0.0, 2022-02-12 00:47:00.921
100.0, -11941.59828920344, -12032.815758325549, -7592.9322949567195, -12747.982173917553, -11565.127857342704, -9180.956683272922, -10528.699818694571, -9056.882149801511, -11957.333917299977, -14220.33628467754, -10158.733744470328, -9417.974581476998, -9017.565431304625, -13331.228593734337, -12730.078426608852, -17532.082501898112, 0.008, 0.23600000000000002, 0.9440000000000001, 192.0, 0.0, 0.0, 0.0, 0.0, 0.0, 0.0, 0.0, 0.0, 0.0, 1.644587220928836E9, 0.0, 2022-02-12 00:47:00.928
102.0, -11971.057888395535, -12040.325944462533, -7599.861335737865, -12731.464234765082, -11556.85771189424, -9152.234691647851, -10543.809597946358, -9064.79466733869, -11955.791646932561, -14225.030151013156, -10164.075811395147, -9404.854107481731, -9035.64799256897, -13337.710599626374, -12733.185319088141, -17511.69771095487, 0.008, 0.23600000000000002, 0.9440000000000001, 192.0, 0.0, 0.0, 0.0, 0.0, 0.0, 0.0, 0.0, 0.0, 0.0, 1.644587220936639E9, 0.0, 2022-02-12 00:47:00.936
104.0, -11937.060885079014, -12023.673894843329, -7587.143193142795, -12730.413702775682, -11543.357258243235, -9142.221110131874, -10516.182841799598, -9048.74611481978, -11938.804321146526, -14187.076888928044, -10156.2974043247, -9403.401244092136, -9005.78606197668, -13317.415215660956, -12725.541022484425, -17481.20993151783, 0.008, 0.23600000000000002, 0.9440000000000001, 192.0, 0.0, 0.0, 0.0, 0.0, 0.0, 0.0, 0.0, 0.0, 0.0, 1.644587220946255E9, 0.0, 2022-02-12 00:47:00.946
106.0, -11946.381562516877, -12017.013074995646, -7594.8098414909655, -12740.673153480668, -11555.941290371573, -9146.959679956399, -10532.231394318509, -9051.629489854515, -11958.22798707819, -14220.202174210808, -10151.111799611068, -9399.132060901173, -9013.564469047125, -13321.907916296474, -12723.797586416911, -17541.693752013893, 0.004, 0.23600000000000002, 0.9480000000000001, 192.0, 0.0, 16.0, 3.5, 48.0, 14.5, 80.0, 0.0, 0.0, 0.0, 1.644587220952449E9, 0.0, 2022-02-12 00:47:00.952
108.0, -11958.183283589278, -12018.175365707322, -7590.540658300002, -12726.971534129565, -11539.33394424128, -9134.24153736133, -10527.358714027252, -9048.924928775421, -11943.274670037588, -14198.699796044802, -10160.119552626556, -9402.283656869371, -9010.994018434765, -13311.179078957926, -12726.479795751547, -17466.122504010502, 0.004, 0.23600000000000002, 0.9480000000000001, 192.0, 0.0, 0.0, 0.0, 0.0, 0.0, 0.0, 0.0, 0.0, 0.0, 1.644587220966473E9, 0.0, 2022-02-12 00:47:00.966
110.0, -11936.435036234265, -12010.70988305925, -7586.115012897852, -12754.7100489986, -11554.466075237522, -9144.232767132851, -10528.051618105366, -9040.699486815869, -11963.614757491918, -14204.71241530328, -10159.046668892703, -9390.23606660796, -9010.815204479124, -13308.608628345566, -12725.406912017694, -17525.913420428446, 0.004, 0.23600000000000002, 0.9480000000000001, 192.0, 0.0, 0.0, 0.0, 0.0, 0.0, 0.0, 0.0, 0.0, 0.0, 1.644587220973526E9, 0.0, 2022-02-12 00:47:00.973
112.0, -11958.295042311554, -12027.786615823105, -7602.767062517055, -12745.590537260836, -11537.970487829505, -9143.964546199388, -10531.158510584655, -9046.779161307712, -11956.238681821667, -14205.226505425753, -10171.58599753213, -9411.783148262877, -9003.327370086596, -13315.805890060174, -12725.18339457314, -17513.32938830011, 0.004, 0.23600000000000002, 0.9480000000000001, 192.0, 0.0, 0.0, 0.0, 0.0, 0.0, 0.0, 0.0, 0.0, 0.0, 1.64458722098089E9, 0.0, 2022-02-12 00:47:00.980
114.0, -11961.647803979851, -12027.227822211722, -7581.219980862139, -12733.274726065962, -11534.058932549828, -9127.871290191566, -10513.701798165059, -9034.306887901652, -11946.493321239153, -14207.9534182493, -10163.29350033921, -9398.48386031197, -9000.153422373942, -13324.388959931011, -12720.489528237526, -17481.65696640694, 0.004, 0.23600000000000002, 0.9480000000000001, 192.0, 0.0, 0.0, 0.0, 0.0, 0.0, 0.0, 0.0, 0.0, 0.0, 1.644587220989013E9, 0.0, 2022-02-12 00:47:00.989
116.0, -11950.024896863091, -12027.853671056471, -7586.874972209332, -12744.607060504803, -11543.625479176699, -9133.23570886084, -10522.41897850263, -9039.827768782112, -11962.877149924892, -14229.656962115403, -10148.563700743163, -9390.034900907864, -9024.427416852406, -13291.554247326167, -12714.767481656967, -17539.41387407945, 0.006, 0.232, 0.9460000000000001, 192.0, 0.0, 24.0, 3.5, 32.0, 14.5, 72.0, 0.0, 0.0, 0.0, 1.644587220996966E9, 0.0, 2022-02-12 00:47:00.996
118.0, -11959.479684767686, -12001.411557365842, -7589.624236777335, -12726.032760862443, -11530.326191225791, -9131.291107093228, -10530.242089061987, -9045.92979501841, -11944.727533427184, -14205.42767112585, -10158.443171792409, -9404.921162715098, -9010.614038779026, -13314.353026670578, -12721.674170693657, -17469.430562189886, 0.006, 0.232, 0.9460000000000001, 192.0, 0.0, 0.0, 0.0, 0.0, 0.0, 0.0, 0.0, 0.0, 0.0, 1.644587221003538E9, 0.0, 2022-02-12 00:47:01.003
120.0, -11947.432094506275, -12005.546630090073, -7582.248161107083, -12741.94720291462, -11541.949098342551, -9129.748836725812, -10517.792167400381, -9031.73643728929, -11969.716783728218, -14209.920371761367, -10142.595784973597, -9392.694758498044, -9002.701521241846, -13320.477404651334, -12721.987095116032, -17524.79583320568, 0.006, 0.232, 0.9460000000000001, 192.0, 0.0, 0.0, 0.0, 0.0, 0.0, 0.0, 0.0, 0.0, 0.0, 1.644587221013492E9, 0.0, 2022-02-12 00:47:01.013
122.0, -11945.97923111668, -12011.738063304194, -7592.2840943675155, -12729.743150442024, -11529.163900514115, -9122.819795944666, -10524.855318648259, -9034.083370457098, -11961.714859213216, -14223.689046345837, -10159.046668892703, -9397.008645177919, -9002.701521241846, -13307.401634144979, -12719.818975903867, -17507.51793474173, 0.006, 0.232, 0.9460000000000001, 192.0, 0.0, 0.0, 0.0, 0.0, 0.0, 0.0, 0.0, 0.0, 0.0, 1.644587221019965E9, 0.0, 2022-02-12 00:47:01.019
124.0, -11936.166815300801, -12005.568981834529, -7577.420184304737, -12729.13965334173, -11522.19015624406, -9109.699321949402, -10514.305295265352, -9023.622754052014, -11944.705181682728, -14183.880589470935, -10156.923253169449, -9382.18943860405, -9000.287532840674, -13310.352064413079, -12719.550754970403, -17475.040850048168, 0.006, 0.232, 0.9460000000000001, 192.0, 0.0, 0.0, 0.0, 0.0, 0.0, 0.0, 0.0, 0.0, 0.0, 1.644587221026926E9, 0.0, 2022-02-12 00:47:01.026
126.0, -11953.578824231485, -12017.504813373664, -7584.192762874694, -12744.003563404509, -11525.341752212258, -9116.04721737471, -10507.108033550743, -9014.905573714444, -11961.468990024208, -14231.400398182917, -10143.132226840524, -9385.72101422799, -8998.477041539794, -13302.48425036481, -12719.975438115054, -17538.81037697916, 0.006, 0.232, 0.9500000000000001, 192.0, 0.0, 24.0, 3.5, 32.0, 14.5, 88.0, 0.0, 0.0, 0.0, 1.644587221033186E9, 0.0, 2022-02-12 00:47:01.033
128.0, -11949.019068362602, -11996.740042774683, -7583.566914029946, -12725.339856784327, -11509.270847948892, -9109.073473104652, -10516.160490055143, -9022.393408106973, -11935.518614711596, -14203.170144935864, -10159.91838692646, -9394.214677121005, -8987.010596634222, -13313.078977236626, -12721.741225927022, -17466.50248366624, 0.006, 0.232, 0.9500000000000001, 192.0, 0.0, 0.0, 0.0, 0.0, 0.0, 0.0, 0.0, 0.0, 0.0, 1.644587221041201E9, 0.0, 2022-02-12 00:47:01.041
130.0, -11932.188204787757, -11982.949016445758, -7575.989672659597, -12742.684810481645, -11522.90541206663, -9104.22314455785, -10514.238240031988, -9017.096044671065, -11956.395144032855, -14202.790165280125, -10145.926194897436, -9372.891112910642, -8990.989207147266, -13292.358910126557, -12720.8024526599, -17519.878449425512, 0.006, 0.232, 0.9500000000000001, 192.0, 0.0, 0.0, 0.0, 0.0, 0.0, 0.0, 0.0, 0.0, 0.0, 1.644587221049182E9, 0.0, 2022-02-12 00:47:01.049
132.0, -11945.219271805201, -11981.384394333887, -7581.443498306692, -12728.8043771749, -11509.315551437801, -9105.005455613787, -10511.734844652992, -9014.346780103062, -11958.675021967296, -14213.630761340948, -10141.299383795189, -9377.786144946354, -9008.11064340003, -13300.91962825294, -12718.097891580808, -17504.07576609561, 0.006, 0.232, 0.9500000000000001, 192.0, 0.0, 0.0, 0.0, 0.0, 0.0, 0.0, 0.0, 0.0, 0.0, 1.644587221055804E9, 0.0, 2022-02-12 00:47:01.055
134.0, -11942.425303748287, -11989.721595015717, -7570.692309223689, -12726.524499240459, -11497.737347809953, -9090.521525206748, -10489.763079853426, -9001.606285763537, -11945.398085760842, -14178.873798712946, -10143.2439855628, -9383.016453148897, -8974.672433694892, -13287.083898435105, -12711.079443821842, -17470.54814941265, 0.006, 0.232, 0.9500000000000001, 192.0, 0.0, 0.0, 0.0, 0.0, 0.0, 0.0, 0.0, 0.0, 0.0, 1.644587221063816E9, 0.0, 2022-02-12 00:47:01.063
136.0, -11939.02783859108, -11989.408670593342, -7577.867219193843, -12734.392313288727, -11513.361217184212, -9087.124060049542, -10513.053597575856, -9015.710236514835, -11958.026821378091, -14213.742520063224, -10136.896090137494, -9369.985386131453, -8989.245771079752, -13301.232552675314, -12709.581876943335, -17529.243830352287, 0.004, 0.232, 0.9420000000000001, 192.0, 0.0, 16.0, 3.5, 32.0, 14.5, 56.0, 0.0, 0.0, 0.0, 1.644587221072548E9, 0.0, 2022-02-12 00:47:01.072
138.0, -11926.443806462743, -11982.814905979027, -7569.932349912209, -12718.075539836353, -11488.439022116545, -9081.156144279974, -10498.770832868915, -9004.467309053816, -11929.662457664306, -14184.70760401578, -10131.15169181248, -9377.495572268435, -8994.16315485992, -13286.189828656892, -12708.106661809286, -17459.193463229356, 0.004, 0.232, 0.9420000000000001, 192.0, 0.0, 0.0, 0.0, 0.0, 0.0, 0.0, 0.0, 0.0, 0.0, 1.64458722107904E9, 0.0, 2022-02-12 00:47:01.079
140.0, -11923.381617472365, -11975.70705124224, -7567.048974877474, -12738.102702868307, -11505.247533946937, -9080.440888457404, -10496.1780305121, -8991.68211122538, -11943.609946204419, -14195.99523496571, -10131.062284834657, -9358.8095139038, -8978.695747696847, -13256.48436027579, -12699.836516360821, -17507.69674869737, 0.004, 0.232, 0.9420000000000001, 192.0, 0.0, 0.0, 0.0, 0.0, 0.0, 0.0, 0.0, 0.0, 0.0, 1.644587221093358E9, 0.0, 2022-02-12 00:47:01.093
142.0, -11954.115266098413, -11981.071469911512, -7587.791393731999, -12727.440920763127, -11497.826754787775, -9084.218333270352, -10507.286847506386, -8993.157326359431, -11947.677963695283, -14212.33436016254, -10134.504453480775, -9365.984423873953, -8975.767669173201, -13300.137317197004, -12707.346702497805, -17497.571408459116, 0.004, 0.232, 0.9420000000000001, 192.0, 0.0, 0.0, 0.0, 0.0, 0.0, 0.0, 0.0, 0.0, 0.0, 1.644587221101573E9, 0.0, 2022-02-12 00:47:01.101
144.0, -11930.64593442034, -11961.089010368469, -7573.329815069415, -12721.763577671478, -11491.74708029593, -9073.802420354179, -10505.968094583523, -8993.291436826163, -11941.97826885918, -14179.790220235613, -10132.001058101781, -9363.23515930595, -8990.832744936079, -13300.182020685914, -12707.369054242261, -17465.921338310403, 0.004, 0.232, 0.9420000000000001, 192.0, 0.0, 0.0, 0.0, 0.0, 0.0, 0.0, 0.0, 0.0, 0.0, 1.644587221108631E9, 0.0, 2022-02-12 00:47:01.108
146.0, -11931.003562331625, -11992.604970050452, -7578.046033149485, -12740.941374414131, -11496.262132675904, -9087.146411793998, -10502.190649770577, -8996.957122916832, -11963.257129580634, -14200.420880367861, -10128.313020266654, -9351.61225218919, -8974.024233105687, -13284.267578633737, -12702.18344952863, -17532.954219931868, 0.004, 0.232, 0.9500000000000001, 192.0, 0.0, 16.0, 3.5, 32.0, 14.5, 88.0, 0.0, 0.0, 0.0, 1.644587221115957E9, 0.0, 2022-02-12 00:47:01.115
148.0, -11943.297021782044, -11982.70314725675, -7577.64370174929, -12724.870470150767, -11490.69654830653, -9072.595426153592, -10498.256742746442, -8994.073747882097, -11945.17456831629, -14197.604560566493, -10146.619098975552, -9372.064098365796, -8967.810448147113, -13292.805945015663, -12703.256333262485, -17461.853320819537, 0.004, 0.232, 0.9500000000000001, 192.0, 0.0, 0.0, 0.0, 0.0, 0.0, 0.0, 0.0, 0.0, 0.0, 1.644587221124314E9, 0.0, 2022-02-12 00:47:01.124
150.0, -11948.728495684683, -11980.780897233593, -7573.128649369318, -12744.830577949355, -11512.645961361643, -9072.260149986763, -10499.9778270695, -8982.383785531973, -11963.346536558454, -14205.181801936842, -10137.968973871348, -9366.833790163255, -8993.582009504082, -13277.405593085956, -12706.005597830486, -17514.46932726733, 0.004, 0.232, 0.9500000000000001, 192.0, 0.0, 0.0, 0.0, 0.0, 0.0, 0.0, 0.0, 0.0, 0.0, 1.644587221132001E9, 0.0, 2022-02-12 00:47:01.132
152.0, -11945.152216571834, -11965.469952281708, -7587.634931520812, -12729.698446953113, -11494.161068697103, -9075.210580254863, -10508.896173107169, -8988.664625723914, -11963.03361213608, -14202.633703068937, -10142.685191951417, -9368.577226230767, -9001.06984389661, -13287.285064135202, -12715.192164801618, -17504.746318429272, 0.004, 0.232, 0.9500000000000001, 192.0, 0.0, 0.0, 0.0, 0.0, 0.0, 0.0, 0.0, 0.0, 0.0, 1.644587221140065E9, 0.0, 2022-02-12 00:47:01.140
154.0, -11925.683847151262, -11970.476743039697, -7575.564989514946, -12726.61390621828, -11486.315606393291, -9059.609062625059, -10494.255780488942, -8971.051451093132, -11943.900518882338, -14166.312118329064, -10142.931061140425, -9358.831865648255, -8974.381861016973, -13271.43767731639, -12707.637275175724, -17465.541358654664, 0.004, 0.232, 0.9500000000000001, 192.0, 0.0, 0.0, 0.0, 0.0, 0.0, 0.0, 0.0, 0.0, 0.0, 1.644587221146138E9, 0.0, 2022-02-12 00:47:01.146
156.0, -11934.244565277644, -11977.875170454405, -7584.1257076413285, -12740.8072639474, -11492.596446585232, -9067.163952250952, -10502.101242792754, -8983.523724499193, -11962.2736528246, -14204.466546114272, -10138.505415738275, -9359.033031348352, -8992.375015303494, -13288.58146531361, -12704.351568740794, -17536.418740322442, 0.008, 0.23, 0.9440000000000001, 192.0, 0.0, 32.0, 3.5, 24.0, 14.5, 64.0, 0.0, 0.0, 0.0, 1.644587221154592E9, 0.0, 2022-02-12 00:47:01.154
158.0, -11947.052114850536, -11991.487382827687, -7582.181105873717, -12720.46717649307, -11473.664519031587, -9047.36030666355, -10506.303370750353, -8981.91439889841, -11947.83442590647, -14195.19057216532, -10157.325584569644, -9371.684118710056, -8962.334270755562, -13291.129564181516, -12702.965760584566, -17458.947594040346, 0.008, 0.23, 0.9440000000000001, 192.0, 0.0, 0.0, 0.0, 0.0, 0.0, 0.0, 0.0, 0.0, 0.0, 1.644587221161167E9, 0.0, 2022-02-12 00:47:01.161
160.0, -11959.434981278775, -11994.527220073607, -7574.045070891985, -12740.270822080472, -11485.220370914982, -9043.672268828424, -10503.934085838091, -8974.560674972616, -11967.436905793777, -14207.975769993756, -10133.833901147116, -9353.825074890265, -8975.477096495282, -13272.555264539154, -12702.496373951004, -17511.60830397705, 0.008, 0.23, 0.9440000000000001, 192.0, 0.0, 0.0, 0.0, 0.0, 0.0, 0.0, 0.0, 0.0, 0.0, 1.64458722116826E9, 0.0, 2022-02-12 00:47:01.168
162.0, -11955.702239954739, -11963.346536558454, -7592.1052804118735, -12728.357342285793, -11477.821943500274, -9047.986155508299, -10509.991408585478, -8976.527628484682, -11968.375679060899, -14217.028226498154, -10148.228424576333, -9360.977633115965, -8993.649064737447, -13290.4366601034, -12707.480812964537, -17501.773536416717, 0.008, 0.23, 0.9440000000000001, 192.0, 0.0, 0.0, 0.0, 0.0, 0.0, 0.0, 0.0, 0.0, 0.0, 1.644587221176344E9, 0.0, 2022-02-12 00:47:01.176
164.0, -11948.013239862114, -11968.219216849711, -7577.464887793647, -12726.010409117987, -11468.41185908459, -9032.049361711664, -10492.422937443607, -8963.63067193397, -11961.379583046388, -14182.606540036983, -10141.858177406571, -9349.555891699301, -8975.432393006373, -13284.982834456307, -12705.424452474648, -17464.17790224289, 0.008, 0.23, 0.9440000000000001, 192.0, 0.0, 0.0, 3.5, 16.0, 14.5, 88.0, 0.0, 0.0, 0.0, 1.644587221184302E9, 0.0, 2022-02-12 00:47:01.184
166.0, -11935.429207733776, -11968.241568594167, -7587.634931520812, -12735.398141789216, -11477.240798144436, -9040.163044948942, -10503.50940269344, -8973.577198216582, -11971.437868051276, -14213.228429940753, -10128.692999922396, -9341.710429395489, -8981.802640176134, -13265.648575502466, -12704.552734440891, -17527.70155998487, 0.008, 0.23, 0.9440000000000001, 192.0, 0.0, 0.0, 0.0, 0.0, 0.0, 0.0, 0.0, 0.0, 0.0, 1.644587221191051E9, 0.0, 2022-02-12 00:47:01.191
168.0, -11935.630373433874, -11945.97923111668, -7585.019777419541, -12719.260182292484, -11456.341917078724, -9030.30592564415, -10499.284922991386, -8972.705480182825, -11946.895652639349, -14180.460772569273, -10149.167197843457, -9367.012604118896, -8962.803657389124, -13275.460991318345, -12703.904533851688, -17459.618146374007, 0.008, 0.23, 0.9440000000000001, 192.0, 0.0, 0.0, 0.0, 0.0, 0.0, 0.0, 0.0, 0.0, 0.0, 1.644587221198962E9, 0.0, 2022-02-12 00:47:01.198
170.0, -11950.918966641304, -11984.781859491093, -7577.353129071371, -12741.768388958979, -11475.385603354645, -9035.580937335604, -10493.004082799445, -8955.9640235858, -11969.962652917226, -14198.722147789258, -10132.984534857815, -9350.248795777416, -8964.234169034264, -13243.565051980622, -12704.105699551787, -17510.244847565275, 0.008, 0.23, 0.9440000000000001, 192.0, 0.0, 0.0, 0.0, 0.0, 0.0, 0.0, 0.0, 0.0, 0.0, 1.644587221213976E9, 0.0, 2022-02-12 00:47:01.213
172.0, -11964.017088892113, -11985.2288943802, -7590.6971205111895, -12725.719836440068, -11464.924986949562, -9032.451693111861, -10503.79997537136, -8954.287642751651, -11972.220179107211, -14226.326552191562, -10142.685191951417, -9351.70165916701, -8943.491750179739, -13260.440619044379, -12703.32338849585, -17497.146725314466, 0.008, 0.23, 0.9440000000000001, 192.0, 0.0, 0.0, 0.0, 0.0, 0.0, 0.0, 0.0, 0.0, 0.0, 1.644587221221099E9, 0.0, 2022-02-12 00:47:01.221
174.0, -11956.149274843845, -11962.296004569054, -7579.431841305714, -12722.970571872065, -11456.74424847892, -9020.381751105995, -10497.74265262397, -8951.426619461372, -11960.820789435005, -14173.37526957694, -10146.52969199773, -9352.103990567206, -8976.438221506862, -13283.686433277899, -12703.837478618321, -17461.383934185975, 0.006, 0.229, 0.9450000000000001, 192.0, 0.0, 16.0, 3.5, 16.0, 14.5, 72.0, 0.0, 0.0, 0.0, 1.644587221228743E9, 0.0, 2022-02-12 00:47:01.228
176.0, -11961.60310049094, -11959.591443489962, -7589.803050732977, -12743.847101193322, -11467.093106161727, -9026.617887809025, -10500.782489869893, -8952.454799706316, -11984.312472857533, -14210.47916537275, -10143.713372196362, -9349.667650421577, -8984.01546287721, -13260.306508577647, -12704.239810018518, -17531.121376886535, 0.006, 0.229, 0.9450000000000001, 192.0, 0.0, 0.0, 0.0, 0.0, 0.0, 0.0, 0.0, 0.0, 0.0, 1.644587221236993E9, 0.0, 2022-02-12 00:47:01.236
178.0, -11942.849986892938, -11951.142484085856, -7586.78556523151, -12719.684865437135, -11440.606288982188, -9023.220422651819, -10490.008949042434, -8953.080648551066, -11962.296004569054, -14194.229447153743, -10151.2459100778, -9345.599632930713, -8967.274006280186, -13261.066467889128, -12701.959932084077, -17458.45585566233, 0.006, 0.229, 0.9450000000000001, 192.0, 0.0, 0.0, 0.0, 0.0, 0.0, 0.0, 0.0, 0.0, 0.0, 1.644587221243939E9, 0.0, 2022-02-12 00:47:01.243
180.0, -11933.64106817735, -11933.350495499433, -7574.693271481189, -12731.084255109341, -11449.88226293114, -9017.051341182154, -10483.996329783957, -8938.730828610758, -11969.537969772575, -14190.630816296438, -10130.369380756543, -9324.968972798464, -8946.352773470018, -13257.28902307618, -12697.981321571031, -17504.925132384913, 0.006, 0.229, 0.9450000000000001, 192.0, 0.0, 0.0, 0.0, 0.0, 0.0, 0.0, 0.0, 0.0, 0.0, 1.644587221251197E9, 0.0, 2022-02-12 00:47:01.251
182.0, -11959.70320221224, -11972.287234340578, -7589.713643755155, -12727.105644596297, -11444.4507890285, -9008.8258992226, -10497.183859012588, -8939.58019490006, -11970.543798273064, -14206.165278692875, -10136.650220948484, -9337.888281093632, -8956.656927663915, -13257.691354476376, -12700.46236520557, -17494.643329935472, 0.006, 0.229, 0.9450000000000001, 192.0, 0.0, 0.0, 0.0, 0.0, 0.0, 0.0, 0.0, 0.0, 0.0, 1.644587221259392E9, 0.0, 2022-02-12 00:47:01.259
184.0, -11943.677001437783, -11959.725553956694, -7577.219018604639, -12726.837423662833, -11436.158291835582, -8989.558695502126, -10480.062422759822, -8940.429561189361, -11962.139542357869, -14180.773696991648, -10150.44124727741, -9344.32558349676, -8931.824139574068, -13256.57376725361, -12701.80346987289, -17460.042829518658, 0.006, 0.2305, 0.9445000000000001, 192.0, 0.0, 24.0, 3.5, 32.0, 14.5, 64.0, 0.0, 0.0, 0.0, 1.644587221266284E9, 0.0, 2022-02-12 00:47:01.266
186.0, -11958.138580100367, -11957.155103344334, -7580.035338406007, -12740.069656380374, -11447.55768150779, -8997.918247928412, -10493.786393855382, -8940.071933278077, -11981.585560033986, -14210.9038485174, -10149.05543912118, -9350.002926588408, -8953.192407273342, -13251.946956151362, -12702.630484417736, -17528.260353596255, 0.006, 0.2305, 0.9445000000000001, 192.0, 0.0, 0.0, 0.0, 0.0, 0.0, 0.0, 0.0, 0.0, 0.0, 1.644587221272969E9, 0.0, 2022-02-12 00:47:01.272
188.0, -11953.288251553566, -11940.234832791666, -7579.878876194821, -12720.37776951525, -11430.25743129938, -8990.430413535883, -10493.071138032812, -8930.415979673384, -11962.161894102323, -14186.94277846131, -10149.591880988108, -9345.84550211972, -8953.43827646235, -13249.600022983555, -12703.636312918225, -17457.718248095305, 0.006, 0.2305, 0.9445000000000001, 192.0, 0.0, 0.0, 0.0, 0.0, 0.0, 0.0, 0.0, 0.0, 0.0, 1.64458722128089E9, 0.0, 2022-02-12 00:47:01.280
190.0, -11928.41075997481, -11950.2707660521, -7574.983844159108, -12741.790740703433, -11440.02514362635, -8986.608265234026, -10483.817515828314, -8929.343095939528, -11980.445621066765, -14191.524886074649, -10131.710485423862, -9326.265373976872, -8954.9134915964, -13224.208441282326, -12703.7480716405, -17504.813373662637, 0.006, 0.2305, 0.9445000000000001, 192.0, 0.0, 0.0, 0.0, 0.0, 0.0, 0.0, 0.0, 0.0, 0.0, 1.644587221289098E9, 0.0, 2022-02-12 00:47:01.289
192.0, -11966.252263337645, -11960.731382457183, -7587.478469309625, -12736.493377267525, -11429.005733609883, -8989.625750735493, -10490.143059509166, -8930.997125029222, -11986.793516492071, -14201.42670886835, -10141.053514606181, -9341.464560206481, -8962.557788200116, -13246.448427015357, -12700.954103583588, -17498.152553814954, 0.006, 0.2305, 0.9445000000000001, 192.0, 0.0, 0.0, 0.0, 0.0, 0.0, 0.0, 0.0, 0.0, 0.0, 1.644587221296106E9, 0.0, 2022-02-12 00:47:01.296
194.0, -11968.778010461094, -11949.957841629726, -7571.519323768535, -12736.582784245347, -11419.752111405387, -8983.926055899388, -10487.21498098552, -8929.052523261611, -11977.450487309754, -14180.684290013825, -10137.521938982241, -9336.122493281662, -8941.077761778566, -13235.987810610273, -12703.03281581793, -17465.094323765556, 0.006, 0.23025, 0.9452500000000001, 192.0, 0.0, 24.0, 3.5, 24.0, 14.5, 72.0, 0.0, 0.0, 0.0, 1.644587221303643E9, 0.0, 2022-02-12 00:47:01.303
196.0, -11970.99083316217, -11952.394181775355, -7579.9012279392755, -12747.646897750725, -11432.671419700555, -8998.521745028704, -10495.440422945074, -8928.113749994487, -11996.270656141121, -14206.411147881885, -10123.507395208764, -9333.484987435935, -8936.853282076512, -13259.680659732898, -12702.317559995361, -17531.14372863099, 0.006, 0.23025, 0.9452500000000001, 192.0, 0.0, 0.0, 0.0, 0.0, 0.0, 0.0, 0.0, 0.0, 0.0, 1.644587221311571E9, 0.0, 2022-02-12 00:47:01.311
198.0, -11959.323222556499, -11949.60021371844, -7582.78460297401, -12730.61486847578, -11412.823070624241, -8984.171925088398, -10485.69506236256, -8938.14968325492, -11971.683737240284, -14208.355749649496, -10143.445151262898, -9342.246871262416, -8946.553939170115, -13245.375543281501, -12703.882182107232, -17461.607451630527, 0.006, 0.23025, 0.9452500000000001, 192.0, 0.0, 0.0, 0.0, 0.0, 0.0, 0.0, 0.0, 0.0, 0.0, 1.644587221320266E9, 0.0, 2022-02-12 00:47:01.320
200.0, -11944.07933283798, -11942.537062470563, -7582.35991982936, -12748.943298929133, -11432.626716211644, -8984.373090788495, -10475.92735003559, -8916.870822533469, -11988.179324648301, -14203.594828080515, -10146.77556118674, -9336.480121192948, -8946.53158742566, -13253.310412563136, -12705.335045496828, -17509.708405698348, 0.006, 0.23025, 0.9452500000000001, 192.0, 0.0, 0.0, 0.0, 0.0, 0.0, 0.0, 0.0, 0.0, 0.0, 1.644587221326501E9, 0.0, 2022-02-12 00:47:01.326
202.0, -11963.74886795865, -11955.724591699194, -7593.915771712754, -12745.769351216479, -11422.657838184577, -8978.53928548566, -10490.880667076191, -8926.303258693608, -11995.309531129544, -14211.417938639874, -10151.178854844435, -9358.921272626076, -8934.618107630982, -13244.19090082537, -12706.832612375334, -17504.65691145145, 0.006, 0.23025, 0.9452500000000001, 192.0, 0.0, 0.0, 0.0, 0.0, 0.0, 0.0, 0.0, 0.0, 0.0, 1.644587221341253E9, 0.0, 2022-02-12 00:47:01.341
204.0, -11950.471931752198, -11958.563263245018, -7582.471678551636, -12735.018162133476, -11413.940657847006, -8972.101983082532, -10473.848637801248, -8902.699816548804, -11981.831429222993, -14186.875723227946, -10143.57926172963, -9328.813472844777, -8939.982526300255, -13237.463025744322, -12702.585780928825, -17462.143893497454, 0.005, 0.23112500000000002, 0.946625, 192.0, 0.0, 16.0, 3.5, 32.0, 14.5, 80.0, 0.0, 0.0, 0.0, 1.644587221349493E9, 0.0, 2022-02-12 00:47:01.349
206.0, -11940.74892291414, -11937.127940312379, -7588.774870488032, -12738.169758101674, -11418.120434060149, -8964.211817289808, -10482.766983838914, -8916.33438066654, -12002.931475988804, -14221.565630622583, -10136.270241292745, -9313.882507548631, -8931.757084340703, -13239.273517045203, -12704.12805129624, -17527.56744951814, 0.005, 0.23112500000000002, 0.946625, 192.0, 0.0, 0.0, 0.0, 0.0, 0.0, 0.0, 0.0, 0.0, 0.0, 1.644587221355711E9, 0.0, 2022-02-12 00:47:01.355
208.0, -11965.738173215172, -11926.68967565175, -7586.696158253689, -12725.630429462246, -11400.171983262539, -8944.519930424683, -10473.200437212043, -8901.939857237323, -11984.826562980004, -14184.059403426578, -10148.00490713178, -9334.021429302864, -8945.704572880813, -13214.820708611096, -12701.043510561409, -17456.041867261156, 0.005, 0.23112500000000002, 0.946625, 192.0, 0.0, 0.0, 0.0, 0.0, 0.0, 0.0, 0.0, 0.0, 0.0, 1.644587221364038E9, 0.0, 2022-02-12 00:47:01.364
210.0, -11957.780952189083, -11942.470007237198, -7580.6611872507565, -12737.029819134454, -11417.472233470946, -8953.013593317699, -10478.296634947854, -8906.790185784124, -12000.673949798816, -14193.916522731368, -10136.33729652611, -9322.89026056412, -8931.824139574068, -13223.627295926488, -12699.143612282707, -17498.621940448516, 0.005, 0.23112500000000002, 0.946625, 192.0, 0.0, 0.0, 0.0, 0.0, 0.0, 0.0, 0.0, 0.0, 0.0, 1.644587221371772E9, 0.0, 2022-02-12 00:47:01.371
212.0, -11993.431984595298, -11973.002490163148, -7595.16746940225, -12733.051208621408, -11415.5946869367, -8957.796866631135, -10490.947722309556, -8910.053540474599, -12001.500964343664, -14220.068063744076, -10148.92132865445, -9334.602574658702, -8950.778418872169, -13247.744828193765, -12705.022121074453, -17500.767707916228, 0.005, 0.23112500000000002, 0.946625, 192.0, 0.0, 0.0, 0.0, 0.0, 0.0, 0.0, 0.0, 0.0, 0.0, 1.644587221378542E9, 0.0, 2022-02-12 00:47:01.378
214.0, -11975.08120239749, -11951.164835830312, -7585.0644809084515, -12733.274726065962, -11404.798794364786, -8945.615165902993, -10475.033280257378, -8904.555011338594, -12006.641865568385, -14189.848505240501, -10147.49081700931, -9331.070999034762, -8939.379029199961, -13238.625316455998, -12705.200935030096, -17463.261480720223, 0.0055, 0.2345625, 0.9503125000000001, 192.0, 0.0, 24.0, 3.5, 56.0, 14.5, 104.0, 0.0, 0.0, 0.0, 1.644587221386485E9, 0.0, 2022-02-12 00:47:01.386
216.0, -11962.340708057965, -11943.565242715507, -7586.718509998144, -12743.08714188184, -11411.459614212468, -8954.712325896302, -10484.577475139795, -8906.678427061848, -12020.768168064138, -14228.874651059468, -10139.891223894505, -9326.175966999052, -8921.140005724432, -13230.690447174366, -12702.764594884467, -17532.507185042763, 0.0055, 0.2345625, 0.9503125000000001, 192.0, 0.0, 0.0, 0.0, 0.0, 0.0, 0.0, 0.0, 0.0, 0.0, 1.644587221393599E9, 0.0, 2022-02-12 00:47:01.393
218.0, -11939.65368743583, -11924.07452155048, -7585.355053586371, -12732.09008360983, -11394.382881448613, -8942.642383890437, -10485.203323984542, -8885.533676807127, -11986.301778114055, -14200.756156534691, -10141.925232639936, -9325.997153043409, -8923.397531914417, -13229.058769829127, -12700.551772183391, -17457.248861461743, 0.0055, 0.2345625, 0.9503125000000001, 192.0, 0.0, 0.0, 0.0, 0.0, 0.0, 0.0, 0.0, 0.0, 0.0, 1.644587221401502E9, 0.0, 2022-02-12 00:47:01.401
220.0, -11951.902443397337, -11917.793681358538, -7577.576646515924, -12747.646897750725, -11405.156422276072, -8937.0097442877, -10485.538600151373, -8893.893229233412, -12000.293970143077, -14186.0487086831, -10151.603537989085, -9327.964106555475, -8938.015572788188, -13214.217211510804, -12705.379748985739, -17505.349815529564, 0.0055, 0.2345625, 0.9503125000000001, 192.0, 0.0, 0.0, 0.0, 0.0, 0.0, 0.0, 0.0, 0.0, 0.0, 1.644587221408205E9, 0.0, 2022-02-12 00:47:01.408
222.0, -11999.221086409223, -11958.518559756109, -7591.367672844848, -12736.694542967623, -11402.11658503015, -8953.214759017797, -10488.801954841847, -8909.695912563315, -12002.775013777617, -14212.468470629272, -10136.717276181851, -9328.299382722305, -8932.91937505238, -13213.054920799128, -12709.09013856532, -17506.75797543025, 0.0055, 0.2345625, 0.9503125000000001, 192.0, 0.0, 0.0, 0.0, 0.0, 0.0, 0.0, 0.0, 0.0, 0.0, 1.644587221416123E9, 0.0, 2022-02-12 00:47:01.416
224.0, -11963.391240047365, -11965.51465577062, -7585.377405330826, -12739.823787191366, -11405.178774020527, -8953.594738673537, -10487.103222263244, -8896.798956012603, -11998.818755009026, -14198.968016978268, -10136.918441881948, -9316.27414420535, -8941.144817011931, -13225.95187734984, -12715.639199690724, -17472.693916880362, 0.00775, 0.23228125, 0.95215625, 192.0, 0.0, 40.0, 3.5, 24.0, 14.5, 104.0, 0.0, 0.0, 0.0, 1.6445872214244E9, 0.0, 2022-02-12 00:47:01.424
226.0, -11975.617644264417, -11939.050190335536, -7595.793318246999, -12749.23387160705, -11415.661742170065, -8946.933918825856, -10499.597847413761, -8890.898095476401, -12020.857575041959, -14227.421787669873, -10142.43932276241, -9321.280934963339, -8950.353735727518, -13226.95770585033, -12718.433167747638, -17539.123301401534, 0.00775, 0.23228125, 0.95215625, 192.0, 0.0, 0.0, 0.0, 0.0, 0.0, 0.0, 0.0, 0.0, 0.0, 1.644587221431244E9, 0.0, 2022-02-12 00:47:01.431
228.0, -11962.541873758064, -11927.963725085703, -7598.140251414807, -12738.840310435333, -11395.344006460191, -8938.037924532644, -10493.093489777266, -8897.693025790813, -12006.217182423734, -14195.749365776703, -10162.310023583177, -9328.500548422402, -8945.078724036066, -13213.881935343974, -12718.746092170011, -17467.821236589105, 0.00775, 0.23228125, 0.95215625, 192.0, 0.0, 0.0, 0.0, 0.0, 0.0, 0.0, 0.0, 0.0, 0.0, 1.644587221438929E9, 0.0, 2022-02-12 00:47:01.438
230.0, -11939.877204880382, -11924.208632017211, -7594.318103112949, -12757.883996711254, -11418.098082315693, -8936.71917160978, -10501.922428837113, -8890.339301865019, -12032.592240880997, -14207.886363015934, -10158.107895625579, -9311.155594725084, -8931.779436085157, -13224.409606982425, -12722.054150349397, -17513.977588889313, 0.00775, 0.23228125, 0.95215625, 192.0, 0.0, 0.0, 0.0, 0.0, 0.0, 0.0, 0.0, 0.0, 0.0, 1.644587221446728E9, 0.0, 2022-02-12 00:47:01.446
232.0, -11984.245417624166, -11949.957841629726, -7607.036245708018, -12758.845121722832, -11411.012579323362, -8944.765799613691, -10519.356789512252, -8903.705645049291, -12030.200604224277, -14217.38585440944, -10165.126343384545, -9333.306173480294, -8944.899910080423, -13220.632162169477, -12723.551717227903, -17520.884277926, 0.00775, 0.23228125, 0.95215625, 192.0, 0.0, 0.0, 0.0, 0.0, 0.0, 0.0, 0.0, 0.0, 0.0, 1.644587221462498E9, 0.0, 2022-02-12 00:47:01.462
234.0, -11998.103499186456, -11959.166760345312, -7595.703911269178, -12752.340764086339, -11410.789061878808, -8943.62586064647, -10509.007931829445, -8900.66580780337, -12025.797310566582, -14204.198325180809, -10158.934910170427, -9331.22746124595, -8947.62682290397, -13235.943107121362, -12726.703313196102, -17481.500504195752, 0.008, 0.224, 0.9540000000000001, 192.0, 0.0, 32.0, 3.5, 0.0, 14.5, 104.0, 0.0, 0.0, 0.0, 1.644587221469495E9, 0.0, 2022-02-12 00:47:01.469
236.0, -11994.169592162323, -11965.31349007052, -7602.521193328046, -12760.454447323615, -11416.846384626197, -8940.206043744809, -10506.146908539165, -8892.015682699166, -12038.783674095115, -14233.926145306366, -10142.215805317855, -9317.682304106034, -8942.77649435717, -13237.127749577494, -12727.418569018671, -17550.500339329283, 0.008, 0.224, 0.9540000000000001, 192.0, 0.0, 0.0, 0.0, 0.0, 0.0, 0.0, 0.0, 0.0, 0.0, 1.644587221476314E9, 0.0, 2022-02-12 00:47:01.476
238.0, -11984.558342046541, -11949.220234062701, -7604.152870673284, -12740.42728429166, -11389.957236046463, -8925.0068575152, -10490.277169975898, -8879.789278482112, -12013.883830771903, -14216.67059858687, -10152.810532189671, -9325.214841987472, -8937.166206498887, -13224.320200004602, -12722.590592216326, -17476.538416926673, 0.008, 0.224, 0.9540000000000001, 192.0, 0.0, 0.0, 0.0, 0.0, 0.0, 0.0, 0.0, 0.0, 0.0, 1.644587221484585E9, 0.0, 2022-02-12 00:47:01.484
240.0, -11940.167777558301, -11929.684809408762, -7600.867164238354, -12761.437924079648, -11410.677303156532, -8921.899965035911, -10495.686292134082, -8870.0439178996, -12030.111197246457, -14206.09822345951, -10152.966994400858, -9315.424777916049, -8936.048619276122, -13207.511688174212, -12728.71497019708, -17519.31965581413, 0.008, 0.224, 0.9540000000000001, 192.0, 0.0, 0.0, 0.0, 0.0, 0.0, 0.0, 0.0, 0.0, 0.0, 1.644587221490964E9, 0.0, 2022-02-12 00:47:01.490
242.0, -11994.594275306974, -11930.69063790925, -7615.842833023409, -12752.296060597428, -11401.513087929856, -8920.827081302057, -10514.573516198816, -8886.785374496625, -12023.852708798971, -14229.209927226297, -10176.190456889923, -9325.661876876578, -8928.404322672406, -13219.179298779882, -12730.413702775682, -17521.219554092833, 0.008, 0.224, 0.9540000000000001, 192.0, 0.0, 0.0, 0.0, 0.0, 0.0, 0.0, 0.0, 0.0, 0.0, 1.644587221499074E9, 0.0, 2022-02-12 00:47:01.499
244.0, -11997.388243363886, -11946.158045072323, -7594.362806601859, -12751.156121630207, -11389.823125579731, -8936.67446812087, -10500.402510214151, -8884.036109928622, -12024.389150665898, -14203.058386213588, -10153.235215334322, -9310.41798715806, -8936.093322765031, -13217.458214456823, -12728.893784152722, -17477.097210538057, 0.002, 0.23, 0.9500000000000001, 192.0, 0.0, 8.0, 3.5, 24.0, 14.5, 88.0, 0.0, 0.0, 0.0, 1.644587221506989E9, 0.0, 2022-02-12 00:47:01.506
246.0, -11992.604970050452, -11954.361135287421, -7607.997370719597, -12771.987947462554, -11408.978570577929, -8937.277965221163, -10512.27128651992, -8875.117763890954, -12055.86040685897, -14242.196290754831, -10151.335317055622, -9319.8504233182, -8940.116636766987, -13201.90140031593, -12726.680961451646, -17551.66263004096, 0.002, 0.23, 0.9500000000000001, 192.0, 0.0, 0.0, 0.0, 0.0, 0.0, 0.0, 0.0, 0.0, 0.0, 1.644587221513821E9, 0.0, 2022-02-12 00:47:01.513
248.0, -11995.80126950756, -11943.945222371249, -7610.254896909582, -12751.223176863574, -11393.198238992481, -8916.647305088914, -10512.427748731106, -8880.057499415578, -12035.319153704544, -14222.772624823168, -10171.58599753213, -9324.588993142725, -8929.991296528733, -13234.37848500949, -12730.458406264594, -17482.752201885247, 0.002, 0.23, 0.9500000000000001, 192.0, 0.0, 0.0, 0.0, 0.0, 0.0, 0.0, 0.0, 0.0, 0.0, 1.644587221520706E9, 0.0, 2022-02-12 00:47:01.520
250.0, -11975.818809964516, -11947.700315439739, -7599.816632248954, -12757.347554844328, -11407.302189743781, -8928.247860461219, -10511.55603069735, -8868.076964387532, -12044.192796253301, -14209.76390955018, -10158.890206681515, -9301.611399842668, -8929.454854661806, -13227.4717959728, -12731.061903364885, -17522.38184480451, 0.002, 0.23, 0.9500000000000001, 192.0, 0.0, 0.0, 0.0, 0.0, 0.0, 0.0, 0.0, 0.0, 0.0, 1.644587221528615E9, 0.0, 2022-02-12 00:47:01.528
252.0, -11984.692452513273, -11947.74501892865, -7612.93710624422, -12749.725609985067, -11396.461593682956, -8922.302296436108, -10513.835908631792, -8880.504534304682, -12047.52320617714, -14237.278906974663, -10171.20601787639, -9315.357722682682, -8919.731845823748, -13232.18801405287, -12734.66053422219, -17526.42751055092, 0.002, 0.23, 0.9500000000000001, 192.0, 0.0, 0.0, 0.0, 0.0, 0.0, 0.0, 0.0, 0.0, 0.0, 1.644587221536723E9, 0.0, 2022-02-12 00:47:01.536
254.0, -11984.558342046541, -11921.995809316137, -7598.788452004011, -12746.216386105585, -11392.77355584783, -8900.822270014558, -10504.962266083034, -8871.720298733748, -12034.805063582071, -14206.254685670698, -10177.330395857143, -9327.13709201063, -8919.038941745632, -13206.036473040162, -12733.788816188433, -17480.740544884273, 0.006, 0.234, 0.9480000000000001, 192.0, 0.0, 24.0, 3.5, 40.0, 14.5, 80.0, 0.0, 0.0, 0.0, 1.644587221543274E9, 0.0, 2022-02-12 00:47:01.543
0.0, -12005.300760901066, -11948.08029509548, -7605.181050918228, -12757.973403689075, -11406.721044387943, -8907.840717773524, -10512.785376642392, -8867.51817077615, -12058.117933048956, -14223.420825412373, -10166.758020729783, -9302.50546962088, -8946.889215336945, -13189.607940865511, -12734.28055456645, -17550.500339329283, 0.006, 0.234, 0.9480000000000001, 192.0, 0.0, 0.0, 0.0, 0.0, 0.0, 0.0, 0.0, 0.0, 0.0, 1.644587221551903E9, 0.0, 2022-02-12 00:47:01.551
2.0, -11977.584597776486, -11943.542890971052, -7611.484242854624, -12741.813092447888, -11388.996111034885, -8902.006912470688, -10514.84173713228, -8863.18193235182, -12034.447435670787, -14218.19051720983, -10179.185590646934, -9314.731873837933, -8947.090381037044, -13210.573877164588, -12737.387447045738, -17480.4276204619, 0.006, 0.234, 0.9480000000000001, 192.0, 0.0, 0.0, 0.0, 0.0, 0.0, 0.0, 0.0, 0.0, 0.0, 1.644587221559274E9, 0.0, 2022-02-12 00:47:01.559
4.0, -11974.410650063832, -11935.764483900606, -7606.119824185351, -12762.063772924397, -11396.819221594242, -8900.196421169809, -10509.11969055172, -8857.415182282351, -12050.317174234055, -14213.004912496199, -10166.690965496418, -9296.31403640676, -8929.276040706163, -13204.918885817397, -12739.063827879887, -17524.66172273895, 0.006, 0.234, 0.9480000000000001, 192.0, 0.0, 0.0, 0.0, 0.0, 0.0, 0.0, 0.0, 0.0, 0.0, 1.644587221566493E9, 0.0, 2022-02-12 00:47:01.566
6.0, -11992.85083923946, -11919.827690103972, -7618.234469680127, -12754.173607131674, -11383.29641619878, -8891.948627465801, -10510.393739985675, -8851.491970001694, -12056.977994081735, -14221.699741089315, -10163.427610805942, -9304.472423132947, -8927.398494171917, -13185.964606519296, -12735.80047318941, -17523.879411683014, 0.006, 0.234, 0.9480000000000001, 192.0, 0.0, 0.0, 0.0, 0.0, 0.0, 0.0, 0.0, 0.0, 0.0, 1.644587221573783E9, 0.0, 2022-02-12 00:47:01.573
8.0, -11981.965539689725, -11915.580858657464, -7608.824385264443, -12745.210557605096, -11375.763878317342, -8887.858258230479, -10499.776661369404, -8836.628059938916, -12043.410485197364, -14192.173086663854, -10175.654015022996, -9298.750376552389, -8899.19059266932, -13191.731356588765, -12734.861699922289, -17473.900911080946, 0.008, 0.244, 0.9520000000000001, 192.0, 0.0, 32.0, 3.5, 80.0, 14.5, 96.0, 0.0, 0.0, 0.0, 1.644587221588858E9, 0.0, 2022-02-12 00:47:01.588
10.0, -11993.253170639655, -11936.211518789712, -7611.037207965519, -12757.794589733434, -11394.516991915345, -8902.252781659698, -10519.245030789976, -8852.743667691191, -12066.00809884168, -14226.326552191562, -10159.449000292898, -9285.205219412474, -8918.077816734054, -13202.124917760482, -12740.114359869285, -17551.50616782977, 0.008, 0.244, 0.9520000000000001, 192.0, 0.0, 0.0, 0.0, 0.0, 0.0, 0.0, 0.0, 0.0, 0.0, 1.644587221595451E9, 0.0, 2022-02-12 00:47:01.595
12.0, -12002.61855156643, -11928.991905330648, -7613.674713811245, -12739.041476135431, -11380.793020819787, -8887.27711287464, -10505.0293213164, -8849.413257767352, -12049.691325389305, -14211.082662473043, -10171.58599753213, -9293.564771838757, -8921.832909802546, -13205.745900362243, -12743.042438392931, -17486.261425764733, 0.008, 0.244, 0.9520000000000001, 192.0, 0.0, 0.0, 0.0, 0.0, 0.0, 0.0, 0.0, 0.0, 0.0, 1.644587221603666E9, 0.0, 2022-02-12 00:47:01.603
14.0, -11979.328033843998, -11934.17751004428, -7609.539641087013, -12752.608985019802, -11400.216686751448, -8878.112897647965, -10501.341283481275, -8837.008039594655, -12062.76709589566, -14199.750328034203, -10167.495628296809, -9290.390824126103, -8939.222566988774, -13202.66135962741, -12747.579842517358, -17524.527612272217, 0.008, 0.244, 0.9520000000000001, 192.0, 0.0, 0.0, 0.0, 0.0, 0.0, 0.0, 0.0, 0.0, 0.0, 1.644587221611802E9, 0.0, 2022-02-12 00:47:01.611
16.0, -11999.601066064963, -11933.283440266066, -7622.436597637725, -12747.266918094983, -11393.578218648223, -8891.211019898776, -10516.406359244153, -8851.89430140189, -12055.368668480955, -14232.942668550333, -10166.467448051864, -9287.50744909137, -8927.979639527755, -13200.76146134871, -12749.435037307148, -17530.786100719703, 0.008, 0.244, 0.9520000000000001, 192.0, 0.0, 0.0, 0.0, 0.0, 0.0, 0.0, 0.0, 0.0, 0.0, 1.644587221618751E9, 0.0, 2022-02-12 00:47:01.618
18.0, -11986.815868236527, -11909.814108587994, -7611.685408554722, -12744.271784337972, -11380.502448141868, -8875.363633079962, -10507.465661462029, -8832.023600581122, -12045.556252665074, -14195.794069265614, -10162.354727072088, -9288.245056658394, -8923.263421447686, -13187.886856542453, -12749.47974079606, -17484.897969352958, 0.004, 0.244, 0.9540000000000001, 192.0, 0.0, 16.0, 3.5, 80.0, 14.5, 104.0, 0.0, 0.0, 0.0, 1.644587221626086E9, 0.0, 2022-02-12 00:47:01.626
20.0, -11968.107458127435, -11906.55075389752, -7623.285963927026, -12763.471932825081, -11387.833820323209, -8876.391813324906, -10504.135251538188, -8842.193644308287, -12064.555235452084, -14225.343075435529, -10154.44220953491, -9277.158591408563, -8909.941781752323, -13184.265873940692, -12748.228043106563, -17552.243775396797, 0.004, 0.244, 0.9540000000000001, 192.0, 0.0, 0.0, 0.0, 0.0, 0.0, 0.0, 0.0, 0.0, 0.0, 1.644587221634196E9, 0.0, 2022-02-12 00:47:01.634
22.0, -11983.03842342358, -11908.517707409586, -7628.940955274219, -12752.899557697721, -11375.987395761895, -8874.536618535116, -10508.22562077351, -8833.051780826067, -12050.048953300591, -14203.170144935864, -10179.118535413569, -9301.857269031676, -8898.9000199914, -13187.775097820175, -12746.730476228056, -17487.110792054034, 0.004, 0.244, 0.9540000000000001, 192.0, 0.0, 0.0, 0.0, 0.0, 0.0, 0.0, 0.0, 0.0, 0.0, 1.644587221641145E9, 0.0, 2022-02-12 00:47:01.641
24.0, -11968.487437783175, -11910.842288832939, -7620.536699359024, -12766.355307859816, -11389.979587790918, -8882.002101183189, -10511.17605104161, -8831.107179058454, -12059.347278993999, -14211.105014217499, -10179.587922047129, -9280.041966443297, -8918.033113245143, -13175.772211047675, -12753.547758286924, -17526.583972762106, 0.004, 0.244, 0.9540000000000001, 192.0, 0.0, 0.0, 0.0, 0.0, 0.0, 0.0, 0.0, 0.0, 0.0, 1.644587221648573E9, 0.0, 2022-02-12 00:47:01.648
26.0, -12011.894525515381, -11913.077463278469, -7636.205272222194, -12759.895653712232, -11385.933922044507, -8883.074984917044, -10526.554051226862, -8842.014830352644, -12059.190816782811, -14241.838662843546, -10178.291520868723, -9287.79802176929, -8927.420845916373, -13195.978188035273, -12758.152217644718, -17538.22923162332, 0.004, 0.244, 0.9540000000000001, 192.0, 0.0, 0.0, 0.0, 0.0, 0.0, 0.0, 0.0, 0.0, 0.0, 1.644587221655705E9, 0.0, 2022-02-12 00:47:01.655
28.0, -12002.193868421778, -11921.816995360494, -7628.449216896202, -12763.628395036269, -11381.530628386812, -8884.147868650898, -10518.015684844933, -8832.917670359335, -12048.126703277434, -14209.227467683253, -10163.718183483861, -9294.190620683506, -8896.217810656764, -13196.246408968736, -12759.493322312037, -17494.911550868936, 0.004, 0.23600000000000002, 0.9580000000000001, 192.0, 0.0, 16.0, 3.5, 48.0, 14.5, 120.0, 0.0, 0.0, 0.0, 1.644587221663846E9, 0.0, 2022-02-12 00:47:01.663
30.0, -11997.768223019628, -11938.066713579503, -7635.802940821999, -12778.425249865682, -11401.44603269649, -8879.364595337462, -10527.403417516163, -8846.08284784351, -12082.995424627714, -14241.10105527652, -10162.06415439417, -9289.295588647794, -8921.989372013733, -13187.640987353443, -12761.90731071321, -17569.38756339402, 0.004, 0.23600000000000002, 0.9580000000000001, 192.0, 0.0, 0.0, 0.0, 0.0, 0.0, 0.0, 0.0, 0.0, 0.0, 1.644587221671943E9, 0.0, 2022-02-12 00:47:01.671
32.0, -11997.142374174879, -11928.611925674908, -7647.202330494205, -12767.025860193475, -11391.25363722487, -8863.159580607366, -10533.237222818998, -8848.496836244683, -12065.605767441484, -14217.117633475977, -10183.164201159978, -9305.254734188884, -8913.875688776456, -13192.93835078935, -12768.501075327526, -17502.42173700592, 0.004, 0.23600000000000002, 0.9580000000000001, 192.0, 0.0, 0.0, 0.0, 0.0, 0.0, 0.0, 0.0, 0.0, 0.0, 1.644587221678481E9, 0.0, 2022-02-12 00:47:01.678
34.0, -11976.42230706481, -11918.307771481012, -7638.932185045742, -12779.632244066268, -11400.39550070709, -8865.461810286262, -10524.050655847866, -8845.814626910047, -12076.938101880325, -14209.607447338993, -10187.813364006683, -9290.703748548478, -8918.591906856527, -13183.4612111403, -12768.657537538713, -17539.503281057274, 0.004, 0.23600000000000002, 0.9580000000000001, 192.0, 0.0, 0.0, 0.0, 0.0, 0.0, 0.0, 0.0, 0.0, 0.0, 1.644587221686496E9, 0.0, 2022-02-12 00:47:01.686
36.0, -11998.259961397644, -11922.018161060592, -7648.051696783507, -12774.111363185808, -11395.791041349297, -8876.771792980648, -10538.355772299263, -8851.246100812687, -12085.901151406902, -14248.968869324788, -10194.764756532282, -9285.428736857026, -8931.891194807435, -13184.578798363067, -12770.043345694941, -17547.90753697247, 0.004, 0.23600000000000002, 0.9580000000000001, 192.0, 0.0, 0.0, 0.0, 0.0, 0.0, 0.0, 0.0, 0.0, 0.0, 1.644587221694994E9, 0.0, 2022-02-12 00:47:01.694
38.0, -12014.263810427645, -11924.879184350872, -7633.65717335429, -12770.557435817414, -11387.029157522817, -8864.925368419334, -10532.32080129633, -8830.0342953246, -12070.590206455017, -14217.564668365083, -10188.193343662422, -9289.541457836802, -8919.463624890283, -13191.239618210748, -12769.082220683364, -17498.197257303866, 0.01, 0.23800000000000002, 0.9560000000000001, 192.0, 0.0, 40.0, 3.5, 56.0, 14.5, 112.0, 0.0, 0.0, 0.0, 1.644587221708088E9, 0.0, 2022-02-12 00:47:01.708
40.0, -12009.972275492226, -11924.543908184041, -7638.328687945448, -12787.880037770277, -11393.086480270205, -8871.250912100186, -10533.013705374446, -8841.970126863735, -12089.2539130752, -14253.662735660404, -10173.150619644, -9284.959350223464, -8918.547203367616, -13178.27560642667, -12769.551607316926, -17571.28746167272, 0.01, 0.23800000000000002, 0.9560000000000001, 192.0, 0.0, 0.0, 0.0, 0.0, 0.0, 0.0, 0.0, 0.0, 0.0, 1.644587221716379E9, 0.0, 2022-02-12 00:47:01.716
42.0, -11966.2746150821, -11890.390442656333, -7641.994374036119, -12769.663366039202, -11370.175942203516, -8864.053650385576, -10529.124501839222, -8831.643620925382, -12069.584377954528, -14227.801767325613, -10194.228314665355, -9303.757167310378, -8910.746444552713, -13196.648740368932, -12768.38931660525, -17502.108812583545, 0.01, 0.23800000000000002, 0.9560000000000001, 192.0, 0.0, 0.0, 0.0, 0.0, 0.0, 0.0, 0.0, 0.0, 0.0, 1.644587221724392E9, 0.0, 2022-02-12 00:47:01.724
44.0, -12001.456260854753, -11925.348570984432, -7629.767969819066, -12787.634168581268, -11387.051509267272, -8865.573569008538, -10530.733827440004, -8829.810777880046, -12070.165523310367, -14215.9553427643, -10187.63455005104, -9290.346120637194, -8921.542337124627, -13177.716812815288, -12767.316432871394, -17537.46927231184, 0.01, 0.23800000000000002, 0.9560000000000001, 192.0, 0.0, 0.0, 0.0, 0.0, 0.0, 0.0, 0.0, 0.0, 0.0, 1.644587221730881E9, 0.0, 2022-02-12 00:47:01.730
46.0, -12040.013020040158, -11947.499149739642, -7646.375315949359, -12784.281406912973, -11388.68318661251, -8874.827191213035, -10527.448121005073, -8836.538652961093, -12097.434651545842, -14257.909567106912, -10185.868762239072, -9295.956408495476, -8921.788206313635, -13172.687670312844, -12771.563264317903, -17551.305002129677, 0.01, 0.23800000000000002, 0.9560000000000001, 192.0, 0.0, 0.0, 0.0, 0.0, 0.0, 0.0, 0.0, 0.0, 0.0, 1.644587221738844E9, 0.0, 2022-02-12 00:47:01.738
48.0, -12025.283220444111, -11926.421454718287, -7632.27136519806, -12773.61962480779, -11388.213799978948, -8861.974938151234, -10539.65217347767, -8833.275298270619, -12090.39385204242, -14220.425691655362, -10196.39643387752, -9300.136184708617, -8921.81055805809, -13199.174487492382, -12778.24643591004, -17505.573332974116, 0.012, 0.232, 0.9500000000000001, 192.0, 0.0, 48.0, 3.5, 32.0, 14.5, 88.0, 0.0, 0.0, 0.0, 1.644587221746769E9, 0.0, 2022-02-12 00:47:01.746
50.0, -12013.32503716052, -11930.69063790925, -7634.126559987851, -12790.830468038377, -11391.074823269228, -8852.85542641347, -10533.840719919292, -8836.561004705549, -12109.772814485172, -14247.694819890836, -10179.073831924657, -9269.40253608257, -8920.089473735032, -13171.324213901069, -12779.00639522152, -17570.952185505892, 0.012, 0.232, 0.9500000000000001, 192.0, 0.0, 0.0, 0.0, 0.0, 0.0, 0.0, 0.0, 0.0, 0.0, 1.644587221753816E9, 0.0, 2022-02-12 00:47:01.753
52.0, -11984.088955412979, -11902.192163728734, -7645.838874082431, -12778.358194632316, -11374.713346327942, -8853.078943858021, -10539.339249055296, -8829.073170313022, -12080.96141588228, -14215.798880553113, -10203.68310256995, -9299.420928886047, -8895.99429321221, -13170.027812722661, -12778.604063821324, -17505.84155390758, 0.012, 0.232, 0.9500000000000001, 192.0, 0.0, 0.0, 0.0, 0.0, 0.0, 0.0, 0.0, 0.0, 0.0, 1.644587221760626E9, 0.0, 2022-02-12 00:47:01.760
54.0, -12006.641865568385, -11912.384559200354, -7628.024533751552, -12793.803250050933, -11389.174924990526, -8855.89526365939, -10529.012743116946, -8826.010981322645, -12096.33941606753, -14232.696799361325, -10211.30504742921, -9293.676530561033, -8938.507311166204, -13159.455437595301, -12780.615720822301, -17536.239926366798, 0.012, 0.232, 0.9500000000000001, 192.0, 0.0, 0.0, 0.0, 0.0, 0.0, 0.0, 0.0, 0.0, 0.0, 1.644587221768371E9, 0.0, 2022-02-12 00:47:01.768
56.0, -12039.990668295703, -11945.08516133847, -7641.435580424736, -12792.171572705696, -11379.496619641379, -8863.874836429935, -10532.790187929892, -8820.825376609013, -12107.627047017462, -14264.659793932415, -10196.35173038861, -9284.467611845448, -8927.689066849836, -13181.404850650413, -12777.061793453908, -17554.031914953222, 0.013000000000000001, 0.23, 0.9490000000000001, 192.0, 0.0, 56.0, 3.5, 16.0, 14.5, 80.0, 0.0, 0.0, 0.0, 1.644587221776391E9, 0.0, 2022-02-12 00:47:01.776
58.0, -12016.677798828818, -11921.280553493567, -7636.674658855755, -12786.226008680584, -11377.641424851588, -8840.293746029585, -10541.306202567364, -8814.74570211717, -12099.20043935781, -14227.600601625516, -10198.16222168949, -9285.7416612794, -8899.078833947044, -13187.864504797997, -12780.347499888838, -17499.068975337625, 0.013000000000000001, 0.23, 0.9490000000000001, 192.0, 0.0, 0.0, 0.0, 0.0, 0.0, 0.0, 0.0, 0.0, 0.0, 1.644587221783507E9, 0.0, 2022-02-12 00:47:01.783
60.0, -12008.608819080451, -11937.664382179306, -7644.833045581943, -12801.872229799299, -11386.984454033907, -8845.144074576387, -10536.254708320464, -8832.113007558943, -12120.769872757182, -14251.539319937148, -10196.798765277716, -9277.69503327549, -8929.186633728343, -13163.076420197061, -12788.48353487057, -17575.13196171903, 0.013000000000000001, 0.23, 0.9490000000000001, 192.0, 0.0, 0.0, 0.0, 0.0, 0.0, 0.0, 0.0, 0.0, 0.0, 1.644587221790905E9, 0.0, 2022-02-12 00:47:01.790
62.0, -12022.466900642741, -11920.855870348916, -7653.0361357970405, -12786.807154036422, -11378.267273696336, -8837.969164606235, -10548.503464281972, -8810.767091604124, -12105.146003382923, -14245.414941956395, -10218.725826588372, -9297.40927188507, -8904.66677006087, -13184.154115218416, -12787.678872070179, -17509.060205109145, 0.013000000000000001, 0.23, 0.9490000000000001, 192.0, 0.0, 0.0, 0.0, 0.0, 0.0, 0.0, 0.0, 0.0, 0.0, 1.644587221799151E9, 0.0, 2022-02-12 00:47:01.799
64.0, -12002.149164932867, -11929.729512897673, -7639.289812957027, -12809.6729886142, -11390.761898846853, -8844.250004798176, -10530.0856268508, -8804.463899667728, -12116.388930843941, -14241.682200632358, -10212.780262563261, -9290.524934592835, -8928.71724709478, -13174.609920335999, -12791.970407005598, -17543.057208425667, 0.013000000000000001, 0.23, 0.9490000000000001, 192.0, 0.0, 0.0, 0.0, 0.0, 0.0, 0.0, 0.0, 0.0, 0.0, 1.644587221806035E9, 0.0, 2022-02-12 00:47:01.806
66.0, -12044.103389275479, -11932.277611765578, -7653.237301497138, -12811.505831659537, -11386.068032511239, -8846.08284784351, -10544.1895776021, -8814.0304462946, -12122.78152975816, -14270.247730046241, -10223.106768501613, -9299.711501563967, -8942.620032145982, -13176.353356403513, -12791.478668627582, -17562.01148772377, 0.009500000000000001, 0.231, 0.9475, 192.0, 0.0, 24.0, 3.5, 32.0, 14.5, 72.0, 0.0, 0.0, 0.0, 1.644587221813645E9, 0.0, 2022-02-12 00:47:01.813
68.0, -12047.299688732588, -11928.92485009728, -7645.682411871245, -12806.856668812832, -11378.11081148515, -8835.309307016052, -10536.36646704274, -8806.050873524055, -12107.090605150534, -14240.944593065333, -10218.2117364659, -9302.930152765532, -8924.805691815101, -13176.263949425693, -12791.970407005598, -17510.22249582082, 0.009500000000000001, 0.231, 0.9475, 192.0, 0.0, 0.0, 0.0, 0.0, 0.0, 0.0, 0.0, 0.0, 0.0, 1.644587221821829E9, 0.0, 2022-02-12 00:47:01.821
70.0, -12035.296801960088, -11952.036553864069, -7648.856359583898, -12818.926610818698, -11391.074823269228, -8836.426894238817, -10542.244975834486, -8814.678646883804, -12132.348076385031, -14268.928977123378, -10207.482899127353, -9288.066242702753, -8930.974773284766, -13164.596338820022, -12789.8693430268, -17582.709203089384, 0.009500000000000001, 0.231, 0.9475, 192.0, 0.0, 0.0, 0.0, 0.0, 0.0, 0.0, 0.0, 0.0, 0.0, 1.64458722183597E9, 0.0, 2022-02-12 00:47:01.835
72.0, -12014.397920894377, -11926.68967565175, -7649.303394473004, -12798.877096042288, -11377.708480084953, -8835.17519654932, -10547.56469101485, -8813.583411405494, -12116.076006421568, -14255.070895561088, -10213.584925363652, -9292.491888104903, -8921.899965035911, -13182.254216939715, -12791.7692413055, -17521.308961070652, 0.009500000000000001, 0.231, 0.9475, 192.0, 0.0, 0.0, 0.0, 0.0, 0.0, 0.0, 0.0, 0.0, 0.0, 1.644587221843265E9, 0.0, 2022-02-12 00:47:01.843
74.0, -12022.109272731457, -11922.822823860983, -7650.46568518468, -12816.87025032881, -11396.036910538305, -8828.804949379557, -10544.100170624277, -8805.156803745844, -12116.567744799584, -14240.38579945395, -10204.01837873678, -9283.104155433673, -8900.71051129228, -13168.08321095505, -12796.53016287448, -17551.684981785416, 0.009500000000000001, 0.231, 0.9475, 192.0, 0.0, 0.0, 0.0, 0.0, 0.0, 0.0, 0.0, 0.0, 0.0, 1.644587221851338E9, 0.0, 2022-02-12 00:47:01.851
76.0, -12046.80795035457, -11955.41166727682, -7668.347080748926, -12814.7244828611, -11399.143803017594, -8835.264603527141, -10570.654043037182, -8815.416254450829, -12150.363582416008, -14283.189390085863, -10230.50519591632, -9290.055547959275, -8945.414000202894, -13172.642966823933, -12804.979122278586, -17571.42157213945, 0.007750000000000001, 0.2325, 0.9457500000000001, 192.0, 0.0, 24.0, 3.5, 40.0, 14.5, 64.0, 0.0, 0.0, 0.0, 1.644587221859257E9, 0.0, 2022-02-12 00:47:01.859
78.0, -12048.931366077824, -11939.720742669195, -7661.686260901244, -12809.762395592023, -11388.817297079242, -8828.55908019055, -10547.22941484802, -8808.062530525032, -12134.538547341652, -14253.43921821585, -10233.455626184419, -9289.83203051472, -8930.728904095758, -13168.910225499896, -12802.743947833056, -17515.788080190192, 0.007750000000000001, 0.2325, 0.9457500000000001, 192.0, 0.0, 0.0, 0.0, 0.0, 0.0, 0.0, 0.0, 0.0, 0.0, 1.644587221865804E9, 0.0, 2022-02-12 00:47:01.865
80.0, -12074.814686157071, -11949.242585807157, -7667.341252248437, -12823.44166319867, -11400.931942574018, -8830.570737191527, -10552.526778283927, -8803.815699078525, -12173.40823094943, -14281.91534065191, -10232.382742450565, -9291.351949137683, -8941.0107065452, -13176.46511512579, -12803.772128078, -17589.839409570624, 0.007750000000000001, 0.2325, 0.9457500000000001, 192.0, 0.0, 0.0, 0.0, 0.0, 0.0, 0.0, 0.0, 0.0, 0.0, 1.644587221873909E9, 0.0, 2022-02-12 00:47:01.873
82.0, -12059.839017372014, -11924.521556439586, -7672.437449984247, -12809.695340358656, -11383.899913299074, -8812.711693371737, -10547.497635781483, -8794.852649551947, -12156.97969877478, -14253.260404260207, -10233.723847117883, -9302.617228343157, -8941.256575734207, -13161.958832974296, -12803.213334466618, -17522.73947271579, 0.007750000000000001, 0.2325, 0.9457500000000001, 192.0, 0.0, 0.0, 0.0, 0.0, 0.0, 0.0, 0.0, 0.0, 0.0, 1.644587221881877E9, 0.0, 2022-02-12 00:47:01.881
84.0, -12043.1422642639, -11933.104626310424, -7658.579368421957, -12820.267715486016, -11390.516029657845, -8827.061513312045, -10535.785321686903, -8786.493097125662, -12162.053544766135, -14230.729845849259, -10235.377876207576, -9293.251847416383, -8944.564633913593, -13159.209568406293, -12801.536953632469, -17551.684981785416, 0.007750000000000001, 0.2325, 0.9457500000000001, 192.0, 0.0, 0.0, 0.0, 0.0, 0.0, 0.0, 0.0, 0.0, 0.0, 1.644587221889105E9, 0.0, 2022-02-12 00:47:01.889
86.0, -12084.738860695226, -11975.997623920159, -7679.344139020937, -12813.606895638335, -11392.192410491993, -8832.649449425871, -10559.18759813161, -8801.625228121904, -12164.646347122949, -14279.791924928657, -10238.574175664686, -9283.506486833869, -8919.53068012365, -13177.158019203904, -12803.615665866813, -17569.81224653867, 0.004875000000000001, 0.23225, 0.945875, 192.0, 0.0, 8.0, 3.5, 32.0, 14.5, 72.0, 0.0, 0.0, 0.0, 1.644587221895471E9, 0.0, 2022-02-12 00:47:01.895
88.0, -12069.159694809878, -11964.106495869935, -7669.084688315951, -12805.29204670096, -11390.739547102397, -8804.530954901094, -10561.690993510603, -8792.50571638414, -12160.086591254067, -14257.641346173448, -10243.737428633862, -9286.322806635239, -8942.53062516816, -13180.80135355012, -12807.571924635402, -17514.201106333865, 0.004875000000000001, 0.23225, 0.945875, 192.0, 0.0, 0.0, 0.0, 0.0, 0.0, 0.0, 0.0, 0.0, 0.0, 1.644587221903652E9, 0.0, 2022-02-12 00:47:01.903
90.0, -12063.236482529222, -11942.380600259376, -7677.578351208967, -12830.281297001995, -11400.440204196002, -8809.560097403539, -10558.673508009137, -8800.1276612434, -12183.22064676531, -14278.495523750249, -10239.870576843094, -9288.848553758688, -8951.426619461372, -13165.848036509518, -12806.7225583461, -17585.592578124117, 0.004875000000000001, 0.23225, 0.945875, 192.0, 0.0, 0.0, 0.0, 0.0, 0.0, 0.0, 0.0, 0.0, 0.0, 1.644587221911467E9, 0.0, 2022-02-12 00:47:01.911
92.0, -12073.987671612225, -11948.750847429139, -7682.272217544582, -12814.456261927637, -11383.609340621155, -8806.274390968609, -10560.305185354375, -8798.540687387072, -12159.728963342783, -14257.887215362456, -10255.516797961807, -9309.099234235196, -8932.070008763076, -13166.719754543275, -12808.354235691339, -17527.299228584674, 0.004875000000000001, 0.23225, 0.945875, 192.0, 0.0, 0.0, 0.0, 0.0, 0.0, 0.0, 0.0, 0.0, 0.0, 1.644587221918721E9, 0.0, 2022-02-12 00:47:01.918
94.0, -12076.759287924682, -11952.79651317555, -7674.024423840574, -12831.555346435947, -11397.042739038794, -8805.98381829069, -10556.348926585786, -8803.0780915115, -12181.03017580869, -14265.240939288253, -10243.469207700397, -9286.591027568702, -8942.664735634891, -13141.372876330957, -12808.86832581381, -17558.65872605547, 0.004875000000000001, 0.23225, 0.945875, 192.0, 0.0, 0.0, 0.0, 0.0, 0.0, 0.0, 0.0, 0.0, 0.0, 1.644587221926136E9, 0.0, 2022-02-12 00:47:01.926
96.0, -12086.079965362545, -11964.374716803399, -7690.7211769486885, -12831.957677836142, -11390.82895408022, -8807.83901308048, -10555.65602250767, -8792.349254172952, -12190.283798013186, -14295.549904769648, -10243.469207700397, -9295.710539306467, -8938.417904188384, -13167.099734199017, -12812.623418882302, -17581.412801910974, 0.0034375000000000005, 0.23312500000000003, 0.9459375000000001, 192.0, 0.0, 8.0, 3.5, 40.0, 14.5, 72.0, 0.0, 0.0, 0.0, 1.644587221934326E9, 0.0, 2022-02-12 00:47:01.934
98.0, -12066.522188964153, -11956.573957988496, -7680.171153565783, -12820.602991652846, -11382.536456887301, -8795.12087048541, -10551.811522461358, -8780.189905189265, -12169.899007069947, -14258.647174673937, -10250.64411767055, -9297.990417240908, -8941.033058289655, -13163.009364963695, -12816.646732884257, -17521.621885493027, 0.0034375000000000005, 0.23312500000000003, 0.9459375000000001, 192.0, 0.0, 0.0, 0.0, 0.0, 0.0, 0.0, 0.0, 0.0, 0.0, 1.644587221941258E9, 0.0, 2022-02-12 00:47:01.941
100.0, -12060.867197616959, -11946.98505961717, -7683.590970467445, -12833.879927859298, -11392.147707003083, -8798.428928664796, -10564.730830756525, -8791.142259972365, -12182.527742687196, -14283.547017997149, -10239.803521609727, -9281.271312388339, -8941.8600728345, -13152.03465843614, -12818.01018929603, -17591.918121804967, 0.0034375000000000005, 0.23312500000000003, 0.9459375000000001, 192.0, 0.0, 0.0, 0.0, 0.0, 0.0, 0.0, 0.0, 0.0, 0.0, 1.644587221955735E9, 0.0, 2022-02-12 00:47:01.955
102.0, -12072.28893903362, -11935.071579822492, -7691.861115915909, -12814.098634016353, -11381.15064873107, -8804.419196178818, -10570.296415125897, -8799.658274609837, -12173.095306527055, -14263.765724154202, -10251.448780470942, -9299.242114930406, -8924.805691815101, -13162.472923096768, -12821.63117189779, -17534.630600766017, 0.0034375000000000005, 0.23312500000000003, 0.9459375000000001, 192.0, 0.0, 0.0, 0.0, 0.0, 0.0, 0.0, 0.0, 0.0, 0.0, 1.644587221964418E9, 0.0, 2022-02-12 00:47:01.964
104.0, -12085.543523495619, -11957.17745508879, -7683.23334255616, -12832.58352668089, -11398.294436728293, -8805.447376423763, -10566.228397635032, -8791.768108817114, -12191.669606169417, -14266.671450933392, -10240.429370454476, -9292.581295082724, -8930.95242154031, -13152.906376469897, -12823.754587621044, -17565.9453947479, 0.0034375000000000005, 0.23312500000000003, 0.9459375000000001, 192.0, 0.0, 0.0, 0.0, 0.0, 0.0, 0.0, 0.0, 0.0, 0.0, 1.644587221970894E9, 0.0, 2022-02-12 00:47:01.970
106.0, -12085.364709539976, -11961.670155724307, -7695.95148515123, -12831.957677836142, -11391.588913391699, -8809.113062514432, -10573.783287260925, -8795.545553630061, -12200.453841740351, -14300.042605405166, -10250.398248481542, -9294.615303828157, -8946.643346147937, -13167.345603388025, -12824.983933566087, -17584.787915323726, 0.004718750000000001, 0.2355625, 0.9469687500000001, 192.0, 0.0, 24.0, 3.5, 56.0, 14.5, 80.0, 0.0, 0.0, 0.0, 1.64458722197847E9, 0.0, 2022-02-12 00:47:01.978
108.0, -12065.53871220812, -11954.092914353958, -7688.8436304144425, -12823.598125409857, -11388.929055801518, -8801.871097310914, -10570.318766870352, -8790.538762872073, -12177.096268784557, -14266.805561400124, -10251.001745581836, -9293.36360613866, -8925.029209259656, -13153.398114847912, -12825.229802755095, -17525.153461116966, 0.004718750000000001, 0.2355625, 0.9469687500000001, 192.0, 0.0, 0.0, 0.0, 0.0, 0.0, 0.0, 0.0, 0.0, 0.0, 1.64458722198636E9, 0.0, 2022-02-12 00:47:01.986
110.0, -12081.788430427127, -11961.111362112924, -7692.062281616007, -12841.233651785094, -11410.386730478613, -8806.162632246333, -10582.880447254234, -8792.170440217309, -12199.827992895604, -14292.465364034817, -10237.613050653106, -9285.071108945742, -8940.876596078468, -13157.779056761154, -12825.453320199647, -17602.1552207655, 0.004718750000000001, 0.2355625, 0.9469687500000001, 192.0, 0.0, 0.0, 0.0, 0.0, 0.0, 0.0, 0.0, 0.0, 0.0, 1.644587221994386E9, 0.0, 2022-02-12 00:47:01.994
112.0, -12090.438555531331, -11944.213443304712, -7699.371302052892, -12828.180233023195, -11386.850343567176, -8808.777786347602, -10576.286682639919, -8796.573733875006, -12186.260484011233, -14283.547017997149, -10255.874425873093, -9293.274199160838, -8944.475226935772, -13154.470998581768, -12828.895488845765, -17542.94544970339, 0.004718750000000001, 0.2355625, 0.9469687500000001, 192.0, 0.0, 0.0, 0.0, 0.0, 0.0, 0.0, 0.0, 0.0, 0.0, 1.644587222000979E9, 0.0, 2022-02-12 00:47:02.000
114.0, -12082.123706593957, -11958.853835922937, -7690.922342648786, -12839.31140176194, -11398.16032626156, -8813.583411405494, -10561.75804874397, -8790.69522508326, -12199.55977196214, -14272.125276580487, -10246.397286224043, -9286.367510124148, -8932.517043652182, -13167.814990021587, -12823.68753238768, -17573.72380181835, 0.004718750000000001, 0.2355625, 0.9469687500000001, 192.0, 0.0, 0.0, 0.0, 0.0, 0.0, 0.0, 0.0, 0.0, 0.0, 1.644587222008095E9, 0.0, 2022-02-12 00:47:02.008
116.0, -12093.791317199626, -11960.932548157281, -7707.753206223632, -12838.77495989501, -11400.797832107286, -8814.142205016877, -10578.678319296638, -8795.702015841249, -12213.350798291063, -14301.83074496159, -10256.388515995564, -9296.917533507054, -8942.95530831281, -13170.877179011963, -12827.06264580043, -17595.606159640094, 0.004359375, 0.23678125, 0.9414843750000002, 192.0, 0.0, 16.0, 3.5, 56.0, 14.5, 32.0, 0.0, 0.0, 0.0, 1.644587222016049E9, 0.0, 2022-02-12 00:47:02.016
118.0, -12076.491066991219, -11934.98217284467, -7701.315903820504, -12832.49411970307, -11388.526724401323, -8781.955693001235, -10567.927130213635, -8776.032480720578, -12191.51314395823, -14273.913416136911, -10270.51481849132, -9298.951542252487, -8908.980656740745, -13149.620670034967, -12825.006285310541, -17533.71417924335, 0.004359375, 0.23678125, 0.9414843750000002, 192.0, 0.0, 0.0, 0.0, 0.0, 0.0, 0.0, 0.0, 0.0, 0.0, 1.64458722202425E9, 0.0, 2022-02-12 00:47:02.024
120.0, -12070.545502966108, -11954.718763198705, -7705.249810844638, -12843.781750653, -11406.586933921211, -8791.924571028301, -10579.885313497223, -8783.319149413008, -12211.719120945827, -14296.913361181423, -10256.992013095858, -9297.766899796356, -8934.841625075534, -13158.136684672438, -12827.196756267162, -17602.71401437688, 0.004359375, 0.23678125, 0.9414843750000002, 192.0, 0.0, 0.0, 0.0, 0.0, 0.0, 0.0, 0.0, 0.0, 0.0, 1.644587222030735E9, 0.0, 2022-02-12 00:47:02.030
122.0, -12088.181029341344, -11966.207559848734, -7709.697807991244, -12827.196756267162, -11395.925151816029, -8788.907085526835, -10585.540304844417, -8792.036329750577, -12203.627789453005, -14289.872561678001, -10274.247559815354, -9291.441356115503, -8943.111770523998, -13148.212510134283, -12833.991686581576, -17546.722894516337, 0.004359375, 0.23678125, 0.9414843750000002, 192.0, 0.0, 0.0, 0.0, 0.0, 0.0, 0.0, 0.0, 0.0, 0.0, 1.644587222039341E9, 0.0, 2022-02-12 00:47:02.039
124.0, -12091.645549731917, -11963.771219703105, -7700.466537531202, -12841.97125935212, -11391.29834071378, -8785.64373083636, -10562.920339455646, -8777.753565043637, -12208.65693195545, -14278.45082026134, -10256.880254373582, -9285.965178723953, -8942.0612385346, -13147.385495589435, -12829.431930712693, -17571.086295972622, 0.004359375, 0.23678125, 0.9414843750000002, 192.0, 0.0, 0.0, 0.0, 0.0, 0.0, 0.0, 0.0, 0.0, 0.0, 1.644587222047034E9, 0.0, 2022-02-12 00:47:02.047
126.0, -12100.720357980772, -11955.545777743553, -7717.856194717431, -12836.584488938392, -11391.432451180513, -8788.907085526835, -10576.621958806749, -8780.59223658946, -12222.93969666239, -14306.524611297204, -10261.752934664839, -9289.7426235369, -8929.678372106358, -13165.915091742885, -12831.264773758028, -17593.795668339215, 0.002, 0.244, 0.9420000000000001, 192.0, 0.0, 8.0, 3.5, 80.0, 14.5, 56.0, 0.0, 0.0, 0.0, 1.644587222053364E9, 0.0, 2022-02-12 00:47:02.053
128.0, -12067.013927342168, -11928.634277419362, -7705.093348633451, -12832.985858081087, -11382.894084798585, -8769.572826572994, -10574.498543083495, -8770.64571030685, -12190.909646857936, -14277.690860949859, -10270.112487091123, -9288.289760147305, -8925.833872060046, -13149.732428757243, -12832.091788302874, -17532.551888531674, 0.002, 0.244, 0.9420000000000001, 192.0, 0.0, 0.0, 0.0, 0.0, 0.0, 0.0, 0.0, 0.0, 0.0, 1.644587222061338E9, 0.0, 2022-02-12 00:47:02.061
130.0, -12091.466735776274, -11953.60117597594, -7704.467499788702, -12856.656355459256, -11396.30513147177, -8788.102422726444, -10576.934883229123, -8779.83227727798, -12213.484908757795, -14298.790907715667, -10260.143609064056, -9293.765937538856, -8918.301334178608, -13130.711094225777, -12829.856613857344, -17606.513810934284, 0.002, 0.244, 0.9420000000000001, 192.0, 0.0, 0.0, 0.0, 0.0, 0.0, 0.0, 0.0, 0.0, 0.0, 1.64458722206927E9, 0.0, 2022-02-12 00:47:02.069
132.0, -12123.943820469836, -11981.540856545074, -7715.106930149428, -12837.143282549774, -11387.766765089842, -8787.297759926052, -10585.80852577788, -8789.73410007168, -12218.536403004695, -14297.606265259537, -10272.37001328111, -9299.018597485852, -8938.797883844123, -13156.348545116014, -12837.791483138977, -17554.00956320877, 0.002, 0.244, 0.9420000000000001, 192.0, 0.0, 0.0, 0.0, 0.0, 0.0, 0.0, 0.0, 0.0, 0.0, 1.644587222082933E9, 0.0, 2022-02-12 00:47:02.082
134.0, -12103.559029526596, -11969.046231394557, -7711.061264403018, -12855.717582192134, -11399.322616973235, -8788.54945761555, -10583.595703076804, -8779.11702145541, -12224.727836218815, -14299.372053071505, -10265.776248666794, -9283.953521722975, -8932.584098885549, -13157.712001527787, -12842.150073307763, -17578.887054787523, 0.002, 0.244, 0.9420000000000001, 192.0, 0.0, 0.0, 0.0, 0.0, 0.0, 0.0, 0.0, 0.0, 0.0, 1.64458722209099E9, 0.0, 2022-02-12 00:47:02.090
136.0, -12102.553201026107, -11977.65165300985, -7724.740532009666, -12857.6845357042, -11405.40229146508, -8797.288989697576, -10605.478060898551, -8788.92943727129, -12235.009638668256, -14326.9317539849, -10275.901588905048, -9290.524934592835, -8938.462607677295, -13158.918995728374, -12847.82741639941, -17604.300988233208, -0.002, 0.242, 0.9400000000000001, 192.0, 127.5, 120.0, 3.5, 72.0, 14.5, 48.0, 0.0, 0.0, 0.0, 1.644587222098959E9, 0.0, 2022-02-12 00:47:02.098
138.0, -12098.686349235339, -11955.568129488007, -7712.245906859149, -12847.872119888321, -11391.119526758139, -8782.73800405717, -10593.966912504067, -8788.258884937632, -12214.51308900274, -14288.263236077219, -10286.295150076765, -9305.299437677793, -8933.05348551911, -13159.567196317577, -12846.285146031994, -17547.169929405445, -0.002, 0.242, 0.9400000000000001, 192.0, 0.0, 0.0, 0.0, 0.0, 0.0, 0.0, 0.0, 0.0, 0.0, 1.644587222106087E9, 0.0, 2022-02-12 00:47:02.106
140.0, -12090.572665998063, -11952.707106197728, -7717.967953439707, -12861.059649116953, -11400.127279773627, -8790.963446016724, -10582.500467598495, -8774.244341164153, -12234.09321714559, -14320.405044603951, -10277.041527872268, -9298.258638174371, -8914.590944599026, -13148.056047923095, -12841.524224463014, -17620.86363087459, -0.002, 0.242, 0.9400000000000001, 192.0, 0.0, 0.0, 0.0, 0.0, 0.0, 0.0, 0.0, 0.0, 0.0, 1.644587222113589E9, 0.0, 2022-02-12 00:47:02.113
142.0, -12114.645494776429, -11970.208522106233, -7720.158424396328, -12840.54074770698, -11390.001939535374, -8784.369681402408, -10593.363415403774, -8780.659291822827, -12211.495603501273, -14301.339006583574, -10295.884048448092, -9301.36553065366, -8926.14679648242, -13136.924879184351, -12845.59224195388, -17558.882243500026, -0.002, 0.242, 0.9400000000000001, 192.0, 0.0, 0.0, 0.0, 0.0, 0.0, 0.0, 0.0, 0.0, 0.0, 1.644587222122342E9, 0.0, 2022-02-12 00:47:02.122
144.0, -12110.108090652, -11959.323222556499, -7700.801813698032, -12852.655393201756, -11399.814355351253, -8776.680681309781, -10582.232246665031, -8776.390108631862, -12235.546080535183, -14294.231151846785, -10265.105696333134, -9290.07789970373, -8934.662811119892, -13154.761571259687, -12844.608765197847, -17581.368098422063, -0.002, 0.242, 0.9400000000000001, 192.0, 0.0, 0.0, 0.0, 0.0, 0.0, 0.0, 0.0, 0.0, 0.0, 1.644587222129728E9, 0.0, 2022-02-12 00:47:02.129
146.0, -12102.508497537196, -11967.861588938427, -7714.659895260322, -12853.728276935612, -11401.78130886332, -8783.989701746666, -10599.845421295813, -8786.113117469922, -12238.720028247837, -14321.992018460276, -10265.776248666794, -9286.211047912962, -8946.196311258831, -13151.274699124659, -12845.301669275961, -17606.357348723097, 0.004, 0.23800000000000002, 0.9440000000000001, 192.0, 0.0, 16.0, 3.5, 56.0, 14.5, 64.0, 0.0, 0.0, 0.0, 1.644587222135829E9, 0.0, 2022-02-12 00:47:02.135
148.0, -12082.347224038509, -11952.483588753175, -7713.832880715476, -12842.619459941323, -11384.793983077287, -8764.25311139263, -10577.739546029514, -8767.44941084974, -12216.144766347978, -14286.832724432079, -10287.904475677547, -9294.145917194595, -8922.458758647295, -13164.37282137547, -12844.765227409032, -17549.449807339886, 0.004, 0.23800000000000002, 0.9440000000000001, 192.0, 0.0, 0.0, 0.0, 0.0, 0.0, 0.0, 0.0, 0.0, 0.0, 1.644587222143328E9, 0.0, 2022-02-12 00:47:02.143
150.0, -12098.932218424347, -11971.549626773553, -7715.6210202719, -12856.16461708124, -11404.038835053307, -8766.980024216178, -10590.457688624583, -8761.012108446612, -12229.153481620966, -14317.856945736045, -10268.83843765717, -9276.97977745292, -8932.181767485354, -13136.03080940614, -12841.16659655173, -17615.230991271852, 0.004, 0.23800000000000002, 0.9440000000000001, 192.0, 0.0, 0.0, 0.0, 0.0, 0.0, 0.0, 0.0, 0.0, 0.0, 1.644587222151162E9, 0.0, 2022-02-12 00:47:02.151
152.0, -12105.190706871834, -11957.311565555521, -7719.286706362571, -12842.217128541128, -11392.68414887001, -8762.487323580663, -10596.559714860883, -8764.946015470745, -12223.27497282922, -14310.771442743713, -10278.382632539588, -9292.201315426984, -8929.745427339725, -13136.477844295247, -12847.670954188223, -17559.53044408923, 0.004, 0.23800000000000002, 0.9440000000000001, 192.0, 0.0, 0.0, 0.0, 0.0, 0.0, 0.0, 0.0, 0.0, 0.0, 1.644587222158401E9, 0.0, 2022-02-12 00:47:02.158
154.0, -12100.742709725228, -11952.88592015337, -7708.33435157947, -12851.224881556616, -11398.294436728293, -8761.68266078027, -10584.489772855017, -8762.755544514126, -12228.259411842753, -14293.82882044659, -10280.595455240662, -9292.894219505099, -8914.18861319883, -13132.275716337648, -12847.805064654955, -17580.362269921574, 0.004, 0.23800000000000002, 0.9440000000000001, 192.0, 0.0, 0.0, 0.0, 0.0, 0.0, 0.0, 0.0, 0.0, 0.0, 1.64458722216585E9, 0.0, 2022-02-12 00:47:02.165
156.0, -12129.73292228376, -11977.025804165103, -7731.28959313507, -12852.297765290472, -11396.886276827607, -8772.031518463078, -10590.167115946666, -8768.902274239335, -12245.693772517894, -14327.35643712955, -10281.198952340956, -9290.88256250412, -8914.970924254767, -13154.448646837312, -12850.576680967413, -17608.145488279522, 0.006, 0.23600000000000002, 0.9460000000000001, 192.0, 0.0, 24.0, 3.5, 48.0, 14.5, 72.0, 0.0, 0.0, 0.0, 1.64458722217406E9, 0.0, 2022-02-12 00:47:02.174
158.0, -12116.858317477503, -11968.956824416737, -7720.2478313741485, -12844.429951242204, -11393.935846559507, -8762.129695669377, -10591.888200269723, -8755.379468843874, -12235.52372879073, -14302.434242061883, -10291.234885601389, -9293.631827072124, -8924.783340070646, -13150.738257257732, -12853.6835734467, -17550.18741490691, 0.006, 0.23600000000000002, 0.9460000000000001, 192.0, 0.0, 0.0, 0.0, 0.0, 0.0, 0.0, 0.0, 0.0, 0.0, 1.644587222181883E9, 0.0, 2022-02-12 00:47:02.181
160.0, -12102.597904515018, -11959.680850467785, -7722.281840119582, -12865.440591030192, -11409.559715933767, -8760.9674049577, -10588.848363023802, -8762.39791660284, -12251.28170863172, -14326.663533051436, -10281.154248852044, -9288.736795036411, -8939.557843155604, -13138.17657687385, -12848.341506521881, -17621.556534952706, 0.006, 0.23600000000000002, 0.9460000000000001, 192.0, 0.0, 0.0, 0.0, 0.0, 0.0, 0.0, 0.0, 0.0, 0.0, 1.644587222188609E9, 0.0, 2022-02-12 00:47:02.188
162.0, -12099.602770758007, -11971.303757584545, -7733.2788983915925, -12847.82741639941, -11391.186581991504, -8755.871207221891, -10594.302188670898, -8755.02184093259, -12232.66270550045, -14318.192221902875, -10299.303865349755, -9299.957370752976, -8932.248822718719, -13131.851033192997, -12852.521282735024, -17566.973574992844, 0.006, 0.23600000000000002, 0.9460000000000001, 192.0, 0.0, 0.0, 0.0, 0.0, 0.0, 0.0, 0.0, 0.0, 0.0, 1.644587222203667E9, 0.0, 2022-02-12 00:47:02.203
164.0, -12097.635817245939, -11964.777048203594, -7717.833842972976, -12853.907090891254, -11392.147707003083, -8752.294928109042, -10577.80660126288, -8750.126808896877, -12234.719065990337, -14307.038701419677, -10298.94623743847, -9282.008919955364, -8919.284810934641, -13125.972524401252, -12844.608765197847, -17580.85400829959, 0.006, 0.23600000000000002, 0.9460000000000001, 192.0, 0.0, 0.0, 0.0, 0.0, 0.0, 0.0, 0.0, 0.0, 0.0, 1.644587222211551E9, 0.0, 2022-02-12 00:47:02.211
166.0, -12119.987561701246, -11969.56032151703, -7735.312907137026, -12846.598070454369, -11391.477154669423, -8746.952861184223, -10589.876543268747, -8749.791532730047, -12247.191339396399, -14324.338951628084, -10285.311673320732, -9279.773745509834, -8897.178935668342, -13128.095940124505, -12848.185044310696, -17607.8549156016, 0.004, 0.234, 0.9480000000000001, 192.0, 0.0, 16.0, 3.5, 40.0, 14.5, 80.0, 0.0, 0.0, 0.0, 1.644587222218332E9, 0.0, 2022-02-12 00:47:02.218
168.0, -12121.574535557573, -11952.193016075256, -7725.612250043422, -12847.089808832385, -11388.750241845875, -8740.761427970103, -10581.248769908998, -8734.525291267073, -12225.733664719304, -14284.575198242093, -10289.223228600411, -9282.791231011299, -8902.498650848705, -13127.604201746488, -12848.408561755248, -17541.827862480626, 0.004, 0.234, 0.9480000000000001, 192.0, 0.0, 0.0, 0.0, 0.0, 0.0, 0.0, 0.0, 0.0, 0.0, 1.64458722222612E9, 0.0, 2022-02-12 00:47:02.226
170.0, -12122.669771035884, -11964.777048203594, -7730.842558245964, -12866.044088130486, -11410.274971756337, -8755.468875821696, -10595.263313682475, -8744.069486149489, -12259.127170935533, -14334.531347099704, -10287.122164621613, -9289.139126436607, -8933.187595985843, -13140.925841441851, -12851.291936789983, -17616.66150291699, 0.004, 0.234, 0.9480000000000001, 192.0, 0.0, 0.0, 0.0, 0.0, 0.0, 0.0, 0.0, 0.0, 0.0, 1.644587222234299E9, 0.0, 2022-02-12 00:47:02.234
172.0, -12126.089587937546, -11993.409632850842, -7736.385790870881, -12846.933346621197, -11393.868791326142, -8754.641861276848, -10588.446031623607, -8747.466951306695, -12243.749170750281, -14317.45461433585, -10305.048263674767, -9298.683321319024, -8935.042790775633, -13146.334963600037, -12855.091733347384, -17564.537234847216, 0.004, 0.234, 0.9480000000000001, 192.0, 0.0, 0.0, 0.0, 0.0, 0.0, 0.0, 0.0, 0.0, 0.0, 1.644587222240661E9, 0.0, 2022-02-12 00:47:02.240
174.0, -12114.645494776429, -11983.865437968427, -7729.43439834528, -12858.556253737957, -11407.145727532594, -8746.30466059502, -10582.746336787503, -8739.39797155833, -12248.66655453045, -14320.248582392764, -10290.363167567632, -9280.936036221508, -8924.090435992532, -13131.091073881516, -12852.722448435123, -17581.993947266812, 0.004, 0.234, 0.9480000000000001, 192.0, 0.0, 0.0, 0.0, 0.0, 0.0, 0.0, 0.0, 0.0, 0.0, 1.644587222248901E9, 0.0, 2022-02-12 00:47:02.248
176.0, -12120.032265190157, -11983.79838273506, -7741.81726477352, -12861.394925283781, -11410.431433967524, -8755.82650373298, -10599.95718001809, -8743.935375682757, -12263.23989191531, -14347.115379228042, -10295.951103681458, -9280.60076005468, -8920.357694668495, -13126.106634867983, -12858.31038454895, -17608.905447591, 0.006, 0.232, 0.9480000000000001, 192.0, 0.0, 24.0, 3.5, 32.0, 14.5, 80.0, 0.0, 0.0, 0.0, 1.644587222255785E9, 0.0, 2022-02-12 00:47:02.255
178.0, -12130.112901939501, -11960.016126634613, -7732.474235591202, -12852.25306180156, -11404.038835053307, -8750.171512385788, -10599.800717806902, -8743.711858238205, -12241.916327704947, -14300.266122849718, -10298.856830460649, -9290.323768892738, -8916.647305088914, -13122.753873199686, -12860.702021205667, -17546.61113579406, 0.006, 0.232, 0.9480000000000001, 192.0, 0.0, 0.0, 0.0, 0.0, 0.0, 0.0, 0.0, 0.0, 0.0, 1.64458722226495E9, 0.0, 2022-02-12 00:47:02.264
180.0, -12137.44427412084, -11985.742984502673, -7739.20211067225, -12875.409469057258, -11411.012579323362, -8755.178303143777, -10588.04370022341, -8739.733247725158, -12265.497418105295, -14344.567280360137, -10287.993882655368, -9277.7397367644, -8909.919430007867, -13142.736332742732, -12861.014945628041, -17623.29997102022, 0.006, 0.232, 0.9480000000000001, 192.0, 0.0, 0.0, 0.0, 0.0, 0.0, 0.0, 0.0, 0.0, 0.0, 1.644587222270539E9, 0.0, 2022-02-12 00:47:02.270
182.0, -12129.64351530594, -11972.756620974138, -7745.8405787754755, -12853.437704257693, -11391.074823269228, -8746.885805950858, -10585.8979327557, -8734.34647731143, -12246.409028340464, -14326.998809218267, -10298.923885694014, -9305.947638266998, -8906.074929961555, -13137.282507095637, -12858.377439782314, -17566.593595337104, 0.006, 0.232, 0.9480000000000001, 192.0, 0.0, 0.0, 0.0, 0.0, 0.0, 0.0, 0.0, 0.0, 0.0, 1.644587222278678E9, 0.0, 2022-02-12 00:47:02.278
184.0, -12107.850564462015, -11970.789667462072, -7732.496587335657, -12859.785599683, -11402.608323408167, -8741.297869837032, -10576.219627406554, -8726.67982896326, -12246.341973107097, -14310.816146232624, -10290.430222800996, -9274.990472196398, -8938.015572788188, -13136.768416973164, -12859.427971771715, -17581.14458097751, 0.006, 0.232, 0.9480000000000001, 192.0, 0.0, 0.0, 0.0, 0.0, 0.0, 0.0, 0.0, 0.0, 0.0, 1.644587222287866E9, 0.0, 2022-02-12 00:47:02.287
186.0, -12112.164451141889, -11992.113231672434, -7750.2438724331705, -12867.251082331071, -11411.63842816811, -8752.339631597952, -10595.755052060491, -8744.20359661622, -12259.417743613452, -14349.015277506744, -10288.686786733484, -9287.686263047011, -8936.920337309879, -13132.879213437942, -12863.764210196045, -17615.38745348304, 0.006, 0.232, 0.9480000000000001, 192.0, 0.0, 0.0, 3.5, 40.0, 14.5, 80.0, 0.0, 0.0, 0.0, 1.64458722229426E9, 0.0, 2022-02-12 00:47:02.294
188.0, -12109.079910407056, -11960.194940590256, -7739.358572883436, -12858.109218848851, -11402.16128851906, -8733.29594532203, -10583.752165287991, -8732.960669155202, -12240.642278270994, -14320.919134726422, -10294.252371102855, -9285.294626390294, -8921.497633635716, -13135.963754172773, -12861.394925283781, -17552.288478885708, 0.006, 0.232, 0.9480000000000001, 192.0, 0.0, 0.0, 0.0, 0.0, 0.0, 0.0, 0.0, 0.0, 0.0, 1.644587222301077E9, 0.0, 2022-02-12 00:47:02.301
190.0, -12134.985582230758, -11980.199751877755, -7745.795875286565, -12876.728221980122, -11423.64131494061, -8740.180282614265, -10594.324540415351, -8735.48641627865, -12269.923063507445, -14339.180509946407, -10286.004577398846, -9280.131373421118, -8923.129310980954, -13120.317533054058, -12861.506684006059, -17621.64594193053, 0.006, 0.232, 0.9480000000000001, 192.0, 0.0, 0.0, 0.0, 0.0, 0.0, 0.0, 0.0, 0.0, 0.0, 1.644587222309328E9, 0.0, 2022-02-12 00:47:02.309
192.0, -12140.953498000325, -11967.995699405159, -7760.6821370938, -12861.26081481705, -11412.532497946322, -8737.073390134978, -10615.849270325813, -8743.689506493749, -12257.00375521228, -14327.177623173908, -10305.808222986248, -9294.682359061522, -8908.555973596094, -13121.703341210288, -12867.765172453544, -17571.28746167272, 0.006, 0.232, 0.9480000000000001, 192.0, 0.0, 0.0, 0.0, 0.0, 0.0, 0.0, 0.0, 0.0, 0.0, 1.644587222317122E9, 0.0, 2022-02-12 00:47:02.317
194.0, -12125.217869903789, -11984.84891472446, -7747.315793909525, -12877.778753969522, -11421.562602706266, -8738.570957013484, -10595.151554960199, -8734.592346500438, -12263.597519826595, -14331.826786020612, -10306.99286544238, -9287.26157990236, -8920.692970835325, -13132.141605870916, -12869.821532943432, -17590.845238071113, 0.004, 0.232, 0.9480000000000001, 192.0, 0.0, 8.0, 3.5, 32.0, 14.5, 80.0, 0.0, 0.0, 0.0, 1.64458722233074E9, 0.0, 2022-02-12 00:47:02.330
196.0, -12143.032210234667, -11998.170554419823, -7756.144732969372, -12881.042108659996, -11423.440149240512, -8747.712820495704, -10603.511107386483, -8744.069486149489, -12283.602331114094, -14362.113399757553, -10303.79656598527, -9296.381091640127, -8953.505331695716, -13124.251440078193, -12868.659242231757, -17623.992875098334, 0.004, 0.232, 0.9480000000000001, 192.0, 0.0, 0.0, 0.0, 0.0, 0.0, 0.0, 0.0, 0.0, 0.0, 1.644587222338835E9, 0.0, 2022-02-12 00:47:02.338
198.0, -12136.907832253914, -11994.303702629055, -7749.640375332878, -12866.35701255286, -11420.132091061127, -8740.515558781095, -10604.941619031622, -8744.82944546097, -12261.250586658787, -14325.434187106393, -10305.070615419223, -9298.392748641105, -8930.95242154031, -13152.057010180595, -12869.93329166571, -17561.877377257035, 0.004, 0.232, 0.9480000000000001, 192.0, 0.0, 0.0, 0.0, 0.0, 0.0, 0.0, 0.0, 0.0, 0.0, 1.644587222346073E9, 0.0, 2022-02-12 00:47:02.346
200.0, -12139.098303210534, -11992.806135750548, -7753.618985845922, -12884.50662905057, -11436.135940091126, -8742.706029737716, -10610.708369101092, -8739.643840747338, -12288.989101527823, -14351.496321141281, -10298.432147315998, -9284.109983934162, -8942.418866445883, -13152.436989836335, -12873.911902178754, -17637.649790960528, 0.004, 0.232, 0.9480000000000001, 192.0, 0.0, 0.0, 0.0, 0.0, 0.0, 0.0, 0.0, 0.0, 0.0, 1.644587222353342E9, 0.0, 2022-02-12 00:47:02.353
202.0, -12152.799922561637, -11988.246379881666, -7765.085430751495, -12871.87789343332, -11419.103910816182, -8748.092800151444, -10612.943543546622, -8745.522349539084, -12273.52169436475, -14353.753847331269, -10316.93939172499, -9298.392748641105, -8932.986430285744, -13145.597356033011, -12871.274396333027, -17581.90454028899, 0.004, 0.232, 0.9480000000000001, 192.0, 0.0, 0.0, 0.0, 0.0, 0.0, 0.0, 0.0, 0.0, 0.0, 1.644587222361324E9, 0.0, 2022-02-12 00:47:02.361
204.0, -12132.839814763049, -12000.718653287728, -7752.00966024514, -12887.680576763223, -11430.07861734374, -8752.272576364587, -10608.450842911107, -8740.716724481194, -12280.160162467977, -14344.07554198212, -10306.031740430803, -9291.486059604415, -8916.647305088914, -13143.69745775431, -12878.181085369717, -17599.38360445304, 0.007, 0.233, 0.9480000000000001, 192.0, 0.0, 40.0, 3.5, 40.0, 14.5, 80.0, 0.0, 0.0, 0.0, 1.644587222369362E9, 0.0, 2022-02-12 00:47:02.369
206.0, -12153.872806295492, -12003.110289944445, -7766.471238907724, -12888.038204674507, -11438.795797681309, -8765.25893989312, -10625.48287218605, -8754.798323488036, -12288.586770127627, -14376.977309820333, -10310.055054432756, -9300.896144020098, -8939.423732688872, -13152.07936192505, -12881.176219126728, -17635.034636859255, 0.007, 0.233, 0.9480000000000001, 192.0, 0.0, 0.0, 0.0, 0.0, 0.0, 0.0, 0.0, 0.0, 0.0, 1.644587222375953E9, 0.0, 2022-02-12 00:47:02.375
208.0, -12147.368448658997, -11985.497115313663, -7760.659785349344, -12877.510533036058, -11426.323524275247, -8750.573843785984, -10619.91728781668, -8737.900404679824, -12268.29138616221, -14345.237832693796, -10325.634220318107, -9303.17602195454, -8941.636555389949, -13150.447684579813, -12881.466791804647, -17569.81224653867, 0.007, 0.233, 0.9480000000000001, 192.0, 0.0, 0.0, 0.0, 0.0, 0.0, 0.0, 0.0, 0.0, 0.0, 1.644587222382886E9, 0.0, 2022-02-12 00:47:02.382
210.0, -12146.1167509695, -11988.402842092853, -7760.391564415881, -12893.760251255066, -11446.685963474032, -8748.070448406988, -10623.851194840812, -8735.933451167757, -12294.353520197097, -14354.402047920472, -10310.412682344042, -9287.842725258199, -8943.223529246276, -13139.249460607703, -12880.59507377089, -17639.817910172693, 0.007, 0.233, 0.9480000000000001, 192.0, 0.0, 0.0, 0.0, 0.0, 0.0, 0.0, 0.0, 0.0, 0.0, 1.644587222391139E9, 0.0, 2022-02-12 00:47:02.391
212.0, -12144.30625966862, -11991.017996194125, -7771.9027128103635, -12874.7389167236, -11430.324486532747, -8742.393105315341, -10618.509127915995, -8737.051038390522, -12284.630511359039, -14364.393277691994, -10322.549679583273, -9296.559905595768, -8945.481055436261, -13131.78397795963, -12882.673786005234, -17585.1008397461, 0.007, 0.233, 0.9480000000000001, 192.0, 0.0, 0.0, 0.0, 0.0, 0.0, 0.0, 0.0, 0.0, 0.0, 1.644587222399038E9, 0.0, 2022-02-12 00:47:02.399
214.0, -12113.39379708693, -11990.839182238482, -7761.643262105377, -12883.277283105528, -11436.337105791225, -8745.522349539084, -10606.126261487754, -8730.501977265118, -12288.922046294458, -14352.815074064145, -10320.985057471402, -9288.401518869581, -8944.229357746764, -13135.78494021713, -12883.16552438325, -17596.679043373948, 0.006500000000000001, 0.2325, 0.9470000000000001, 192.0, 0.0, 24.0, 3.5, 32.0, 14.5, 72.0, 0.0, 0.0, 0.0, 1.64458722240558E9, 0.0, 2022-02-12 00:47:02.405
216.0, -12161.450047665841, -12013.682665071807, -7771.6344918769, -12886.630044773823, -11436.270050557858, -8754.217178132198, -10616.229249981554, -8738.168625613287, -12293.034767274234, -14379.883036599522, -10323.75667378386, -9294.481193361426, -8943.9611368133, -13130.26405933667, -12887.83703897441, -17632.330075780163, 0.006500000000000001, 0.2325, 0.9470000000000001, 192.0, 0.0, 0.0, 0.0, 0.0, 0.0, 0.0, 0.0, 0.0, 0.0, 1.644587222413806E9, 0.0, 2022-02-12 00:47:02.413
218.0, -12168.177922746889, -11997.812926508537, -7760.033936504596, -12875.320062079438, -11417.695750915498, -8743.331878582463, -10606.282723698941, -8730.546680754029, -12283.468220647363, -14348.612946106548, -10312.491394578385, -9300.337350408716, -8923.397531914417, -13127.26892557966, -12885.825381973433, -17563.352592391086, 0.006500000000000001, 0.2325, 0.9470000000000001, 192.0, 0.0, 0.0, 0.0, 0.0, 0.0, 0.0, 0.0, 0.0, 0.0, 1.644587222421745E9, 0.0, 2022-02-12 00:47:02.421
220.0, -12144.64153583545, -11994.0801851845, -7764.9736720292185, -12890.742765753599, -11444.853120428697, -8750.149160641333, -10628.187433265142, -8735.15114011182, -12304.411805201986, -14364.102705014075, -10301.650798517561, -9286.099289190684, -8927.554956383105, -13147.653716522898, -12884.685443006212, -17634.92287813698, 0.006500000000000001, 0.2325, 0.9470000000000001, 192.0, 0.0, 0.0, 0.0, 0.0, 0.0, 0.0, 0.0, 0.0, 0.0, 1.644587222428639E9, 0.0, 2022-02-12 00:47:02.428
222.0, -12140.774684044682, -11998.505830586653, -7774.7190326117325, -12876.035317902008, -11436.515919746867, -8741.364925070397, -10631.026104810966, -8728.691485964238, -12282.261226446775, -14370.115324272552, -10327.71293255245, -9291.776632282334, -8952.67831715087, -13145.776169988654, -12891.346262853893, -17585.61492986857, 0.006500000000000001, 0.2325, 0.9470000000000001, 192.0, 0.0, 0.0, 0.0, 0.0, 0.0, 0.0, 0.0, 0.0, 0.0, 1.64458722243635E9, 0.0, 2022-02-12 00:47:02.436
224.0, -12132.191614173844, -11997.544705575074, -7761.598558616467, -12889.35695759737, -11442.707352960988, -8737.185148857254, -10614.798738336414, -8722.812977172493, -12285.47987764834, -14356.681925854913, -10321.65560980506, -9285.272274645838, -8932.964078541288, -13124.854937178487, -12888.708757008168, -17591.068755515666, 0.00525, 0.23025, 0.9505000000000001, 192.0, 0.0, 16.0, 3.5, 16.0, 14.5, 104.0, 0.0, 0.0, 0.0, 1.64458722245146E9, 0.0, 2022-02-12 00:47:02.451
226.0, -12177.297434484653, -12005.680740556805, -7776.7753931016205, -12887.5911697854, -11452.385658310135, -8741.20846285921, -10633.663610656693, -8728.892651664335, -12308.502174437306, -14380.844161611101, -10313.921906223524, -9290.636693315113, -8948.565596171093, -13128.78884420262, -12889.446364575191, -17626.429215243963, 0.00525, 0.23025, 0.9505000000000001, 192.0, 0.0, 0.0, 0.0, 0.0, 0.0, 0.0, 0.0, 0.0, 0.0, 1.644587222458307E9, 0.0, 2022-02-12 00:47:02.458
228.0, -12142.674582323383, -11955.501074254642, -7769.354613942459, -12872.012003900052, -11438.013486625372, -8731.194881343232, -10623.694732629625, -8726.67982896326, -12290.397261428507, -14327.512899340738, -10324.986019728902, -9296.31403640676, -8933.321706452574, -13128.74414071371, -12891.346262853893, -17562.726743546336, 0.00525, 0.23025, 0.9505000000000001, 192.0, 0.0, 0.0, 0.0, 0.0, 0.0, 0.0, 0.0, 0.0, 0.0, 1.644587222465976E9, 0.0, 2022-02-12 00:47:02.465
230.0, -12145.893233524946, -12005.323112645521, -7775.233122734204, -12897.560047812469, -11461.438114814535, -8750.59619553044, -10632.210747267098, -8720.689561449237, -12294.107651008087, -14352.636260108502, -10309.160984654545, -9291.486059604415, -8942.53062516816, -13125.681951723333, -12891.569780298447, -17634.58760197015, 0.00525, 0.23025, 0.9505000000000001, 192.0, 0.0, 0.0, 0.0, 0.0, 0.0, 0.0, 0.0, 0.0, 0.0, 1.644587222473781E9, 0.0, 2022-02-12 00:47:02.473
232.0, -12169.40726869193, -12031.049970513579, -7782.095108281984, -12887.635873274312, -11452.430361799046, -8750.618547274893, -10642.716067161093, -8723.260012061597, -12302.824831345659, -14396.266865285263, -10333.233813432911, -9305.969990011454, -8963.809485889613, -13151.811140991585, -12900.108146680373, -17591.851066571602, 0.00525, 0.23025, 0.9505000000000001, 192.0, 0.0, 0.0, 0.0, 0.0, 0.0, 0.0, 0.0, 0.0, 0.0, 1.644587222482015E9, 0.0, 2022-02-12 00:47:02.482
234.0, -12169.496675669752, -12019.203545952267, -7769.533427898101, -12902.522135081546, -11461.572225281267, -8750.506788552617, -10639.877395615267, -8718.141462581332, -12310.893811094023, -14380.17360927744, -10326.885918007603, -9290.189658426007, -8947.425657203872, -13143.36218158748, -12898.588228057413, -17602.11051727659, 0.005625, 0.23212500000000003, 0.9512500000000002, 192.0, 0.0, 24.0, 3.5, 40.0, 14.5, 96.0, 0.0, 0.0, 0.0, 1.644587222488389E9, 0.0, 2022-02-12 00:47:02.488
236.0, -12157.918472041902, -12023.875060543425, -7780.441079192291, -12909.98761772962, -11458.666498502076, -8758.799285745536, -10639.542119448439, -8723.796453928526, -12323.05316007771, -14411.980141637343, -10340.274612936331, -9306.037045244819, -8954.779381129669, -13130.778149459142, -12897.068309434451, -17639.326171794673, 0.005625, 0.23212500000000003, 0.9512500000000002, 192.0, 0.0, 0.0, 0.0, 0.0, 0.0, 0.0, 0.0, 0.0, 0.0, 1.644587222496632E9, 0.0, 2022-02-12 00:47:02.496
238.0, -12166.210969234822, -12014.889659272392, -7773.556741900056, -12894.721376266645, -11444.674306473054, -8751.222044375187, -10634.132997290255, -8714.38636951284, -12295.828735331146, -14371.277614984228, -10342.66624959305, -9310.216821457961, -8947.716229881791, -13146.334963600037, -12897.895323979297, -17571.600386095095, 0.005625, 0.23212500000000003, 0.9512500000000002, 192.0, 0.0, 0.0, 0.0, 0.0, 0.0, 0.0, 0.0, 0.0, 0.0, 1.644587222503476E9, 0.0, 2022-02-12 00:47:02.503
