%OpenBCI Raw EEG Data
%Number of channels = 16
%Sample Rate = 125 Hz
%Board = OpenBCI_GUI$BoardCytonSerialDaisy
Sample Index, EXG Channel 0, EXG Channel 1, EXG Channel 2, EXG Channel 3, EXG Channel 4, EXG Channel 5, EXG Channel 6, EXG Channel 7, EXG Channel 8, EXG Channel 9, EXG Channel 10, EXG Channel 11, EXG Channel 12, EXG Channel 13, EXG Channel 14, EXG Channel 15, Accel Channel 0, Accel Channel 1, Accel Channel 2, Other, Other, Other, Other, Other, Other, Other, Analog Channel 0, Analog Channel 1, Analog Channel 2, Timestamp, Other, Timestamp (Formatted)
0.0, -12287.62564511605, -12070.277282032643, -8135.498539864843, -13179.549655860623, -11794.81438336544, -8450.05463958438, -11074.842342715543, -8554.92902456868, 0.0, 0.0, 0.0, 0.0, 0.0, 0.0, 0.0, 0.0, 0.0, 0.0, 0.0, 192.0, 0.0, 0.0, 0.0, 0.0, 0.0, 0.0, 0.0, 0.0, 0.0, 1.644587246783747E9, 0.0, 2022-02-12 00:47:26.783
128.0, -12279.400203156496, -12029.641810612895, -8111.157490153014, -13181.538961117145, -11782.073889025914, -8438.990526079002, -11058.793790196632, -8546.033030275468, -13287.039194946194, -15256.40669541439, -10148.966032143358, -8811.03531253759, -9303.377187654638, -13076.821038344031, -13220.632162169477, -17613.688720904436, 0.0, 0.0, 0.0, 192.0, 0.0, 0.0, 0.0, 0.0, 0.0, 0.0, 0.0, 0.0, 0.0, 1.644587246783752E9, 0.0, 2022-02-12 00:47:26.783
130.0, -12283.691738091915, -12055.815703370059, -8124.970868226394, -13193.22892346727, -11791.640435652786, -8440.801017379883, -11076.071688660586, -8544.200187230133, -13296.806907273163, -15294.203495288313, -10137.231366304322, -8793.600951862449, -9294.771766039345, -13051.742381065176, -13218.553449935132, -17671.0209454323, 0.0, 0.0, 0.0, 192.0, 0.0, 0.0, 0.0, 0.0, 0.0, 0.0, 0.0, 0.0, 0.0, 1.644587246783755E9, 0.0, 2022-02-12 00:47:26.783
0.0, -4532.397333669345, -4285.678778371665, -3291.584943721884, -4968.725737181394, -4450.388783262823, -2850.5850256186754, -4189.16394581365, -3048.4873710259644, -6645.0618678405135, -7644.363658948381, -5079.277465257343, -4405.908811796762, -4637.674050053841, -6524.608316970864, -6610.059036023502, -8805.514431657128, 0.004, 0.234, 0.9460000000000001, 192.0, 0.0, 16.0, 3.5, 40.0, 14.5, 72.0, 0.0, 0.0, 0.0, 1.644587246871658E9, 0.0, 2022-02-12 00:47:26.871
2.0, -9048.902577030967, -8551.93389081167, -6579.280683908544, -9956.651622849897, -8916.133214966443, -5702.4217489268485, -8377.903208482649, -6100.215744997949, -9169.803162789722, -11075.28937760465, -7236.913709272589, -5901.21816411235, -6592.06588173698, -10156.520921769254, -9714.314009465457, -13844.424646428186, 0.004, 0.234, 0.9460000000000001, 192.0, 0.0, 0.0, 0.0, 0.0, 0.0, 0.0, 0.0, 0.0, 0.0, 1.644587246877971E9, 0.0, 2022-02-12 00:47:26.877
4.0, -9055.608100367559, -8575.514981212018, -6590.054224736003, -9962.016041519171, -8930.95242154031, -5713.329400221039, -8400.456118638054, -6111.101044547683, -9181.470773395393, -11096.456479603825, -7234.834997038245, -5886.980102894318, -6592.289399181534, -10160.454828793387, -9726.763931127063, -13907.61302800334, 0.004, 0.234, 0.9460000000000001, 192.0, 0.0, 0.0, 0.0, 0.0, 0.0, 0.0, 0.0, 0.0, 0.0, 1.644587246884666E9, 0.0, 2022-02-12 00:47:26.884
6.0, -9084.151278036987, -8600.615990235328, -6585.673282822762, -9963.11127699748, -8919.374217912462, -5717.643286900912, -8390.129612699702, -6121.025219085839, -9177.358052415617, -11105.553639597136, -7243.865101798189, -5897.865402444053, -6602.124166741868, -10174.245855122312, -9733.804730630485, -13847.486835418564, 0.004, 0.234, 0.9460000000000001, 192.0, 0.0, 0.0, 0.0, 0.0, 0.0, 0.0, 0.0, 0.0, 0.0, 1.644587246892455E9, 0.0, 2022-02-12 00:47:26.892
8.0, -9086.878190860532, -8616.351618331864, -6576.39730887381, -9991.140364544435, -8936.763875098692, -5732.663659174879, -8389.034377221391, -6121.360495252668, -9209.835137109178, -11142.590480159579, -7239.752380818413, -5906.850803715087, -6620.676114639773, -10173.999985933302, -9733.558861441477, -13921.716978754637, 0.002, 0.23800000000000002, 0.9540000000000001, 192.0, 0.0, 8.0, 3.5, 56.0, 14.5, 104.0, 0.0, 0.0, 0.0, 1.644587246900568E9, 0.0, 2022-02-12 00:47:26.900
10.0, -9087.727557149836, -8614.161147375244, -6580.912361253782, -9987.139402286935, -8933.925203552866, -5738.318650522072, -8405.507612884952, -6131.172911068548, -9199.508631170826, -11154.056925065152, -7251.308232701806, -5928.5319958367345, -6623.760655374605, -10198.944532745425, -9738.92328011075, -13897.621798231818, 0.002, 0.23800000000000002, 0.9540000000000001, 192.0, 0.0, 0.0, 0.0, 0.0, 0.0, 0.0, 0.0, 0.0, 0.0, 1.644587246907407E9, 0.0, 2022-02-12 00:47:26.907
12.0, -9082.474897202837, -8604.84046993738, -6574.497410595109, -9997.756480903206, -8940.988354800744, -5731.367257996471, -8409.128595486713, -6124.847367387697, -9196.446442180448, -11140.06473303613, -7254.303366458817, -5944.111161722084, -6608.226192978167, -10201.53733510224, -9743.68420167973, -13889.798687672459, 0.002, 0.23800000000000002, 0.9540000000000001, 192.0, 0.0, 0.0, 0.0, 0.0, 0.0, 0.0, 0.0, 0.0, 0.0, 1.644587246915265E9, 0.0, 2022-02-12 00:47:26.915
14.0, -9093.56136245267, -8638.90452848727, -6586.992035745626, -10009.73701593125, -8946.844511848034, -5740.218548800773, -8415.185918234101, -6135.240928559414, -9209.410453964527, -11177.481553254314, -7257.901997316122, -5943.977051255352, -6621.726646629173, -10193.49070709833, -9752.110809339381, -13951.757723302571, 0.002, 0.23800000000000002, 0.9540000000000001, 192.0, 0.0, 0.0, 0.0, 0.0, 0.0, 0.0, 0.0, 0.0, 0.0, 1.644587246923208E9, 0.0, 2022-02-12 00:47:26.923
16.0, -9076.954016322377, -8612.685932241195, -6581.806431031994, -9994.716643657284, -8937.143854754431, -5729.623821928957, -8415.007104278458, -6145.768600197864, -9187.43868916496, -11147.038477306185, -7265.747459619935, -5953.878874049053, -6622.97834431867, -10203.169012447479, -9755.083591351939, -13884.0766410919, 0.005, 0.239, 0.9530000000000001, 192.0, 0.0, 32.0, 3.5, 64.0, 14.5, 96.0, 0.0, 0.0, 0.0, 1.644587246937295E9, 0.0, 2022-02-12 00:47:26.937
18.0, -9083.905408847977, -8654.394287394796, -6586.008558989592, -10020.622315480985, -8969.911512125911, -5744.241862802728, -8416.28115371241, -6135.352687281691, -9216.8759366126, -11165.21044554835, -7269.681366644069, -5934.097580206106, -6626.375809475877, -10208.980466005858, -9764.940710656729, -13951.37774364683, 0.005, 0.239, 0.9530000000000001, 192.0, 0.0, 0.0, 0.0, 0.0, 0.0, 0.0, 0.0, 0.0, 0.0, 1.644587246944793E9, 0.0, 2022-02-12 00:47:26.944
20.0, -9125.390246557028, -8659.71400257516, -6592.9375997707375, -10019.683542213863, -8955.449933463327, -5756.289453064139, -8436.800055122383, -6159.961957926984, -9226.330724517195, -11191.227876094328, -7283.606503439725, -5948.715621079877, -6626.711085642706, -10210.96977126238, -9773.36731831638, -13936.357371372864, 0.005, 0.239, 0.9530000000000001, 192.0, 0.0, 0.0, 0.0, 0.0, 0.0, 0.0, 0.0, 0.0, 0.0, 1.64458724695276E9, 0.0, 2022-02-12 00:47:26.952
22.0, -9102.680874190435, -8640.960888977157, -6578.788945530528, -10021.315219559101, -8960.568482943592, -5748.399287271415, -8435.458950455064, -6155.156332869093, -9220.787491892277, -11178.26386431025, -7279.314968504306, -5948.514455379779, -6634.288327013055, -10235.713152374406, -9778.754088730107, -13925.784996245504, 0.005, 0.239, 0.9530000000000001, 192.0, 0.0, 0.0, 0.0, 0.0, 0.0, 0.0, 0.0, 0.0, 0.0, 1.644587246960093E9, 0.0, 2022-02-12 00:47:26.960
24.0, -9130.799368715212, -8659.982223508623, -6592.892896281826, -10036.715571488807, -8970.760878415213, -5755.015403630186, -8446.724229660538, -6167.762716741886, -9239.294736301272, -11209.913934458964, -7277.102145803231, -5951.666051347977, -6642.178492805779, -10211.036826495747, -9788.253580123614, -13990.269778999065, 0.005, 0.239, 0.9530000000000001, 192.0, 0.0, 0.0, 0.0, 0.0, 0.0, 0.0, 0.0, 0.0, 0.0, 1.644587246967394E9, 0.0, 2022-02-12 00:47:26.967
26.0, -9121.925726166455, -8664.76549682206, -6595.9327335277485, -10030.635896996964, -8960.859055621511, -5754.054278618608, -8435.324839988332, -6147.98142289894, -9235.114960088129, -11197.93339943092, -7293.329512277784, -5976.677653393466, -6629.616812421896, -10230.192271493945, -9791.941617958739, -13921.47110956563, 0.006500000000000001, 0.2395, 0.9515, 192.0, 0.0, 32.0, 3.5, 64.0, 14.5, 88.0, 0.0, 0.0, 0.0, 1.644587246975645E9, 0.0, 2022-02-12 00:47:26.975
28.0, -9122.395112800015, -8673.437973670718, -6597.475003895164, -10057.435638598876, -8984.753070444236, -5773.634406761456, -8444.153779048178, -6168.075641164261, -9250.090628873186, -11224.330809632636, -7289.976750609488, -5966.887589322042, -6653.309661544521, -10235.400227952032, -9798.13305117286, -13999.366938992374, 0.006500000000000001, 0.2395, 0.9515, 192.0, 0.0, 0.0, 0.0, 0.0, 0.0, 0.0, 0.0, 0.0, 0.0, 1.644587246983441E9, 0.0, 2022-02-12 00:47:26.983
30.0, -9153.307575381707, -8656.696517073693, -6610.2602017236, -10058.888501988471, -8972.817238905101, -5773.187371872351, -8451.999241351992, -6173.820039489275, -9256.662041743046, -11232.422141125458, -7303.5442594938595, -5984.053729063718, -6652.370888277399, -10238.529472175775, -9810.5159176011, -13981.686709128227, 0.006500000000000001, 0.2395, 0.9515, 192.0, 0.0, 0.0, 0.0, 0.0, 0.0, 0.0, 0.0, 0.0, 0.0, 1.644587246989697E9, 0.0, 2022-02-12 00:47:26.989
32.0, -9128.161862869485, -8666.352470678386, -6598.056149251002, -10057.010955454225, -8982.562599487615, -5778.417680074893, -8456.402535009687, -6165.527542296355, -9257.623166754624, -11203.744852989299, -7303.656018216136, -5984.4113569750025, -6635.294155513544, -10242.530434433274, -9813.622810080387, -13967.71686884366, 0.006500000000000001, 0.2395, 0.9515, 192.0, 0.0, 0.0, 0.0, 0.0, 0.0, 0.0, 0.0, 0.0, 0.0, 1.644587246997095E9, 0.0, 2022-02-12 00:47:26.997
34.0, -9152.346450370127, -8713.1570235678, -6611.0201610350805, -10078.289816175678, -8995.30309382714, -5802.1552326864285, -8459.889407144716, -6186.694644295531, -9283.305321133772, -11248.962432022385, -7306.561744995326, -5977.258798749304, -6656.036574368069, -10245.391457723554, -9826.452711397733, -14032.06754113049, 0.006500000000000001, 0.2395, 0.9515, 192.0, 0.0, 0.0, 0.0, 0.0, 0.0, 0.0, 0.0, 0.0, 0.0, 1.644587247005165E9, 0.0, 2022-02-12 00:47:27.005
36.0, -9157.28618589475, -8710.027779344056, -6612.584783146952, -10067.203350925845, -8995.414852549417, -5794.354473871526, -8477.256712586488, -6198.22814443447, -9272.8894082176, -11247.822493055164, -7329.762855739935, -5993.262647779304, -6660.305757559033, -10264.882178888582, -9835.549871391044, -13970.1979124782, 0.006500000000000001, 0.2395, 0.9515, 192.0, 0.0, 0.0, 3.5, 48.0, 14.5, 96.0, 0.0, 0.0, 0.0, 1.644587247013062E9, 0.0, 2022-02-12 00:47:27.013
38.0, -9163.947005742431, -8712.106491578399, -6606.549812144019, -10094.651293116964, -9018.50420457175, -5811.788834546666, -8484.990416168024, -6212.645019608142, -9298.303341663282, -11267.380269453559, -7312.373198553705, -5993.262647779304, -6675.7061094887395, -10264.859827144126, -9846.926909318794, -14042.215233113198, 0.006500000000000001, 0.2395, 0.9515, 192.0, 0.0, 0.0, 0.0, 0.0, 0.0, 0.0, 0.0, 0.0, 0.0, 1.64458724701967E9, 0.0, 2022-02-12 00:47:27.019
40.0, -9186.656378109024, -8719.01318061509, -6623.69360014124, -10089.979778525803, -9009.250582367253, -5811.38650314647, -8483.090517889324, -6214.27669695338, -9298.862135274665, -11281.439516715947, -7325.5607277823365, -6007.768929930799, -6678.455374056742, -10267.542036478762, -9850.726705876197, -14027.68659921725, 0.006500000000000001, 0.2395, 0.9515, 192.0, 0.0, 0.0, 0.0, 0.0, 0.0, 0.0, 0.0, 0.0, 0.0, 1.64458724702781E9, 0.0, 2022-02-12 00:47:27.027
42.0, -9181.157848973018, -8701.087081561933, -6614.864661081393, -10099.412214685943, -9024.583879063592, -5808.86075602302, -8482.710538233583, -6214.410807420112, -9300.22559168644, -11251.309365190193, -7333.205024386052, -6013.110996855617, -6670.65461524184, -10281.645987230062, -9853.073639044003, -14015.326084533464, 0.006500000000000001, 0.2395, 0.9515, 192.0, 0.0, 0.0, 0.0, 0.0, 0.0, 0.0, 0.0, 0.0, 0.0, 1.644587247035947E9, 0.0, 2022-02-12 00:47:27.035
44.0, -9183.035395507264, -8740.53791052555, -6634.869472368893, -10117.450072461375, -9045.594518851582, -5819.969573017308, -8510.49375659153, -6229.073551782793, -9324.633696631634, -11300.103223336127, -7334.92610870911, -6014.250935822837, -6671.056946642036, -10275.566312738218, -9866.66349967283, -14081.576655098994, 0.006500000000000001, 0.2395, 0.9515, 192.0, 0.0, 0.0, 0.0, 0.0, 0.0, 0.0, 0.0, 0.0, 0.0, 1.644587247043034E9, 0.0, 2022-02-12 00:47:27.043
46.0, -9197.385215447572, -8755.804151988525, -6631.695524656239, -10113.76203462625, -9035.111550702042, -5828.418532421414, -8511.812509514393, -6242.104618800237, -9320.878603563144, -11288.122688308084, -7363.223417189529, -6031.484130797879, -6696.269714387622, -10299.013292671836, -9877.4817439892, -14021.182241580755, 0.00425, 0.23375, 0.94875, 192.0, 0.0, 8.0, 3.5, 16.0, 14.5, 72.0, 0.0, 0.0, 0.0, 1.644587247057616E9, 0.0, 2022-02-12 00:47:27.057
48.0, -9224.564936705225, -8770.846876006946, -6629.840329866449, -10135.666744192451, -9061.106629503563, -5850.591462921079, -8519.657971818206, -6252.654642183143, -9357.177836558561, -11321.739711968865, -7356.920225253132, -6022.364619060114, -6713.167633195834, -10311.038531188791, -9883.986101625695, -14097.871076806912, 0.00425, 0.23375, 0.94875, 192.0, 0.0, 0.0, 0.0, 0.0, 0.0, 0.0, 0.0, 0.0, 0.0, 1.644587247065403E9, 0.0, 2022-02-12 00:47:27.065
50.0, -9227.403608251048, -8762.532027069572, -6635.271803769088, -10126.90486036597, -9053.708202088857, -5841.20373024985, -8531.97378301308, -6250.173598548603, -9356.999022602919, -11334.01081967483, -7361.9493677555765, -6038.793151234764, -6709.077263960513, -10308.959818954447, -9894.424366286323, -14079.609701586927, 0.00425, 0.23375, 0.94875, 192.0, 0.0, 0.0, 0.0, 0.0, 0.0, 0.0, 0.0, 0.0, 0.0, 1.644587247072004E9, 0.0, 2022-02-12 00:47:27.072
52.0, -9203.8225178507, -8742.415457059797, -6625.124111786379, -10139.220671560844, -9052.590614866092, -5831.905404556443, -8516.908707250202, -6239.064781554316, -9351.925176611565, -11297.197496556939, -7365.235074190507, -6046.683317027488, -6706.819737770526, -10308.199859642966, -9898.715901221742, -14059.180207154777, 0.00425, 0.23375, 0.94875, 192.0, 0.0, 0.0, 0.0, 0.0, 0.0, 0.0, 0.0, 0.0, 0.0, 1.644587247079995E9, 0.0, 2022-02-12 00:47:27.079
54.0, -9227.023628595309, -8761.526198569083, -6637.395219492343, -10149.278956565733, -9060.659594614459, -5846.724611130311, -8526.788178299448, -6244.250386267947, -9358.697755181522, -11343.398552346058, -7371.180638215618, -6046.370392605114, -6704.428101113809, -10316.112377180145, -9900.034654144603, -14119.664027650837, 0.00425, 0.23375, 0.94875, 192.0, 0.0, 0.0, 0.0, 0.0, 0.0, 0.0, 0.0, 0.0, 0.0, 1.644587247088029E9, 0.0, 2022-02-12 00:47:27.088
56.0, -9245.888500915587, -8786.649559336849, -6633.640126423851, -10140.070037850146, -9055.496341645283, -5833.045343523663, -8534.231309203065, -6247.312575258324, -9353.310984767793, -11320.040979390262, -7382.200048232085, -6054.417020609024, -6709.703112805261, -10311.999656200369, -9907.455433303767, -14052.564090796006, 0.005125, 0.232875, 0.9493750000000001, 192.0, 0.0, 24.0, 3.5, 32.0, 14.5, 88.0, 0.0, 0.0, 0.0, 1.644587247095225E9, 0.0, 2022-02-12 00:47:27.095
58.0, -9245.128541604106, -8787.16364945932, -6630.376771733377, -10162.779410216739, -9069.689699374401, -5847.886901841986, -8534.588937114351, -6259.695441686564, -9388.425575307081, -11345.834892491686, -7369.616016103747, -6045.498674571357, -6728.880909547915, -10316.559412069251, -9912.372817083933, -14120.379283473407, 0.005125, 0.232875, 0.9493750000000001, 192.0, 0.0, 0.0, 0.0, 0.0, 0.0, 0.0, 0.0, 0.0, 0.0, 1.644587247102583E9, 0.0, 2022-02-12 00:47:27.102
60.0, -9265.155704636063, -8803.167498489322, -6650.895673143348, -10159.493703781809, -9079.74798437929, -5857.766372891232, -8565.523751440496, -6283.567104764832, -9394.169973632095, -11366.711421812943, -7387.385652945716, -6068.923302760519, -6729.864386303948, -10333.010295988357, -9923.34752361149, -14111.21506824673, 0.005125, 0.232875, 0.9493750000000001, 192.0, 0.0, 0.0, 0.0, 0.0, 0.0, 0.0, 0.0, 0.0, 0.0, 1.644587247109665E9, 0.0, 2022-02-12 00:47:27.109
62.0, -9241.35109679116, -8795.41144316333, -6630.197957777734, -10161.684174738428, -9071.32137671964, -5858.615739180535, -8547.463541920608, -6277.353319806257, -9388.246761351438, -11352.316898383726, -7394.4711559380485, -6066.330500403703, -6723.024752500624, -10353.439790420509, -9935.3951138729, -14100.329768696996, 0.005125, 0.232875, 0.9493750000000001, 192.0, 0.0, 0.0, 0.0, 0.0, 0.0, 0.0, 0.0, 0.0, 0.0, 1.644587247117701E9, 0.0, 2022-02-12 00:47:27.117
64.0, -9269.760163993855, -8817.249097496164, -6636.098818313935, -10171.96597718787, -9078.362176223061, -5863.06373632714, -8545.1166087528, -6263.942273133072, -9409.346808117249, -11385.620997622133, -7391.99011230351, -6064.0059189803505, -6719.895508276882, -10338.039438490801, -9934.568099328053, -14161.595900248993, 0.005125, 0.232875, 0.9493750000000001, 192.0, 0.0, 0.0, 0.0, 0.0, 0.0, 0.0, 0.0, 0.0, 0.0, 1.644587247124813E9, 0.0, 2022-02-12 00:47:27.124
66.0, -9264.395745324582, -8798.36187343143, -6634.847120624438, -10155.090410124114, -9066.448696428382, -5861.767335148733, -8546.815341331405, -6276.839229683785, -9397.410976578114, -11354.14974142906, -7408.709217156079, -6072.588988851188, -6728.255060703166, -10342.733304826415, -9939.86546276396, -14089.019786002611, 0.006562500000000001, 0.23343750000000002, 0.9476875, 192.0, 0.0, 32.0, 3.5, 40.0, 14.5, 72.0, 0.0, 0.0, 0.0, 1.64458724713238E9, 0.0, 2022-02-12 00:47:27.132
68.0, -9270.11779190514, -8812.823452094013, -6634.377733990877, -10186.136983172535, -9092.197906040896, -5869.098707330073, -8554.996079802046, -6281.913075675139, -9414.308895386326, -11363.895102011575, -7410.095025312308, -6061.793096279275, -6744.281261477621, -10316.894688236081, -9951.309555925078, -14156.454999024272, 0.006562500000000001, 0.23343750000000002, 0.9476875, 192.0, 0.0, 0.0, 0.0, 0.0, 0.0, 0.0, 0.0, 0.0, 0.0, 1.644587247140316E9, 0.0, 2022-02-12 00:47:27.140
70.0, -9289.40734737007, -8830.74955114717, -6653.667289455806, -10184.237084893834, -9090.365062995561, -5880.051062113173, -8571.581074187885, -6287.501011788966, -9414.867688997709, -11396.841573338697, -7419.125130072252, -6101.556849665267, -6744.303613222077, -10335.468987878441, -9958.819742062062, -14145.32383028553, 0.006562500000000001, 0.23343750000000002, 0.9476875, 192.0, 0.0, 0.0, 0.0, 0.0, 0.0, 0.0, 0.0, 0.0, 0.0, 1.64458724714832E9, 0.0, 2022-02-12 00:47:27.148
72.0, -9280.086669932207, -8837.835054139501, -6638.4904549706525, -10191.210829163889, -9096.154164809486, -5888.20944883936, -8565.680213651684, -6285.288189087891, -9427.921107759608, -11391.566561647245, -7424.847176652811, -6088.078747758716, -6738.603918385973, -10376.506790698384, -9968.54275090012, -14130.571678945027, 0.006562500000000001, 0.23343750000000002, 0.9476875, 192.0, 0.0, 0.0, 0.0, 0.0, 0.0, 0.0, 0.0, 0.0, 0.0, 1.644587247155783E9, 0.0, 2022-02-12 00:47:27.155
74.0, -9296.872830018143, -8846.284013543607, -6648.191112064256, -10203.638399081041, -9110.503984749792, -5893.26094308626, -8583.65101619375, -6312.669076045642, -9449.088209758784, -11426.032951597328, -7414.677132925646, -6087.7211198474315, -6758.161694784367, -10371.0976685402, -9971.783753846139, -14198.453926855795, 0.006562500000000001, 0.23343750000000002, 0.9476875, 192.0, 0.0, 0.0, 0.0, 0.0, 0.0, 0.0, 0.0, 0.0, 0.0, 1.644587247162717E9, 0.0, 2022-02-12 00:47:27.162
76.0, -9296.738719551411, -8829.341391246486, -6646.31356553001, -10192.596637320119, -9109.922839393956, -5889.774070951232, -8591.36236803083, -6302.141404407193, -9429.441026382568, -11397.936808817007, -7428.579917976847, -6108.418835213046, -6754.8312848605265, -10359.698278867994, -9982.758460373696, -14133.142129557387, 0.00628125, 0.23371875000000003, 0.94684375, 192.0, 0.0, 24.0, 3.5, 40.0, 14.5, 72.0, 0.0, 0.0, 0.0, 1.64458724717046E9, 0.0, 2022-02-12 00:47:27.170
78.0, -9293.564771838757, -8844.674687942826, -6643.497245728641, -10213.339056174644, -9119.42233078746, -5900.994646667797, -8577.07960332389, -6314.099587690782, -9453.670317372122, -11411.414910723557, -7427.082351098341, -6103.881431088618, -6759.748668640694, -10390.767203660871, -9985.731242386251, -14197.626912310949, 0.00628125, 0.23371875000000003, 0.94684375, 192.0, 0.0, 0.0, 0.0, 0.0, 0.0, 0.0, 0.0, 0.0, 0.0, 1.644587247185249E9, 0.0, 2022-02-12 00:47:27.185
80.0, -9311.692036592012, -8875.922426691344, -6663.703222716239, -10214.50134688632, -9119.13175810954, -5909.912992705464, -8603.61112399234, -6321.5203668499435, -9460.375840708713, -11438.818149425764, -7460.140581147741, -6110.229326513926, -6765.269549521155, -10394.76816591837, -9995.253085524213, -14188.9991389512, 0.00628125, 0.23371875000000003, 0.94684375, 192.0, 0.0, 0.0, 0.0, 0.0, 0.0, 0.0, 0.0, 0.0, 0.0, 1.644587247192282E9, 0.0, 2022-02-12 00:47:27.192
82.0, -9300.247943430895, -8871.362670822462, -6652.348536532943, -10222.972658034882, -9117.768301697768, -5904.593277525101, -8592.010568620035, -6317.720570292541, -9456.665451129133, -11417.695750915498, -7457.436020068649, -6112.330390492724, -6739.743857353194, -10386.989758847923, -10003.255010039213, -14168.033202652123, 0.00628125, 0.23371875000000003, 0.94684375, 192.0, 0.0, 0.0, 0.0, 0.0, 0.0, 0.0, 0.0, 0.0, 0.0, 1.644587247199807E9, 0.0, 2022-02-12 00:47:27.199
84.0, -9343.6550311631, -8880.884513960424, -6663.658519227329, -10247.291356002255, -9141.438799075937, -5922.6981905339, -8606.650961238262, -6322.034456972416, -9479.844210129288, -11449.234062341937, -7444.8296361958555, -6114.5432131938005, -6789.588247488528, -10387.637959437128, -10010.765196176195, -14239.312915720096, 0.00628125, 0.23371875000000003, 0.94684375, 192.0, 0.0, 0.0, 0.0, 0.0, 0.0, 0.0, 0.0, 0.0, 0.0, 1.644587247207814E9, 0.0, 2022-02-12 00:47:27.207
86.0, -9350.651127177613, -8883.23144712823, -6663.926740160792, -10237.478940186375, -9132.274583849261, -5928.17436792545, -8614.161147375244, -6326.616564585754, -9472.266968758937, -11436.985306380428, -7459.827656725366, -6144.874530419652, -6784.872029408459, -10409.0062271364, -10023.058655626613, -14176.66097601187, 0.008, 0.24, 0.9540000000000001, 192.0, 0.0, 32.0, 3.5, 64.0, 14.5, 104.0, 0.0, 0.0, 0.0, 1.644587247217303E9, 0.0, 2022-02-12 00:47:27.217
88.0, -9341.12928403965, -8879.811630226568, -6652.527350488585, -10260.233016041877, -9149.15015091302, -5928.107312692084, -8626.186385892199, -6344.16268398317, -9500.810146428365, -11450.709277475988, -7455.893749701232, -6130.323544779247, -6785.542581742118, -10412.582506249251, -10028.17720510688, -14243.850319844523, 0.008, 0.24, 0.9540000000000001, 192.0, 0.0, 0.0, 0.0, 0.0, 0.0, 0.0, 0.0, 0.0, 0.0, 1.644587247223803E9, 0.0, 2022-02-12 00:47:27.223
90.0, -9358.340127270238, -8892.440365843817, -6673.917969932315, -10256.924957862491, -9140.455322319904, -5932.2870889052265, -8637.406961608764, -6359.004242301494, -9506.956876153574, -11471.876379475163, -7477.753755778523, -6147.936719410029, -6780.781660173137, -10398.545610731318, -10037.587289522564, -14235.15549125141, 0.008, 0.24, 0.9540000000000001, 192.0, 0.0, 0.0, 0.0, 0.0, 0.0, 0.0, 0.0, 0.0, 0.0, 1.644587247230409E9, 0.0, 2022-02-12 00:47:27.230
92.0, -9353.13217081215, -8918.457796389794, -6663.36794654941, -10253.080457816179, -9150.200682902418, -5933.047048216707, -8624.867632969337, -6335.467855390055, -9502.888858662709, -11460.36523108068, -7486.605046582824, -6138.571338483255, -6788.560067243585, -10434.509567559906, -10043.488150058765, -14210.300351417107, 0.008, 0.24, 0.9540000000000001, 192.0, 0.0, 0.0, 0.0, 0.0, 0.0, 0.0, 0.0, 0.0, 0.0, 1.644587247237794E9, 0.0, 2022-02-12 00:47:27.237
94.0, -9359.167141815084, -8928.046694761122, -6668.665309985317, -10275.789830182772, -9160.661299307501, -5943.9099960219855, -8641.787903522003, -6345.928471795139, -9526.69346650761, -11504.845202546741, -7482.2241046695835, -6144.2486815749035, -6798.886573181936, -10423.02077090988, -10050.148969906446, -14280.77540168469, 0.008, 0.24, 0.9540000000000001, 192.0, 0.0, 0.0, 0.0, 0.0, 0.0, 0.0, 0.0, 0.0, 0.0, 1.644587247245469E9, 0.0, 2022-02-12 00:47:27.245
96.0, -9351.813417889289, -8911.439348630827, -6661.624510481895, -10265.440972499964, -9148.367839857083, -5942.658298332489, -8639.440970354197, -6346.107285750782, -9507.605076742779, -11475.296196376825, -7496.551572865435, -6171.562513299288, -6798.216020848277, -10421.657314498105, -10055.535740320176, -14215.105976474999, 0.006, 0.242, 0.9500000000000001, 192.0, 0.0, 24.0, 3.5, 72.0, 14.5, 88.0, 0.0, 0.0, 0.0, 1.644587247252133E9, 0.0, 2022-02-12 00:47:27.252
98.0, -9369.538351242347, -8924.090435992532, -6659.255225569633, -10287.904475677547, -9170.674880823479, -5944.066458233173, -8647.197025680189, -6362.759335369985, -9522.133710638727, -11494.22812393047, -7491.656540829724, -6155.648071247109, -6816.700913512816, -10433.25786987041, -10061.078972945092, -14275.835666160068, 0.006, 0.242, 0.9500000000000001, 192.0, 0.0, 0.0, 0.0, 0.0, 0.0, 0.0, 0.0, 0.0, 0.0, 1.644587247260103E9, 0.0, 2022-02-12 00:47:27.260
100.0, -9410.710264529022, -8942.910604823901, -6676.577827522497, -10282.674167475006, -9175.34639541464, -5959.623272374067, -8673.460325415173, -6380.59602744532, -9536.416475345668, -11512.37774042818, -7501.938343279165, -6162.778277728353, -6819.5172333141845, -10446.221881654488, -10079.496810376264, -14272.929939380878, 0.006, 0.242, 0.9500000000000001, 192.0, 0.0, 0.0, 0.0, 0.0, 0.0, 0.0, 0.0, 0.0, 0.0, 1.644587247268213E9, 0.0, 2022-02-12 00:47:27.268
102.0, -9395.712243999511, -8929.901889550913, -6672.778030965094, -10300.644970017072, -9179.973206516886, -5961.858446819598, -8652.002650738079, -6370.850666862806, -9544.150178927204, -11498.60906584371, -7504.5311456359805, -6173.261245877891, -6809.123672142467, -10449.172311922588, -10084.056566245148, -14254.288584505151, 0.006, 0.242, 0.9500000000000001, 192.0, 0.0, 0.0, 0.0, 0.0, 0.0, 0.0, 0.0, 0.0, 0.0, 1.644587247274976E9, 0.0, 2022-02-12 00:47:27.274
104.0, -9401.546049302346, -8977.980491874278, -6684.423289826309, -10313.407816101053, -9202.168488761006, -5974.598941159123, -8671.515723647562, -6374.248132020013, -9565.6078536043, -11531.063798792817, -7516.891660319765, -6178.6480162916205, -6838.940899245847, -10441.483311829963, -10088.37045292502, -14323.199012660863, 0.006, 0.242, 0.9500000000000001, 192.0, 0.0, 0.0, 0.0, 0.0, 0.0, 0.0, 0.0, 0.0, 0.0, 1.644587247282737E9, 0.0, 2022-02-12 00:47:27.282
106.0, -9422.95902049053, -8976.438221506862, -6689.161859650834, -10302.723682251417, -9180.15202047253, -5970.508571923801, -8668.945273035202, -6384.6193414472755, -9566.211350704592, -11530.326191225791, -7541.0985995648625, -6194.450699621523, -6821.953573459813, -10473.78158256788, -10101.602685642563, -14262.782247398169, 0.008, 0.24, 0.9520000000000001, 192.0, 0.0, 32.0, 3.5, 64.0, 14.5, 96.0, 0.0, 0.0, 0.0, 1.644587247290924E9, 0.0, 2022-02-12 00:47:27.290
108.0, -9411.023188951396, -8963.943596356345, -6686.054967171546, -10321.297981893777, -9203.599000406146, -5977.281150493759, -8673.013290526067, -6389.31320778289, -9585.6126648918, -11540.071551808305, -7531.48734944908, -6181.665501793087, -6832.861224754003, -10471.658166844627, -10101.155650753457, -14323.35547487205, 0.008, 0.24, 0.9520000000000001, 192.0, 0.0, 0.0, 0.0, 0.0, 0.0, 0.0, 0.0, 0.0, 0.0, 1.644587247304486E9, 0.0, 2022-02-12 00:47:27.304
110.0, -9423.987200735475, -8979.656872708425, -6700.650656300862, -10313.966609712435, -9196.066462524708, -5979.203400516916, -8679.070613273456, -6389.0226351049705, -9584.360967202303, -11542.150264042648, -7540.048067575463, -6196.8423362782405, -6833.151797431922, -10475.793239568859, -10109.828127602117, -14311.196125888364, 0.008, 0.24, 0.9520000000000001, 192.0, 0.0, 0.0, 0.0, 0.0, 0.0, 0.0, 0.0, 0.0, 0.0, 1.644587247312358E9, 0.0, 2022-02-12 00:47:27.312
112.0, -9424.903622258142, -8954.689974151846, -6683.596275281463, -10330.305734909265, -9204.828346351189, -5980.678615650966, -8683.518610420062, -6398.432719520655, -9581.634054378756, -11527.33105746878, -7544.160788555239, -6203.301990425824, -6858.521027388696, -10464.997346996946, -10116.444243960887, -14288.084422121576, 0.008, 0.24, 0.9520000000000001, 192.0, 0.0, 0.0, 0.0, 0.0, 0.0, 0.0, 0.0, 0.0, 0.0, 1.644587247320418E9, 0.0, 2022-02-12 00:47:27.320
114.0, -9453.15622724965, -8997.672378739402, -6694.503926575652, -10352.791589831304, -9222.463872726426, -6006.271363052293, -8707.546735709517, -6414.771844717485, -9612.814737893908, -11565.396078276168, -7534.258965761539, -6202.184403203059, -6858.4316204108745, -10476.843771558259, -10125.831976632116, -14366.583748648614, 0.008, 0.24, 0.9520000000000001, 192.0, 0.0, 0.0, 0.0, 0.0, 0.0, 0.0, 0.0, 0.0, 0.0, 1.644587247327558E9, 0.0, 2022-02-12 00:47:27.327
116.0, -9455.659622628644, -9016.246678381764, -6695.75562426515, -10338.106493724168, -9204.493070184359, -5992.100357067628, -8693.018101813568, -6406.07701612437, -9603.248191267037, -11542.820816376307, -7555.224902060617, -6228.402999449134, -6856.956405276824, -10507.309199250842, -10130.01175284526, -14301.182544372386, 0.006, 0.24, 0.9440000000000001, 192.0, 0.0, 24.0, 3.5, 64.0, 14.5, 64.0, 0.0, 0.0, 0.0, 1.644587247335036E9, 0.0, 2022-02-12 00:47:27.335
118.0, -9440.572195121313, -9013.676227769403, -6699.04133070008, -10360.838217835215, -9233.595041465169, -6007.456005508424, -8710.184241555244, -6423.690190755152, -9614.178194305683, -11586.786697719896, -7555.895454394276, -6201.5362026138555, -6839.857320768514, -10488.511382163928, -10139.95827912787, -14362.828655580122, 0.006, 0.24, 0.9440000000000001, 192.0, 0.0, 0.0, 0.0, 0.0, 0.0, 0.0, 0.0, 0.0, 0.0, 1.644587247343279E9, 0.0, 2022-02-12 00:47:27.343
120.0, -9472.199913525572, -9024.919155230422, -6709.859575016449, -10358.37952594513, -9230.912832130532, -6016.106130612628, -8728.043285375034, -6431.021562936493, -9618.246211796548, -11607.283247385412, -7564.903207409765, -6225.832548836774, -6874.524876418695, -10506.996274828467, -10155.425686290942, -14364.996774792287, 0.006, 0.24, 0.9440000000000001, 192.0, 0.0, 0.0, 0.0, 0.0, 0.0, 0.0, 0.0, 0.0, 0.0, 1.644587247350913E9, 0.0, 2022-02-12 00:47:27.350
122.0, -9465.5837971668, -9024.181547663396, -6698.057853944047, -10369.734212128427, -9231.672791442012, -6007.1877845749605, -8712.978209612156, -6430.954507703127, -9621.420159509202, -11583.970377918527, -7565.394945787782, -6229.878214583185, -6860.242111711755, -10493.384062455185, -10154.643375235008, -14337.571184345627, 0.006, 0.24, 0.9440000000000001, 192.0, 0.0, 0.0, 0.0, 0.0, 0.0, 0.0, 0.0, 0.0, 0.0, 1.644587247356775E9, 0.0, 2022-02-12 00:47:27.356
124.0, -9460.219378497528, -9028.115454687531, -6713.2346884292, -10384.95575010249, -9250.35884980665, -6028.28783134077, -8724.757578940103, -6432.183853648169, -9642.162578363726, -11610.412491609155, -7569.0382801339965, -6239.668278654609, -6875.821277597103, -10518.753292411959, -10161.684174738428, -14407.509792746281, 0.006, 0.24, 0.9440000000000001, 192.0, 0.0, 0.0, 0.0, 0.0, 0.0, 0.0, 0.0, 0.0, 0.0, 1.64458724736474E9, 0.0, 2022-02-12 00:47:27.364
126.0, -9482.839343886299, -9033.993963479277, -6718.889679776393, -10380.351290744698, -9239.07121885672, -6029.092494141161, -8733.96649765569, -6451.808685279928, -9637.982802150584, -11609.429014853122, -7591.077100166929, -6266.445668512067, -6874.2790072296875, -10539.920394411134, -10170.133134142534, -14345.081370482609, 0.002, 0.234, 0.9420000000000001, 192.0, 0.0, 8.0, 3.5, 40.0, 14.5, 56.0, 0.0, 0.0, 0.0, 1.644587247372819E9, 0.0, 2022-02-12 00:47:27.372
128.0, -9490.774213167932, -9049.975460764821, -6707.937324993292, -10397.875058397658, -9258.360774321649, -6042.212968136427, -8741.96842217069, -6457.508380116032, -9642.453151041645, -11615.687503300609, -7564.836152176399, -6243.110447300726, -6877.2741409866985, -10521.055522090855, -10178.515038313275, -14408.783842180233, 0.002, 0.234, 0.9420000000000001, 192.0, 0.0, 0.0, 0.0, 0.0, 0.0, 0.0, 0.0, 0.0, 0.0, 1.644587247379892E9, 0.0, 2022-02-12 00:47:27.379
130.0, -9533.331934610836, -9082.296083247194, -6733.865348561448, -10398.836183409237, -9268.486114559902, -6051.891273485574, -8762.487323580663, -6471.388813422777, -9677.835962514397, -11643.984811781027, -7596.575629302934, -6250.151246804148, -6893.367396994519, -10551.632708505716, -10191.210829163889, -14409.700263702902, 0.002, 0.234, 0.9420000000000001, 192.0, 0.0, 0.0, 0.0, 0.0, 0.0, 0.0, 0.0, 0.0, 0.0, 1.644587247387367E9, 0.0, 2022-02-12 00:47:27.387
132.0, -9493.389367269203, -9054.557568378159, -6715.46986287473, -10402.278352055353, -9260.819466211733, -6034.971002932907, -8740.649669247827, -6455.1167434593135, -9675.176104924216, -11626.461044128066, -7611.081911454429, -6267.138572590181, -6902.442205243374, -10543.94370841309, -10193.535410587241, -14377.469048198349, 0.002, 0.234, 0.9420000000000001, 192.0, 0.0, 0.0, 0.0, 0.0, 0.0, 0.0, 0.0, 0.0, 0.0, 1.644587247395354E9, 0.0, 2022-02-12 00:47:27.395
134.0, -9521.93254493863, -9076.127001777531, -6736.525206151629, -10417.835166196248, -9281.36071936616, -6052.628881052599, -8754.418343832296, -6470.6735576002075, -9701.193535470193, -11650.73503860653, -7621.877804026342, -6263.249369054958, -6911.025275114212, -10546.335345069809, -10202.476108369365, -14449.799293255723, 0.002, 0.234, 0.9420000000000001, 192.0, 0.0, 0.0, 0.0, 0.0, 0.0, 0.0, 0.0, 0.0, 0.0, 1.644587247403577E9, 0.0, 2022-02-12 00:47:27.403
136.0, -9543.88195799374, -9087.325225749639, -6738.425104430331, -10410.190869592532, -9267.279120359317, -6054.282910142292, -8768.142314927854, -6485.939799063182, -9691.5375818655, -11633.412436653667, -7636.31703094447, -6285.332892576801, -6919.0719031181225, -10556.661851008159, -10215.015437008791, -14385.090993057609, 0.006, 0.232, 0.9420000000000001, 192.0, 0.0, 24.0, 3.5, 32.0, 14.5, 56.0, 0.0, 0.0, 0.0, 1.644587247409943E9, 0.0, 2022-02-12 00:47:27.409
138.0, -9578.884789810752, -9105.720711436357, -6732.300726449576, -10434.643678026638, -9287.418042113548, -6057.322747388214, -8766.532989327072, -6470.0253570110035, -9728.35090498339, -11644.342439692313, -7621.721341815155, -6275.475773272011, -6917.46257751734, -10544.055467135366, -10223.129120246067, -14443.250232130318, 0.006, 0.232, 0.9420000000000001, 192.0, 0.0, 0.0, 0.0, 0.0, 0.0, 0.0, 0.0, 0.0, 0.0, 1.644587247418172E9, 0.0, 2022-02-12 00:47:27.418
140.0, -9566.926606527162, -9110.056949860687, -6747.410505701364, -10426.999381422924, -9298.236286429918, -6069.8173725387305, -8801.625228121904, -6505.408168483755, -9736.710457409676, -11650.958556051082, -7639.51333040158, -6292.016064168938, -6925.822129943625, -10574.431487850128, -10235.199062251933, -14445.172482153474, 0.006, 0.232, 0.9420000000000001, 192.0, 0.0, 0.0, 0.0, 0.0, 0.0, 0.0, 0.0, 0.0, 0.0, 1.644587247433247E9, 0.0, 2022-02-12 00:47:27.433
142.0, -9553.381449387247, -9088.912199605966, -6740.727334109228, -10433.63784952615, -9301.11966146465, -6061.6589858125435, -8787.40951864833, -6494.344054978377, -9731.435445718223, -11648.835140327828, -7654.690164886733, -6288.484488544999, -6929.3984090564745, -10579.035947207922, -10251.426428726487, -14424.05008364321, 0.006, 0.232, 0.9420000000000001, 192.0, 0.0, 0.0, 0.0, 0.0, 0.0, 0.0, 0.0, 0.0, 0.0, 1.644587247439534E9, 0.0, 2022-02-12 00:47:27.439
144.0, -9574.772068830976, -9139.8071217307, -6748.282223735121, -10451.899224746136, -9318.688132606523, -6075.718233074932, -8795.925533285801, -6511.57724995342, -9748.825102904451, -11699.752414197019, -7645.794170593521, -6286.495183288477, -6947.883301721014, -10558.785266731415, -10249.101847303134, -14493.653415877036, 0.006, 0.232, 0.9420000000000001, 192.0, 0.0, 0.0, 0.0, 0.0, 0.0, 0.0, 0.0, 0.0, 0.0, 1.644587247447714E9, 0.0, 2022-02-12 00:47:27.447
146.0, -9584.428022435668, -9133.347467583117, -6752.327889481532, -10436.54357630534, -9305.187678955517, -6071.158477206049, -8789.01884424911, -6497.182726524202, -9737.582175443433, -11684.776745411962, -7657.014746310085, -6303.706026519064, -6925.933888665902, -10568.41886859165, -10252.722829904895, -14429.258040101295, 0.004, 0.23600000000000002, 0.9500000000000001, 192.0, 0.0, 16.0, 3.5, 48.0, 14.5, 88.0, 0.0, 0.0, 0.0, 1.644587247457008E9, 0.0, 2022-02-12 00:47:27.457
148.0, -9583.399842190724, -9126.038447146231, -6743.253081232677, -10456.123704448188, -9323.6502198756, -6076.254674941859, -8798.898315298356, -6503.038883571492, -9760.202140832203, -11687.101326835314, -7648.565786905979, -6301.5602590513545, -6955.3487843690855, -10583.394537376707, -10260.210664297421, -14484.310386694717, 0.004, 0.23600000000000002, 0.9500000000000001, 192.0, 0.0, 0.0, 0.0, 0.0, 0.0, 0.0, 0.0, 0.0, 0.0, 1.644587247463477E9, 0.0, 2022-02-12 00:47:27.463
150.0, -9583.221028235082, -9131.67108674897, -6755.792409872104, -10458.35887889372, -9311.021484258352, -6084.167192479038, -8802.40753917784, -6517.008723856059, -9756.290585552524, -11701.78642294245, -7660.99335682313, -6311.283267889413, -6962.0990111945885, -10572.553941315884, -10266.156228322534, -14484.332738439172, 0.004, 0.23600000000000002, 0.9500000000000001, 192.0, 0.0, 0.0, 0.0, 0.0, 0.0, 0.0, 0.0, 0.0, 0.0, 1.6445872474701E9, 0.0, 2022-02-12 00:47:27.470
152.0, -9566.971310016073, -9104.290199791218, -6742.180197498822, -10459.945852750046, -9309.970952268954, -6076.165267964037, -8797.803079820047, -6507.129252806813, -9749.4509517492, -11672.326823750356, -7671.006938339107, -6325.074294218337, -6944.351726097075, -10594.19042994862, -10268.704327190439, -14454.224938657873, 0.004, 0.23600000000000002, 0.9500000000000001, 192.0, 0.0, 0.0, 0.0, 0.0, 0.0, 0.0, 0.0, 0.0, 0.0, 1.644587247478347E9, 0.0, 2022-02-12 00:47:27.478
154.0, -9571.106382740305, -9158.604938817614, -6754.42895346033, -10483.862219317225, -9332.859138591188, -6094.11371876165, -8813.27048698312, -6515.555860466464, -9767.757030458097, -11709.229553846068, -7666.581292936957, -6297.425186327123, -6954.90174947998, -10581.740508287014, -10277.309748805732, -14528.633895949592, 0.004, 0.23500000000000001, 0.9490000000000001, 192.0, 0.0, 16.0, 3.5, 40.0, 14.5, 80.0, 0.0, 0.0, 0.0, 1.644587247485657E9, 0.0, 2022-02-12 00:47:27.485
156.0, -9620.19081356416, -9173.468848880393, -6764.1072588094785, -10472.373422667197, -9325.058379776285, -6102.875602588129, -8821.115949286932, -6529.77156994004, -9768.382879302846, -11696.198486828624, -7688.530705992068, -6316.178299925125, -6946.832769731614, -10597.81141255038, -10290.2290571009, -14470.474656876882, 0.004, 0.23500000000000001, 0.9490000000000001, 192.0, 0.0, 0.0, 0.0, 0.0, 0.0, 0.0, 0.0, 0.0, 0.0, 1.644587247491917E9, 0.0, 2022-02-12 00:47:27.491
158.0, -9624.638810710765, -9170.764287801301, -6761.961491341769, -10498.010873557434, -9357.80368540331, -6119.460596973968, -8830.235461024698, -6533.504311264076, -9798.378920361867, -11737.325696626389, -7685.267351301593, -6323.844948273296, -6959.975595471335, -10603.846383553313, -10303.0813101627, -14527.851584893655, 0.004, 0.23500000000000001, 0.9490000000000001, 192.0, 0.0, 0.0, 0.0, 0.0, 0.0, 0.0, 0.0, 0.0, 0.0, 1.644587247501716E9, 0.0, 2022-02-12 00:47:27.501
160.0, -9630.271450313503, -9172.328909913173, -6776.62423570445, -10501.453042203551, -9348.281842265349, -6137.051419860294, -8839.377324506919, -6557.197160386701, -9807.744301288642, -11755.542368357465, -7696.0632438735065, -6348.0518875183925, -6996.09601451111, -10635.138825790742, -10309.920943966024, -14535.45117800846, 0.004, 0.23500000000000001, 0.9490000000000001, 192.0, 0.0, 0.0, 0.0, 0.0, 0.0, 0.0, 0.0, 0.0, 0.0, 1.644587247508789E9, 0.0, 2022-02-12 00:47:27.508
162.0, -9623.320057787903, -9176.285168681761, -6765.269549521155, -10511.980713842, -9351.165217300084, -6127.686038933521, -8838.41619949534, -6539.896910178293, -9799.943542473738, -11733.168272157702, -7709.42958705778, -6359.808905101884, -6975.778278801236, -10636.748151391525, -10314.57010681273, -14506.460965449925, 0.004, 0.23500000000000001, 0.9490000000000001, 192.0, 0.0, 0.0, 0.0, 0.0, 0.0, 0.0, 0.0, 0.0, 0.0, 1.644587247514952E9, 0.0, 2022-02-12 00:47:27.514
164.0, -9645.895319687763, -9214.05961681123, -6766.968282099758, -10527.448121005073, -9376.623854234678, -6146.372097298157, -8865.215941097253, -6564.7073465236845, -9828.307906187523, -11773.312005199434, -7708.870793446397, -6362.736983625529, -7006.333113471641, -10635.876433357767, -10324.583688328707, -14581.920454731042, 0.005, 0.2335, 0.9475, 192.0, 0.0, 24.0, 3.5, 32.0, 14.5, 72.0, 0.0, 0.0, 0.0, 1.644587247522813E9, 0.0, 2022-02-12 00:47:27.522
166.0, -9638.742761462065, -9219.49109071387, -6773.137363569423, -10508.762062640437, -9356.41787724708, -6140.068905361761, -8848.876815900423, -6556.124276652847, -9817.623772337887, -11756.391734646766, -7723.533537809079, -6360.144181268714, -6986.149488228499, -10636.748151391525, -10329.56812734224, -14515.714587654424, 0.005, 0.2335, 0.9475, 192.0, 0.0, 0.0, 0.0, 0.0, 0.0, 0.0, 0.0, 0.0, 0.0, 1.644587247532422E9, 0.0, 2022-02-12 00:47:27.532
168.0, -9646.923499932707, -9212.115015043619, -6763.10143030899, -10531.806711173858, -9375.6627292231, -6157.726783481453, -8867.473467287238, -6570.071765192958, -9832.510034145122, -11758.112818969825, -7721.208956385727, -6346.196692728602, -6994.151412743499, -10634.82590136837, -10335.67015357854, -14568.665870269046, 0.005, 0.2335, 0.9475, 192.0, 0.0, 0.0, 0.0, 0.0, 0.0, 0.0, 0.0, 0.0, 0.0, 1.644587247538576E9, 0.0, 2022-02-12 00:47:27.538
170.0, -9670.035203699494, -9197.072291025197, -6780.558142728584, -10527.93985938309, -9372.399374532626, -6161.101896894204, -8877.777621481137, -6582.275817665555, -9838.008563281128, -11787.281845484, -7728.294459378059, -6371.521219196466, -6997.459470922884, -10653.891939388746, -10344.18616821601, -14576.019594194842, 0.005, 0.2335, 0.9475, 192.0, 0.0, 0.0, 0.0, 0.0, 0.0, 0.0, 0.0, 0.0, 0.0, 1.644587247552324E9, 0.0, 2022-02-12 00:47:27.552
172.0, -9654.880720958796, -9209.29869524225, -6770.119878067956, -10532.097283851777, -9378.032014135362, -6154.821056702263, -8873.866066201457, -6565.243788390611, -9828.196147465247, -11752.949566000649, -7733.636526302877, -6393.045949106926, -7005.461395437885, -10643.699543917126, -10348.343592684698, -14537.373428031617, 0.005, 0.2335, 0.9475, 192.0, 0.0, 0.0, 0.0, 0.0, 0.0, 0.0, 0.0, 0.0, 0.0, 1.644587247560047E9, 0.0, 2022-02-12 00:47:27.560
174.0, -9658.971090194118, -9254.024535897319, -6781.429860762341, -10547.050600892378, -9397.43332832257, -6172.478934821956, -8885.176048895843, -6575.994977473614, -9860.896749603362, -11803.933895103204, -7729.747322767655, -6368.637844161731, -7008.277715239253, -10653.064924843899, -10360.234720734921, -14614.531649891336, 0.006500000000000001, 0.23375, 0.94875, 192.0, 0.0, 32.0, 3.5, 40.0, 14.5, 88.0, 0.0, 0.0, 0.0, 1.644587247567401E9, 0.0, 2022-02-12 00:47:27.567
176.0, -9669.990500210584, -9248.615413739135, -6780.62519796195, -10534.600679230773, -9378.657862980112, -6161.101896894204, -8879.342243593008, -6571.748146027106, -9847.3739442079, -11788.220618751124, -7749.9532997552515, -6387.323902526367, -7021.062913067689, -10659.502227247027, -10369.197770261499, -14548.30343107026, 0.006500000000000001, 0.23375, 0.94875, 192.0, 0.0, 0.0, 0.0, 0.0, 0.0, 0.0, 0.0, 0.0, 0.0, 1.644587247574702E9, 0.0, 2022-02-12 00:47:27.574
178.0, -9692.766927810542, -9248.011916638841, -6773.651453691895, -10558.85232196478, -9384.268150838394, -6163.873513206663, -8876.257702858175, -6571.502276838098, -9867.021127584116, -11808.650113183274, -7747.695773565266, -6383.769975157974, -6996.252476722298, -10642.24668052753, -10364.012165547869, -14596.829068282732, 0.006500000000000001, 0.23375, 0.94875, 192.0, 0.0, 0.0, 0.0, 0.0, 0.0, 0.0, 0.0, 0.0, 0.0, 1.644587247582956E9, 0.0, 2022-02-12 00:47:27.582
180.0, -9698.131346479815, -9238.132445589596, -6782.100413096001, -10558.628804520227, -9386.011586905908, -6174.334129611747, -8884.013758184166, -6583.0804804659465, -9874.017223598627, -11825.302162802478, -7755.362421913436, -6407.731045214063, -7025.108578814099, -10662.184436581665, -10373.936340086024, -14606.88735328762, 0.006500000000000001, 0.23375, 0.94875, 192.0, 0.0, 0.0, 0.0, 0.0, 0.0, 0.0, 0.0, 0.0, 0.0, 1.644587247590766E9, 0.0, 2022-02-12 00:47:27.590
182.0, -9677.165410180738, -9244.368582292627, -6773.4949914807075, -10555.61131901876, -9387.844429951243, -6167.718013252976, -8886.673615774347, -6582.275817665555, -9864.33891824948, -11790.52284843002, -7755.340070168981, -6409.653295237219, -7016.994895576822, -10671.169837852698, -10378.741965143916, -14571.906873215064, 0.006500000000000001, 0.23375, 0.94875, 192.0, 0.0, 0.0, 0.0, 0.0, 0.0, 0.0, 0.0, 0.0, 0.0, 1.644587247597573E9, 0.0, 2022-02-12 00:47:27.597
184.0, -9669.319947876924, -9274.02934718482, -6782.614503218473, -10566.653080779683, -9407.916296472109, -6184.79474601683, -8908.980656740745, -6596.536230628041, -9885.751889437663, -11831.001857638581, -7754.602462601956, -6397.069263108881, -7012.055160052199, -10665.984233139066, -10384.642825680117, -14642.538385693835, 0.00825, 0.233875, 0.948375, 192.0, 0.0, 40.0, 3.5, 40.0, 14.5, 80.0, 0.0, 0.0, 0.0, 1.644587247604398E9, 0.0, 2022-02-12 00:47:27.604
186.0, -9701.640570359299, -9267.21206512595, -6789.655302721894, -10561.243958621497, -9395.19815387704, -6185.778222772864, -8906.678427061848, -6596.78209981705, -9873.749002665163, -11818.373122021332, -7766.91827379683, -6394.878792152262, -7025.689724169937, -10688.850067716845, -10392.510639728385, -14583.6415390541, 0.00825, 0.233875, 0.948375, 192.0, 0.0, 0.0, 0.0, 0.0, 0.0, 0.0, 0.0, 0.0, 0.0, 1.644587247612468E9, 0.0, 2022-02-12 00:47:27.612
188.0, -9684.854410273363, -9270.07308841623, -6783.687386952328, -10586.881409511734, -9412.744273274455, -6191.433214120057, -8897.737729279725, -6599.710178340695, -9889.663444717342, -11814.819194652939, -7766.337128440992, -6405.965257402094, -7030.517700972284, -10675.528428021482, -10398.880886898147, -14633.776501867354, 0.00825, 0.233875, 0.948375, 192.0, 0.0, 0.0, 0.0, 0.0, 0.0, 0.0, 0.0, 0.0, 0.0, 1.644587247620362E9, 0.0, 2022-02-12 00:47:27.620
190.0, -9722.807672358475, -9273.939940206998, -6797.165488858877, -10580.354700130785, -9414.867688997709, -6193.221353676481, -8914.501537621205, -6595.105718982902, -9894.714938964242, -11859.388573096821, -7776.417765190336, -6429.479292569076, -7031.635288195049, -10688.715957250113, -10408.514488758385, -14642.001943826908, 0.00825, 0.233875, 0.948375, 192.0, 0.0, 0.0, 0.0, 0.0, 0.0, 0.0, 0.0, 0.0, 0.0, 1.644587247627064E9, 0.0, 2022-02-12 00:47:27.627
192.0, -9714.135195509816, -9295.844649773198, -6781.318102040065, -10582.0981361983, -9416.34290413176, -6196.685874067053, -8910.9029067639, -6600.514841141086, -9885.058985359548, -11838.892023431305, -7778.988215802696, -6419.912745942205, -7032.350544017619, -10697.83546898788, -10412.358988804697, -14603.825164297245, 0.00825, 0.233875, 0.948375, 192.0, 0.0, 0.0, 0.0, 0.0, 0.0, 0.0, 0.0, 0.0, 0.0, 1.644587247635031E9, 0.0, 2022-02-12 00:47:27.635
194.0, -9722.718265380654, -9309.903897035587, -6791.309331811587, -10604.896915542713, -9438.493482886968, -6205.827737549274, -8942.508273423706, -6617.3010012270215, -9919.838299732006, -11874.833628515438, -7785.179649016816, -6420.98562967606, -7028.595450949127, -10692.225181129597, -10423.780730221359, -14686.593674015247, 0.010125, 0.23593750000000002, 0.9481875, 192.0, 0.0, 48.0, 3.5, 56.0, 14.5, 80.0, 0.0, 0.0, 0.0, 1.644587247643204E9, 0.0, 2022-02-12 00:47:27.643
196.0, -9744.31005052448, -9310.46269064697, -6802.865183694981, -10605.366302176273, -9423.271944912905, -6217.271830710391, -8931.041828518133, -6623.626544907874, -9912.216354872746, -11864.529474321542, -7802.479899225224, -6443.069153197904, -7048.980241892367, -10715.225126174108, -10435.202471638022, -14627.182737253039, 0.010125, 0.23593750000000002, 0.9481875, 192.0, 0.0, 0.0, 0.0, 0.0, 0.0, 0.0, 0.0, 0.0, 0.0, 1.644587247650298E9, 0.0, 2022-02-12 00:47:27.650
198.0, -9724.68521889272, -9297.7445480519, -6795.243238835721, -10627.114549531289, -9448.596471380768, -6218.210603977514, -8942.016535045688, -6629.348591488432, -9925.761512012663, -11870.117410435369, -7795.528506699623, -6448.522978844998, -7057.518608274295, -10713.414634873228, -10440.611593796206, -14680.513999523402, 0.010125, 0.23593750000000002, 0.9481875, 192.0, 0.0, 0.0, 0.0, 0.0, 0.0, 0.0, 0.0, 0.0, 0.0, 1.644587247657608E9, 0.0, 2022-02-12 00:47:27.657
200.0, -9750.926166883251, -9329.03699028933, -6803.423977306364, -10612.42945342415, -9445.735448090489, -6226.23488023697, -8959.741468398746, -6636.992888092147, -9933.137587682913, -11895.151364225312, -7808.090187083506, -6459.832961539383, -7070.661434014015, -10722.712960566636, -10451.385134623664, -14687.24187460445, 0.010125, 0.23593750000000002, 0.9481875, 192.0, 0.0, 0.0, 0.0, 0.0, 0.0, 0.0, 0.0, 0.0, 0.0, 1.644587247665668E9, 0.0, 2022-02-12 00:47:27.665
202.0, -9772.562655515989, -9345.08554280824, -6804.563916273584, -10615.335180203341, -9450.451666170558, -6223.105636013226, -8957.416886975394, -6643.653707939829, -9925.403884101377, -11867.301090634, -7807.263172538659, -6443.0244497089925, -7061.273701342786, -10725.149300712264, -10456.771905037393, -14648.729818907956, 0.010125, 0.23593750000000002, 0.9481875, 192.0, 0.0, 0.0, 0.0, 0.0, 0.0, 0.0, 0.0, 0.0, 0.0, 1.644587247679231E9, 0.0, 2022-02-12 00:47:27.679
204.0, -9770.573350259465, -9368.174894830572, -6816.320933857076, -10639.877395615267, -9468.042489056885, -6234.728543129986, -8962.021346333187, -6637.976364848181, -9973.817762591572, -11925.952068084725, -7822.864690168463, -6458.357746405333, -7082.910189975523, -10730.491367637083, -10464.013870240911, -14728.458491380035, 0.0100625, 0.23696875, 0.9490937500000001, 192.0, 0.0, 40.0, 3.5, 56.0, 14.5, 88.0, 0.0, 0.0, 0.0, 1.644587247687635E9, 0.0, 2022-02-12 00:47:27.687
206.0, -9765.432449034744, -9336.055438048297, -6824.524024072173, -10636.546985691428, -9457.000727295963, -6233.56625241831, -8965.48586672376, -6644.45837074022, -9965.033527020638, -11895.129012480857, -7849.329155603547, -6488.420842697721, -7073.343643348652, -10733.218280460631, -10471.658166844627, -14669.338127295749, 0.0100625, 0.23696875, 0.9490937500000001, 192.0, 0.0, 0.0, 0.0, 0.0, 0.0, 0.0, 0.0, 0.0, 0.0, 1.64458724769527E9, 0.0, 2022-02-12 00:47:27.695
208.0, -9796.4119668498, -9347.90186260961, -6815.695085012328, -10658.429343513173, -9475.664433916145, -6237.500159442444, -8960.501427710227, -6647.274690541589, -9987.988768576237, -11884.266064675578, -7851.519626560167, -6498.210906769145, -7089.9733412234, -10720.947172754666, -10478.296634947854, -14715.62859006269, 0.0100625, 0.23696875, 0.9490937500000001, 192.0, 0.0, 0.0, 0.0, 0.0, 0.0, 0.0, 0.0, 0.0, 0.0, 1.644587247702368E9, 0.0, 2022-02-12 00:47:27.702
210.0, -9830.811301566519, -9410.978485462485, -6828.659096796406, -10647.856968385813, -9469.607111168756, -6248.228996780992, -8982.003805876233, -6650.694507443251, -10001.578629205063, -11939.340763013455, -7850.491446315223, -6486.18566825219, -7085.793565010258, -10746.070533522432, -10486.298559462854, -14728.838471035777, 0.0100625, 0.23696875, 0.9490937500000001, 192.0, 0.0, 0.0, 0.0, 0.0, 0.0, 0.0, 0.0, 0.0, 0.0, 1.64458724770993E9, 0.0, 2022-02-12 00:47:27.709
212.0, -9808.906592000318, -9389.990197418952, -6814.309276856098, -10653.646070199737, -9468.333061734804, -6253.6604706836315, -8981.623826220492, -6655.164856334312, -9984.188972018836, -11913.345684211932, -7854.090077172527, -6490.410147954243, -7087.40289061104, -10765.829475620923, -10491.260646731931, -14687.510095537913, 0.0100625, 0.23696875, 0.9490937500000001, 192.0, 0.0, 0.0, 0.0, 0.0, 0.0, 0.0, 0.0, 0.0, 0.0, 1.644587247718017E9, 0.0, 2022-02-12 00:47:27.718
214.0, -9823.211708451714, -9398.66267426761, -6826.155701417411, -10668.845256429346, -9492.562352724357, -6258.510799230433, -8996.867715939012, -6670.744022219661, -10007.233620552257, -11946.69448693925, -7849.597376537011, -6478.966054793126, -7109.061730988233, -10752.574891158925, -10495.328664222798, -14769.16101803315, 0.01203125, 0.23648437500000002, 0.9505468750000001, 192.0, 0.0, 56.0, 3.5, 48.0, 14.5, 96.0, 0.0, 0.0, 0.0, 1.644587247725853E9, 0.0, 2022-02-12 00:47:27.725
216.0, -9822.60821135142, -9375.685080967556, -6833.3082596431095, -10656.976480123578, -9485.320387520836, -6250.173598548603, -9004.377902075996, -6672.420403053809, -10002.629161194463, -11941.397123503342, -7864.148362177416, -6502.8377178713945, -7095.315408148219, -10767.997594833088, -10507.286847506386, -14705.682063780077, 0.01203125, 0.23648437500000002, 0.9505468750000001, 192.0, 0.0, 0.0, 0.0, 0.0, 0.0, 0.0, 0.0, 0.0, 0.0, 1.644587247732141E9, 0.0, 2022-02-12 00:47:27.732
218.0, -9789.237056879647, -9374.768659444888, -6820.947744959324, -10685.765526982013, -9497.256219059971, -6269.574912735809, -8995.012521149221, -6669.849952441448, -10017.515423001698, -11931.540004198552, -7859.409792352891, -6509.073854574425, -7106.401873398051, -10765.717716898647, -10512.584210942294, -14751.167863746628, 0.01203125, 0.23648437500000002, 0.9505468750000001, 192.0, 0.0, 0.0, 0.0, 0.0, 0.0, 0.0, 0.0, 0.0, 0.0, 1.644587247739874E9, 0.0, 2022-02-12 00:47:27.739
220.0, -9815.65681882582, -9404.697645270544, -6836.236338166755, -10681.831619957879, -9500.45251851708, -6272.055956370349, -9020.091178428076, -6701.1200429344235, -10015.481414256265, -11955.434019021275, -7877.201780939315, -6511.845470886883, -7123.500957906361, -10774.770173403045, -10520.519080223929, -14769.451590711069, 0.01203125, 0.23648437500000002, 0.9505468750000001, 192.0, 0.0, 0.0, 0.0, 0.0, 0.0, 0.0, 0.0, 0.0, 0.0, 1.644587247747521E9, 0.0, 2022-02-12 00:47:27.747
222.0, -9836.533348147077, -9394.415842821103, -6828.882614240959, -10679.998776912544, -9500.07253886134, -6254.822761395307, -9007.149518388453, -6688.156031150345, -10012.799204921628, -11934.199861788735, -7873.022004726173, -6520.0932645908915, -7105.820728042213, -10763.236673264108, -10529.70564719506, -14727.96675300202, 0.01203125, 0.23648437500000002, 0.9505468750000001, 192.0, 0.0, 0.0, 0.0, 0.0, 0.0, 0.0, 0.0, 0.0, 0.0, 1.64458724775572E9, 0.0, 2022-02-12 00:47:27.755
224.0, -9842.344801705456, -9422.981372234986, -6834.962288732802, -10701.389396356273, -9514.377655312735, -6273.464116271033, -9011.932791701889, -6701.65648480135, -10043.55520529213, -11967.950995916248, -7861.51085633169, -6510.414959241743, -7095.829498270691, -10756.240577249597, -10531.337324540296, -14799.872314914743, 0.009015625, 0.23424218750000003, 0.9532734375, 192.0, 0.0, 24.0, 3.5, 32.0, 14.5, 112.0, 0.0, 0.0, 0.0, 1.644587247763653E9, 0.0, 2022-02-12 00:47:27.763
226.0, -9843.082409272482, -9420.567383833812, -6840.796094035637, -10685.363195581818, -9499.6925592056, -6273.665281971131, -9020.202937150352, -6689.295970117566, -10014.69910320033, -11967.481609282686, -7890.255199701214, -6517.656924445263, -7134.252146989364, -10780.805144405978, -10538.892214166191, -14740.01434326343, 0.009015625, 0.23424218750000003, 0.9532734375, 192.0, 0.0, 0.0, 0.0, 0.0, 0.0, 0.0, 0.0, 0.0, 0.0, 1.644587247770403E9, 0.0, 2022-02-12 00:47:27.770
228.0, -9817.713179315708, -9413.347770374749, -6828.659096796406, -10707.469070848116, -9517.104568136283, -6280.52726751891, -9021.11935867302, -6695.107423675946, -10039.196615123346, -11963.301833069543, -7878.945217006829, -6513.834776143405, -7123.4562544174505, -10789.321159043451, -10543.004935145967, -14784.40490775167, 0.009015625, 0.23424218750000003, 0.9532734375, 192.0, 0.0, 0.0, 0.0, 0.0, 0.0, 0.0, 0.0, 0.0, 0.0, 1.644587247778168E9, 0.0, 2022-02-12 00:47:27.778
230.0, -9839.550833648544, -9429.999819993953, -6847.836893539059, -10714.912201751733, -9520.814957715864, -6289.445613556578, -9032.474044856315, -6712.85470877346, -10048.159664649924, -11987.844048481471, -7882.208571697304, -6542.020325901548, -7126.429036430006, -10787.667129953757, -10551.364487572251, -14800.587570737312, 0.009015625, 0.23424218750000003, 0.9532734375, 192.0, 0.0, 0.0, 0.0, 0.0, 0.0, 0.0, 0.0, 0.0, 0.0, 1.644587247785285E9, 0.0, 2022-02-12 00:47:27.785
232.0, -9858.214540268724, -9445.847206812765, -6837.398628878431, -10713.16876568422, -9518.848004203797, -6285.668168743631, -9029.434207610395, -6704.85278425846, -10043.242280869757, -11967.79453370506, -7902.526307407178, -6537.10294212138, -7125.199690484964, -10795.512592257572, -10562.89798771119, -14759.415657450636, 0.009015625, 0.23424218750000003, 0.9532734375, 192.0, 0.0, 0.0, 0.0, 0.0, 0.0, 0.0, 0.0, 0.0, 0.0, 1.644587247799731E9, 0.0, 2022-02-12 00:47:27.799
234.0, -9877.705261433752, -9469.718869891032, -6845.69112607135, -10738.202719474164, -9544.88778649423, -6310.277439388924, -9055.585748623103, -6732.546595638585, -10069.550284093653, -12004.227877167212, -7899.575877139077, -6524.8541861598715, -7141.9858505709, -10816.14325238982, -10570.743450015003, -14839.636068300733, 0.004, 0.234, 0.9460000000000001, 192.0, 0.0, 16.0, 3.5, 40.0, 14.5, 72.0, 0.0, 0.0, 0.0, 1.644587247807886E9, 0.0, 2022-02-12 00:47:27.807
236.0, -9883.3826045254, -9456.576044151312, -6848.440390639352, -10725.059893734444, -9534.673039278156, -6309.137500421703, -9060.100801003075, -6736.011116029158, -10064.431734613388, -12011.402787137366, -7909.343589466047, -6558.2476923761005, -7138.610737158148, -10824.703970516202, -10579.214761163565, -14784.851942640775, 0.004, 0.234, 0.9460000000000001, 192.0, 0.0, 0.0, 0.0, 0.0, 0.0, 0.0, 0.0, 0.0, 0.0, 1.644587247814479E9, 0.0, 2022-02-12 00:47:27.814
238.0, -9863.578958937998, -9451.099866759761, -6843.679469070372, -10751.569062658438, -9552.59913833131, -6314.211346413058, -9056.301004445673, -6728.344467680988, -10079.273292931712, -12015.180231950311, -7906.482566175768, -6559.789962743516, -7124.484434662394, -10822.535851304037, -10583.059261209877, -14826.6497047722, 0.004, 0.234, 0.9460000000000001, 192.0, 0.0, 0.0, 0.0, 0.0, 0.0, 0.0, 0.0, 0.0, 0.0, 1.644587247822443E9, 0.0, 2022-02-12 00:47:27.822
240.0, -9878.420517256322, -9473.473962959524, -6865.852399570036, -10763.057859308465, -9559.237606434537, -6323.576727339831, -9074.294158732195, -6743.47659867723, -10087.588141869086, -12045.66801138735, -7931.985906599272, -6575.637349562329, -7162.392993258595, -10819.987752436133, -10595.889162527224, -14842.407684613192, 0.004, 0.234, 0.9460000000000001, 192.0, 0.0, 0.0, 0.0, 0.0, 0.0, 0.0, 0.0, 0.0, 0.0, 1.644587247830488E9, 0.0, 2022-02-12 00:47:27.830
242.0, -9901.465165789743, -9494.97634112553, -6856.330556432075, -10757.827551105924, -9557.874150022764, -6335.624317601242, -9078.31747273415, -6753.870159848948, -10086.962293024337, -12027.831319312016, -7932.947031610851, -6579.817125775472, -7157.3862025006065, -10826.223889139163, -10605.478060898551, -14803.828573683331, 0.004, 0.234, 0.9460000000000001, 192.0, 0.0, 0.0, 0.0, 0.0, 0.0, 0.0, 0.0, 0.0, 0.0, 1.644587247838498E9, 0.0, 2022-02-12 00:47:27.838
244.0, -9918.720712509241, -9506.97922789803, -6864.8912745584585, -10773.406716991272, -9573.6097781193, -6353.528064909943, -9079.233894256819, -6758.76519188466, -10124.468520220342, -12063.638813929418, -7933.014086844217, -6575.458535606687, -7174.619397475648, -10852.017802240587, -10610.57425863436, -14883.04315603294, 0.004, 0.234, 0.9460000000000001, 192.0, 0.0, 0.0, 3.5, 56.0, 14.5, 80.0, 0.0, 0.0, 0.0, 1.644587247845016E9, 0.0, 2022-02-12 00:47:27.845
246.0, -9907.00839841466, -9489.567218967346, -6868.579312393584, -10757.55933017246, -9562.344498913824, -6349.370640441256, -9082.161972780463, -6743.09661902149, -10100.574505397619, -12034.179214737322, -7942.178302070893, -6591.350625914411, -7174.664100964559, -10862.076087245476, -10619.827880838857, -14819.005408168485, 0.004, 0.234, 0.9460000000000001, 192.0, 0.0, 0.0, 0.0, 0.0, 0.0, 0.0, 0.0, 0.0, 0.0, 1.644587247852235E9, 0.0, 2022-02-12 00:47:27.852
248.0, -9911.143471138892, -9499.536096994412, -6863.572521635595, -10782.101545584386, -9570.41347866219, -6345.772009583951, -9066.627510384025, -6748.3716307129425, -10114.074959048625, -12040.23653748471, -7941.217177059314, -6582.700500810207, -7161.074240335732, -10839.344363134429, -10617.905630815701, -14858.143312709728, 0.004, 0.234, 0.9460000000000001, 192.0, 0.0, 0.0, 0.0, 0.0, 0.0, 0.0, 0.0, 0.0, 0.0, 1.644587247860173E9, 0.0, 2022-02-12 00:47:27.860
250.0, -9924.822738745539, -9507.046283131396, -6872.692033373361, -10774.501952469582, -9573.095687996827, -6350.845855575306, -9090.186249039918, -6765.604825687984, -10122.09923530808, -12074.747630923704, -7950.314337052624, -6602.191221975234, -7163.555283970271, -10854.074162730476, -10625.326409974863, -14876.248225718526, 0.004, 0.234, 0.9460000000000001, 192.0, 0.0, 0.0, 0.0, 0.0, 0.0, 0.0, 0.0, 0.0, 0.0, 1.64458724786865E9, 0.0, 2022-02-12 00:47:27.868
252.0, -9901.845145445484, -9507.582724998323, -6860.756201834226, -10775.887760625812, -9571.106382740305, -6354.466838177066, -9090.208600784374, -6772.645625191406, -10116.801871872172, -12054.116970791456, -7968.732174483797, -6596.156250972302, -7158.928472868022, -10847.011011482598, -10633.015410067488, -14826.94027745012, 0.004, 0.234, 0.9460000000000001, 192.0, 0.0, 0.0, 0.0, 0.0, 0.0, 0.0, 0.0, 0.0, 0.0, 1.644587247874758E9, 0.0, 2022-02-12 00:47:27.874
254.0, -9920.687666021307, -9528.325143852848, -6868.489905415762, -10801.748728960602, -9594.531010929468, -6369.598969173309, -9099.305760777685, -6772.131535068934, -10134.347991269588, -12095.221828844766, -7954.784685943686, -6596.02214050557, -7188.008092404377, -10864.423020413282, -10640.279727015464, -14913.396825003247, 0.004, 0.234, 0.9460000000000001, 192.0, 0.0, 0.0, 3.5, 56.0, 14.5, 88.0, 0.0, 0.0, 0.0, 1.644587247882701E9, 0.0, 2022-02-12 00:47:27.882
0.0, -9947.554462856588, -9541.624431803755, -6879.486963687774, -10791.645740466804, -9590.239475994049, -6375.857457620795, -9101.272714289751, -6774.858447892481, -10131.62107844604, -12091.511439265185, -7980.1092124115485, -6620.40789370631, -7182.37545280164, -10882.751450866634, -10646.717029418593, -14851.750713795509, 0.004, 0.234, 0.9460000000000001, 192.0, 0.0, 0.0, 0.0, 0.0, 0.0, 0.0, 0.0, 0.0, 0.0, 1.644587247890749E9, 0.0, 2022-02-12 00:47:27.890
2.0, -9942.704134309786, -9530.873242720752, -6870.0545275276345, -10809.393025564317, -9608.880830869773, -6380.8642483787835, -9110.883964405533, -6788.627122476951, -10149.077790865635, -12091.712604965283, -7980.176267644914, -6615.132882014857, -7196.4794035529385, -10879.041061287053, -10656.529445234471, -14895.113098038806, 0.004, 0.234, 0.9460000000000001, 192.0, 0.0, 0.0, 0.0, 0.0, 0.0, 0.0, 0.0, 0.0, 0.0, 1.644587247897358E9, 0.0, 2022-02-12 00:47:27.897
4.0, -9959.646756606908, -9552.353269142302, -6883.666739900916, -10809.99652266461, -9607.495022713545, -6395.705806697108, -9114.572002240659, -6790.996407389213, -10160.454828793387, -12109.258724362699, -7981.249151378769, -6623.470082696686, -7204.280162367841, -10882.527933422081, -10659.993965625044, -14918.38126401678, 0.004, 0.234, 0.9460000000000001, 192.0, 0.0, 0.0, 0.0, 0.0, 0.0, 0.0, 0.0, 0.0, 0.0, 1.644587247905401E9, 0.0, 2022-02-12 00:47:27.905
6.0, -9938.211433674269, -9534.516577066968, -6875.038966541168, -10812.85754595489, -9599.604856920821, -6391.8389549063395, -9116.606010986092, -6787.196610831811, -10155.269224079755, -12095.1547736114, -7989.876924738518, -6626.733437387162, -7196.837031464223, -10901.705730164735, -10663.503189504527, -14875.04123151794, 0.004, 0.234, 0.9460000000000001, 192.0, 0.0, 0.0, 0.0, 0.0, 0.0, 0.0, 0.0, 0.0, 0.0, 1.644587247913447E9, 0.0, 2022-02-12 00:47:27.913
8.0, -9941.96652674276, -9560.310490168393, -6884.4937544457625, -10832.974115964666, -9619.09557808585, -6403.819489934384, -9132.676915249458, -6805.2568203516985, -10177.129230157047, -12128.056541449612, -7988.312302626647, -6637.864606125904, -7188.857458693678, -10889.613436414415, -10671.996852397544, -14955.798084234964, 0.008, 0.24, 0.9480000000000001, 192.0, 0.0, 32.0, 3.5, 64.0, 14.5, 80.0, 0.0, 0.0, 0.0, 1.644587247927026E9, 0.0, 2022-02-12 00:47:27.927
10.0, -9960.272605451657, -9557.315356411382, -6890.841649871069, -10817.23848786813, -9596.162688274704, -6396.085786352848, -9122.640981989025, -6800.96528541628, -10162.980575916836, -12112.030340675157, -8015.044988995193, -6649.152237075835, -7194.75831922988, -10910.311151780028, -10677.54008502246, -14895.873057350285, 0.008, 0.24, 0.9480000000000001, 192.0, 0.0, 0.0, 0.0, 0.0, 0.0, 0.0, 0.0, 0.0, 0.0, 1.644587247935043E9, 0.0, 2022-02-12 00:47:27.935
12.0, -9974.756535858696, -9577.633092121256, -6881.476268944296, -10841.400723624316, -9616.14514781775, -6408.021617891982, -9128.318325080672, -6809.168375631378, -10178.135058657535, -12121.440425090841, -8004.562020845655, -6656.640071468362, -7208.459938580983, -10892.67562540479, -10683.418593814205, -14934.943906658162, 0.008, 0.24, 0.9480000000000001, 192.0, 0.0, 0.0, 0.0, 0.0, 0.0, 0.0, 0.0, 0.0, 0.0, 1.644587247943062E9, 0.0, 2022-02-12 00:47:27.943
14.0, -10004.350245517522, -9609.976066348085, -6897.7036354188485, -10840.57370907947, -9628.349200290348, -6414.995362162038, -9148.636060790546, -6827.452102595819, -10202.364349647087, -12161.472399410297, -8004.986703990306, -6649.59927196494, -7219.613459064181, -10923.20810833074, -10693.722748008102, -14961.318965115424, 0.008, 0.24, 0.9480000000000001, 192.0, 0.0, 0.0, 0.0, 0.0, 0.0, 0.0, 0.0, 0.0, 0.0, 1.644587247949765E9, 0.0, 2022-02-12 00:47:27.949
16.0, -9976.388213203933, -9583.444545679635, -6890.238152770777, -10834.784607265545, -9621.218993809103, -6412.424911549677, -9144.09865666612, -6821.506538570708, -10189.377986118554, -12136.147872942433, -8014.575602361632, -6660.864551170415, -7219.099368941709, -10917.933096639288, -10698.371910854807, -14914.447356992647, 0.008, 0.24, 0.9480000000000001, 192.0, 0.0, 0.0, 0.0, 0.0, 0.0, 0.0, 0.0, 0.0, 0.0, 1.644587247957563E9, 0.0, 2022-02-12 00:47:27.957
18.0, -9984.725413885762, -9606.355083746324, -6903.000998854756, -10857.203406954219, -9648.152845877748, -6425.70184775613, -9152.994650959332, -6831.274250897676, -10209.852184039615, -12164.847512823048, -8022.465768154356, -6653.756696433627, -7229.4705783689715, -10921.911707152332, -10704.228067902097, -14991.404413152268, 0.006, 0.24, 0.9460000000000001, 192.0, 0.0, 24.0, 3.5, 64.0, 14.5, 72.0, 0.0, 0.0, 0.0, 1.644587247965662E9, 0.0, 2022-02-12 00:47:27.965
20.0, -10025.427940538877, -9596.60972316381, -6907.113719834533, -10848.173302194275, -9640.016810896017, -6429.345182102345, -9165.533979598758, -6843.5230068591845, -10215.954210275915, -12159.997184276246, -8049.35491673409, -6686.032615427091, -7239.3276976737625, -10944.35285858546, -10715.292181407474, -14938.363723559825, 0.006, 0.24, 0.9460000000000001, 192.0, 0.0, 0.0, 0.0, 0.0, 0.0, 0.0, 0.0, 0.0, 0.0, 1.644587247972872E9, 0.0, 2022-02-12 00:47:27.972
22.0, -10005.26666704019, -9618.402674007735, -6895.624923184505, -10871.10619200542, -9656.19947388166, -6429.278126868979, -9170.227845934372, -6837.331573645065, -10230.907527316514, -12156.17503597439, -8033.373419448545, -6682.054004914046, -7241.093485485731, -10952.824169734022, -10720.433082632195, -14974.864122255341, 0.006, 0.24, 0.9460000000000001, 192.0, 0.0, 0.0, 0.0, 0.0, 0.0, 0.0, 0.0, 0.0, 0.0, 1.644587247979367E9, 0.0, 2022-02-12 00:47:27.979
24.0, -10014.274420055679, -9625.734046189076, -6909.639466957983, -10871.888503061355, -9658.76992449402, -6440.051667696437, -9182.968340273897, -6850.496751129241, -10242.2175100109, -12181.45485895334, -8049.265509756269, -6694.034539942091, -7245.7873518213455, -10961.317832627039, -10726.535108868493, -14995.360671920858, 0.006, 0.24, 0.9460000000000001, 192.0, 0.0, 0.0, 0.0, 0.0, 0.0, 0.0, 0.0, 0.0, 0.0, 1.644587247987337E9, 0.0, 2022-02-12 00:47:27.987
26.0, -9999.723434415273, -9629.958525891128, -6909.773577424715, -10874.72717460718, -9643.14605511976, -6435.514263572009, -9161.421258618982, -6849.02153599519, -10229.387608693554, -12173.65410013844, -8066.163428564481, -6685.719691004717, -7256.069154270787, -10955.774600002123, -10732.07834149341, -14950.210148121138, 0.006, 0.24, 0.9460000000000001, 192.0, 0.0, 0.0, 0.0, 0.0, 0.0, 0.0, 0.0, 0.0, 0.0, 1.644587247995284E9, 0.0, 2022-02-12 00:47:27.995
28.0, -10026.970210906293, -9631.724313703098, -6919.585993240595, -10903.49386972116, -9671.309253133448, -6443.292670642456, -9176.463982637404, -6854.453009897829, -10244.184463522966, -12196.452879482851, -8056.127495304048, -6682.545743292063, -7264.875741586178, -10944.26345160764, -10738.828568318911, -15028.553012436989, 0.006, 0.23800000000000002, 0.9480000000000001, 192.0, 0.0, 24.0, 3.5, 56.0, 14.5, 80.0, 0.0, 0.0, 0.0, 1.644587248002453E9, 0.0, 2022-02-12 00:47:28.002
30.0, -10043.398743080943, -9642.6766684862, -6924.078693876111, -10883.734927622669, -9662.167389651226, -6451.138132946269, -9181.381366417572, -6867.394669937453, -10238.507120431319, -12194.754146904248, -8064.330585519146, -6721.5495373665735, -7257.432610682561, -10963.59771056148, -10745.981126544611, -14970.527883831011, 0.006, 0.23800000000000002, 0.9480000000000001, 192.0, 0.0, 0.0, 0.0, 0.0, 0.0, 0.0, 0.0, 0.0, 0.0, 1.644587248009816E9, 0.0, 2022-02-12 00:47:28.009
32.0, -10020.085873614058, -9653.67372675821, -6911.114682092033, -10897.749471396146, -9682.082793960904, -6457.486028371576, -9193.652474123535, -6869.249864727243, -10258.958966607925, -12196.966969605324, -8060.4637337283775, -6713.257040173655, -7265.211017753008, -10973.74540254419, -10752.17255975873, -15005.754233092575, 0.006, 0.23800000000000002, 0.9480000000000001, 192.0, 0.0, 0.0, 0.0, 0.0, 0.0, 0.0, 0.0, 0.0, 0.0, 1.644587248017889E9, 0.0, 2022-02-12 00:47:28.017
34.0, -10060.94486247836, -9655.886549459285, -6931.812397457647, -10899.15763129683, -9684.92146550673, -6472.461697156632, -9214.707817400435, -6886.661873657928, -10252.208739782422, -12226.985362408801, -8062.83301864064, -6706.9314964928035, -7278.264436514907, -10969.140943186396, -10763.41548721975, -15032.26340201657, 0.006, 0.23800000000000002, 0.9480000000000001, 192.0, 0.0, 0.0, 0.0, 0.0, 0.0, 0.0, 0.0, 0.0, 0.0, 1.644587248024944E9, 0.0, 2022-02-12 00:47:28.024
36.0, -10079.317996420623, -9681.658110816254, -6931.253603846265, -10908.902991879344, -9680.96520673814, -6467.879589543294, -9195.977055546888, -6876.625940397495, -10276.952120894448, -12218.22347858232, -8087.844620686129, -6719.917860021336, -7280.901942360633, -10987.13409747292, -10770.791562890001, -14982.955453748162, 0.006, 0.23800000000000002, 0.9480000000000001, 192.0, 0.0, 0.0, 0.0, 0.0, 0.0, 0.0, 0.0, 0.0, 0.0, 1.644587248032513E9, 0.0, 2022-02-12 00:47:28.032
38.0, -10055.826312998095, -9673.969110723629, -6930.694810234882, -10926.136186854386, -9703.451061660178, -6475.926217547205, -9215.668942412012, -6885.1419550349665, -10301.51668805083, -12242.89980446098, -8084.804783440207, -6727.3609909249535, -7302.627837971192, -10992.118536486452, -10776.75947865957, -15064.002879143105, 0.004, 0.23800000000000002, 0.9460000000000001, 192.0, 0.0, 16.0, 3.5, 56.0, 14.5, 72.0, 0.0, 0.0, 0.0, 1.644587248047455E9, 0.0, 2022-02-12 00:47:28.047
40.0, -10058.396763610455, -9659.596939038865, -6936.0368771597, -10909.528840724093, -9686.73195680761, -6464.370365663811, -9217.434730223982, -6885.633693412983, -10285.110507620635, -12219.072844871622, -8108.4752808183775, -6734.424142172831, -7295.162355323119, -10975.488838611704, -10782.637987451315, -15003.943741791696, 0.004, 0.23800000000000002, 0.9460000000000001, 192.0, 0.0, 0.0, 0.0, 0.0, 0.0, 0.0, 0.0, 0.0, 0.0, 1.644587248054474E9, 0.0, 2022-02-12 00:47:28.054
42.0, -10076.859304530539, -9652.667898257721, -6930.270127090232, -10926.49381476567, -9700.679445347721, -6471.858200056338, -9214.260782511328, -6898.329484263598, -10296.912228693036, -12202.264333041232, -8096.897077190528, -6714.888717518892, -7296.68227394608, -10966.950472229777, -10784.157906074275, -15036.219660785158, 0.004, 0.23800000000000002, 0.9460000000000001, 192.0, 0.0, 0.0, 0.0, 0.0, 0.0, 0.0, 0.0, 0.0, 0.0, 1.644587248062183E9, 0.0, 2022-02-12 00:47:28.062
44.0, -10106.76593861174, -9698.198401713182, -6942.094199907089, -10932.34997181296, -9704.92627679423, -6483.23523798409, -9233.39387576507, -6903.939772121879, -10323.488452850397, -12235.031990412712, -8099.802803969718, -6735.80995032906, -7311.9261636646, -10999.785184834622, -10793.18801083422, -15065.925129166262, 0.004, 0.23800000000000002, 0.9460000000000001, 192.0, 0.0, 0.0, 0.0, 0.0, 0.0, 0.0, 0.0, 0.0, 0.0, 1.644587248070136E9, 0.0, 2022-02-12 00:47:28.070
46.0, -10088.303397691656, -9701.305294192469, -6935.321621337131, -10929.198375844762, -9699.897134291785, -6487.526772919509, -9221.569802948214, -6884.158478278933, -10311.306752122255, -12214.289571558187, -8125.194385670947, -6742.314307965554, -7300.4373670145715, -10997.304141200084, -10796.674882969248, -15012.057425028972, 0.005, 0.239, 0.9490000000000001, 192.0, 0.0, 24.0, 3.5, 64.0, 14.5, 96.0, 0.0, 0.0, 0.0, 1.64458724807806E9, 0.0, 2022-02-12 00:47:28.078
48.0, -10077.686319075385, -9700.679445347721, -6943.390601085496, -10947.16917838683, -9723.098245036394, -6481.9388368056825, -9243.966250892432, -6902.1069290765445, -10340.051095491779, -12255.640298800505, -8123.182728669969, -6736.592261384995, -7293.083643088776, -11009.731711117234, -10807.13549937433, -15092.031966690061, 0.005, 0.239, 0.9490000000000001, 192.0, 0.0, 0.0, 0.0, 0.0, 0.0, 0.0, 0.0, 0.0, 0.0, 1.644587248085074E9, 0.0, 2022-02-12 00:47:28.085
50.0, -10116.131319538514, -9704.747462838586, -6946.877473220525, -10932.908765424343, -9714.559878654467, -6484.844563584872, -9253.912777175043, -6923.899879920469, -10322.19205167199, -12244.576185295127, -8133.665696819508, -6741.28612772061, -7325.516024293426, -11001.7968418356, -10819.116034402376, -15038.857166630885, 0.005, 0.239, 0.9490000000000001, 192.0, 0.0, 0.0, 0.0, 0.0, 0.0, 0.0, 0.0, 0.0, 0.0, 1.644587248092754E9, 0.0, 2022-02-12 00:47:28.092
52.0, -10114.47729044882, -9694.577419111421, -6940.574281284128, -10960.40141110437, -9736.799864387496, -6498.434424213699, -9254.270405086329, -6911.3829030254965, -10335.536043111808, -12230.874565944025, -8122.422769358489, -6752.90903483737, -7324.487844048482, -11006.155432004385, -10824.56986004947, -15076.542207782533, 0.005, 0.239, 0.9490000000000001, 192.0, 0.0, 0.0, 0.0, 0.0, 0.0, 0.0, 0.0, 0.0, 0.0, 1.64458724810005E9, 0.0, 2022-02-12 00:47:28.100
54.0, -10137.253718048778, -9732.240108518614, -6958.94741522639, -10970.347937386983, -9734.251765519592, -6508.112729562847, -9261.042983656285, -6928.146711366977, -10355.00441253238, -12280.651900845993, -8136.750237554341, -6758.161694784367, -7341.944556468076, -11001.975655791242, -10831.655363041802, -15106.739414541653, 0.005, 0.239, 0.9490000000000001, 192.0, 0.0, 0.0, 0.0, 0.0, 0.0, 0.0, 0.0, 0.0, 0.0, 1.644587248107754E9, 0.0, 2022-02-12 00:47:28.107
56.0, -10129.251793533778, -9729.446140461701, -6948.464447076852, -10970.571454831535, -9726.562765426967, -6500.088453303391, -9254.091591130686, -6920.033028129701, -10344.834368805215, -12262.345822137097, -8152.575272628698, -6770.902189123892, -7328.935841195088, -11020.102920544496, -10836.371581121872, -15054.12340809386, 0.006500000000000001, 0.2405, 0.9505000000000001, 192.0, 0.0, 32.0, 3.5, 72.0, 14.5, 96.0, 0.0, 0.0, 0.0, 1.644587248115978E9, 0.0, 2022-02-12 00:47:28.115
58.0, -10126.703694665874, -9753.384858773334, -6954.030031446223, -10977.612254334957, -9739.817349888963, -6513.588906954397, -9256.706745231957, -6923.877528176014, -10372.662290652072, -12289.950226539402, -8152.195292972958, -6761.1121250524675, -7327.2594603609405, -11031.681124172346, -10835.321049132473, -15127.638295607365, 0.006500000000000001, 0.2405, 0.9505000000000001, 192.0, 0.0, 0.0, 0.0, 0.0, 0.0, 0.0, 0.0, 0.0, 0.0, 1.644587248122383E9, 0.0, 2022-02-12 00:47:28.122
60.0, -10143.042819862703, -9745.494692980612, -6954.342955868597, -10962.524826827625, -9731.122521295849, -6512.851299387372, -9273.06822217324, -6935.299269592675, -10368.348403972197, -12283.825848558647, -8167.550941413754, -6770.566912957062, -7333.8308732308005, -11020.393493222415, -10851.302546418017, -15076.944539182728, 0.006500000000000001, 0.2405, 0.9505000000000001, 192.0, 0.0, 0.0, 0.0, 0.0, 0.0, 0.0, 0.0, 0.0, 0.0, 1.644587248130432E9, 0.0, 2022-02-12 00:47:28.130
62.0, -10135.018543603248, -9728.864995105863, -6941.445999317885, -10978.662786324358, -9741.247861534102, -6515.645267444285, -9267.569693037236, -6930.761865468248, -10373.556360430284, -12283.490572391818, -8145.221548702902, -6762.006194830679, -7339.195291900074, -11039.034848098141, -10852.53189236306, -15106.337083141458, 0.006500000000000001, 0.2405, 0.9505000000000001, 192.0, 0.0, 0.0, 0.0, 0.0, 0.0, 0.0, 0.0, 0.0, 0.0, 1.644587248136931E9, 0.0, 2022-02-12 00:47:28.136
64.0, -10136.33729652611, -9730.608431173378, -6957.248682647787, -10983.267245682151, -9745.673506936253, -6521.054389602469, -9284.355853123172, -6945.983403442312, -10372.505828440884, -12307.608104659093, -8147.523778381798, -6775.350186270498, -7332.400361585661, -11040.867691143476, -10856.041116242543, -15135.863737566917, 0.006500000000000001, 0.2405, 0.9505000000000001, 192.0, 0.0, 0.0, 0.0, 0.0, 0.0, 0.0, 0.0, 0.0, 0.0, 1.644587248145132E9, 0.0, 2022-02-12 00:47:28.145
66.0, -10126.52488071023, -9753.988355873627, -6955.080563435622, -10983.535466615614, -9745.986431358628, -6526.329401293922, -9280.332539121217, -6950.833731989113, -10363.363964958664, -12280.361328168074, -8169.13791527008, -6784.715567197271, -7338.8823674776995, -11041.18061556585, -10865.942939036244, -15082.912454952295, 0.00625, 0.24125, 0.95025, 192.0, 0.0, 24.0, 3.5, 72.0, 14.5, 88.0, 0.0, 0.0, 0.0, 1.644587248153053E9, 0.0, 2022-02-12 00:47:28.153
68.0, -10164.031107906236, -9786.800716734018, -6964.289482151209, -11017.599525165502, -9768.762858958586, -6541.148607867791, -9293.7435857944, -6945.0893336641, -10406.68164571305, -12314.492441951328, -8171.797772860262, -6790.683482966839, -7358.149571198174, -11060.738391964245, -10874.213084484707, -15167.178531548803, 0.00625, 0.24125, 0.95025, 192.0, 0.0, 0.0, 0.0, 0.0, 0.0, 0.0, 0.0, 0.0, 0.0, 1.644587248160335E9, 0.0, 2022-02-12 00:47:28.160
70.0, -10186.651073295006, -9788.924132457272, -6968.022223475245, -11003.205001736284, -9754.860073907385, -6542.668526490752, -9298.88448701912, -6955.773467513736, -10400.132584587644, -12325.511851967794, -8181.319615998223, -6799.0877388820345, -7342.480998335004, -11057.407982040404, -10880.404517698827, -15113.668455322797, 0.00625, 0.24125, 0.95025, 192.0, 0.0, 0.0, 0.0, 0.0, 0.0, 0.0, 0.0, 0.0, 0.0, 1.644587248176305E9, 0.0, 2022-02-12 00:47:28.176
72.0, -10164.031107906236, -9774.350795072412, -6959.193284415399, -11018.851222854999, -9773.009690405093, -6544.456666047176, -9296.202277684484, -6970.592674087606, -10408.693302714028, -12321.063854821188, -8180.850229364662, -6793.9244859128585, -7350.639385061191, -11057.676202973867, -10889.904009092334, -15144.4244556933, 0.00625, 0.24125, 0.95025, 192.0, 0.0, 0.0, 0.0, 0.0, 0.0, 0.0, 0.0, 0.0, 0.0, 1.64458724818273E9, 0.0, 2022-02-12 00:47:28.182
74.0, -10181.152544159002, -9758.302242553502, -6974.727746811837, -11027.881327614943, -9779.22347536367, -6556.705422008685, -9314.195431971006, -6968.603368831083, -10418.081035385256, -12349.338811557152, -8184.3147497552345, -6808.766044231182, -7380.277798208928, -11062.459476287304, -10898.800003385544, -15172.05121184006, 0.00625, 0.24125, 0.95025, 192.0, 0.0, 0.0, 0.0, 0.0, 0.0, 0.0, 0.0, 0.0, 0.0, 1.644587248189936E9, 0.0, 2022-02-12 00:47:28.189
76.0, -10167.652090507996, -9779.93873118624, -6968.983348486823, -11014.917315830866, -9764.672489723265, -6564.8861604793265, -9294.235324172418, -6958.500380337284, -10407.128680602156, -12316.325284996663, -8187.846325379172, -6824.188747905344, -7363.357527656261, -11080.095002662541, -10901.39280574236, -15119.368150158902, 0.008125, 0.24162499999999998, 0.9521250000000001, 192.0, 0.0, 40.0, 3.5, 72.0, 14.5, 104.0, 0.0, 0.0, 0.0, 1.644587248197221E9, 0.0, 2022-02-12 00:47:28.197
78.0, -10177.82213423516, -9827.838519553963, -6976.873514279547, -11036.598507952513, -9795.204972649213, -6562.1815994002345, -9314.17308022655, -6976.202961945887, -10441.013925196401, -12359.173579117487, -8193.680130682007, -6800.96528541628, -7386.357472700772, -11077.837476472554, -10906.041968589065, -15199.275636586624, 0.008125, 0.24162499999999998, 0.9521250000000001, 192.0, 0.0, 0.0, 0.0, 0.0, 0.0, 0.0, 0.0, 0.0, 0.0, 1.644587248205816E9, 0.0, 2022-02-12 00:47:28.205
80.0, -10193.49070709833, -9820.998885750638, -6980.002758503289, -11023.120406045962, -9787.158344645304, -6565.690823279718, -9327.829996088743, -6982.863781793569, -10429.435721568552, -12363.06278265271, -8209.013427378348, -6825.663963039394, -7384.882257566722, -11079.424450328881, -10917.664875705825, -15152.135807530381, 0.008125, 0.24162499999999998, 0.9521250000000001, 192.0, 0.0, 0.0, 0.0, 0.0, 0.0, 0.0, 0.0, 0.0, 0.0, 1.644587248213341E9, 0.0, 2022-02-12 00:47:28.213
82.0, -10192.618989064573, -9797.529554072566, -6970.659729320972, -11039.414827753882, -9798.155402917315, -6570.138820426324, -9325.281897220839, -6988.2729039517535, -10429.793349479836, -12358.055991894722, -8185.85702012265, -6813.079930911056, -7369.280739936918, -11072.674223503378, -10920.704712951745, -15174.308738030046, 0.008125, 0.24162499999999998, 0.9521250000000001, 192.0, 0.0, 0.0, 0.0, 0.0, 0.0, 0.0, 0.0, 0.0, 0.0, 1.644587248220103E9, 0.0, 2022-02-12 00:47:28.220
84.0, -10194.094204198624, -9788.946484201728, -6988.876401052046, -11047.32734529106, -9809.890068756351, -6583.572218843963, -9345.84550211972, -7000.745177357814, -10449.596995067239, -12378.418431093507, -8207.739377944396, -6839.20912017931, -7379.8531150642775, -11089.86271498951, -10931.724122968213, -15209.57979078052, 0.008125, 0.24162499999999998, 0.9521250000000001, 192.0, 0.0, 0.0, 0.0, 0.0, 0.0, 0.0, 0.0, 0.0, 0.0, 1.644587248226873E9, 0.0, 2022-02-12 00:47:28.226
86.0, -10194.675349554462, -9804.570353575988, -6977.655825335482, -11044.555728978603, -9793.059205181504, -6573.44687860571, -9324.588993142725, -6985.903619039491, -10435.001305937923, -12345.606070233116, -8223.877337441128, -6840.952556246824, -7388.235019235018, -11086.353491110027, -10935.389809058883, -15153.991002320172, 0.0070625, 0.24181249999999999, 0.9530625000000001, 192.0, 0.0, 24.0, 3.5, 72.0, 14.5, 104.0, 0.0, 0.0, 0.0, 1.644587248235211E9, 0.0, 2022-02-12 00:47:28.235
88.0, -10208.01934099428, -9853.386563466378, -6982.327339926642, -11074.752935737723, -9823.457577640722, -6596.4021201613095, -9342.358629984694, -7005.170822759966, -10465.712602819516, -12388.364957376118, -8201.257372052356, -6826.669791539883, -7408.195127033607, -11102.022063973196, -10938.854329449456, -15234.63609631492, 0.0070625, 0.24181249999999999, 0.9530625000000001, 192.0, 0.0, 0.0, 0.0, 0.0, 0.0, 0.0, 0.0, 0.0, 0.0, 1.6445872482421E9, 0.0, 2022-02-12 00:47:28.242
90.0, -10223.710265601905, -9843.820016839507, -6989.301084196697, -11056.08922911754, -9808.861888511407, -6600.537192885541, -9361.447019749525, -7024.996820091823, -10459.722335305492, -12399.093794714665, -8233.332125345722, -6850.899082529436, -7407.278705510939, -11108.034683231674, -10948.644393520879, -15187.965653892239, 0.0070625, 0.24181249999999999, 0.9530625000000001, 192.0, 0.0, 0.0, 0.0, 0.0, 0.0, 0.0, 0.0, 0.0, 0.0, 1.64458724824954E9, 0.0, 2022-02-12 00:47:28.249
92.0, -10243.133931533568, -9835.259298713125, -6981.969712015357, -11066.415735055893, -9825.826862552985, -6603.889954553838, -9351.500493466914, -7012.658657152493, -10476.575550624795, -12394.779908034792, -8222.133901373614, -6840.840797524548, -7403.590667675814, -11115.433110646381, -10953.584129045503, -15213.53604954911, 0.0070625, 0.24181249999999999, 0.9530625000000001, 192.0, 0.0, 0.0, 0.0, 0.0, 0.0, 0.0, 0.0, 0.0, 0.0, 1.644587248257602E9, 0.0, 2022-02-12 00:47:28.257
94.0, -10236.853091341627, -9852.246624499157, -7000.09697676861, -11072.383650825459, -9825.066903241504, -6615.311695970499, -9360.485894737947, -7017.643096166026, -10489.763079853426, -12421.691408358982, -8224.503186285876, -6855.54824537614, -7419.661571939179, -11129.49235790877, -10959.8873209819, -15245.946079009305, 0.0070625, 0.24181249999999999, 0.9530625000000001, 192.0, 0.0, 0.0, 0.0, 0.0, 0.0, 0.0, 0.0, 0.0, 0.0, 1.644587248265704E9, 0.0, 2022-02-12 00:47:28.265
96.0, -10219.910469044504, -9841.763656349618, -6993.883191810035, -11069.85790370201, -9822.764673562608, -6611.221326735178, -9364.75507792891, -7011.5187181852725, -10468.26070168742, -12395.718681301914, -8238.473026570444, -6866.83587632607, -7394.784080360423, -11134.342686455571, -10966.816361763045, -15186.132810846902, 0.006531250000000001, 0.24090625, 0.95253125, 192.0, 0.0, 24.0, 3.5, 64.0, 14.5, 96.0, 0.0, 0.0, 0.0, 1.64458724827215E9, 0.0, 2022-02-12 00:47:28.272
98.0, -10236.920146574992, -9860.51676994762, -6990.642188864016, -11091.539095823658, -9842.501263916643, -6623.671248396784, -9381.228313592472, -7031.501177728317, -10492.780565354893, -12429.000428795867, -8236.48372131392, -6856.68818434336, -7419.102778327797, -11126.810148574132, -10978.238103179707, -15270.018907787671, 0.006531250000000001, 0.24090625, 0.95253125, 192.0, 0.0, 0.0, 0.0, 0.0, 0.0, 0.0, 0.0, 0.0, 0.0, 1.644587248280284E9, 0.0, 2022-02-12 00:47:28.280
100.0, -10258.422524740998, -9884.947226637272, -7002.108633769588, -11078.150400894929, -9823.591688107454, -6624.855890852916, -9361.402316260615, -7022.158148545998, -10484.868047817714, -12420.663228114037, -8244.77621850684, -6881.4986206887515, -7417.806377149389, -11138.120131268517, -10978.863952024454, -15220.263924630157, 0.006531250000000001, 0.24090625, 0.95253125, 192.0, 0.0, 0.0, 0.0, 0.0, 0.0, 0.0, 0.0, 0.0, 0.0, 1.644587248295396E9, 0.0, 2022-02-12 00:47:28.295
102.0, -10260.188312552968, -9872.899636375862, -6993.391453432018, -11096.948217981842, -9843.551795906043, -6614.462329681198, -9372.488781510447, -7036.999706864322, -10497.541486923872, -12397.059785969233, -8247.838407497216, -6868.378146693486, -7425.003638863998, -11131.325200954105, -10984.384832904916, -15243.263869674669, 0.006531250000000001, 0.24090625, 0.95253125, 192.0, 0.0, 0.0, 0.0, 0.0, 0.0, 0.0, 0.0, 0.0, 0.0, 1.644587248301957E9, 0.0, 2022-02-12 00:47:28.301
104.0, -10272.906455148037, -9895.363139553445, -7007.7636251167805, -11095.629465058979, -9851.643127398864, -6628.521576943586, -9391.308950341816, -7051.7295064603695, -10517.74746391147, -12460.404629755572, -8243.815093495261, -6873.384937451475, -7441.454522783104, -11127.972439285808, -10989.033995751619, -15280.568931170576, 0.006531250000000001, 0.24090625, 0.95253125, 192.0, 0.0, 0.0, 0.0, 0.0, 0.0, 0.0, 0.0, 0.0, 0.0, 1.64458724830992E9, 0.0, 2022-02-12 00:47:28.309
106.0, -10254.689783416961, -9883.829639414507, -6996.163069744476, -11083.112488164006, -9844.736438362175, -6629.192129277245, -9387.062118895306, -7037.513796986795, -10506.37042598372, -12441.18212952401, -8259.43896286952, -6886.103080046544, -7434.212557579584, -11145.652669149957, -10991.447984152794, -15220.10746241897, 0.005265625, 0.239453125, 0.9482656250000001, 192.0, 0.0, 16.0, 3.5, 56.0, 14.5, 64.0, 0.0, 0.0, 0.0, 1.644587248318069E9, 0.0, 2022-02-12 00:47:28.318
108.0, -10235.489634929852, -9876.520618977622, -7003.2485727368085, -11108.48171812078, -9862.930758348795, -6638.378696248376, -9396.159278888617, -7045.783942435258, -10521.591963957782, -12456.783647153814, -8258.857817513683, -6883.398518967452, -7432.692638956623, -11150.905329096953, -10993.012606264665, -15296.215152289291, 0.005265625, 0.239453125, 0.9482656250000001, 192.0, 0.0, 0.0, 0.0, 0.0, 0.0, 0.0, 0.0, 0.0, 0.0, 1.644587248324383E9, 0.0, 2022-02-12 00:47:28.324
110.0, -10286.719833221416, -9907.544840281587, -7013.485671697339, -11103.38552038497, -9842.255394727636, -6642.178492805779, -9388.29146484035, -7049.6731459704815, -10514.417053987629, -12452.715629662947, -8271.173628708557, -6904.520917477717, -7425.89770864221, -11156.672079166423, -10999.584019134525, -15252.58454711253, 0.005265625, 0.239453125, 0.9482656250000001, 192.0, 0.0, 0.0, 0.0, 0.0, 0.0, 0.0, 0.0, 0.0, 0.0, 1.644587248332658E9, 0.0, 2022-02-12 00:47:28.332
112.0, -10285.110507620635, -9906.449604803278, -7004.500270426306, -11116.505994380235, -9858.706278646741, -6639.295117771044, -9392.471241053492, -7045.694535457437, -10524.721208181527, -12446.501844704371, -8257.337898890722, -6899.044740086168, -7443.846159439821, -11161.29889026867, -11001.886248813422, -15271.292957221624, 0.005265625, 0.239453125, 0.9482656250000001, 192.0, 0.0, 0.0, 0.0, 0.0, 0.0, 0.0, 0.0, 0.0, 0.0, 1.644587248340455E9, 0.0, 2022-02-12 00:47:28.340
114.0, -10299.013292671836, -9918.67600902033, -7024.035695080244, -11119.970514770808, -9868.362232251435, -6644.100742828935, -9405.256438881926, -7051.7295064603695, -10540.881519422714, -12473.860379917667, -8266.21154143948, -6906.242001800776, -7452.026897910464, -11171.06660259564, -11010.55872566208, -15304.820573904584, 0.005265625, 0.239453125, 0.9482656250000001, 192.0, 0.0, 0.0, 0.0, 0.0, 0.0, 0.0, 0.0, 0.0, 0.0, 1.644587248347943E9, 0.0, 2022-02-12 00:47:28.347
116.0, -10275.02987087129, -9902.001607656672, -7020.280602011753, -11112.19210770036, -9860.986156581183, -6638.64691718184, -9411.202002907039, -7054.769343706292, -10524.94472562608, -12452.335650007208, -8280.851934057706, -6898.061263330133, -7437.721781459068, -11158.482570467302, -11015.945496075808, -15243.152110952391, 0.004, 0.23800000000000002, 0.9420000000000001, 192.0, 0.0, 16.0, 3.5, 56.0, 14.5, 56.0, 0.0, 0.0, 0.0, 1.644587248354077E9, 0.0, 2022-02-12 00:47:28.354
118.0, -10276.527437749797, -9926.968506213248, -7021.241727023331, -11144.11039878254, -9884.299026048067, -6663.591463993963, -9413.5712878193, -7072.628387526082, -10545.173054358133, -12487.025557401843, -8281.455431157998, -6896.228420284799, -7458.28538635795, -11177.25803580976, -11023.500385701704, -15324.55716425862, 0.004, 0.23800000000000002, 0.9420000000000001, 192.0, 0.0, 0.0, 0.0, 0.0, 0.0, 0.0, 0.0, 0.0, 0.0, 1.644587248362206E9, 0.0, 2022-02-12 00:47:28.362
120.0, -10294.028853658301, -9926.879099235428, -7031.38941900604, -11135.080294022597, -9868.228121784703, -6665.916045417314, -9426.803520536843, -7078.596303295649, -10540.859167678258, -12484.18688585602, -8293.435966186044, -6931.320659079631, -7468.969520207587, -11192.479573783825, -11031.837586383532, -15288.570855685575, 0.004, 0.23800000000000002, 0.9420000000000001, 192.0, 0.0, 0.0, 0.0, 0.0, 0.0, 0.0, 0.0, 0.0, 0.0, 1.644587248370201E9, 0.0, 2022-02-12 00:47:28.370
122.0, -10298.879182205103, -9939.977221486239, -7023.4321979799515, -11146.949070328365, -9880.588636468487, -6675.728461233194, -9417.549898332345, -7068.582721779671, -10552.638537006205, -12485.438583545516, -8289.21148648399, -6930.404237556963, -7451.512807787992, -11184.87998066902, -11036.285583530138, -15304.820573904584, 0.004, 0.23800000000000002, 0.9420000000000001, 192.0, 0.0, 0.0, 0.0, 0.0, 0.0, 0.0, 0.0, 0.0, 0.0, 1.644587248377298E9, 0.0, 2022-02-12 00:47:28.377
124.0, -10328.875223264125, -9958.171541472859, -7044.286375556752, -11145.965593572331, -9897.374796554423, -6679.952940935247, -9438.53818637588, -7091.314445890719, -10574.319729127852, -12511.903048980601, -8297.951018566015, -6926.649144488471, -7471.092935930841, -11207.030559424229, -11046.500330746214, -15345.94778370235, 0.004, 0.23800000000000002, 0.9420000000000001, 192.0, 0.0, 0.0, 0.0, 0.0, 0.0, 0.0, 0.0, 0.0, 0.0, 1.64458724838473E9, 0.0, 2022-02-12 00:47:28.384
126.0, -10317.028798702813, -9940.804236031085, -7033.892814385035, -11138.20953824634, -9887.271808060625, -6677.5836560229845, -9434.15724446264, -7086.821745255202, -10556.930071941624, -12497.128545895643, -8312.278486761867, -6943.524711552229, -7482.268808158495, -11206.516469301758, -11052.490598260236, -15284.346375983523, 0.002, 0.234, 0.9520000000000001, 192.0, 0.0, 8.0, 3.5, 40.0, 14.5, 96.0, 0.0, 0.0, 0.0, 1.644587248392839E9, 0.0, 2022-02-12 00:47:28.392
128.0, -10319.040455703791, -9957.433933905833, -7039.033715609756, -11158.929605356409, -9917.24549737519, -6680.981121180192, -9457.738334862988, -7098.131727949587, -10584.71329029957, -12523.928287497556, -8293.994759797426, -6919.317772307131, -7485.018072726497, -11195.184134862917, -11055.239862828239, -15362.75629553274, 0.002, 0.234, 0.9520000000000001, 192.0, 0.0, 0.0, 0.0, 0.0, 0.0, 0.0, 0.0, 0.0, 0.0, 1.644587248400754E9, 0.0, 2022-02-12 00:47:28.400
130.0, -10308.155156154056, -9937.674991807342, -7048.466151769895, -11154.392201231982, -9905.264962347146, -6684.825621226504, -9468.221303012528, -7101.730358806892, -10573.939749472112, -12503.007054687389, -8312.54670769533, -6952.063077934155, -7491.187154196162, -11192.412518550458, -11069.410868812904, -15319.572725245087, 0.002, 0.234, 0.9520000000000001, 192.0, 0.0, 0.0, 0.0, 0.0, 0.0, 0.0, 0.0, 0.0, 0.0, 1.644587248407275E9, 0.0, 2022-02-12 00:47:28.407
132.0, -10300.08617640569, -9976.432916692844, -7045.381611035063, -11166.417439748937, -9912.350465339478, -6686.636112527384, -9452.418619682625, -7103.429091385495, -10578.0971739408, -12498.357891840684, -8325.577774712774, -6951.101952922578, -7473.149296420729, -11216.686513028922, -11070.439049057848, -15334.257821352223, 0.002, 0.234, 0.9520000000000001, 192.0, 0.0, 0.0, 0.0, 0.0, 0.0, 0.0, 0.0, 0.0, 0.0, 1.644587248422445E9, 0.0, 2022-02-12 00:47:28.422
134.0, -10356.546682899796, -9999.4105099929, -7057.339794318652, -11170.396050261981, -9912.261058361657, -6697.119080676924, -9449.624651625712, -7097.863507016124, -10591.038833980421, -12548.001116275922, -8318.939306609549, -6938.160292882954, -7486.403880882726, -11211.120928659551, -11076.85399971652, -15369.171246191412, 0.002, 0.234, 0.9520000000000001, 192.0, 0.0, 0.0, 0.0, 0.0, 0.0, 0.0, 0.0, 0.0, 0.0, 1.64458724843044E9, 0.0, 2022-02-12 00:47:28.430
136.0, -10355.0938195102, -9980.612692905986, -7054.0764396281775, -11173.100611341073, -9907.991875170694, -6697.1861359102895, -9450.429314426103, -7114.783777568791, -10594.23513343753, -12520.977857229454, -8325.153091568123, -6959.349746626586, -7502.094805490352, -11229.628173068544, -11080.698499762833, -15310.98965537425, 0.006, 0.23800000000000002, 0.9520000000000001, 192.0, 0.0, 24.0, 3.5, 56.0, 14.5, 96.0, 0.0, 0.0, 0.0, 1.644587248437254E9, 0.0, 2022-02-12 00:47:28.437
138.0, -10339.358191413665, -9978.556332416098, -7051.684802971459, -11198.872172698042, -9934.769265028151, -6708.630229071407, -9464.175637266117, -7111.2522019448525, -10612.541212146427, -12550.72802909947, -8319.632210687663, -6958.56743557065, -7506.8780788037875, -11229.248193412805, -11090.019177200697, -15394.182848236902, 0.006, 0.23800000000000002, 0.9520000000000001, 192.0, 0.0, 0.0, 0.0, 0.0, 0.0, 0.0, 0.0, 0.0, 0.0, 1.644587248444933E9, 0.0, 2022-02-12 00:47:28.444
140.0, -10337.212423945955, -9981.909094084394, -7061.072535642688, -11186.668120225444, -9922.833433489017, -6705.3445226364765, -9476.200875783072, -7111.654533345049, -10601.119470729765, -12551.063305266298, -8340.821664431294, -6984.629569605538, -7503.860593302321, -11235.573737093657, -11093.170773168895, -15347.221833136302, 0.006, 0.23800000000000002, 0.9520000000000001, 192.0, 0.0, 0.0, 0.0, 0.0, 0.0, 0.0, 0.0, 0.0, 0.0, 1.644587248453282E9, 0.0, 2022-02-12 00:47:28.453
142.0, -10353.082162509223, -10004.909039128905, -7046.052163368722, -11195.675873240933, -9932.690552793807, -6709.770168038627, -9463.125105276717, -7123.478606161905, -10605.612171365283, -12537.026409748365, -8342.006306887426, -6966.4352496189185, -7504.799366569444, -11233.807949281687, -11096.210610414817, -15361.214025165324, 0.006, 0.23800000000000002, 0.9520000000000001, 192.0, 0.0, 0.0, 0.0, 0.0, 0.0, 0.0, 0.0, 0.0, 0.0, 1.644587248459723E9, 0.0, 2022-02-12 00:47:28.459
144.0, -10355.831427077226, -10016.353132290022, -7055.216378595398, -11194.759451718266, -9938.30084065209, -6715.46986287473, -9488.40492825567, -7125.467911418428, -10619.71612211658, -12578.690061413057, -8330.383399770666, -6968.737479297814, -7508.174479982195, -11205.98002743483, -11095.651816803434, -15400.329577962111, 0.006, 0.23800000000000002, 0.9520000000000001, 192.0, 0.0, 0.0, 0.0, 0.0, 0.0, 0.0, 0.0, 0.0, 0.0, 1.644587248468083E9, 0.0, 2022-02-12 00:47:28.468
146.0, -10348.544758384796, -9995.45425122431, -7050.947195404434, -11191.45139353888, -9922.408750344366, -6721.415426899842, -9484.672186931633, -7131.994620799377, -10600.784194562935, -12552.650279122625, -8348.801237201838, -6977.007624746278, -7489.555476850925, -11241.27343192976, -11104.681921563379, -15337.252955109234, 0.014, 0.232, 0.9520000000000001, 192.0, 0.0, 56.0, 3.5, 32.0, 14.5, 96.0, 0.0, 0.0, 0.0, 1.644587248475054E9, 0.0, 2022-02-12 00:47:28.475
148.0, -10365.912063826569, -10013.089777599547, -7052.78003844977, -11214.74191126131, -9941.340677898012, -6739.900319564381, -9478.391346739692, -7122.36101893914, -10617.816223837879, -12584.21094229352, -8333.60205097223, -6974.057194478178, -7507.325113692894, -11258.350164693615, -11104.123127951996, -15419.261505515757, 0.014, 0.232, 0.9520000000000001, 192.0, 0.0, 0.0, 0.0, 0.0, 0.0, 0.0, 0.0, 0.0, 0.0, 1.644587248482605E9, 0.0, 2022-02-12 00:47:28.482
150.0, -10384.128735557644, -10014.632047966963, -7072.203704381431, -11203.83425996712, -9933.58462257202, -6735.586432884506, -9491.265951545949, -7140.935318581501, -10609.367264433773, -12572.610386921215, -8350.209397102522, -6995.425462177452, -7516.6234393863015, -11271.828266600165, -11112.706197822834, -15378.00018525126, 0.014, 0.232, 0.9520000000000001, 192.0, 0.0, 0.0, 0.0, 0.0, 0.0, 0.0, 0.0, 0.0, 0.0, 1.644587248489375E9, 0.0, 2022-02-12 00:47:28.489
152.0, -10365.219159748454, -10029.093626629547, -7063.933558932968, -11218.541707818713, -9956.852788549995, -6724.812892057049, -9499.558448738868, -7147.305565751263, -10646.225291040575, -12561.970956560488, -8364.89449320966, -6992.340921442619, -7533.364895983326, -11268.542560165235, -11121.15515722694, -15392.037080769192, 0.014, 0.232, 0.9520000000000001, 192.0, 0.0, 0.0, 0.0, 0.0, 0.0, 0.0, 0.0, 0.0, 0.0, 1.644587248497374E9, 0.0, 2022-02-12 00:47:28.497
154.0, -10373.712822641472, -10027.685466728863, -7082.239637641864, -11224.241402654816, -9964.318271198068, -6744.549482411085, -9515.472890791047, -7155.754525155369, -10661.469180759095, -12605.445099526061, -8376.159772415134, -6988.876401052046, -7539.712791408634, -11245.028524998252, -11127.234831718783, -15432.069055088647, 0.014, 0.232, 0.9520000000000001, 192.0, 0.0, 0.0, 0.0, 0.0, 0.0, 0.0, 0.0, 0.0, 0.0, 1.644587248505223E9, 0.0, 2022-02-12 00:47:28.505
156.0, -10420.718541230983, -10045.23158612628, -7084.854791743135, -11218.072321185151, -9953.120047225959, -6736.301688707076, -9498.485565005012, -7138.007240057856, -10666.788895939457, -12576.141962545153, -8392.364787145232, -7007.853032094602, -7521.853747588843, -11266.821475842176, -11132.711009110333, -15368.52304560221, 0.016, 0.228, 0.9500000000000001, 192.0, 0.0, 64.0, 3.5, 16.0, 14.5, 88.0, 0.0, 0.0, 0.0, 1.644587248512452E9, 0.0, 2022-02-12 00:47:28.512
158.0, -10422.77490172087, -10065.594025325063, -7078.30573061773, -11238.837091784131, -9975.74001261473, -6745.3764969559315, -9523.228946117039, -7148.7584291408575, -10689.297102605951, -12605.623913481702, -8376.003310203947, -7003.896773326012, -7548.295861279472, -11265.681536874956, -11142.411666203936, -15443.736665694318, 0.016, 0.228, 0.9500000000000001, 192.0, 0.0, 0.0, 0.0, 0.0, 0.0, 0.0, 0.0, 0.0, 0.0, 1.644587248520241E9, 0.0, 2022-02-12 00:47:28.520
160.0, -10418.550422018818, -10054.172283908401, -7089.459251100929, -11225.604859066589, -9969.749745100708, -6746.181159756322, -9532.996658444006, -7167.623301461137, -10678.523561778495, -12604.081643114287, -8388.296769654366, -7018.470110710873, -7553.704983437656, -11282.914731849996, -11151.888805852986, -15403.816450097138, 0.016, 0.228, 0.9500000000000001, 192.0, 0.0, 0.0, 0.0, 0.0, 0.0, 0.0, 0.0, 0.0, 0.0, 1.644587248527904E9, 0.0, 2022-02-12 00:47:28.527
162.0, -10392.957674617492, -10050.886577473471, -7078.30573061773, -11242.301612174704, -9977.081117282047, -6741.464941676252, -9526.425245574146, -7158.637900190103, -10677.227160600087, -12586.691985928057, -8390.263723166434, -7010.423482706962, -7544.272547277516, -11269.593092154633, -11151.665288408434, -15411.326636234122, 0.016, 0.228, 0.9500000000000001, 192.0, 0.0, 0.0, 0.0, 0.0, 0.0, 0.0, 0.0, 0.0, 0.0, 1.644587248542196E9, 0.0, 2022-02-12 00:47:28.542
164.0, -10415.711750472994, -10052.428847840887, -7092.946123235956, -11252.024621012763, -9974.130687013947, -6762.788505886616, -9525.88880370722, -7171.065470107254, -10685.899637448745, -12617.693855487569, -8386.955664987048, -7020.906450856502, -7548.54173046848, -11272.632929400555, -11156.470913466324, -15452.252680331789, 0.016, 0.228, 0.9500000000000001, 192.0, 0.0, 0.0, 0.0, 0.0, 0.0, 0.0, 0.0, 0.0, 0.0, 1.644587248549674E9, 0.0, 2022-02-12 00:47:28.549
166.0, -10406.68164571305, -10063.828237513095, -7091.314445890719, -11243.5533098642, -9970.643814878918, -6762.162657041867, -9528.369847341759, -7162.75062116988, -10678.92589317869, -12601.220619824007, -8404.054749495357, -7025.1979857919205, -7561.595149230379, -11291.587208698656, -11164.137561814496, -15393.780516836707, 0.01, 0.234, 0.9540000000000001, 192.0, 0.0, 40.0, 3.5, 40.0, 14.5, 104.0, 0.0, 0.0, 0.0, 1.64458724855765E9, 0.0, 2022-02-12 00:47:28.557
168.0, -10421.031465653357, -10064.163513679923, -7086.821745255202, -11265.010984541295, -9985.999463319715, -6772.846790891504, -9528.012219430473, -7163.220007803441, -10695.220314886608, -12622.857108456745, -8379.80310676135, -7009.596468162116, -7555.359012527349, -11284.166429539495, -11167.289157782694, -15471.989270685825, 0.01, 0.234, 0.9540000000000001, 192.0, 0.0, 0.0, 0.0, 0.0, 0.0, 0.0, 0.0, 0.0, 0.0, 1.644587248564507E9, 0.0, 2022-02-12 00:47:28.564
170.0, -10430.620364024684, -10080.90497027695, -7093.706082547436, -11255.042106514229, -9972.029623035149, -6774.836096148026, -9540.864472492274, -7170.104345095676, -10687.68777700517, -12624.913468946634, -8393.415319134632, -7029.824796894169, -7545.121913566818, -11280.210170770904, -11168.250282794272, -15428.783348653717, 0.01, 0.234, 0.9540000000000001, 192.0, 0.0, 0.0, 0.0, 0.0, 0.0, 0.0, 0.0, 0.0, 0.0, 1.644587248572276E9, 0.0, 2022-02-12 00:47:28.572
172.0, -10409.497965514418, -10070.1761329384, -7083.916018476012, -11271.023603799773, -9971.806105590595, -6782.614503218473, -9530.113283409273, -7168.070336350243, -10688.69360550566, -12608.35082630525, -8398.846793037272, -7034.25044229632, -7551.425105503215, -11280.56779868219, -11173.190018318894, -15440.316848792656, 0.01, 0.234, 0.9540000000000001, 192.0, 0.0, 0.0, 0.0, 0.0, 0.0, 0.0, 0.0, 0.0, 0.0, 1.644587248580538E9, 0.0, 2022-02-12 00:47:28.580
174.0, -10441.796236252338, -10081.843743544072, -7097.729396549392, -11271.80591485571, -9986.871181353472, -6780.647549706406, -9555.124885454761, -7193.28310409583, -10706.172669669708, -12635.195271396075, -8398.265647681434, -7042.073552855677, -7555.806047416455, -11310.899115908041, -11176.811000920654, -15484.707413280896, 0.01, 0.234, 0.9540000000000001, 192.0, 0.0, 0.0, 0.0, 0.0, 0.0, 0.0, 0.0, 0.0, 0.0, 1.644587248588733E9, 0.0, 2022-02-12 00:47:28.588
176.0, -10438.175253650577, -10091.432641915399, -7099.539887850272, -11266.37444095307, -9981.372652217467, -6773.360881013976, -9548.195844673615, -7181.011996389866, -10704.026902201998, -12631.060198671843, -8411.117900743235, -7034.205738807409, -7566.2219603326275, -11309.446252518446, -11192.189001105906, -15424.536517207209, 0.016, 0.234, 0.9540000000000001, 192.0, 0.0, 64.0, 3.5, 40.0, 14.5, 104.0, 0.0, 0.0, 0.0, 1.644587248594381E9, 0.0, 2022-02-12 00:47:28.594
178.0, -10409.430910281053, -10085.196505212369, -7097.930562249489, -11281.350109738125, -10001.042187338137, -6777.473601993752, -9555.147237199217, -7197.686397753525, -10722.780015800003, -12647.98046922451, -8415.811767078849, -7027.030828837255, -7566.311367310449, -11290.38021449807, -11193.194829606395, -15491.569398828675, 0.016, 0.234, 0.9540000000000001, 192.0, 0.0, 0.0, 0.0, 0.0, 0.0, 0.0, 0.0, 0.0, 0.0, 1.64458724860192E9, 0.0, 2022-02-12 00:47:28.601
180.0, -10446.78067526587, -10096.640598373486, -7116.303696191752, -11273.795220112232, -9992.794393634129, -6782.793317174115, -9555.057830221394, -7182.5095632683715, -10709.324265637906, -12648.494559346982, -8424.596002649785, -7047.862654669601, -7560.768134685533, -11314.43069153198, -11204.437757067413, -15451.515072764763, 0.016, 0.234, 0.9540000000000001, 192.0, 0.0, 0.0, 0.0, 0.0, 0.0, 0.0, 0.0, 0.0, 0.0, 1.644587248609855E9, 0.0, 2022-02-12 00:47:28.609
182.0, -10457.73303004897, -10102.161479253946, -7103.2055739409425, -11292.727147665877, -10012.441577010344, -6793.142174856923, -9562.255091936004, -7202.38026408914, -10718.890812264779, -12636.089341174287, -8418.136348502201, -7043.213491822898, -7588.104318154374, -11319.169261356505, -11212.17146064895, -15465.149636882501, 0.016, 0.234, 0.9540000000000001, 192.0, 0.0, 0.0, 0.0, 0.0, 0.0, 0.0, 0.0, 0.0, 0.0, 1.644587248618083E9, 0.0, 2022-02-12 00:47:28.618
184.0, -10470.138248221667, -10114.007903815258, -7117.287172947786, -11297.823345401686, -10020.97994339227, -6810.576535532062, -9578.817734577386, -7211.544479315816, -10749.55740565746, -12676.568350382848, -8427.90406082917, -7072.7401462483585, -7601.7388822721105, -11317.448177033446, -11220.978047964341, -15519.665541608996, 0.016, 0.234, 0.9540000000000001, 192.0, 0.0, 0.0, 0.0, 0.0, 0.0, 0.0, 0.0, 0.0, 0.0, 1.644587248624513E9, 0.0, 2022-02-12 00:47:28.624
186.0, -10465.73495456397, -10113.67262764843, -7109.26289668833, -11284.099374306128, -10006.540716474143, -6799.467718537774, -9570.301719939915, -7198.08872915372, -10735.11817873933, -12651.623803570725, -8442.611508680762, -7070.192047380454, -7583.097527396385, -11332.714418496422, -11221.067454942162, -15455.448979788898, 0.01, 0.234, 0.9500000000000001, 192.0, 0.0, 40.0, 3.5, 40.0, 14.5, 88.0, 0.0, 0.0, 0.0, 1.644587248632513E9, 0.0, 2022-02-12 00:47:28.632
188.0, -10462.225730684488, -10126.882508621515, -7107.921792021012, -11304.707682693921, -10027.93133591787, -6811.515308799185, -9585.724423614076, -7220.4851770979385, -10751.79258010299, -12678.580007383825, -8430.832139352815, -7049.3825732925625, -7590.630065277823, -11320.935049168475, -11221.425082853448, -15530.528489414275, 0.01, 0.234, 0.9500000000000001, 192.0, 0.0, 0.0, 0.0, 0.0, 0.0, 0.0, 0.0, 0.0, 0.0, 1.644587248640495E9, 0.0, 2022-02-12 00:47:28.640
190.0, -10483.817515828314, -10128.201261544378, -7129.088894020188, -11304.57357222719, -10014.095606100036, -6825.820425250581, -9583.824525335374, -7217.1994706630085, -10748.551577156972, -12679.60818762877, -8455.44140999811, -7077.389309095062, -7602.320027627949, -11340.001087188852, -11230.991629480319, -15496.039747719735, 0.01, 0.234, 0.9500000000000001, 192.0, 0.0, 0.0, 0.0, 0.0, 0.0, 0.0, 0.0, 0.0, 0.0, 1.644587248647642E9, 0.0, 2022-02-12 00:47:28.647
192.0, -10466.204341197532, -10137.656049448973, -7119.254126459852, -11324.578383514689, -10022.611620737509, -6826.82625375107, -9579.577693888867, -7216.841842751724, -10752.84311209239, -12662.374992653728, -8461.901064145692, -7088.341663878163, -7592.328797856427, -11355.133218185094, -11236.668972571966, -15504.712224568395, 0.01, 0.234, 0.9500000000000001, 192.0, 0.0, 0.0, 0.0, 0.0, 0.0, 0.0, 0.0, 0.0, 0.0, 1.644587248656526E9, 0.0, 2022-02-12 00:47:28.656
194.0, -10484.97980653999, -10145.523863497241, -7125.60202188516, -11317.850508433641, -10033.966306920804, -6833.35296313202, -9600.588333676855, -7233.024505737366, -10762.9908040751, -12712.8005281449, -8451.038116340413, -7074.30476836023, -7624.358847660881, -11337.251822620849, -11242.770998808266, -15552.813178636216, 0.009000000000000001, 0.234, 0.9510000000000001, 192.0, 0.0, 32.0, 3.5, 40.0, 14.5, 96.0, 0.0, 0.0, 0.0, 1.644587248670187E9, 0.0, 2022-02-12 00:47:28.670
196.0, -10496.356844467742, -10147.513168753763, -7123.545661395271, -11316.419996788502, -10029.428902796377, -6822.244146137732, -9592.251132995027, -7223.882642255145, -10760.17448427373, -12694.919132580655, -8462.169285079157, -7093.080233702688, -7611.618353321356, -11355.222625162914, -11246.7049058324, -15486.16027667049, 0.009000000000000001, 0.234, 0.9510000000000001, 192.0, 0.0, 0.0, 0.0, 0.0, 0.0, 0.0, 0.0, 0.0, 0.0, 1.644587248676752E9, 0.0, 2022-02-12 00:47:28.676
198.0, -10485.35978619573, -10147.289651309211, -7124.88676606259, -11337.4753400654, -10042.527025047186, -6823.093512427034, -9592.474650439579, -7233.136264459642, -10775.865408881356, -12708.598400187302, -8448.914700617159, -7093.862544758624, -7619.329705158438, -11342.213909889926, -11256.56202513719, -15560.993917106858, 0.009000000000000001, 0.234, 0.9510000000000001, 192.0, 0.0, 0.0, 0.0, 0.0, 0.0, 0.0, 0.0, 0.0, 0.0, 1.644587248684946E9, 0.0, 2022-02-12 00:47:28.684
200.0, -10496.312140978831, -10152.251738578288, -7142.03055405981, -11322.38791255807, -10032.535795275664, -6836.057524211112, -9599.604856920821, -7251.464694912994, -10776.46890598165, -12710.967685099566, -8477.502581775498, -7107.966495509922, -7622.2801354265375, -11377.306148684758, -11260.339469950137, -15529.008570791313, 0.009000000000000001, 0.234, 0.9510000000000001, 192.0, 0.0, 0.0, 0.0, 0.0, 0.0, 0.0, 0.0, 0.0, 0.0, 1.644587248692849E9, 0.0, 2022-02-12 00:47:28.692
202.0, -10492.624103143706, -10173.038860921724, -7136.621431901626, -11339.5764040442, -10044.069295414603, -6834.917585243891, -9604.94692384564, -7242.7922180643345, -10781.475696739639, -12715.03570259043, -8481.324730077355, -7107.1394809650765, -7613.674713811245, -11370.041831736784, -11269.548388665724, -15534.037713293757, 0.009000000000000001, 0.234, 0.9510000000000001, 192.0, 0.0, 0.0, 0.0, 0.0, 0.0, 0.0, 0.0, 0.0, 0.0, 1.644587248699655E9, 0.0, 2022-02-12 00:47:28.699
204.0, -10531.337324540296, -10185.757003516794, -7139.9518418254665, -11350.43935184948, -10045.902138459938, -6847.881597027969, -9615.251078039537, -7253.319889702784, -10800.653493482292, -12743.154197115207, -8467.53370374843, -7106.424225142507, -7634.171263476761, -11375.003919005861, -11274.823400357176, -15587.771306964316, 0.007500000000000001, 0.232, 0.9505000000000001, 192.0, 0.0, 24.0, 3.5, 24.0, 14.5, 88.0, 0.0, 0.0, 0.0, 1.644587248707474E9, 0.0, 2022-02-12 00:47:28.707
206.0, -10508.31502775133, -10160.477180537842, -7136.912004579545, -11338.972906943907, -10038.682525000873, -6840.751390546727, -9612.367703004802, -7244.356840176206, -10788.784717176524, -12723.082330594341, -8479.380128309742, -7122.428074172506, -7632.561937875979, -11378.177866718515, -11272.901150334019, -15517.475070652376, 0.007500000000000001, 0.232, 0.9505000000000001, 192.0, 0.0, 0.0, 0.0, 0.0, 0.0, 0.0, 0.0, 0.0, 0.0, 1.644587248715377E9, 0.0, 2022-02-12 00:47:28.715
208.0, -10507.711530651037, -10171.72010799886, -7140.197711014475, -11364.00686073385, -10054.79813275315, -6855.637652353961, -9612.837089638364, -7261.791200851346, -10797.256028325084, -12750.418514063182, -8474.395689296209, -7110.3134286777295, -7653.639632897334, -11383.095250498684, -11276.499781191324, -15588.218341853422, 0.007500000000000001, 0.232, 0.9505000000000001, 192.0, 0.0, 0.0, 0.0, 0.0, 0.0, 0.0, 0.0, 0.0, 0.0, 1.644587248722464E9, 0.0, 2022-02-12 00:47:28.722
210.0, -10518.485071478495, -10189.668558796473, -7149.4066297300615, -11354.730886784899, -10047.667926271908, -6866.45589667033, -9631.210223580627, -7259.95835780601, -10790.572856732948, -12737.700371468112, -8490.645407515218, -7130.295888220774, -7641.502635658102, -11388.906704057063, -11285.015795828796, -15556.814140893715, 0.007500000000000001, 0.232, 0.9505000000000001, 192.0, 0.0, 0.0, 0.0, 0.0, 0.0, 0.0, 0.0, 0.0, 0.0, 1.644587248729528E9, 0.0, 2022-02-12 00:47:28.729
212.0, -10501.520097436918, -10192.484878597841, -7139.683620892003, -11368.097229969171, -10052.406496096433, -6871.686204872872, -9616.122796073294, -7263.445229941039, -10779.285225783018, -12742.438941292638, -8474.86507592977, -7117.778911325802, -7618.614449335868, -11390.672491869032, -11293.844734888642, -15564.637251453074, 0.007500000000000001, 0.232, 0.9505000000000001, 192.0, 0.0, 0.0, 0.0, 0.0, 0.0, 0.0, 0.0, 0.0, 0.0, 1.644587248737326E9, 0.0, 2022-02-12 00:47:28.737
214.0, -10558.248824864486, -10215.998913764824, -7159.129638568121, -11376.68029984001, -10070.734926549785, -6881.096289288555, -9641.424970796701, -7288.434480242072, -10825.888612972334, -12773.306700385416, -8488.231419114045, -7125.9820015409, -7650.152760762306, -11397.154497761072, -11305.132365838572, -15620.583667824707, 0.00575, 0.232, 0.94625, 192.0, 0.0, 16.0, 3.5, 32.0, 14.5, 56.0, 0.0, 0.0, 0.0, 1.644587248745085E9, 0.0, 2022-02-12 00:47:28.745
216.0, -10546.178882858621, -10202.945495002925, -7159.241397290397, -11364.699764811965, -10060.698993289352, -6871.395632194953, -9641.268508585514, -7276.431593469571, -10829.621354296369, -12754.419476320681, -8508.63856180174, -7150.211292530453, -7651.963252063186, -11392.482983169912, -11311.547316497245, -15555.808312393227, 0.00575, 0.232, 0.94625, 192.0, 0.0, 0.0, 0.0, 0.0, 0.0, 0.0, 0.0, 0.0, 0.0, 1.644587248753301E9, 0.0, 2022-02-12 00:47:28.753
218.0, -10546.84943519228, -10183.164201159978, -7159.397859501584, -11386.15743948906, -10078.938016764881, -6876.380071208486, -9632.350162547848, -7273.123535290187, -10847.882729516356, -12756.408781577204, -8505.241096644533, -7143.058734304755, -7665.083726058451, -11400.909590829562, -11314.944781654453, -15621.120109691634, 0.00575, 0.232, 0.94625, 192.0, 0.0, 0.0, 0.0, 0.0, 0.0, 0.0, 0.0, 0.0, 0.0, 1.644587248759713E9, 0.0, 2022-02-12 00:47:28.759
220.0, -10544.793074702391, -10201.805556035704, -7170.260807306863, -11376.34502367318, -10063.560016579631, -6884.963141079324, -9636.306421316436, -7275.3140062468065, -10854.409438897304, -12746.395200061226, -8531.482044635064, -7152.982908842911, -7679.23238029866, -11404.284704242315, -11317.04584563325, -15588.03952789778, 0.00575, 0.232, 0.94625, 192.0, 0.0, 0.0, 0.0, 0.0, 0.0, 0.0, 0.0, 0.0, 0.0, 1.644587248767665E9, 0.0, 2022-02-12 00:47:28.767
222.0, -10532.141987340689, -10220.066931255691, -7156.201560044475, -11385.084555755206, -10073.774763795705, -6887.26537075822, -9640.441494040668, -7285.908733118622, -10851.838988284944, -12744.003563404509, -8537.092332493345, -7130.452350431961, -7667.0059760816075, -11407.860983355164, -11323.773720714298, -15587.860713942136, 0.00575, 0.232, 0.94625, 192.0, 0.0, 0.0, 0.0, 0.0, 0.0, 0.0, 0.0, 0.0, 0.0, 1.64458724877577E9, 0.0, 2022-02-12 00:47:28.775
224.0, -10580.868790253257, -10232.941536061948, -7163.4882287369055, -11393.06412852575, -10078.736851064785, -6885.007844568235, -9644.867139442818, -7296.592866968259, -10862.05373550102, -12781.219217922595, -8520.35087589632, -7138.834254602702, -7651.270347985072, -11419.5956491942, -11323.796072458754, -15643.449502402485, 0.004875, 0.23500000000000001, 0.9461250000000001, 192.0, 0.0, 16.0, 3.5, 56.0, 14.5, 72.0, 0.0, 0.0, 0.0, 1.644587248789262E9, 0.0, 2022-02-12 00:47:28.789
226.0, -10593.497525870505, -10222.682085356962, -7157.028574589322, -11376.479134139912, -10078.490981875775, -6880.381033465986, -9654.880720958796, -7290.356730265228, -10851.391953395838, -12754.777104231967, -8514.427663615665, -7139.303641236263, -7669.263502271593, -11410.498489200889, -11329.518119039312, -15569.733449188883, 0.004875, 0.23500000000000001, 0.9461250000000001, 192.0, 0.0, 0.0, 0.0, 0.0, 0.0, 0.0, 0.0, 0.0, 0.0, 1.644587248797302E9, 0.0, 2022-02-12 00:47:28.797
228.0, -10573.537418071917, -10223.93378304646, -7167.310377038762, -11400.507259429367, -10098.384034440998, -6894.529687706196, -9663.575549551912, -7302.7843001823785, -10880.717442121202, -12776.704165542624, -8518.562736339896, -7140.532987181305, -7688.620112969889, -11418.478061971435, -11341.923337212007, -15644.678848347528, 0.004875, 0.23500000000000001, 0.9461250000000001, 192.0, 0.0, 0.0, 0.0, 0.0, 0.0, 0.0, 0.0, 0.0, 0.0, 1.644587248805385E9, 0.0, 2022-02-12 00:47:28.805
230.0, -10563.90381621168, -10228.02415228178, -7178.642711477603, -11391.052471524772, -10079.809734798639, -6884.069071301112, -9656.646508770766, -7302.11374784872, -10881.142125265853, -12767.584653804857, -8555.264300735511, -7174.150010842087, -7682.47338324468, -11425.250640541391, -11344.739657013377, -15609.161926408045, 0.004875, 0.23500000000000001, 0.9461250000000001, 192.0, 0.0, 0.0, 0.0, 0.0, 0.0, 0.0, 0.0, 0.0, 0.0, 1.644587248811872E9, 0.0, 2022-02-12 00:47:28.811
232.0, -10577.627787307238, -10237.970678564392, -7164.1364293261095, -11394.964026804451, -10092.527877393708, -6883.577332923095, -9649.583357522888, -7295.721148934502, -10870.837971071956, -12742.170720359174, -8541.875605806781, -7156.4474292334835, -7685.2002960682275, -11428.871623143152, -11347.108941925639, -15600.824725726216, 0.004875, 0.23500000000000001, 0.9461250000000001, 192.0, 0.0, 0.0, 0.0, 0.0, 0.0, 0.0, 0.0, 0.0, 0.0, 1.644587248820112E9, 0.0, 2022-02-12 00:47:28.820
234.0, -10609.34491268932, -10250.17473103699, -7181.928417912533, -11405.06701529825, -10104.061377532647, -6896.787213896181, -9668.112953676338, -7316.843547444767, -10887.467668946705, -12805.448508912148, -8526.944640510636, -7140.778856370313, -7691.458784515713, -11423.395445751601, -11354.328555384704, -15658.805150843282, 0.0044375000000000005, 0.2325, 0.9470625000000001, 192.0, 0.0, 16.0, 3.5, 24.0, 14.5, 80.0, 0.0, 0.0, 0.0, 1.644587248827913E9, 0.0, 2022-02-12 00:47:28.827
236.0, -10590.18946769112, -10226.54893714773, -7177.860400421668, -11400.507259429367, -10090.493868648276, -6892.540382449673, -9668.068250187427, -7299.722111192002, -10885.411308456816, -12792.886828528266, -8546.681230864671, -7168.740888683902, -7672.213932539694, -11430.100969088195, -11362.174017688516, -15594.767402978827, 0.0044375000000000005, 0.2325, 0.9470625000000001, 192.0, 0.0, 0.0, 0.0, 0.0, 0.0, 0.0, 0.0, 0.0, 0.0, 1.644587248835141E9, 0.0, 2022-02-12 00:47:28.835
238.0, -10569.916435470157, -10247.067838557701, -7164.56111247076, -11421.629657939633, -10105.603647900063, -6903.157461065944, -9663.553197807456, -7311.859108431234, -10900.230515030684, -12800.195848965152, -8539.439265661153, -7157.006222844866, -7691.704653704722, -11421.495547472901, -11358.82125602022, -15662.917871823058, 0.0044375000000000005, 0.2325, 0.9470625000000001, 192.0, 0.0, 0.0, 0.0, 0.0, 0.0, 0.0, 0.0, 0.0, 0.0, 1.644587248841741E9, 0.0, 2022-02-12 00:47:28.841
240.0, -10590.1000607133, -10256.723792162395, -7185.124717369643, -11423.551907962788, -10095.411252428443, -6906.264353545232, -9667.82238099842, -7307.58992524027, -10881.991491555154, -12796.910142530221, -8557.298309480942, -7190.891467439112, -7681.355796021914, -11410.319675245248, -11360.475285109913, -15633.99471449789, 0.0044375000000000005, 0.2325, 0.9470625000000001, 192.0, 0.0, 0.0, 0.0, 0.0, 0.0, 0.0, 0.0, 0.0, 0.0, 1.644587248849524E9, 0.0, 2022-02-12 00:47:28.849
