%OpenBCI Raw EEG Data
%Number of channels = 16
%Sample Rate = 125 Hz
%Board = OpenBCI_GUI$BoardCytonSerialDaisy
Sample Index, EXG Channel 0, EXG Channel 1, EXG Channel 2, EXG Channel 3, EXG Channel 4, EXG Channel 5, EXG Channel 6, EXG Channel 7, EXG Channel 8, EXG Channel 9, EXG Channel 10, EXG Channel 11, EXG Channel 12, EXG Channel 13, EXG Channel 14, EXG Channel 15, Accel Channel 0, Accel Channel 1, Accel Channel 2, Other, Other, Other, Other, Other, Other, Other, Analog Channel 0, Analog Channel 1, Analog Channel 2, Timestamp, Other, Timestamp (Formatted)
82.0, -11016.32547573155, -11161.075372824118, -7919.334819237569, -12933.725170341155, -11315.682389221476, -7998.996436476284, -10680.982253668577, -8568.809457875426, -10965.989347218198, -13295.018767716738, -8834.549347704571, -7438.258223325995, -8023.2480792102915, -11674.45023947361, -12928.025475505052, -17234.916059364805, 0.0, 0.0, 0.0, 192.0, 0.0, 0.0, 0.0, 0.0, 0.0, 0.0, 0.0, 0.0, 0.0, 1.644587316232506E9, 0.0, 2022-02-12 00:48:36.232
84.0, -10994.107841742974, -11146.814959861633, -7914.864470346507, -12953.99820256212, -11334.591965030666, -7994.794308518685, -10687.888942705267, -8581.75111791505, -10981.88143752592, -13293.789421771697, -8828.916708101835, -7441.7227437165675, -8028.858367068574, -11678.294739519923, -12925.566783614968, -17294.37169961592, 0.002, 0.117, 0.47500000000000003, 192.0, 0.0, 16.0, 3.5, 40.0, 14.5, 88.0, 0.0, 0.0, 0.0, 1.644587316232511E9, 0.0, 2022-02-12 00:48:36.232
0.0, -5402.9754284591, -5239.830045679813, -3736.0940857045757, -6311.05975044486, -5190.343283455763, -3398.5380409405284, -4928.40319018402, -3840.633194522047, -5484.089909087409, -6650.515693487608, -4430.652192908788, -3725.4770070883046, -4020.005943775886, -5835.571090647112, -6464.996214508559, -8613.758815975048, 0.002, 0.117, 0.47500000000000003, 192.0, 0.0, 0.0, 3.5, 56.0, 14.5, 88.0, 0.0, 0.0, 0.0, 1.644587316325615E9, 0.0, 2022-02-12 00:48:36.325
2.0, -10783.8449816519, -10488.310216463831, -7460.677023014668, -12612.016512395921, -10374.182209275034, -6795.511459769185, -9842.836540083474, -7675.454935485714, -9600.878906354774, -11972.644862251862, -8496.97095119607, -7121.131672994098, -6943.301194107676, -10477.491972147462, -12338.520567240783, -16810.836411814264, 0.002, 0.117, 0.47500000000000003, 192.0, 0.0, 0.0, 0.0, 0.0, 0.0, 0.0, 0.0, 0.0, 0.0, 1.644587316333125E9, 0.0, 2022-02-12 00:48:36.333
4.0, -10796.585475991425, -10499.486088691485, -7462.509866060003, -12629.987314937987, -10397.159802575088, -6814.979829189758, -9858.147485035359, -7692.174040338283, -9605.75158664603, -12016.767205806638, -8495.227515128556, -7117.086007247688, -6954.56647331315, -10468.752440065437, -12336.955945128911, -16872.19195034408, 0.002, 0.117, 0.47500000000000003, 192.0, 0.0, 0.0, 0.0, 0.0, 0.0, 0.0, 0.0, 0.0, 0.0, 1.644587316341219E9, 0.0, 2022-02-12 00:48:36.341
6.0, -10829.442540340728, -10532.298449551876, -7470.958825464109, -12610.228372839496, -10394.388186262631, -6825.015762450191, -9872.989043353682, -7701.137089864861, -9598.487269698056, -12002.551496333062, -8500.480175075552, -7133.64864988907, -6953.180665156921, -10484.331605950787, -12346.611898733605, -16825.230935243482, 0.002, 0.117, 0.47500000000000003, 192.0, 0.0, 0.0, 0.0, 0.0, 0.0, 0.0, 0.0, 0.0, 0.0, 1.644587316347933E9, 0.0, 2022-02-12 00:48:36.347
8.0, -10804.9003249288, -10512.360693497742, -7455.625528767769, -12613.178803107598, -10398.411500264585, -6831.475416597774, -9859.265072258124, -7711.262430103116, -9609.819604136897, -11998.863458497937, -8487.985549925035, -7113.442672901473, -6956.667537291949, -10491.573571154306, -12345.9636981444, -16845.05693257534, 0.002, 0.117, 0.47500000000000003, 192.0, 0.0, 0.0, 3.5, 64.0, 14.5, 112.0, 0.0, 0.0, 0.0, 1.644587316355128E9, 0.0, 2022-02-12 00:48:36.355
10.0, -10803.894496428311, -10514.0817778208, -7467.6060637958135, -12608.842564683267, -10402.613628222183, -6839.1644166904, -9866.171761294814, -7710.435415558269, -9607.85265062483, -12005.568981834529, -8483.068166144869, -7132.642821388581, -6952.3536506120745, -10497.586190412783, -12344.577889988172, -16859.04912460436, 0.002, 0.117, 0.47500000000000003, 192.0, 0.0, 0.0, 0.0, 0.0, 0.0, 0.0, 0.0, 0.0, 0.0, 1.644587316363373E9, 0.0, 2022-02-12 00:48:36.363
12.0, -10778.502914727082, -10498.390853213174, -7456.251377612517, -12597.420823266606, -10385.38043324714, -6838.516216101196, -9846.122246518404, -7702.679360232278, -9576.739022343043, -11958.898539411848, -8487.762032480483, -7138.051943546766, -6961.540217583206, -10494.903981078147, -12341.761570186804, -16801.64984484313, 0.002, 0.117, 0.47500000000000003, 192.0, 0.0, 0.0, 0.0, 0.0, 0.0, 0.0, 0.0, 0.0, 0.0, 1.644587316371087E9, 0.0, 2022-02-12 00:48:36.371
14.0, -10798.284208570029, -10528.498652994473, -7464.365060849794, -12624.846413713267, -10400.19963982101, -6862.700803601838, -9845.965784307216, -7718.929078451286, -9599.42604296518, -12016.56604010654, -8498.11089016329, -7147.529083195816, -6969.676252564937, -10508.583248684794, -12337.917070140491, -16862.424238017113, 0.002, 0.117, 0.47500000000000003, 192.0, 0.0, 0.0, 0.0, 0.0, 0.0, 0.0, 0.0, 0.0, 0.0, 1.644587316377676E9, 0.0, 2022-02-12 00:48:36.377
16.0, -10818.959572191188, -10560.551054543383, -7467.471953329081, -12610.518945517415, -10396.355139774698, -6872.5802746510835, -9859.890921102873, -7733.882395491886, -9592.765223117498, -12015.649618583873, -8512.103082192312, -7170.663138707058, -6974.61598808956, -10531.471435007028, -12338.96760212989, -16815.75379559443, 0.003, 0.17750000000000002, 0.7135, 192.0, 0.0, 16.0, 3.5, 56.0, 14.5, 96.0, 0.0, 0.0, 0.0, 1.644587316392705E9, 0.0, 2022-02-12 00:48:36.392
18.0, -10793.880914912334, -10551.967984672545, -7457.95011019112, -12618.364407821227, -10411.464919026484, -6881.789193366671, -9856.4264007123, -7738.6209653164115, -9594.441603951645, -12015.403749394865, -8495.428680828652, -7168.584426472715, -6975.711223567871, -10533.281926307909, -12343.907337654513, -16836.540917937866, 0.003, 0.17750000000000002, 0.7135, 192.0, 0.0, 0.0, 0.0, 0.0, 0.0, 0.0, 0.0, 0.0, 0.0, 1.644587316400758E9, 0.0, 2022-02-12 00:48:36.400
20.0, -10799.245333581608, -10556.773609730437, -7474.311587132405, -12616.285695586885, -10421.411445309097, -6897.927152863402, -9871.513828219633, -7759.184570215294, -9593.189906262149, -12027.607801867462, -8497.797965740916, -7174.954673642478, -6973.341938655608, -10545.530682269417, -12340.44281726394, -16851.67304893411, 0.003, 0.17750000000000002, 0.7135, 192.0, 0.0, 0.0, 0.0, 0.0, 0.0, 0.0, 0.0, 0.0, 0.0, 1.644587316407351E9, 0.0, 2022-02-12 00:48:36.407
22.0, -10765.851827365379, -10540.546243255883, -7463.247473627028, -12603.701663458547, -10410.369683548175, -6898.50829821924, -9852.157217521337, -7752.34493641197, -9572.112211240794, -11992.604970050452, -8513.041855459434, -7188.700996482492, -6971.464392121362, -10549.263423593453, -12337.179462573466, -16800.2640366869, 0.003, 0.17750000000000002, 0.7135, 192.0, 0.0, 0.0, 0.0, 0.0, 0.0, 0.0, 0.0, 0.0, 0.0, 1.644587316415392E9, 0.0, 2022-02-12 00:48:36.415
24.0, -10775.485429225617, -10527.693990194082, -7464.052136427419, -12619.59375376627, -10419.310381330299, -6910.913516391935, -9851.151389020848, -7763.632567361899, -9573.140391485738, -11998.751699775661, -8498.468518074575, -7193.908952940578, -6976.560589857172, -10552.079743394821, -12333.804349160713, -16857.14922632566, 0.003, 0.17750000000000002, 0.7135, 192.0, 0.0, 0.0, 0.0, 0.0, 0.0, 0.0, 0.0, 0.0, 0.0, 1.64458731642336E9, 0.0, 2022-02-12 00:48:36.423
26.0, -10795.579647490937, -10569.961138959068, -7463.269825371483, -12594.045709853854, -10416.069378384278, -6909.281839046698, -9853.699487888753, -7752.657860834344, -9570.480533895558, -12005.971313234724, -8506.537497822941, -7214.874889239656, -6993.413805176474, -10546.916490425647, -12334.027866605267, -16798.721766319486, 0.0035, 0.20675000000000002, 0.82975, 192.0, 0.0, 16.0, 3.5, 48.0, 14.5, 72.0, 0.0, 0.0, 0.0, 1.644587316430581E9, 0.0, 2022-02-12 00:48:36.430
28.0, -10779.262874038563, -10583.819220521358, -7457.123095646274, -12598.560762233827, -10427.938154690046, -6916.814376928137, -9856.560511179032, -7772.215637232738, -9560.869283779775, -12002.104461443956, -8500.748396009016, -7183.604798746682, -6988.988159774323, -10552.727943984026, -12330.183366558955, -16814.524449649387, 0.0035, 0.20675000000000002, 0.82975, 192.0, 0.0, 0.0, 0.0, 0.0, 0.0, 0.0, 0.0, 0.0, 0.0, 1.644587316438012E9, 0.0, 2022-02-12 00:48:36.438
30.0, -10798.775946948046, -10571.70457502658, -7462.129886404263, -12598.650169211647, -10426.842919211736, -6929.957202667857, -9863.154275793348, -7778.474125680224, -9561.94216751363, -12020.008208752657, -8498.1555936522, -7201.687360011025, -6999.180555245943, -10545.351868313774, -12332.753817171315, -16834.059874303326, 0.0035, 0.20675000000000002, 0.82975, 192.0, 0.0, 0.0, 0.0, 0.0, 0.0, 0.0, 0.0, 0.0, 0.0, 1.644587316445079E9, 0.0, 2022-02-12 00:48:36.445
32.0, -10786.527190986537, -10565.110810412265, -7452.8762641997655, -12589.77652666289, -10414.415349294586, -6931.231252101809, -9841.249566227147, -7774.048480278073, -9552.532083097945, -11987.262903125633, -8502.424776843163, -7219.702866042003, -6982.103822482089, -10574.029156449933, -12325.735369412349, -16777.08527768675, 0.0035, 0.20675000000000002, 0.82975, 192.0, 0.0, 0.0, 0.0, 0.0, 0.0, 0.0, 0.0, 0.0, 0.0, 1.64458731645299E9, 0.0, 2022-02-12 00:48:36.452
34.0, -10771.819743134945, -10558.427638820129, -7453.524464788969, -12595.252704054441, -10433.63784952615, -6947.27980462072, -9843.261223228124, -7791.751061886676, -9560.958690757596, -11993.923722973315, -8500.055491930902, -7208.99638044791, -6986.618874862061, -10571.034022692922, -12324.662485678493, -16836.563269682323, 0.0035, 0.20675000000000002, 0.82975, 192.0, 0.0, 0.0, 0.0, 0.0, 0.0, 0.0, 0.0, 0.0, 0.0, 1.644587316459656E9, 0.0, 2022-02-12 00:48:36.459
36.0, -10762.409658719262, -10561.556883043871, -7458.263034613495, -12580.63466318067, -10417.723407473972, -6949.246758132787, -9841.316621460512, -7788.644169407388, -9534.583632300333, -11967.772181960605, -8502.894163476725, -7241.942851775033, -6974.414822389463, -10584.802697277391, -12321.935572854945, -16788.08233595876, 0.00475, 0.22037500000000002, 0.889875, 192.0, 0.0, 24.0, 3.5, 40.0, 14.5, 88.0, 0.0, 0.0, 0.0, 1.644587316467814E9, 0.0, 2022-02-12 00:48:36.467
38.0, -10756.553501671971, -10587.104926956288, -7443.175607106163, -12580.120573058197, -10429.726294246471, -6960.0426507047005, -9841.13780750487, -7800.915277113352, -9534.605984044789, -11979.618606521917, -8494.82518372836, -7223.972049232966, -6990.753947586292, -10568.150647658187, -12320.236840276342, -16804.153240222127, 0.00475, 0.22037500000000002, 0.889875, 192.0, 0.0, 0.0, 0.0, 0.0, 0.0, 0.0, 0.0, 0.0, 0.0, 1.644587316475671E9, 0.0, 2022-02-12 00:48:36.475
40.0, -10775.239560036607, -10582.679281554138, -7453.14448513323, -12577.885398612667, -10427.669933756582, -6972.984310744323, -9845.764618607118, -7818.774320933142, -9538.763408513476, -12002.685606799794, -8501.910686720692, -7217.870022996667, -6991.7374243423255, -10587.037871722921, -12320.572116443172, -16822.28050497538, 0.00475, 0.22037500000000002, 0.889875, 192.0, 0.0, 0.0, 0.0, 0.0, 0.0, 0.0, 0.0, 0.0, 0.0, 1.644587316482982E9, 0.0, 2022-02-12 00:48:36.482
42.0, -10758.36399297285, -10564.775534245437, -7444.404953051205, -12567.87181709669, -10425.054779655311, -6963.149543183988, -9838.299135959047, -7807.285524283115, -9511.583687255823, -11953.131789342378, -8501.597762298317, -7237.405447650605, -6983.959017271879, -10579.214761163565, -12314.291276251231, -16761.327297845757, 0.00475, 0.22037500000000002, 0.889875, 192.0, 0.0, 0.0, 0.0, 0.0, 0.0, 0.0, 0.0, 0.0, 0.0, 1.644587316490368E9, 0.0, 2022-02-12 00:48:36.490
44.0, -10763.616652919847, -10578.275987896443, -7446.66247924119, -12582.06517482581, -10448.747628777937, -6978.080508480133, -9853.923005333305, -7831.000725150196, -9526.626411274245, -11983.50781005714, -8497.35093085181, -7242.591052364237, -7008.38947396153, -10583.416889121163, -12319.365122242585, -16817.98897003996, 0.00475, 0.22037500000000002, 0.889875, 192.0, 0.0, 0.0, 0.0, 0.0, 0.0, 0.0, 0.0, 0.0, 0.0, 1.644587316498461E9, 0.0, 2022-02-12 00:48:36.498
46.0, -10775.530132714526, -10577.717194285058, -7454.954976434109, -12564.161427517109, -10434.598974537728, -6993.100880754099, -9842.434208683278, -7830.196062349804, -9514.243544846004, -11980.08799315548, -8508.258582146, -7263.445229941039, -7006.802500105203, -10599.756014317993, -12317.129947797055, -16766.98228919295, 0.004375, 0.22718750000000001, 0.9169375, 192.0, 0.0, 16.0, 3.5, 40.0, 14.5, 64.0, 0.0, 0.0, 0.0, 1.644587316512782E9, 0.0, 2022-02-12 00:48:36.512
48.0, -10760.107429040365, -10603.95814227559, -7442.1921303501285, -12571.135171787164, -10450.222843911988, -6993.592619132116, -9846.032839540583, -7831.358353061481, -9521.21728911606, -11965.894635426359, -8505.39755885572, -7259.5783781502705, -7012.770415874769, -10615.893973814724, -12318.403997231007, -16780.482742843957, 0.004375, 0.22718750000000001, 0.9169375, 192.0, 0.0, 0.0, 0.0, 0.0, 0.0, 0.0, 0.0, 0.0, 0.0, 1.64458731651986E9, 0.0, 2022-02-12 00:48:36.519
50.0, -10756.329984227417, -10608.875526055757, -7451.892787443732, -12572.498628198939, -10444.076114186779, -7003.002703547801, -9843.484740672677, -7845.462303812779, -9520.032646659929, -11990.079222927001, -8499.63080878625, -7261.433572940061, -7010.892869340524, -10608.361435933284, -12313.777186128758, -16798.878228530673, 0.004375, 0.22718750000000001, 0.9169375, 192.0, 0.0, 0.0, 0.0, 0.0, 0.0, 0.0, 0.0, 0.0, 0.0, 1.644587316527898E9, 0.0, 2022-02-12 00:48:36.527
52.0, -10746.65167887827, -10574.051508194389, -7436.961822147588, -12559.981651303966, -10431.179157636067, -7007.026017549756, -9833.00177252314, -7839.986126421229, -9500.676035961633, -11956.08221961048, -8518.428625873164, -7290.5131924764155, -7001.460433180384, -10611.602438879305, -12304.724729624359, -16742.395370292114, 0.004375, 0.22718750000000001, 0.9169375, 192.0, 0.0, 0.0, 0.0, 0.0, 0.0, 0.0, 0.0, 0.0, 0.0, 1.644587316535904E9, 0.0, 2022-02-12 00:48:36.535
54.0, -10771.730336157125, -10598.727834073048, -7441.7227437165675, -12569.123514786186, -10453.419143369096, -7013.418616463973, -9837.695638858753, -7852.771324249665, -9510.935486666618, -11957.155103344334, -8500.033140186446, -7275.738689391457, -7016.972543832368, -10625.304058230407, -12305.752909869303, -16799.2135046975, 0.004375, 0.22718750000000001, 0.9169375, 192.0, 0.0, 0.0, 0.0, 0.0, 0.0, 0.0, 0.0, 0.0, 0.0, 1.644587316542571E9, 0.0, 2022-02-12 00:48:36.542
56.0, -10771.149190801287, -10615.961029048089, -7449.18822636464, -12551.86796806669, -10445.148997920633, -7008.970619317368, -9831.95124053374, -7854.470056828268, -9498.731434194022, -11973.60598726344, -8505.375207111265, -7290.602599454236, -7019.766511889281, -10627.53923267594, -12301.439023189429, -16746.41868429407, 0.0051875, 0.23059375000000001, 0.93046875, 192.0, 0.0, 24.0, 3.5, 40.0, 14.5, 64.0, 0.0, 0.0, 0.0, 1.644587316550553E9, 0.0, 2022-02-12 00:48:36.550
58.0, -10742.94128929869, -10599.018406750967, -7437.744133203523, -12560.093410026242, -10447.49593108844, -7021.085264812144, -9835.728685346685, -7869.4010221244125, -9493.992864369497, -11954.69641145425, -8500.54723030892, -7282.779488894879, -7005.349636715608, -10624.946430319123, -12302.221334245365, -16758.846254211217, 0.0051875, 0.23059375000000001, 0.93046875, 192.0, 0.0, 0.0, 0.0, 0.0, 0.0, 0.0, 0.0, 0.0, 0.0, 1.644587316558579E9, 0.0, 2022-02-12 00:48:36.558
60.0, -10743.03069627651, -10615.424587181162, -7451.445752554626, -12557.634718136158, -10444.612556053706, -7032.574061462172, -9826.340952675457, -7871.837362270041, -9492.629407957722, -11971.259054095633, -8498.40146284121, -7296.771680923901, -7019.3865322335405, -10634.334162990352, -12295.71697660887, -16780.79566726633, 0.0051875, 0.23059375000000001, 0.93046875, 192.0, 0.0, 0.0, 0.0, 0.0, 0.0, 0.0, 0.0, 0.0, 0.0, 1.644587316564757E9, 0.0, 2022-02-12 00:48:36.564
62.0, -10724.344637911874, -10583.930979243634, -7442.370944305771, -12543.731933084957, -10441.997401952434, -7033.334020773652, -9829.89488004385, -7876.330062905558, -9462.901587832164, -11941.017143847603, -8512.68422754815, -7313.915468921122, -7027.29904977072, -10628.701523387614, -12295.269941719764, -16721.027102592838, 0.0051875, 0.23059375000000001, 0.93046875, 192.0, 0.0, 0.0, 0.0, 0.0, 0.0, 0.0, 0.0, 0.0, 0.0, 1.644587316572303E9, 0.0, 2022-02-12 00:48:36.572
64.0, -10716.722693052614, -10570.072897681344, -7437.162987847685, -12556.360668702206, -10450.0663817008, -7042.699401700426, -9825.603345108431, -7874.2737024156695, -9472.021099569929, -11929.282478008567, -8510.49375659153, -7313.8260619433, -7017.285468254741, -10634.401218223718, -12290.061985261678, -16776.995870708928, 0.0051875, 0.23059375000000001, 0.93046875, 192.0, 0.0, 0.0, 0.0, 0.0, 0.0, 0.0, 0.0, 0.0, 0.0, 1.644587316580484E9, 0.0, 2022-02-12 00:48:36.580
66.0, -10756.17352201623, -10620.565488405882, -7444.248490840017, -12534.411255647095, -10436.096541416233, -7056.244558840342, -9818.56254560501, -7894.256161958714, -9457.939500563085, -11924.163928528302, -8506.559849567397, -7330.8804429627, -7018.537165944239, -10649.086314330854, -12279.66842408996, -16725.340989272714, 0.00359375, 0.23329687500000001, 0.9372343750000001, 192.0, 0.0, 8.0, 3.5, 48.0, 14.5, 64.0, 0.0, 0.0, 0.0, 1.644587316588142E9, 0.0, 2022-02-12 00:48:36.588
68.0, -10733.0841699939, -10610.350741189808, -7432.759694189989, -12537.518148126383, -10441.796236252338, -7061.385460065063, -9800.390577362845, -7873.781964037653, -9457.87244532972, -11936.613850189908, -8491.874753460259, -7316.821195700311, -7018.827738622158, -10646.225291040575, -12271.912368763968, -16734.7510736884, 0.00359375, 0.23329687500000001, 0.9372343750000001, 192.0, 0.0, 0.0, 0.0, 0.0, 0.0, 0.0, 0.0, 0.0, 0.0, 1.644587316595041E9, 0.0, 2022-02-12 00:48:36.595
70.0, -10724.814024545434, -10615.312828458886, -7445.857816440799, -12531.170252701075, -10453.463846858007, -7066.325195589686, -9817.914345015806, -7889.718757834287, -9458.29712847437, -11951.857739908426, -8499.29553261942, -7318.832852701289, -7025.332096258652, -10659.658689458214, -12267.978461739835, -16750.441998296024, 0.00359375, 0.23329687500000001, 0.9372343750000001, 192.0, 0.0, 0.0, 0.0, 0.0, 0.0, 0.0, 0.0, 0.0, 0.0, 1.644587316602837E9, 0.0, 2022-02-12 00:48:36.602
72.0, -10697.768413754513, -10585.585008333328, -7436.201862836107, -12518.496813594917, -10428.653410512616, -7055.931634417968, -9800.927019229774, -7881.627426341466, -9428.837529282277, -11917.88308833636, -8511.2090124141, -7336.758951754446, -7026.24851778132, -10651.05326784292, -12269.118400707055, -16688.080631265715, 0.00359375, 0.23329687500000001, 0.9372343750000001, 192.0, 0.0, 0.0, 0.0, 0.0, 0.0, 0.0, 0.0, 0.0, 0.0, 1.644587316611084E9, 0.0, 2022-02-12 00:48:36.611
74.0, -10704.026902201998, -10578.700671041093, -7432.849101167811, -12529.382113144651, -10438.465826328496, -7065.900512445035, -9792.187487147748, -7886.65656884391, -9432.659677584134, -11924.163928528302, -8505.330503622354, -7329.673448762113, -7019.2077182778985, -10646.225291040575, -12262.837560515114, -16742.618887736666, 0.00359375, 0.23329687500000001, 0.9372343750000001, 192.0, 0.0, 0.0, 0.0, 0.0, 0.0, 0.0, 0.0, 0.0, 0.0, 1.644587316617836E9, 0.0, 2022-02-12 00:48:36.617
76.0, -10731.139568226286, -10601.454746896596, -7438.079409370353, -12506.80685124479, -10422.663142998594, -7066.861637456613, -9781.369242831379, -7882.342682164036, -9420.455625111535, -11903.957951540704, -8492.34414009382, -7346.973698970521, -7009.52941292875, -10645.19711079563, -12251.594633054094, -16692.618035390144, 0.004796875, 0.23464843750000003, 0.9416171875000001, 192.0, 0.0, 24.0, 3.5, 48.0, 14.5, 72.0, 0.0, 0.0, 0.0, 1.644587316625701E9, 0.0, 2022-02-12 00:48:36.625
78.0, -10695.35442535334, -10594.413947393174, -7428.579917976847, -12505.37633959965, -10426.082959900255, -7071.242579369853, -9771.422716548768, -7882.99088275324, -9410.91143022912, -11868.530436579042, -8480.117735876767, -7332.623879030214, -7009.752930373304, -10662.005622626022, -12244.263260872754, -16694.517933668845, 0.004796875, 0.23464843750000003, 0.9416171875000001, 192.0, 0.0, 0.0, 0.0, 0.0, 0.0, 0.0, 0.0, 0.0, 0.0, 1.644587316640654E9, 0.0, 2022-02-12 00:48:36.640
80.0, -10690.817021228913, -10589.831839779836, -7433.318487801372, -12499.274313363352, -10426.932326189557, -7083.647797542549, -9788.6112080349, -7898.860621316508, -9411.649037796145, -11919.559469170508, -8486.77855572445, -7339.910547722644, -7003.71795937037, -10657.62468071278, -12237.84831021408, -16714.768614145352, 0.004796875, 0.23464843750000003, 0.9416171875000001, 192.0, 0.0, 0.0, 0.0, 0.0, 0.0, 0.0, 0.0, 0.0, 0.0, 1.6445873166484E9, 0.0, 2022-02-12 00:48:36.648
82.0, -10674.075564631888, -10592.245828181009, -7423.081388840841, -12484.991548656411, -10403.507698000396, -7074.349471849141, -9761.006803632594, -7882.700310075321, -9384.022281649386, -11897.297131693022, -8485.996244668513, -7350.371164127728, -7011.094035040622, -10655.098933589332, -12230.785158966204, -16653.72600003791, 0.004796875, 0.23464843750000003, 0.9416171875000001, 192.0, 0.0, 0.0, 0.0, 0.0, 0.0, 0.0, 0.0, 0.0, 0.0, 1.644587316655239E9, 0.0, 2022-02-12 00:48:36.655
84.0, -10673.53912276496, -10564.887292967713, -7418.365170760771, -12488.545476024805, -10412.761320204892, -7067.845114212646, -9751.999050617105, -7882.476792630768, -9391.644226508644, -11897.274779948566, -8470.551189249896, -7350.438219361094, -7005.4166919489735, -10633.194224023131, -12220.525708261217, -16696.21666624745, 0.004796875, 0.23464843750000003, 0.9416171875000001, 192.0, 0.0, 0.0, 0.0, 0.0, 0.0, 0.0, 0.0, 0.0, 0.0, 1.644587316663011E9, 0.0, 2022-02-12 00:48:36.663
86.0, -10661.647994714736, -10566.608377290771, -7423.193147563118, -12468.56301648176, -10392.175363561555, -7069.1638671355095, -9739.571480699955, -7885.427222898868, -9361.983461616452, -11869.2009889127, -8485.415099312675, -7351.9134344951435, -6999.873459324058, -10646.024125340477, -12206.868792399026, -16645.120578422615, 0.0073984375000000005, 0.23832421875, 0.94380859375, 192.0, 0.0, 40.0, 3.5, 72.0, 14.5, 72.0, 0.0, 0.0, 0.0, 1.644587316670371E9, 0.0, 2022-02-12 00:48:36.670
88.0, -10659.569282480394, -10556.192464374599, -7407.368112488761, -12464.80792341327, -10397.428023508552, -7074.014195682311, -9724.506404937078, -7875.234827427248, -9350.360554499694, -11850.939613692715, -8461.789305423415, -7341.8327977458, -6995.827793577647, -10645.778256151469, -12199.962103362335, -16645.366447611625, 0.0073984375000000005, 0.23832421875, 0.94380859375, 192.0, 0.0, 0.0, 0.0, 0.0, 0.0, 0.0, 0.0, 0.0, 0.0, 1.644587316677623E9, 0.0, 2022-02-12 00:48:36.677
90.0, -10656.216520812097, -10574.207970405576, -7410.765577645967, -12461.477513489428, -10401.0043026214, -7072.11429740361, -9735.347000997901, -7883.683786831354, -9355.076772579763, -11863.031907443037, -8452.33451751882, -7344.313841380339, -6992.698549353904, -10657.15529407922, -12198.665702183927, -16664.365430398637, 0.0073984375000000005, 0.23832421875, 0.94380859375, 192.0, 0.0, 0.0, 0.0, 0.0, 0.0, 0.0, 0.0, 0.0, 0.0, 1.644587316685866E9, 0.0, 2022-02-12 00:48:36.685
92.0, -10630.310848988396, -10554.605490518272, -7400.126147285241, -12442.053847557765, -10384.24049427992, -7061.743087976348, -9717.555012411478, -7865.914149989385, -9323.717275108967, -11824.519851746541, -8452.178055307633, -7349.477094349515, -6988.071738251655, -10632.948354834123, -12186.528704944696, -16595.38794700956, 0.0073984375000000005, 0.23832421875, 0.94380859375, 192.0, 0.0, 0.0, 0.0, 0.0, 0.0, 0.0, 0.0, 0.0, 0.0, 1.644587316692676E9, 0.0, 2022-02-12 00:48:36.692
94.0, -10611.803604579402, -10542.379086301218, -7398.22624900654, -12454.548472708282, -10388.777898404349, -7071.443745069951, -9713.174070498237, -7872.619673325977, -9319.448091918004, -11842.870633944349, -8438.543491189897, -7335.104922664753, -6978.460488135874, -10622.241869240032, -12179.21968450781, -16644.830005744698, 0.0073984375000000005, 0.23832421875, 0.94380859375, 192.0, 0.0, 0.0, 0.0, 0.0, 0.0, 0.0, 0.0, 0.0, 0.0, 1.644587316699875E9, 0.0, 2022-02-12 00:48:36.699
96.0, -10628.43330245415, -10529.79505417288, -7401.9813420750315, -12430.073312529721, -10365.554435915285, -7076.472887572395, -9708.569611140443, -7872.060879714594, -9305.992341755908, -11830.286601816011, -8444.71257265956, -7355.176789185619, -6975.577113101139, -10629.550889676917, -12170.07782102559, -16596.90786563252, 0.012, 0.24, 0.9380000000000001, 192.0, 0.0, 48.0, 3.5, 64.0, 14.5, 40.0, 0.0, 0.0, 0.0, 1.644587316707308E9, 0.0, 2022-02-12 00:48:36.707
98.0, -10597.47613638355, -10515.914620866135, -7387.385652945716, -12433.22490849792, -10374.808058119781, -7077.456364328428, -9712.391759442302, -7881.426260641368, -9296.492850362403, -11805.699682915174, -8437.470607456042, -7348.225396660018, -6967.508133352773, -10625.281706485952, -12167.686184368871, -16597.354900521626, 0.012, 0.24, 0.9380000000000001, 192.0, 0.0, 0.0, 0.0, 0.0, 0.0, 0.0, 0.0, 0.0, 0.0, 1.644587316715402E9, 0.0, 2022-02-12 00:48:36.715
100.0, -10609.277857455952, -10542.312031067853, -7391.140746014207, -12428.396931695574, -10361.061735279767, -7077.344605606152, -9684.787355039996, -7886.902438032918, -9283.014748455853, -11808.784223650006, -8433.916680087648, -7348.4489141045715, -6986.797688817703, -10613.904668558202, -12156.97969877478, -16618.030264142784, 0.012, 0.24, 0.9380000000000001, 192.0, 0.0, 0.0, 0.0, 0.0, 0.0, 0.0, 0.0, 0.0, 0.0, 1.644587316723314E9, 0.0, 2022-02-12 00:48:36.723
102.0, -10601.924133530156, -10531.583193729306, -7381.373033687239, -12407.341588418674, -10358.357174200675, -7074.081250915677, -9690.598808598377, -7878.811106540097, -9271.257730872361, -11795.507287443554, -8427.47937768452, -7333.294431363873, -6973.699566566893, -10633.194224023131, -12146.563785858607, -16551.287955199237, 0.012, 0.24, 0.9380000000000001, 192.0, 0.0, 0.0, 0.0, 0.0, 0.0, 0.0, 0.0, 0.0, 0.0, 1.644587316729978E9, 0.0, 2022-02-12 00:48:36.729
104.0, -10575.012633205966, -10507.353902739753, -7377.08149875182, -12416.818728067725, -10357.731325355928, -7082.4855068308725, -9678.506514848055, -7886.768327566187, -9262.7864197238, -11799.441194467689, -8408.592153619786, -7332.959155197043, -6962.724860039337, -10625.460520441595, -12137.377218887475, -16603.456926757925, 0.012, 0.24, 0.9380000000000001, 192.0, 0.0, 0.0, 0.0, 0.0, 0.0, 0.0, 0.0, 0.0, 0.0, 1.64458731673796E9, 0.0, 2022-02-12 00:48:36.737
106.0, -10585.964987989068, -10487.706719363538, -7382.289455209906, -12395.964550490922, -10336.85479603467, -7078.886875973568, -9668.87291298782, -7879.861638529496, -9244.525044503815, -11778.363499446334, -8425.043037538891, -7349.678260049613, -6961.0931826941, -10624.566450663382, -12126.983657715757, -16557.837016324644, 0.004, 0.23600000000000002, 0.9420000000000001, 192.0, 0.0, 16.0, 3.5, 48.0, 14.5, 56.0, 0.0, 0.0, 0.0, 1.6445873167469E9, 0.0, 2022-02-12 00:48:36.746
108.0, -10559.500522553984, -10497.787356112882, -7377.6849958521125, -12397.864448769624, -10341.95099377048, -7076.405832339029, -9655.864197714829, -7873.3349291485465, -9227.358904762139, -11752.726048556096, -8406.401682663165, -7343.330364624306, -6943.2564906187645, -10609.255505711497, -12120.278134379165, -16548.65044935351, 0.004, 0.23600000000000002, 0.9420000000000001, 192.0, 0.0, 0.0, 0.0, 0.0, 0.0, 0.0, 0.0, 0.0, 0.0, 1.644587316759573E9, 0.0, 2022-02-12 00:48:36.759
110.0, -10564.864941223257, -10505.0293213164, -7382.691786610101, -12395.517515601816, -10346.689563595006, -7090.442727856962, -9670.996328711073, -7896.08900500405, -9231.53868097528, -11770.942720287172, -8401.707816327551, -7351.891082750689, -6959.729726282326, -10615.402235436706, -12116.835965733047, -16573.594996165633, 0.004, 0.23600000000000002, 0.9420000000000001, 192.0, 0.0, 0.0, 0.0, 0.0, 0.0, 0.0, 0.0, 0.0, 0.0, 1.644587316767564E9, 0.0, 2022-02-12 00:48:36.767
112.0, -10555.700725996581, -10491.417108943118, -7372.566446371848, -12374.015137435812, -10333.90436576657, -7078.462192828917, -9653.33845059138, -7877.157077450404, -9201.67675038299, -11741.818397261906, -8401.618409349729, -7349.3876873716945, -6947.4809703208175, -10609.903706300702, -12111.560954041595, -16511.166573901963, 0.004, 0.23600000000000002, 0.9420000000000001, 192.0, 0.0, 0.0, 0.0, 0.0, 0.0, 0.0, 0.0, 0.0, 0.0, 1.64458731677556E9, 0.0, 2022-02-12 00:48:36.775
114.0, -10547.542339270394, -10487.349091452252, -7374.175771972629, -12379.580721805183, -10336.363057656654, -7083.871314987102, -9641.357915563336, -7876.575932094566, -9214.149023789052, -11751.764923544517, -8388.833211521294, -7339.776437255912, -6959.305043137675, -10615.424587181162, -12100.429785302853, -16555.66889711248, 0.004, 0.23600000000000002, 0.9420000000000001, 192.0, 0.0, 0.0, 0.0, 0.0, 0.0, 0.0, 0.0, 0.0, 0.0, 1.644587316782921E9, 0.0, 2022-02-12 00:48:36.782
116.0, -10543.720190968537, -10486.164448996122, -7377.550885385381, -12358.480675039373, -10317.47583359192, -7079.780945751781, -9638.072209128406, -7882.365033908491, -9187.237523464863, -11737.392751859756, -8395.270513924423, -7347.308975137351, -6942.652993518472, -10605.34395043182, -12087.82340143006, -16506.98679768882, 0.004, 0.234, 0.9440000000000001, 192.0, 0.0, 16.0, 3.5, 40.0, 14.5, 64.0, 0.0, 0.0, 0.0, 1.644587316790219E9, 0.0, 2022-02-12 00:48:36.790
118.0, -10509.812594629837, -10462.605710340227, -7362.083478222308, -12357.363087816608, -10307.819879987226, -7072.024890425789, -9624.370589777302, -7866.584702323044, -9173.62531109158, -11711.688245736152, -8387.201534176056, -7348.158341426652, -6921.597650241572, -10598.481964884038, -12078.838000159027, -16500.616550519055, 0.004, 0.234, 0.9440000000000001, 192.0, 0.0, 0.0, 0.0, 0.0, 0.0, 0.0, 0.0, 0.0, 0.0, 1.644587316798435E9, 0.0, 2022-02-12 00:48:36.798
120.0, -10511.019588830422, -10463.991518496458, -7363.692803823091, -12352.82568369218, -10303.126013651612, -7077.903399217535, -9607.964409347107, -7864.014251710684, -9164.192874931441, -11726.708618010118, -8372.471734580009, -7348.940652482588, -6937.757961482759, -10596.29149392742, -12064.868159874459, -16518.162669916474, 0.004, 0.234, 0.9440000000000001, 192.0, 0.0, 0.0, 0.0, 0.0, 0.0, 0.0, 0.0, 0.0, 0.0, 1.644587316805307E9, 0.0, 2022-02-12 00:48:36.805
122.0, -10499.329626480298, -10446.043067698845, -7354.238015918496, -12331.658581693004, -10283.970568653414, -7066.012271167311, -9600.85655461032, -7865.265949400181, -9132.967487927377, -11680.999300599016, -8379.758403272439, -7347.890120493188, -6917.4849292617955, -10606.774462076959, -12058.967299338257, -16454.236680774295, 0.004, 0.234, 0.9440000000000001, 192.0, 0.0, 0.0, 0.0, 0.0, 0.0, 0.0, 0.0, 0.0, 0.0, 1.644587316811963E9, 0.0, 2022-02-12 00:48:36.811
124.0, -10479.146001237155, -10433.459035570508, -7348.31480363784, -12336.77713117327, -10290.094946634168, -7066.928692689979, -9578.951845044117, -7858.7168882747765, -9143.405752588005, -11689.939998381138, -8351.170522114102, -7345.9231669811215, -6921.0835601191, -10576.443144851106, -12047.254985243677, -16499.16368712946, 0.004, 0.234, 0.9440000000000001, 192.0, 0.0, 0.0, 0.0, 0.0, 0.0, 0.0, 0.0, 0.0, 0.0, 1.644587316821963E9, 0.0, 2022-02-12 00:48:36.821
126.0, -10496.088623534277, -10441.662125785604, -7352.516931595437, -12306.28935173623, -10266.379745767086, -7056.4233727959845, -9566.390164660235, -7848.390382336424, -9119.936420909933, -11679.233512787046, -8364.648624020652, -7350.527626338915, -6911.896993147969, -10570.117601170256, -12035.453264171276, -16447.665267904435, 0.008, 0.226, 0.9440000000000001, 192.0, 0.0, 32.0, 3.5, 8.0, 14.5, 64.0, 0.0, 0.0, 0.0, 1.644587316828246E9, 0.0, 2022-02-12 00:48:36.828
128.0, -10461.868102773202, -10428.184023879056, -7332.087437163286, -12301.170802255965, -10267.139705078567, -7050.6119192376045, -9559.639937834732, -7841.9307281888405, -9101.85385964559, -11651.584404895832, -8346.253138333934, -7325.828948715801, -6906.376112267508, -10573.358604116274, -12024.14328147689, -16432.91311656393, 0.008, 0.226, 0.9440000000000001, 192.0, 0.0, 0.0, 0.0, 0.0, 0.0, 0.0, 0.0, 0.0, 0.0, 1.644587316834857E9, 0.0, 2022-02-12 00:48:36.834
130.0, -10464.103277218734, -10423.870137199181, -7338.457684333049, -12297.460412676384, -10269.732507435383, -7052.0647826272, -9555.124885454761, -7836.655716497388, -9096.109461320575, -11655.808884597885, -8331.41158001561, -7328.399399328161, -6905.817318656125, -10566.295452868397, -12013.414444138341, -16459.601099443567, 0.008, 0.226, 0.9440000000000001, 192.0, 0.0, 0.0, 0.0, 0.0, 0.0, 0.0, 0.0, 0.0, 0.0, 1.644587316842609E9, 0.0, 2022-02-12 00:48:36.842
132.0, -10442.757361263915, -10394.164668818077, -7322.6773527476025, -12270.504208863284, -10240.764646621305, -7040.2854132992525, -9532.862547977275, -7831.73833271722, -9072.573074409136, -11626.930430761628, -8323.767283411895, -7332.467416819027, -6889.5452486926615, -10561.825103977335, -12003.266752155632, -16391.897665488443, 0.008, 0.226, 0.9440000000000001, 192.0, 0.0, 0.0, 0.0, 0.0, 0.0, 0.0, 0.0, 0.0, 0.0, 1.644587316850527E9, 0.0, 2022-02-12 00:48:36.850
134.0, -10402.367759033175, -10374.986872075424, -7320.598640513259, -12277.567360111161, -10245.324402490187, -7033.87046264058, -9524.704161251087, -7827.715018715266, -9060.547835892181, -11619.82257602484, -8305.97529482547, -7306.427634528593, -6858.990414022257, -10547.162359614655, -11987.195847892268, -16431.77317759671, 0.008, 0.226, 0.9440000000000001, 192.0, 0.0, 0.0, 0.0, 0.0, 0.0, 0.0, 0.0, 0.0, 0.0, 1.644587316858566E9, 0.0, 2022-02-12 00:48:36.858
136.0, -10410.570849248274, -10381.714747156471, -7322.16326262513, -12252.488702832306, -10224.581983635662, -7040.48657899935, -9510.108472121772, -7826.97741114824, -9040.945356004877, -11590.139459388192, -8320.593335699241, -7324.398437070661, -6873.02730954019, -10547.89996718168, -11973.807152963538, -16384.543941562646, 0.006, 0.228, 0.9500000000000001, 192.0, 0.0, 24.0, 3.5, 16.0, 14.5, 88.0, 0.0, 0.0, 0.0, 1.644587316865069E9, 0.0, 2022-02-12 00:48:36.865
138.0, -10411.151994604112, -10378.786668632827, -7303.58896298277, -12252.801627254681, -10226.012495280802, -7031.702343428415, -9501.279533061926, -7823.959925646774, -9026.327315131106, -11575.074383625315, -8299.537992422342, -7307.7687391959125, -6869.428678682885, -10536.545280998384, -11961.804266191039, -16373.703345501823, 0.006, 0.228, 0.9500000000000001, 192.0, 0.0, 0.0, 0.0, 0.0, 0.0, 0.0, 0.0, 0.0, 0.0, 1.644587316873164E9, 0.0, 2022-02-12 00:48:36.873
140.0, -10411.621381237672, -10372.282310996332, -7312.663771231624, -12248.130112663523, -10230.259326727311, -7035.34567777463, -9506.196916842095, -7822.015323879162, -9030.104759944054, -11608.669055541643, -8284.629378870652, -7315.457739288538, -6863.349004191042, -10532.812539674347, -11953.93645214277, -16399.63136906998, 0.006, 0.228, 0.9500000000000001, 192.0, 0.0, 0.0, 0.0, 0.0, 0.0, 0.0, 0.0, 0.0, 0.0, 1.644587316887149E9, 0.0, 2022-02-12 00:48:36.887
142.0, -10390.767203660871, -10354.937357299013, -7308.618105485214, -12228.304115331664, -10203.571343847674, -7025.086227069643, -9480.87239037423, -7810.124195828938, -9003.260314853229, -11569.709964956042, -8298.934495322048, -7316.30710557784, -6857.157570976922, -10538.914565910645, -11937.26205077911, -16326.496461212215, 0.006, 0.228, 0.9500000000000001, 192.0, 0.0, 0.0, 0.0, 0.0, 0.0, 0.0, 0.0, 0.0, 0.0, 1.644587316894771E9, 0.0, 2022-02-12 00:48:36.894
144.0, -10376.730308142938, -10342.688601337506, -7306.293524061862, -12237.13305439151, -10212.1097102296, -7030.517700972284, -9483.867524131241, -7821.300068056592, -9014.615001036525, -11576.706060970553, -8285.523448648864, -7310.4733002750045, -6855.637652353961, -10533.259574563453, -11931.584707687463, -16378.687784515356, 0.006, 0.228, 0.9500000000000001, 192.0, 0.0, 0.0, 0.0, 0.0, 0.0, 0.0, 0.0, 0.0, 0.0, 1.644587316902843E9, 0.0, 2022-02-12 00:48:36.902
146.0, -10353.059810764767, -10358.111305011667, -7309.623933985703, -12217.307057059654, -10188.68508204044, -7019.453587466906, -9473.898646104175, -7825.770416947654, -8980.707404697825, -11544.608955932732, -8283.243570714423, -7308.68516071858, -6828.301468885121, -10528.699818694571, -11919.671227892784, -16329.938629858332, 0.002, 0.234, 0.9500000000000001, 192.0, 0.0, 8.0, 3.5, 40.0, 14.5, 88.0, 0.0, 0.0, 0.0, 1.644587316910704E9, 0.0, 2022-02-12 00:48:36.910
148.0, -10350.087028752212, -10341.61571760365, -7291.809593654823, -12212.70259770186, -10182.605407548595, -7013.888003097535, -9458.855922085753, -7819.713094200265, -8972.68312843837, -11542.194967531559, -8265.384526894633, -7297.330474535284, -6822.244146137732, -10525.74938842647, -11906.796623086528, -16319.455661708793, 0.002, 0.234, 0.9500000000000001, 192.0, 0.0, 0.0, 0.0, 0.0, 0.0, 0.0, 0.0, 0.0, 0.0, 1.644587316917472E9, 0.0, 2022-02-12 00:48:36.917
150.0, -10356.680793366528, -10319.778063270816, -7292.636608199669, -12204.857135398048, -10184.170029660467, -7012.256325752298, -9456.464285429036, -7803.262210281159, -8964.68120392337, -11532.51666218241, -8248.598366808697, -7289.7532331649345, -6841.824274280581, -10509.36555974073, -11897.386538670844, -16342.366199775483, 0.002, 0.234, 0.9500000000000001, 192.0, 0.0, 0.0, 0.0, 0.0, 0.0, 0.0, 0.0, 0.0, 0.0, 1.644587316925331E9, 0.0, 2022-02-12 00:48:36.925
152.0, -10340.90046178108, -10300.957894439447, -7288.188611053063, -12187.243960767266, -10165.081639895636, -7003.919125070468, -9435.923032274608, -7791.236971764204, -8932.405284929906, -11508.08620549276, -8252.01818371036, -7293.843602400256, -6825.999239206224, -10510.930181852602, -11884.40017514231, -16270.55004484058, 0.002, 0.234, 0.9500000000000001, 192.0, 0.0, 0.0, 0.0, 0.0, 0.0, 0.0, 0.0, 0.0, 0.0, 1.644587316933623E9, 0.0, 2022-02-12 00:48:36.933
154.0, -10322.572031327729, -10298.588609527185, -7281.77366039439, -12192.384861991986, -10167.92031144146, -7006.757796616292, -9430.692724072067, -7805.5420882156, -8947.313898481596, -11527.353409213234, -8242.92102371705, -7284.4111662401165, -6823.205271149311, -10507.689178906581, -11875.615939571375, -16319.120385541963, 0.002, 0.234, 0.9500000000000001, 192.0, 0.0, 0.0, 0.0, 0.0, 0.0, 0.0, 0.0, 0.0, 0.0, 1.64458731694051E9, 0.0, 2022-02-12 00:48:36.940
156.0, -10324.51663309534, -10301.114356650634, -7284.299407517839, -12170.860132081525, -10155.2468723353, -6999.6052383905935, -9437.755875319943, -7788.73357638521, -8922.794034814124, -11506.968618269995, -8232.303945100779, -7293.77654716689, -6812.63289602195, -10503.710568393537, -11865.848227244405, -16276.65207107688, 0.002, 0.24, 0.9520000000000001, 192.0, 0.0, 8.0, 3.5, 64.0, 14.5, 96.0, 0.0, 0.0, 0.0, 1.644587316946992E9, 0.0, 2022-02-12 00:48:36.946
158.0, -10293.961798424936, -10290.921961179014, -7270.2625119999075, -12165.518065156706, -10143.713372196362, -6989.323435941153, -9403.244781880949, -7780.217561747738, -8908.153642195897, -11478.17957141156, -8227.140692131603, -7277.817401625801, -6795.3326458135425, -10497.474431690507, -11853.465360816164, -16263.93392848181, 0.002, 0.24, 0.9520000000000001, 192.0, 0.0, 0.0, 0.0, 0.0, 0.0, 0.0, 0.0, 0.0, 0.0, 1.644587316955054E9, 0.0, 2022-02-12 00:48:36.955
160.0, -10289.290283833776, -10249.884158359071, -7271.648320156136, -12162.232358721776, -10145.121532097046, -6992.162107486976, -9404.272962125893, -7792.555724687068, -8906.633723572937, -11492.03765297385, -8214.176680347524, -7281.483087716471, -6778.792354916615, -10485.002158284446, -11843.652945000285, -16291.493629395203, 0.002, 0.24, 0.9520000000000001, 192.0, 0.0, 0.0, 0.0, 0.0, 0.0, 0.0, 0.0, 0.0, 0.0, 1.644587316963346E9, 0.0, 2022-02-12 00:48:36.963
162.0, -10264.971585866402, -10241.457550699419, -7259.064288027798, -12132.102207196023, -10122.345104497088, -6982.394395160008, -9394.52760154338, -7780.508134425657, -8864.076002130032, -11426.614096953166, -8203.894877898083, -7279.985520837966, -6770.589264701518, -10466.003175497435, -11828.677276215229, -16217.487003503682, 0.002, 0.24, 0.9520000000000001, 192.0, 0.0, 0.0, 0.0, 0.0, 0.0, 0.0, 0.0, 0.0, 0.0, 1.644587316970114E9, 0.0, 2022-02-12 00:48:36.970
164.0, -10272.504123747842, -10282.897684919559, -7258.550197905326, -12144.797998046637, -10134.705619180873, -6979.980406758834, -9391.510116041913, -7776.171896001327, -8886.159525651876, -11455.939585678529, -8197.502278983866, -7247.128456488665, -6800.808823205093, -10478.251931458943, -11822.396436023288, -16262.637527303403, 0.005, 0.239, 0.9500000000000001, 192.0, 0.0, 32.0, 3.5, 56.0, 14.5, 80.0, 0.0, 0.0, 0.0, 1.644587316979388E9, 0.0, 2022-02-12 00:48:36.979
166.0, -10263.31755677671, -10257.975489851891, -7254.303366458817, -12126.044884448635, -10108.978761312814, -6970.704432809882, -9374.85806642271, -7771.723898854721, -8863.56191200756, -11456.654841501098, -8210.175718090024, -7263.087602029754, -6787.665997465372, -10462.40454464013, -11809.253610283567, -16216.190602325274, 0.005, 0.239, 0.9500000000000001, 192.0, 0.0, 0.0, 0.0, 0.0, 0.0, 0.0, 0.0, 0.0, 0.0, 1.644587316986048E9, 0.0, 2022-02-12 00:48:36.986
168.0, -10287.144516366066, -10250.64411767055, -7236.354915661206, -12120.30048612362, -10105.894220577982, -6968.066926964156, -9357.289595280838, -7761.397392916369, -8859.42683928333, -11427.21759405346, -8191.266142280834, -7255.555064148315, -6769.963415856769, -10457.531864348874, -11795.194363021179, -16201.103174817941, 0.005, 0.239, 0.9500000000000001, 192.0, 0.0, 0.0, 0.0, 0.0, 0.0, 0.0, 0.0, 0.0, 0.0, 1.644587316993031E9, 0.0, 2022-02-12 00:48:36.993
170.0, -10284.305844820243, -10252.879292116082, -7244.468598898483, -12115.114881409989, -10105.491889177787, -6967.865761264058, -9353.959185356998, -7758.826942304009, -8867.875798687435, -11439.93573664853, -8177.855095607651, -7266.574474164781, -6765.805991388082, -10463.097448718245, -11784.800801849462, -16228.774634453612, 0.005, 0.239, 0.9500000000000001, 192.0, 0.0, 0.0, 0.0, 0.0, 0.0, 0.0, 0.0, 0.0, 0.0, 1.644587317007191E9, 0.0, 2022-02-12 00:48:37.007
172.0, -10256.41086774002, -10229.544070904742, -7234.007982493399, -12086.549351996107, -10088.817487814127, -6953.828865746125, -9350.002926588408, -7750.2438724331705, -8828.402617979362, -11401.893067585597, -8180.425546220011, -7259.690136872547, -6754.205436015777, -10451.318079390297, -11777.67059536822, -16154.320973672984, 0.005, 0.239, 0.9500000000000001, 192.0, 0.0, 0.0, 0.0, 0.0, 0.0, 0.0, 0.0, 0.0, 0.0, 1.644587317015451E9, 0.0, 2022-02-12 00:48:37.015
174.0, -10235.31082097421, -10232.74037036185, -7224.866119011179, -12093.500744521707, -10092.594932627075, -6954.320604124142, -9333.79791185831, -7758.446962648269, -8832.560042448049, -11411.370207234646, -8151.345926683656, -7238.321869173274, -6740.883796320414, -10431.335619847254, -11767.813476063428, -16194.73292764818, 0.0075, 0.2395, 0.9470000000000001, 192.0, 0.0, 40.0, 3.5, 64.0, 14.5, 64.0, 0.0, 0.0, 0.0, 1.644587317022326E9, 0.0, 2022-02-12 00:48:37.022
176.0, -10201.716149057884, -10219.016399266291, -7230.968145247477, -12076.267549546666, -10082.357833666543, -6952.152484911977, -9342.068057306775, -7746.0193927311175, -8811.527050915605, -11408.442128711002, -8162.700612866952, -7255.86798857069, -6760.978014585736, -10435.649506527127, -11759.99036550407, -16159.797151064535, 0.0075, 0.2395, 0.9470000000000001, 192.0, 0.0, 0.0, 0.0, 0.0, 0.0, 0.0, 0.0, 0.0, 0.0, 1.644587317030031E9, 0.0, 2022-02-12 00:48:37.030
178.0, -10212.132061974056, -10171.54129404322, -7211.790348504824, -12064.510531963175, -10062.911815990426, -6940.0378394172, -9309.389806913116, -7741.996078729163, -8790.35994891643, -11368.968948002928, -8155.123371496603, -7243.708639587002, -6736.100523006979, -10425.859442455703, -11747.22751942009, -16141.960458989199, 0.0075, 0.2395, 0.9470000000000001, 192.0, 0.0, 0.0, 0.0, 0.0, 0.0, 0.0, 0.0, 0.0, 0.0, 1.644587317037924E9, 0.0, 2022-02-12 00:48:37.037
180.0, -10219.64224811104, -10189.154468674002, -7213.4443775945165, -12066.522188964153, -10061.347193878555, -6935.433380059408, -9310.17211796905, -7738.598613571956, -8786.44839363675, -11384.816334821742, -8130.424693873489, -7232.644526081625, -6725.3046304350655, -10417.030503395856, -11736.65514429273, -16172.381183192872, 0.0075, 0.2395, 0.9470000000000001, 192.0, 0.0, 0.0, 0.0, 0.0, 0.0, 0.0, 0.0, 0.0, 0.0, 1.644587317045976E9, 0.0, 2022-02-12 00:48:37.045
182.0, -10171.764811487772, -10170.53546554273, -7204.414272834572, -12041.130607262923, -10039.733056990273, -6924.346914809575, -9291.217838670951, -7728.830901244986, -8753.233701376164, -11352.808636761742, -8130.55880434022, -7225.5366713448375, -6720.789578055093, -10415.041198139334, -11724.093463908848, -16097.793411945513, 0.0075, 0.2395, 0.9470000000000001, 192.0, 0.0, 0.0, 0.0, 0.0, 0.0, 0.0, 0.0, 0.0, 0.0, 1.644587317052609E9, 0.0, 2022-02-12 00:48:37.052
184.0, -10143.48985475181, -10158.48787528132, -7194.08776689622, -12048.976069566736, -10046.84091172706, -6934.047571903178, -9289.809678770265, -7726.14869191035, -8760.587425301961, -11350.081723938194, -8115.314914621701, -7216.461863095983, -6717.414464642342, -10400.53491598784, -11717.432644061166, -16144.262688668096, 0.00875, 0.23975, 0.9435, 192.0, 0.0, 40.0, 3.5, 64.0, 14.5, 48.0, 0.0, 0.0, 0.0, 1.644587317059563E9, 0.0, 2022-02-12 00:48:37.059
186.0, -10168.076773652647, -10158.331413070133, -7192.23257210643, -12023.115101231946, -10023.438635282355, -6923.832824687103, -9281.338367621705, -7726.260450632626, -8741.320221581485, -11350.171130916016, -8110.039902930249, -7217.691209041025, -6696.336769620988, -10406.033445123845, -11707.97785615657, -16106.868220194367, 0.00875, 0.23975, 0.9435, 192.0, 0.0, 0.0, 0.0, 0.0, 0.0, 0.0, 0.0, 0.0, 0.0, 1.644587317067579E9, 0.0, 2022-02-12 00:48:37.067
188.0, -10154.06222987917, -10130.056456334169, -7172.071298607743, -12022.779825065116, -10011.815728165595, -6909.080673346601, -9259.008974910854, -7719.443168573758, -8725.606945229405, -11326.366523071114, -8090.504478276311, -7205.621267035159, -6697.320246377021, -10392.309474028287, -11695.371472283778, -16089.031528119032, 0.00875, 0.23975, 0.9435, 192.0, 0.0, 0.0, 0.0, 0.0, 0.0, 0.0, 0.0, 0.0, 0.0, 1.644587317075623E9, 0.0, 2022-02-12 00:48:37.075
190.0, -10147.468465264854, -10136.67257269294, -7179.559133000271, -12021.61753435344, -10019.728245702774, -6900.408196497941, -9270.989509938898, -7721.09719766345, -8719.929602137758, -11327.439406804968, -8074.2547600573025, -7202.000284433399, -6692.671083530317, -10378.652558166094, -11686.028443101459, -16120.23456337864, 0.00875, 0.23975, 0.9435, 192.0, 0.0, 0.0, 0.0, 0.0, 0.0, 0.0, 0.0, 0.0, 0.0, 1.644587317082139E9, 0.0, 2022-02-12 00:48:37.082
192.0, -10124.312058009154, -10123.105063808569, -7176.318130054251, -12000.741005032183, -9996.817707636084, -6892.518030705218, -9251.252919584862, -7705.115700377906, -8690.33589247893, -11311.592019986156, -8077.8980944035175, -7188.589237760215, -6681.2269903692, -10362.134619013623, -11683.12271632227, -16044.953888053167, 0.00875, 0.23975, 0.9435, 192.0, 0.0, 0.0, 0.0, 0.0, 0.0, 0.0, 0.0, 0.0, 0.0, 1.644587317090365E9, 0.0, 2022-02-12 00:48:37.090
194.0, -10089.130412236502, -10097.735833851795, -7168.249150305885, -12012.788595293594, -9999.566972204086, -6896.496641218262, -9234.243242054372, -7702.47819453218, -8691.76640412407, -11301.489031492358, -8069.516190232777, -7179.2238568334415, -6671.70514723124, -10364.235682992421, -11667.923530092661, -16088.003347874088, 0.0073750000000000005, 0.241875, 0.9457500000000001, 192.0, 0.0, 24.0, 3.5, 80.0, 14.5, 80.0, 0.0, 0.0, 0.0, 1.644587317098184E9, 0.0, 2022-02-12 00:48:37.098
196.0, -10085.934112779392, -10091.90202854896, -7170.5960834736925, -11986.033557180592, -9983.227847007258, -6904.498565733263, -9232.231585053396, -7709.004903913129, -8673.370918437353, -11299.097394835639, -8071.013757111283, -7194.691263996514, -6659.992833136658, -10385.514543713874, -11660.435695700133, -16052.106446278865, 0.0073750000000000005, 0.241875, 0.9457500000000001, 192.0, 0.0, 0.0, 0.0, 0.0, 0.0, 0.0, 0.0, 0.0, 0.0, 1.644587317105244E9, 0.0, 2022-02-12 00:48:37.105
198.0, -10103.346121710078, -10091.14206923748, -7151.887673364601, -11985.363004846931, -9977.103469026502, -6881.476268944296, -9212.606753421636, -7692.196392082738, -8670.509895147074, -11285.32872025117, -8049.220806267358, -7187.51635402636, -6655.008394123125, -10362.983985302924, -11651.137370006725, -16034.023885014522, 0.0073750000000000005, 0.241875, 0.9457500000000001, 192.0, 0.0, 0.0, 0.0, 0.0, 0.0, 0.0, 0.0, 0.0, 0.0, 1.644587317112779E9, 0.0, 2022-02-12 00:48:37.112
200.0, -10100.060415275148, -10091.14206923748, -7158.973176356933, -11981.65261526735, -9973.303672469101, -6885.45487945734, -9209.142233031063, -7698.991322397152, -8672.0968690034, -11303.590095471156, -8032.479349670333, -7177.838048677212, -6656.014222623614, -10363.140447514112, -11633.837119798318, -16064.8916441073, 0.0073750000000000005, 0.241875, 0.9457500000000001, 192.0, 0.0, 0.0, 0.0, 0.0, 0.0, 0.0, 0.0, 0.0, 0.0, 1.644587317122285E9, 0.0, 2022-02-12 00:48:37.122
202.0, -10075.339385907577, -10068.097420704058, -7149.294871007785, -11961.781914446583, -9957.813913561573, -6867.2382077262655, -9196.91582881401, -7677.958330864708, -8638.479845342617, -11274.242255001338, -8045.868044599062, -7178.486249266416, -6658.629376724884, -10357.61956663365, -11625.499919116488, -15991.98025369409, 0.0073750000000000005, 0.241875, 0.9457500000000001, 192.0, 0.0, 0.0, 0.0, 0.0, 0.0, 0.0, 0.0, 0.0, 0.0, 1.644587317134503E9, 0.0, 2022-02-12 00:48:37.134
204.0, -10040.336554090567, -10069.147952693458, -7139.325992980718, -11967.928644171792, -9959.31148044008, -6867.975815293291, -9186.43286066447, -7689.938865892753, -8637.272851142032, -11262.149961251016, -8035.16155900497, -7170.685490451514, -6643.899577128837, -10347.628336862128, -11614.189936422103, -16033.576850125415, 0.0096875, 0.2409375, 0.9468750000000001, 192.0, 0.0, 48.0, 3.5, 64.0, 14.5, 80.0, 0.0, 0.0, 0.0, 1.644587317142569E9, 0.0, 2022-02-12 00:48:37.142
206.0, -10051.08774317357, -10052.339440863067, -7140.801208114768, -11948.683792195772, -9944.291108166111, -6861.851437312536, -9179.704985583423, -7675.097307574429, -8611.098958384868, -11254.304498947204, -8023.8962797994955, -7170.37256602914, -6640.122132315891, -10341.749828070382, -11605.338645617801, -15995.958864207134, 0.0096875, 0.2409375, 0.9468750000000001, 192.0, 0.0, 0.0, 0.0, 0.0, 0.0, 0.0, 0.0, 0.0, 0.0, 1.644587317150442E9, 0.0, 2022-02-12 00:48:37.150
208.0, -10034.860376699016, -10034.994487165748, -7124.976173040411, -11939.385466502365, -9934.568099328053, -6852.68722208586, -9165.533979598758, -7668.481191215657, -8598.693740212171, -11228.756455034787, -8001.63394232201, -7156.536836211305, -6623.313620485499, -10333.122054710633, -11596.4873548135, -15973.808285451923, 0.0096875, 0.2409375, 0.9468750000000001, 192.0, 0.0, 0.0, 0.0, 0.0, 0.0, 0.0, 0.0, 0.0, 0.0, 1.644587317157896E9, 0.0, 2022-02-12 00:48:37.157
210.0, -10038.928394189883, -10038.526062789686, -7131.704048121459, -11938.401989746331, -9932.265869649156, -6851.346117418542, -9168.663223822501, -7665.642519669834, -8610.070778139923, -11256.114990248083, -7992.447375350878, -7153.094667565188, -6619.044437294536, -10331.579784343217, -11588.06074715385, -16007.715881790626, 0.0096875, 0.2409375, 0.9468750000000001, 192.0, 0.0, 0.0, 0.0, 0.0, 0.0, 0.0, 0.0, 0.0, 0.0, 1.644587317165498E9, 0.0, 2022-02-12 00:48:37.165
212.0, -10016.330780545566, -10025.763216705707, -7127.524271908316, -11911.557544655509, -9904.057968146559, -6844.372373148486, -9150.04422069123, -7655.5618829204905, -8573.771545144504, -11217.066492684662, -8000.806927777163, -7150.188940785997, -6588.467250879676, -10344.454389149474, -11576.594302248277, -15937.330238500863, 0.0096875, 0.2409375, 0.9468750000000001, 192.0, 0.0, 0.0, 0.0, 0.0, 0.0, 0.0, 0.0, 0.0, 0.0, 1.644587317173237E9, 0.0, 2022-02-12 00:48:37.173
214.0, -9998.44938498132, -10015.034379367158, -7118.248297959363, -11926.64497216284, -9907.276619348124, -6840.25965216871, -9136.879043207055, -7647.89523457232, -8578.711280669128, -11218.45230084089, -7983.774898502219, -7135.280327234308, -6605.074597009969, -10319.599249315173, -11564.971395131517, -15977.652785498238, 0.00684375, 0.24146875, 0.9454375000000002, 192.0, 0.0, 16.0, 3.5, 72.0, 14.5, 64.0, 0.0, 0.0, 0.0, 1.644587317181142E9, 0.0, 2022-02-12 00:48:37.181
216.0, -10018.945934646837, -10004.93139087336, -7118.4718154039165, -11904.494393407631, -9897.397148298878, -6833.934108487858, -9141.975240942866, -7652.432638696747, -8563.445039206152, -11214.98778045032, -7974.565979786633, -7142.455237204461, -6608.40500693381, -10314.301885879266, -11556.120104327216, -15949.243718295542, 0.00684375, 0.24146875, 0.9454375000000002, 192.0, 0.0, 0.0, 0.0, 0.0, 0.0, 0.0, 0.0, 0.0, 0.0, 1.644587317187606E9, 0.0, 2022-02-12 00:48:37.187
218.0, -9979.897437083417, -9995.767175646684, -7103.339684407674, -11896.738338081639, -9887.204752827258, -6817.550279802118, -9118.841185431622, -7643.9389758037305, -8545.07190526389, -11188.679777226422, -7963.390107558979, -7123.411550928539, -6576.687881551729, -10299.169754883022, -11545.503025710945, -15921.86283133779, 0.00684375, 0.24146875, 0.9454375000000002, 192.0, 0.0, 0.0, 0.0, 0.0, 0.0, 0.0, 0.0, 0.0, 0.0, 1.644587317194762E9, 0.0, 2022-02-12 00:48:37.194
220.0, -9960.630233362941, -9979.36099521649, -7101.708007062436, -11902.035701517547, -9877.124116077914, -6813.884593711447, -9112.269772561762, -7641.569690891468, -8538.321678438388, -11191.384338305514, -7951.81190393113, -7127.233699230397, -6583.751032799606, -10293.42535655801, -11528.716865625009, -15956.239814310053, 0.00684375, 0.24146875, 0.9454375000000002, 192.0, 0.0, 0.0, 0.0, 0.0, 0.0, 0.0, 0.0, 0.0, 0.0, 1.644587317203088E9, 0.0, 2022-02-12 00:48:37.203
222.0, -9962.172503730359, -9978.22105624927, -7093.147288936054, -11870.944424980215, -9859.041554813572, -6802.06052089459, -9094.790708397712, -7625.051751738996, -8519.63562007375, -11173.435887507903, -7960.260863335236, -7133.335725466696, -6574.63152106184, -10296.018158914823, -11516.08813000776, -15882.859037263279, 0.00684375, 0.24146875, 0.9454375000000002, 192.0, 0.0, 0.0, 0.0, 0.0, 0.0, 0.0, 0.0, 0.0, 0.0, 1.644587317210795E9, 0.0, 2022-02-12 00:48:37.210
224.0, -9954.282337937635, -9965.413506676377, -7085.100660932143, -11873.403116870299, -9858.840389113473, -6793.566858001574, -9083.65953965897, -7618.212117935672, -8526.028218987969, -11178.822657921632, -7937.99852585775, -7101.663303573526, -6563.545055812008, -10276.616844727618, -11502.5653246123, -15921.192279004132, 0.00684375, 0.24146875, 0.9454375000000002, 192.0, 0.0, 0.0, 3.5, 40.0, 14.5, 72.0, 0.0, 0.0, 0.0, 1.644587317217708E9, 0.0, 2022-02-12 00:48:37.217
226.0, -9955.891663538416, -9951.421314647356, -7089.503954589839, -11852.928918949237, -9839.617888881909, -6789.610599232984, -9076.194057010896, -7609.025550964541, -8509.242058902033, -11186.623416736535, -7924.229851273281, -7098.399948883051, -6539.941613667204, -10271.40888826953, -11483.298120891825, -15883.909569252679, 0.00684375, 0.24146875, 0.9454375000000002, 192.0, 0.0, 0.0, 0.0, 0.0, 0.0, 0.0, 0.0, 0.0, 0.0, 1.644587317227261E9, 0.0, 2022-02-12 00:48:37.227
228.0, -9927.415541102355, -9923.705151522774, -7061.720736231892, -11850.179654381234, -9831.548909133544, -6778.322968283054, -9068.326242962628, -7606.544507330002, -8488.030253413946, -11162.729401913812, -7914.842118602052, -7103.630257085593, -6551.273948106044, -10276.37097553861, -11475.430306843557, -15865.983470199522, 0.00684375, 0.24146875, 0.9454375000000002, 192.0, 0.0, 0.0, 0.0, 0.0, 0.0, 0.0, 0.0, 0.0, 0.0, 1.644587317233513E9, 0.0, 2022-02-12 00:48:37.233
230.0, -9919.234802631712, -9939.463131363766, -7063.195951365942, -11845.329325834433, -9822.429397395777, -6771.818610646559, -9063.967652793843, -7605.672789296244, -8474.753317207495, -11154.705125654356, -7895.37374918148, -7099.584591339182, -6525.86001466036, -10261.350603264644, -11459.940547936028, -15899.421679904663, 0.00684375, 0.24146875, 0.9454375000000002, 192.0, 0.0, 0.0, 0.0, 0.0, 0.0, 0.0, 0.0, 0.0, 0.0, 1.644587317239968E9, 0.0, 2022-02-12 00:48:37.239
232.0, -9907.321322837035, -9936.557404584575, -7059.083230386166, -11818.931915632715, -9804.682112298264, -6758.161694784367, -9046.913271774445, -7594.698082768689, -8449.182921550622, -11149.988907574285, -7905.4990894197335, -7088.4757743448945, -6531.291488563, -10261.21649279791, -11451.536292020834, -15827.56082148085, 0.00684375, 0.24146875, 0.9454375000000002, 192.0, 0.0, 0.0, 0.0, 0.0, 0.0, 0.0, 0.0, 0.0, 0.0, 1.644587317254996E9, 0.0, 2022-02-12 00:48:37.254
234.0, -9888.925837150317, -9903.834450702007, -7044.934576145956, -11828.364351792856, -9804.36918787589, -6756.708831394772, -9036.810283280645, -7593.781661246021, -8456.2460727985, -11145.29504123867, -7881.761536808198, -7065.855808956124, -6519.355657023866, -10246.307879246222, -11440.047495370805, -15863.435371331618, 0.01, 0.234, 0.9480000000000001, 192.0, 0.0, 40.0, 3.5, 40.0, 14.5, 80.0, 0.0, 0.0, 0.0, 1.64458731726334E9, 0.0, 2022-02-12 00:48:37.263
236.0, -9882.644996958375, -9898.067700632537, -7048.019116880789, -11810.2370870396, -9782.710347498698, -6749.28805223561, -9030.507091344249, -7588.730166999122, -8438.923470845637, -11144.915061582931, -7875.74891754972, -7075.467059071906, -6511.487842975598, -10241.457550699419, -11428.424588254045, -15834.311048306352, 0.01, 0.234, 0.9480000000000001, 192.0, 0.0, 0.0, 0.0, 0.0, 0.0, 0.0, 0.0, 0.0, 0.0, 1.644587317269556E9, 0.0, 2022-02-12 00:48:37.269
238.0, -9848.938566319772, -9871.96086310874, -7034.675125440971, -11797.518944444531, -9774.730774728152, -6730.736104337705, -9018.392445849473, -7562.399812030771, -8419.05277002487, -11117.109491480529, -7877.067670472583, -7060.334928075663, -6499.820232369928, -10229.856995327114, -11420.780291650331, -15805.209077025544, 0.01, 0.234, 0.9480000000000001, 192.0, 0.0, 0.0, 0.0, 0.0, 0.0, 0.0, 0.0, 0.0, 0.0, 1.644587317277973E9, 0.0, 2022-02-12 00:48:37.277
240.0, -9877.392337011379, -9867.646976428865, -7033.065799840188, -11792.087470541892, -9763.778419945053, -6728.456226403264, -8998.409986306428, -7573.352166813871, -8417.957534546558, -11123.077407250095, -7848.189216636327, -7053.361183805608, -6462.828095296395, -10221.586849878651, -11401.691901885499, -15840.211908842553, 0.01, 0.234, 0.9480000000000001, 192.0, 0.0, 0.0, 0.0, 0.0, 0.0, 0.0, 0.0, 0.0, 0.0, 1.644587317285596E9, 0.0, 2022-02-12 00:48:37.285
242.0, -9851.397258209856, -9877.168819566825, -7026.762607903792, -11770.607444120342, -9744.242995291113, -6714.642848329884, -8992.509125770226, -7552.319175281427, -8394.331740657299, -11091.807316757122, -7844.657641012388, -7049.4943320148395, -6488.174973508713, -10225.49840515833, -11391.25363722487, -15767.16640796261, 0.01, 0.234, 0.9480000000000001, 192.0, 0.0, 0.0, 0.0, 0.0, 0.0, 0.0, 0.0, 0.0, 0.0, 1.644587317292874E9, 0.0, 2022-02-12 00:48:37.292
244.0, -9823.725798574185, -9849.251490742146, -7019.878270611557, -11777.67059536822, -9744.868844135863, -6715.849842530471, -8982.316730298608, -7546.954756612153, -8396.56691510283, -11087.582837055068, -7836.342792075014, -7042.855863911613, -6479.703662360152, -10223.352637690621, -11385.553942388768, -15806.0807950593, 0.012, 0.23600000000000002, 0.9520000000000001, 192.0, 0.0, 48.0, 3.5, 48.0, 14.5, 96.0, 0.0, 0.0, 0.0, 1.64458731730016E9, 0.0, 2022-02-12 00:48:37.300
246.0, -9827.078560242482, -9854.928833833794, -7020.213546778387, -11766.092391740369, -9730.943707340206, -6708.786691282594, -8978.785154674668, -7543.132608310296, -8385.167525430623, -11085.526476565181, -7837.88506244243, -7037.267927797786, -6473.154601234746, -10207.326436916166, -11371.181770704005, -15776.420030167108, 0.012, 0.23600000000000002, 0.9520000000000001, 192.0, 0.0, 0.0, 0.0, 0.0, 0.0, 0.0, 0.0, 0.0, 0.0, 1.644587317307427E9, 0.0, 2022-02-12 00:48:37.307
248.0, -9807.520783844087, -9829.671362599298, -7005.550802415705, -11760.526807370998, -9722.986486314117, -6697.27554288811, -8965.552921957127, -7543.7808088995, -8368.18019964459, -11089.706252778322, -7830.754855961187, -7030.316535272185, -6456.27903417099, -10200.822079279671, -11362.688107810987, -15752.771884533393, 0.012, 0.23600000000000002, 0.9520000000000001, 192.0, 0.0, 0.0, 0.0, 0.0, 0.0, 0.0, 0.0, 0.0, 0.0, 1.644587317315312E9, 0.0, 2022-02-12 00:48:37.315
250.0, -9836.868624313907, -9840.824883082496, -7008.858860595091, -11763.18666496118, -9726.02632356004, -6703.690493546784, -8971.520837726694, -7534.951869839653, -8381.077156195302, -11099.362206383015, -7805.027998093128, -7035.144512074532, -6460.637624339774, -10197.514021100285, -11353.926223984507, -15794.83786759828, 0.012, 0.23600000000000002, 0.9520000000000001, 192.0, 0.0, 0.0, 0.0, 0.0, 0.0, 0.0, 0.0, 0.0, 0.0, 1.644587317322405E9, 0.0, 2022-02-12 00:48:37.322
252.0, -9803.341007630946, -9815.835632781462, -7005.349636715608, -11737.191586159657, -9702.668750604244, -6685.116193904423, -8964.100058567532, -7527.39698021376, -8353.673917493095, -11072.80833397011, -7803.865707381453, -7023.700418913415, -6425.299516355934, -10192.68604429794, -11348.874729737609, -15724.854555708715, 0.012, 0.23600000000000002, 0.9520000000000001, 192.0, 0.0, 0.0, 0.0, 0.0, 0.0, 0.0, 0.0, 0.0, 0.0, 1.644587317330055E9, 0.0, 2022-02-12 00:48:37.330
254.0, -9783.470306810177, -9801.03877795205, -6988.854049307591, -11746.154635686236, -9695.046805744983, -6672.84508619846, -8935.892157064935, -7509.9849712830755, -8351.438743047565, -11060.80544719761, -7790.342901985991, -7015.519680442772, -6438.956432218127, -10186.82988725065, -11333.586136530177, -15759.477407869985, 0.002, 0.234, 0.9500000000000001, 192.0, 0.0, 8.0, 3.5, 40.0, 14.5, 88.0, 0.0, 0.0, 0.0, 1.644587317338146E9, 0.0, 2022-02-12 00:48:37.338
0.0, -9784.185562632747, -9807.230211166168, -6994.419633676963, -11728.697923266642, -9681.72516604962, -6674.9461501772585, -8932.874671563468, -7516.891660319765, -8332.909146894115, -11058.793790196632, -7791.30402699757, -7013.172747274965, -6428.831091979872, -10176.816305734672, -11318.05167413374, -15727.44735806553, 0.002, 0.234, 0.9500000000000001, 192.0, 0.0, 0.0, 0.0, 0.0, 0.0, 0.0, 0.0, 0.0, 0.0, 1.644587317344922E9, 0.0, 2022-02-12 00:48:37.344
2.0, -9776.094231139927, -9804.503298342623, -6985.1660114724655, -11724.831071475874, -9674.304386890459, -6665.0219756391025, -8920.312991179586, -7503.726482835589, -8322.292068277844, -11028.887156115432, -7782.989178060196, -6997.839450578625, -6415.509452284509, -10181.599579048107, -11313.00017988684, -15702.860439164691, 0.002, 0.234, 0.9500000000000001, 192.0, 0.0, 0.0, 0.0, 0.0, 0.0, 0.0, 0.0, 0.0, 0.0, 1.644587317352655E9, 0.0, 2022-02-12 00:48:37.352
4.0, -9763.040812378027, -9795.115565671393, -6986.730633584337, -11730.307248867422, -9675.846657257875, -6667.346557062454, -8930.95242154031, -7515.483500419081, -8327.723542180483, -11071.064897902597, -7778.96586405824, -6997.750043600803, -6424.092522155348, -10160.946567171404, -11306.205249572427, -15744.613497807206, 0.002, 0.234, 0.9500000000000001, 192.0, 0.0, 0.0, 0.0, 0.0, 0.0, 0.0, 0.0, 0.0, 0.0, 1.644587317360552E9, 0.0, 2022-02-12 00:48:37.360
6.0, -9746.634631947833, -9761.498542010611, -6984.607217861083, -11711.531783524964, -9657.67468901571, -6650.806266165527, -8928.605488372505, -7513.24832597355, -8297.079300532258, -11037.626688197457, -7786.230181006215, -7007.4730524388615, -6400.153803843714, -10161.483009038331, -11302.584266970667, -15677.804133630292, 0.002, 0.234, 0.9500000000000001, 192.0, 0.0, 0.0, 0.0, 0.0, 0.0, 0.0, 0.0, 0.0, 0.0, 1.644587317368644E9, 0.0, 2022-02-12 00:48:37.368
8.0, -9757.475228008656, -9776.183638117747, -6972.4255171329405, -11712.381149814266, -9656.53475004849, -6648.973423120192, -8897.581267068537, -7486.783860538467, -8313.708998407006, -11032.530490461648, -7762.5820353725, -6990.686892352926, -6376.125678554258, -10151.49177926681, -11292.973016854885, -15712.270523580377, 0.008, 0.234, 0.9480000000000001, 192.0, 0.0, 32.0, 3.5, 40.0, 14.5, 80.0, 0.0, 0.0, 0.0, 1.644587317382288E9, 0.0, 2022-02-12 00:48:37.382
10.0, -9722.360637469368, -9765.164228101281, -6970.302101409687, -11696.869039162284, -9636.418180038712, -6644.436018995764, -8889.802859998092, -7484.973369237587, -8291.334902207243, -11044.488673745236, -7767.052384263562, -6984.741328327815, -6403.50656551201, -10153.995174645803, -11274.398717212525, -15683.883808122137, 0.008, 0.234, 0.9480000000000001, 192.0, 0.0, 0.0, 0.0, 0.0, 0.0, 0.0, 0.0, 0.0, 0.0, 1.644587317390221E9, 0.0, 2022-02-12 00:48:37.390
12.0, -9737.336306254425, -9751.820236661462, -6955.1699704134435, -11691.482268748554, -9641.24615684106, -6627.649858909829, -8890.115784420464, -7484.660444815212, -8253.828675011238, -10999.539315645614, -7745.594709586467, -6965.138848440511, -6382.630036190753, -10128.491834222297, -11265.905054319508, -15657.419342687053, 0.008, 0.234, 0.9480000000000001, 192.0, 0.0, 0.0, 0.0, 0.0, 0.0, 0.0, 0.0, 0.0, 0.0, 1.644587317398484E9, 0.0, 2022-02-12 00:48:37.398
14.0, -9760.112733854381, -9764.225454834159, -6962.635453061516, -11690.141164081237, -9642.587261508377, -6631.695524656239, -8893.513249577672, -7497.199773454639, -8302.443719201532, -11028.685990415333, -7735.581128070489, -6971.732613054826, -6395.012902618993, -10140.427665761432, -11262.84286532913, -15699.86530540768, 0.008, 0.234, 0.9480000000000001, 192.0, 0.0, 0.0, 0.0, 0.0, 0.0, 0.0, 0.0, 0.0, 0.0, 1.644587317404767E9, 0.0, 2022-02-12 00:48:37.404
16.0, -9714.202250743181, -9731.949535840695, -6957.539255325706, -11663.564939923875, -9616.368665262302, -6609.187317989746, -8879.588112782016, -7474.848028999332, -8268.290253673822, -10973.566588588546, -7743.001907229652, -6962.814267017158, -6375.321015753868, -10145.143883841502, -11256.405562926002, -15625.65751381606, 0.008, 0.234, 0.9480000000000001, 192.0, 0.0, 0.0, 0.0, 0.0, 0.0, 0.0, 0.0, 0.0, 0.0, 1.644587317413026E9, 0.0, 2022-02-12 00:48:37.413
18.0, -9713.68816062071, -9725.266364248559, -6942.295365607187, -11680.485210476543, -9616.189851306659, -6608.673227867273, -8865.953548664278, -7478.916046490199, -8277.901503789604, -10998.980522034231, -7734.374133869903, -6966.502304852284, -6365.68741389363, -10126.055494076669, -11244.112103475583, -15660.950918310991, 0.01, 0.232, 0.9480000000000001, 192.0, 0.0, 40.0, 3.5, 32.0, 14.5, 80.0, 0.0, 0.0, 0.0, 1.644587317420758E9, 0.0, 2022-02-12 00:48:37.420
20.0, -9699.24893370258, -9712.212945486659, -6944.977574941823, -11662.179131767647, -9603.136432544761, -6596.893858539326, -8867.764039965157, -7458.374793335771, -8260.288329158822, -10999.494612156703, -7729.188529156271, -6959.237987904309, -6366.35796622729, -10119.52878469572, -11232.086864958628, -15639.090912233702, 0.01, 0.232, 0.9480000000000001, 192.0, 0.0, 0.0, 0.0, 0.0, 0.0, 0.0, 0.0, 0.0, 0.0, 1.644587317427503E9, 0.0, 2022-02-12 00:48:37.427
22.0, -9692.856334788363, -9705.909753550262, -6923.98928689829, -11651.271480473457, -9585.143278258238, -6591.328274169955, -8849.860292656456, -7459.447677069626, -8232.259241611868, -10950.92427145532, -7716.269220861104, -6932.147673624477, -6346.084934006326, -10114.991380571293, -11223.973181721352, -15605.89857171757, 0.01, 0.232, 0.9480000000000001, 192.0, 0.0, 0.0, 0.0, 0.0, 0.0, 0.0, 0.0, 0.0, 0.0, 1.644587317434527E9, 0.0, 2022-02-12 00:48:37.434
24.0, -9701.618218614843, -9719.790186857008, -6922.51407176424, -11651.427942684644, -9590.530048671968, -6585.092137466924, -8848.586243222504, -7459.00064218052, -8248.196035408502, -10993.45964115377, -7694.09629036144, -6943.815284230147, -6322.705009306074, -10102.09442402058, -11213.98195194983, -15651.585537384217, 0.01, 0.232, 0.9480000000000001, 192.0, 0.0, 0.0, 0.0, 0.0, 0.0, 0.0, 0.0, 0.0, 0.0, 1.644587317442445E9, 0.0, 2022-02-12 00:48:37.442
26.0, -9669.141133921283, -9697.952532524174, -6915.1379960939885, -11627.466872628554, -9564.5573216149, -6569.758840770583, -8832.9847255927, -7444.024973395464, -8224.078503141225, -10957.249815136172, -7696.33146480697, -6930.001906156767, -6322.660305817164, -10088.102231991557, -11208.997512936296, -15575.455495769442, 0.01, 0.232, 0.9480000000000001, 192.0, 0.0, 0.0, 0.0, 0.0, 0.0, 0.0, 0.0, 0.0, 0.0, 1.644587317450365E9, 0.0, 2022-02-12 00:48:37.450
28.0, -9674.594959568378, -9683.133325950304, -6903.962123866335, -11638.285116944924, -9563.730307070055, -6563.232131389634, -8827.0838650565, -7438.168816348174, -8221.664514740052, -10963.418896605837, -7689.067147858996, -6912.634600714994, -6334.8420065453065, -10072.590121339575, -11198.156916875472, -15615.018083455336, 0.008, 0.23600000000000002, 0.9460000000000001, 192.0, 0.0, 32.0, 3.5, 48.0, 14.5, 72.0, 0.0, 0.0, 0.0, 1.644587317457223E9, 0.0, 2022-02-12 00:48:37.457
30.0, -9664.402564096757, -9665.318985619424, -6906.286705289687, -11624.87407027174, -9547.614699317777, -6561.555750555486, -8824.60282142196, -7437.006525636498, -8204.207802320458, -10941.111855639441, -7667.587121437446, -6921.84351943058, -6325.409570385167, -10086.224685457311, -11188.478611526325, -15591.32523433271, 0.008, 0.23600000000000002, 0.9460000000000001, 192.0, 0.0, 0.0, 0.0, 0.0, 0.0, 0.0, 0.0, 0.0, 0.0, 1.64458731746664E9, 0.0, 2022-02-12 00:48:37.466
32.0, -9639.77094170701, -9668.67174728772, -6886.706577146838, -11614.860488755761, -9532.147292154705, -6551.318651594956, -8800.686454854782, -7423.908403385688, -8187.131069556603, -10933.244041591173, -7665.843685369931, -6906.398464011963, -6309.919811477639, -10084.861229045538, -11180.253169566771, -15561.172731062501, 0.008, 0.23600000000000002, 0.9460000000000001, 192.0, 0.0, 0.0, 0.0, 0.0, 0.0, 0.0, 0.0, 0.0, 0.0, 1.644587317473646E9, 0.0, 2022-02-12 00:48:37.473
34.0, -9612.457109982624, -9651.48325580159, -6883.644388156461, -11611.731244532019, -9535.947088712108, -6549.128180638335, -8809.157766003344, -7431.418589522671, -8192.115508570136, -10956.31104186905, -7644.922452559764, -6892.160402793933, -6293.223058369525, -10053.211158896824, -11171.044250851184, -15607.79846999627, 0.008, 0.23600000000000002, 0.9460000000000001, 192.0, 0.0, 0.0, 0.0, 0.0, 0.0, 0.0, 0.0, 0.0, 0.0, 1.644587317480304E9, 0.0, 2022-02-12 00:48:37.480
36.0, -9623.118892087805, -9630.159691591227, -6881.722138133305, -11594.073366412327, -9517.037512902918, -6535.247747331589, -8796.774899575103, -7422.500243485003, -8161.515970410821, -10915.809680916034, -7649.683374128745, -6897.994208096768, -6286.450479799567, -10060.587234567074, -11162.215311791339, -15540.609126163617, 0.008, 0.23600000000000002, 0.9460000000000001, 192.0, 0.0, 0.0, 0.0, 0.0, 0.0, 0.0, 0.0, 0.0, 0.0, 1.644587317487798E9, 0.0, 2022-02-12 00:48:37.487
38.0, -9604.075205811883, -9643.771903964509, -6870.121582761, -11603.326988616824, -9523.40776007268, -6533.638421730808, -8796.327864685996, -7429.876319155254, -8168.869694336617, -10906.667817433812, -7637.971060034163, -6880.381033465986, -6272.055956370349, -10042.03528666917, -11160.91891061293, -15576.260158569832, 0.006, 0.232, 0.9480000000000001, 192.0, 0.0, 24.0, 3.5, 32.0, 14.5, 80.0, 0.0, 0.0, 0.0, 1.64458731750275E9, 0.0, 2022-02-12 00:48:37.502
40.0, -9617.866232140808, -9620.034351352973, -6875.955388063835, -11594.609808279254, -9499.670207461144, -6524.474206504132, -8779.54170460006, -7413.7830631474335, -8161.717136110919, -10918.178965828296, -7635.355905932893, -6888.047681814156, -6278.694424473575, -10044.382219836978, -11149.407762218449, -15561.21743455141, 0.006, 0.232, 0.9480000000000001, 192.0, 0.0, 0.0, 0.0, 0.0, 0.0, 0.0, 0.0, 0.0, 0.0, 1.644587317510029E9, 0.0, 2022-02-12 00:48:37.510
42.0, -9596.632074908266, -9596.699130141633, -6854.721230831294, -11584.171543618626, -9493.255256802471, -6510.19144179719, -8767.270596894097, -7410.631467179235, -8151.412981917022, -10880.493924676648, -7623.800054049499, -6886.304245746643, -6276.459250028044, -10042.549376791641, -11135.527328911701, -15523.867669566593, 0.006, 0.232, 0.9480000000000001, 192.0, 0.0, 0.0, 0.0, 0.0, 0.0, 0.0, 0.0, 0.0, 0.0, 1.644587317517708E9, 0.0, 2022-02-12 00:48:37.517
44.0, -9584.159801502205, -9615.85457513983, -6855.883521542969, -11581.511686028443, -9495.579838225824, -6509.543241207986, -8763.224931147686, -7399.008560062476, -8146.875577792594, -10910.691131435768, -7611.260725410071, -6848.64155633945, -6258.130819574692, -10017.873050912984, -11128.710046852833, -15565.151341575545, 0.006, 0.232, 0.9480000000000001, 192.0, 0.0, 0.0, 0.0, 0.0, 0.0, 0.0, 0.0, 0.0, 0.0, 1.644587317525341E9, 0.0, 2022-02-12 00:48:37.525
46.0, -9578.504810155013, -9593.65929289571, -6851.010841251713, -11555.561310715833, -9476.089117060796, -6500.37902598131, -8758.195788645244, -7395.36522571626, -8126.669600804998, -10885.500715434637, -7614.457024867181, -6858.521027388696, -6262.332947532291, -10042.907004702927, -11120.574011871102, -15499.772489043771, 0.006, 0.232, 0.9480000000000001, 192.0, 0.0, 0.0, 0.0, 0.0, 0.0, 0.0, 0.0, 0.0, 0.0, 1.644587317533417E9, 0.0, 2022-02-12 00:48:37.533
48.0, -9562.746830314021, -9584.204504991116, -6839.9467277463355, -11569.687613211587, -9473.608073426256, -6488.420842697721, -8745.075314649977, -7381.104812753775, -8122.579231569676, -10877.34232870845, -7600.889515982809, -6846.87576852748, -6248.743086903463, -10025.204423094323, -11107.565296598113, -15532.07075978169, 0.006, 0.23600000000000002, 0.9420000000000001, 192.0, 0.0, 24.0, 3.5, 48.0, 14.5, 56.0, 0.0, 0.0, 0.0, 1.644587317540098E9, 0.0, 2022-02-12 00:48:37.540
50.0, -9584.584484646855, -9582.192847990138, -6845.132332459967, -11555.404848504646, -9450.943404548574, -6485.760985107539, -8732.625392988371, -7375.606283617769, -8125.999048471338, -10869.72038384919, -7597.134422914318, -6862.901969301935, -6226.503101170433, -10024.444463782844, -11096.14355518145, -15513.943495028436, 0.006, 0.23600000000000002, 0.9420000000000001, 192.0, 0.0, 0.0, 0.0, 0.0, 0.0, 0.0, 0.0, 0.0, 0.0, 1.644587317548222E9, 0.0, 2022-02-12 00:48:37.548
52.0, -9563.596196603323, -9568.535932127945, -6827.005067706713, -11548.09582806776, -9434.91720377412, -6474.115726246325, -8718.968477126178, -7366.687937580102, -8113.951458209927, -10852.040153985043, -7590.07127166644, -6847.2780999276765, -6234.862653596718, -10008.619428708485, -11084.028909686675, -15479.074773678158, 0.006, 0.23600000000000002, 0.9420000000000001, 192.0, 0.0, 0.0, 0.0, 0.0, 0.0, 0.0, 0.0, 0.0, 0.0, 1.64458731755504E9, 0.0, 2022-02-12 00:48:37.555
54.0, -9555.750734299509, -9582.170496245682, -6827.250936895721, -11548.498159467956, -9440.236918954482, -6465.353842419844, -8716.912116636291, -7360.988242743999, -8117.03599894476, -10871.19559898324, -7578.828344205421, -6833.911756743402, -6227.352467459735, -10002.159774560901, -11075.669357260389, -15524.64998062253, 0.006, 0.23600000000000002, 0.9420000000000001, 192.0, 0.0, 0.0, 0.0, 0.0, 0.0, 0.0, 0.0, 0.0, 0.0, 1.644587317562053E9, 0.0, 2022-02-12 00:48:37.562
56.0, -9544.328992882847, -9548.486417351534, -6815.695085012328, -11521.988990543961, -9411.447872096047, -6446.086638699369, -8702.91992460727, -7340.4693413340265, -8084.335396806646, -10856.465799387193, -7574.581512758913, -6823.182919404855, -6210.141624229148, -9999.902248370916, -11068.7626682237, -15453.459674532376, 0.008, 0.23500000000000001, 0.9420000000000001, 192.0, 0.0, 40.0, 3.5, 40.0, 14.5, 56.0, 0.0, 0.0, 0.0, 1.644587317569833E9, 0.0, 2022-02-12 00:48:37.569
58.0, -9501.681864462122, -9507.02393138694, -6797.970151659269, -11523.71007486702, -9405.636418537668, -6441.996269464049, -8685.329101720941, -7339.798789000367, -8074.701794946408, -10840.48430210165, -7553.034431103997, -6807.223773863766, -6195.456528122012, -9981.5067626842, -11054.837531428044, -15484.863875492083, 0.008, 0.23500000000000001, 0.9420000000000001, 192.0, 0.0, 0.0, 0.0, 0.0, 0.0, 0.0, 0.0, 0.0, 0.0, 1.644587317577553E9, 0.0, 2022-02-12 00:48:37.577
60.0, -9510.711969222066, -9515.495242535502, -6800.2053261047995, -11510.164917727103, -9391.308950341816, -6445.326679387889, -8683.987997053624, -7351.712268795046, -8057.714469160375, -10812.991656421622, -7549.346393268871, -6810.330666343054, -6178.960940713995, -9977.461096937788, -11040.085380087541, -15471.072849163158, 0.008, 0.23500000000000001, 0.9420000000000001, 192.0, 0.0, 0.0, 0.0, 0.0, 0.0, 0.0, 0.0, 0.0, 0.0, 1.644587317585876E9, 0.0, 2022-02-12 00:48:37.585
62.0, -9495.088099847806, -9512.097777378294, -6785.0061398751905, -11509.740234582452, -9379.686043225056, -6432.943812959649, -8662.127990976333, -7305.533564750382, -8054.741687147819, -10801.9498946607, -7547.670012434723, -6809.146023886922, -6180.860838992696, -9983.808992363096, -11030.630592182946, -15432.851366144583, 0.008, 0.23500000000000001, 0.9420000000000001, 192.0, 0.0, 0.0, 0.0, 0.0, 0.0, 0.0, 0.0, 0.0, 0.0, 1.644587317592251E9, 0.0, 2022-02-12 00:48:37.592
64.0, -9513.729454723532, -9508.253277331982, -6786.3472445425095, -11510.589600871755, -9386.793897961843, -6419.868042453295, -8672.588607381416, -7312.328495064795, -8059.703774416897, -10819.987752436133, -7537.96935534112, -6789.655302721894, -6177.128097668659, -9962.038393263627, -11023.209813023785, -15473.486837564331, 0.008, 0.23500000000000001, 0.9420000000000001, 192.0, 0.0, 0.0, 0.0, 0.0, 0.0, 0.0, 0.0, 0.0, 0.0, 1.644587317600266E9, 0.0, 2022-02-12 00:48:37.600
66.0, -9508.476794776536, -9507.962704654063, -6787.062500365079, -11488.84135351674, -9366.140886085139, -6412.760187716507, -8661.010403753568, -7310.696817719558, -8036.502663672289, -10803.290999328017, -7525.474730190603, -6781.027529362146, -6153.45760029049, -9953.678840837341, -11017.621876909958, -15406.453955942865, 0.006, 0.23550000000000001, 0.9410000000000001, 192.0, 0.0, 16.0, 3.5, 48.0, 14.5, 48.0, 0.0, 0.0, 0.0, 1.644587317608172E9, 0.0, 2022-02-12 00:48:37.608
68.0, -9470.836457113797, -9498.88789640521, -6775.81957290406, -11502.073586234283, -9367.392583774637, -6405.585277746353, -8652.628499582828, -7309.109843863231, -8041.800027108196, -10815.025665167053, -7525.564137168424, -6777.942988627314, -6168.165048142082, -9939.68664880832, -11008.100033771996, -15441.590898226608, 0.006, 0.23550000000000001, 0.9410000000000001, 192.0, 0.0, 0.0, 0.0, 0.0, 0.0, 0.0, 0.0, 0.0, 0.0, 1.644587317615303E9, 0.0, 2022-02-12 00:48:37.615
70.0, -9492.11531783525, -9497.591495226801, -6785.050843364102, -11489.355443639213, -9354.160351057095, -6406.144071357736, -8647.62170882484, -7312.172032853608, -8034.848634582596, -10820.814766980979, -7523.753645867544, -6783.776793930148, -6171.763678999386, -9953.947061770805, -11005.060196526074, -15433.454863244877, 0.006, 0.23550000000000001, 0.9410000000000001, 192.0, 0.0, 0.0, 0.0, 0.0, 0.0, 0.0, 0.0, 0.0, 0.0, 1.644587317629802E9, 0.0, 2022-02-12 00:48:37.629
72.0, -9476.200875783072, -9481.811163641354, -6771.282168779632, -11481.621740057677, -9345.599632930713, -6392.7777281734625, -8634.970621463135, -7294.000064611443, -8019.269468697246, -10788.024757865043, -7508.733273593578, -6779.082927594534, -6161.9736149279615, -9945.92278551135, -10999.60637087898, -15395.456897670854, 0.006, 0.23550000000000001, 0.9410000000000001, 192.0, 0.0, 0.0, 0.0, 0.0, 0.0, 0.0, 0.0, 0.0, 0.0, 1.644587317637905E9, 0.0, 2022-02-12 00:48:37.637
74.0, -9470.478829202513, -9464.35445122176, -6765.850694876993, -11485.309777892802, -9344.37028698567, -6396.331655541856, -8637.205795908665, -7296.7940326683565, -8026.511433900766, -10793.880914912334, -7497.847974043843, -6776.937160126825, -6139.487760005923, -9959.78086707364, -10992.185591719817, -15446.82120642915, 0.006, 0.23550000000000001, 0.9410000000000001, 192.0, 0.0, 0.0, 0.0, 0.0, 0.0, 0.0, 0.0, 0.0, 0.0, 1.644587317644513E9, 0.0, 2022-02-12 00:48:37.644
76.0, -9448.462360914036, -9445.936613790585, -6757.737011639716, -11471.384641097146, -9322.286763463828, -6389.9614083720935, -8636.892871486292, -7301.01851237041, -8006.216049935348, -10784.85081015239, -7501.58071536788, -6774.00908160318, -6131.932870380029, -9952.449494892298, -10981.970844503743, -15385.420964410421, 0.005, 0.23475000000000001, 0.9385000000000001, 192.0, 0.0, 16.0, 3.5, 40.0, 14.5, 32.0, 0.0, 0.0, 0.0, 1.6445873176525E9, 0.0, 2022-02-12 00:48:37.652
78.0, -9431.139758961173, -9462.454552943058, -6747.455209190275, -11472.211655641993, -9332.233289746438, -6380.350158256311, -8634.680048785216, -7301.934933893077, -8002.460956866856, -10790.215228821664, -7485.934494249165, -6748.885720835415, -6127.931908122529, -9934.25517490568, -10972.940739743799, -15421.04964507218, 0.005, 0.23475000000000001, 0.9385000000000001, 192.0, 0.0, 0.0, 0.0, 0.0, 0.0, 0.0, 0.0, 0.0, 0.0, 1.644587317660567E9, 0.0, 2022-02-12 00:48:37.660
80.0, -9454.989070294985, -9470.702346647065, -6750.2491772471885, -11464.366193338179, -9318.442263417515, -6371.230646518547, -8618.720903244126, -7275.6045789247255, -7998.5941050760875, -10799.737071959624, -7488.259075672517, -6746.807008601071, -6115.63844867211, -9926.365009112957, -10968.179818174818, -15405.448127442376, 0.005, 0.23475000000000001, 0.9385000000000001, 192.0, 0.0, 0.0, 0.0, 0.0, 0.0, 0.0, 0.0, 0.0, 0.0, 1.644587317667504E9, 0.0, 2022-02-12 00:48:37.667
82.0, -9434.96190726303, -9436.48182588599, -6732.367781682942, -11454.710239733487, -9310.149766224595, -6359.719498124064, -8604.594600748373, -7264.227540996974, -7986.971197959328, -10766.723545399136, -7478.044328456442, -6751.210302258766, -6130.614117457166, -9934.478692350232, -10958.725030270223, -15365.416153122922, 0.005, 0.23475000000000001, 0.9385000000000001, 192.0, 0.0, 0.0, 0.0, 0.0, 0.0, 0.0, 0.0, 0.0, 0.0, 1.644587317675273E9, 0.0, 2022-02-12 00:48:37.675
84.0, -9434.6266310962, -9433.240822939972, -6727.629211858418, -11451.491588531922, -9316.02827501634, -6356.791419600418, -8616.530432287507, -7273.4364597125605, -7997.923552742429, -10771.529170457026, -7464.186246894151, -6741.531996909618, -6120.086445818716, -9932.735256282718, -10950.074905166019, -15416.892220603493, 0.005, 0.23475000000000001, 0.9385000000000001, 192.0, 0.0, 0.0, 0.0, 0.0, 0.0, 0.0, 0.0, 0.0, 0.0, 1.644587317682178E9, 0.0, 2022-02-12 00:48:37.682
86.0, -9407.536316816368, -9409.927953473087, -6720.499005377174, -11431.68794294452, -9280.779574010323, -6340.027611258938, -8583.472202238108, -7250.570625134782, -7964.172418614915, -10770.791562890001, -7457.525427046469, -6736.256985218166, -6099.835765342208, -9915.837337474506, -10942.788236473589, -15347.624164536497, 0.0055, 0.235375, 0.93825, 192.0, 0.0, 24.0, 3.5, 48.0, 14.5, 40.0, 0.0, 0.0, 0.0, 1.644587317690236E9, 0.0, 2022-02-12 00:48:37.690
88.0, -9419.583907077778, -9436.235956696983, -6710.016037227636, -11446.30598381829, -9287.619207813646, -6337.747733324496, -8579.001853347047, -7258.684308372058, -7970.810886718141, -10745.489388166594, -7448.405915308705, -6724.47761589022, -6094.605457139666, -9909.422386815833, -10930.539480512081, -15378.737792818285, 0.0055, 0.235375, 0.93825, 192.0, 0.0, 0.0, 0.0, 0.0, 0.0, 0.0, 0.0, 0.0, 0.0, 1.644587317697287E9, 0.0, 2022-02-12 00:48:37.697
90.0, -9408.38568310567, -9440.77336082141, -6722.756531567161, -11435.957126135485, -9275.236341385405, -6328.49411112, -8578.666577180216, -7244.043915753832, -7972.420212318923, -10788.047109609499, -7458.66536601369, -6724.231746701211, -6079.227456954415, -9912.4398723173, -10927.879622921899, -15375.474438127809, 0.0055, 0.235375, 0.93825, 192.0, 0.0, 0.0, 0.0, 0.0, 0.0, 0.0, 0.0, 0.0, 0.0, 1.644587317705204E9, 0.0, 2022-02-12 00:48:37.705
92.0, -9415.515889586914, -9419.24863091095, -6707.177365681811, -11430.59270746621, -9268.061431415252, -6323.017933728449, -8568.921216597702, -7236.645488339125, -7959.009165645739, -10759.660394151259, -7451.132828132252, -6717.637982086895, -6090.559791393255, -9887.71884294973, -10924.392750786872, -15332.536737029164, 0.0055, 0.235375, 0.93825, 192.0, 0.0, 0.0, 0.0, 0.0, 0.0, 0.0, 0.0, 0.0, 0.0, 1.644587317712806E9, 0.0, 2022-02-12 00:48:37.712
94.0, -9415.381779120182, -9400.406110335125, -6705.65744705885, -11434.303097045791, -9270.7883442388, -6317.385294125712, -8561.07575429389, -7232.130435959153, -7965.111191882038, -10778.07823158243, -7435.218386080073, -6720.9013367773705, -6084.34600643468, -9893.597351741475, -10914.669741948814, -15386.024461510715, 0.0055, 0.235375, 0.93825, 192.0, 0.0, 0.0, 0.0, 0.0, 0.0, 0.0, 0.0, 0.0, 0.0, 1.64458731772082E9, 0.0, 2022-02-12 00:48:37.720
96.0, -9406.016398193407, -9405.837584237765, -6696.068548687524, -11410.677303156532, -9246.40259103806, -6307.036436442904, -8556.538350169463, -7228.800026035313, -7946.313374795124, -10744.237690477097, -7427.194109820618, -6719.85080478797, -6077.372262164625, -9901.129889622915, -10904.20912554373, -15319.013931633704, 0.00675, 0.2366875, 0.9421250000000001, 192.0, 0.0, 32.0, 3.5, 56.0, 14.5, 72.0, 0.0, 0.0, 0.0, 1.644587317727338E9, 0.0, 2022-02-12 00:48:37.727
98.0, -9384.893999683143, -9403.781223747877, -6684.08801365948, -11413.873602613641, -9250.895291673576, -6301.62731428472, -8552.000946045035, -7215.657200295592, -7943.05002010465, -10729.9325740257, -7413.626600936246, -6701.969409223725, -6060.183770678494, -9894.290255819591, -10894.843744616956, -15344.427865079388, 0.00675, 0.2366875, 0.9421250000000001, 192.0, 0.0, 0.0, 0.0, 0.0, 0.0, 0.0, 0.0, 0.0, 0.0, 1.64458731773547E9, 0.0, 2022-02-12 00:48:37.735
100.0, -9364.531560484358, -9383.642301993645, -6690.994702696169, -11399.97081756244, -9237.931279889499, -6298.386311338701, -8550.861007077814, -7217.3782846186505, -7934.265784533714, -10760.867388351846, -7429.786912177434, -6696.627342298907, -6055.087572942683, -9877.638206200387, -10891.15570678183, -15337.409417320421, 0.00675, 0.2366875, 0.9421250000000001, 192.0, 0.0, 0.0, 0.0, 0.0, 0.0, 0.0, 0.0, 0.0, 0.0, 1.644587317749578E9, 0.0, 2022-02-12 00:48:37.749
102.0, -9365.358575029204, -9365.425630262569, -6672.50981003163, -11389.599608135177, -9220.027532580798, -6285.914037932639, -8533.493701636042, -7213.2655636388745, -7918.9995430707395, -10732.16774847123, -7416.062941081875, -6682.746908992161, -6054.752296775854, -9856.895787345862, -10881.29858747704, -15296.483373222754, 0.00675, 0.2366875, 0.9421250000000001, 192.0, 0.0, 0.0, 0.0, 0.0, 0.0, 0.0, 0.0, 0.0, 0.0, 1.644587317756962E9, 0.0, 2022-02-12 00:48:37.756
104.0, -9373.695775711034, -9379.015490891397, -6671.883961186882, -11403.63650365311, -9220.496919214358, -6284.707043732053, -8538.098160993834, -7214.338447372729, -7927.314392008114, -10748.350411456873, -7387.117432012253, -6685.496173560164, -6041.5871192916775, -9871.156200308347, -10877.230569986174, -15352.541548316663, 0.00675, 0.2366875, 0.9421250000000001, 192.0, 0.0, 0.0, 0.0, 0.0, 0.0, 0.0, 0.0, 0.0, 0.0, 1.644587317765135E9, 0.0, 2022-02-12 00:48:37.765
106.0, -9375.081583867262, -9375.059232122807, -6669.1346966188785, -11381.374166175625, -9206.72824462989, -6284.14825012067, -8527.279916677466, -7198.8263367207455, -7913.501013934734, -10730.625478103815, -7402.22721126404, -6695.08507193149, -6036.200348877949, -9864.450676971755, -10872.089668761453, -15287.609730673998, 0.007375, 0.23534375000000002, 0.9460625, 192.0, 0.0, 32.0, 3.5, 40.0, 14.5, 88.0, 0.0, 0.0, 0.0, 1.644587317773086E9, 0.0, 2022-02-12 00:48:37.773
108.0, -9348.728877154455, -9369.136019842152, -6653.622585966896, -11386.559770889256, -9217.166509290519, -6273.553523248855, -8527.682248077661, -7200.078034410243, -7921.9946768277505, -10729.843167047879, -7387.8326878348225, -6662.004490137636, -6033.205215120937, -9864.85300837195, -10870.413287927306, -15321.830251435073, 0.007375, 0.23534375000000002, 0.9460625, 192.0, 0.0, 0.0, 0.0, 0.0, 0.0, 0.0, 0.0, 0.0, 0.0, 1.644587317779809E9, 0.0, 2022-02-12 00:48:37.779
110.0, -9339.18468227204, -9351.142865555628, -6660.372812792399, -11380.122468486128, -9203.576648661692, -6272.882970915195, -8534.521881880984, -7213.9137642280775, -7905.454385930823, -10725.529280368004, -7384.345815699794, -6669.581731507985, -6026.142063873061, -9856.292290245568, -10865.71942159169, -15319.103338611525, 0.007375, 0.23534375000000002, 0.9460625, 192.0, 0.0, 0.0, 0.0, 0.0, 0.0, 0.0, 0.0, 0.0, 0.0, 1.644587317787723E9, 0.0, 2022-02-12 00:48:37.787
112.0, -9313.45782440398, -9333.887318836132, -6651.074487098991, -11375.719174828431, -9187.639854865058, -6258.309633530335, -8498.602628541306, -7175.2899498093075, -7892.333911935558, -10704.40688185774, -7392.213629748062, -6681.674025258306, -6015.569688745701, -9853.744191377664, -10860.645575600336, -15281.060669548593, 0.007375, 0.23534375000000002, 0.9460625, 192.0, 0.0, 0.0, 0.0, 0.0, 0.0, 0.0, 0.0, 0.0, 0.0, 1.644587317797166E9, 0.0, 2022-02-12 00:48:37.797
114.0, -9348.393600987625, -9357.110781325197, -6647.542911475052, -11378.49079114089, -9190.746747344345, -6265.6410057116755, -8505.15168966671, -7192.590200017715, -7904.582667897066, -10723.092940222376, -7372.6335016052135, -6661.9150831598145, -6034.881595955086, -9847.485702930177, -10852.9118720188, -15331.776777717683, 0.007375, 0.23534375000000002, 0.9460625, 192.0, 0.0, 0.0, 0.0, 0.0, 0.0, 0.0, 0.0, 0.0, 0.0, 1.644587317804115E9, 0.0, 2022-02-12 00:48:37.804
116.0, -9345.912557353087, -9353.109819067695, -6643.161969561812, -11358.418924620024, -9176.441630892949, -6250.307709015336, -8511.164308925188, -7188.388072060117, -7881.716833319287, -10710.128928438298, -7354.774457785423, -6650.627452209885, -6019.011857391818, -9846.65868838533, -10849.916738261789, -15273.014041544682, 0.0056875, 0.23367187500000003, 0.94703125, 192.0, 0.0, 16.0, 3.5, 32.0, 14.5, 80.0, 0.0, 0.0, 0.0, 1.644587317810185E9, 0.0, 2022-02-12 00:48:37.810
118.0, -9315.31301919377, -9321.683266363534, -6631.40495197832, -11374.355718416658, -9173.62531109158, -6234.683839641076, -8500.279009375454, -7180.6320167341255, -7885.002539754217, -10709.9277627382, -7353.813332773845, -6635.785893891561, -6010.741711943354, -9816.66264732631, -10847.636860327348, -15298.137402312446, 0.0056875, 0.23367187500000003, 0.94703125, 192.0, 0.0, 0.0, 0.0, 0.0, 0.0, 0.0, 0.0, 0.0, 0.0, 1.64458731781733E9, 0.0, 2022-02-12 00:48:37.817
120.0, -9322.979667541942, -9316.855289561188, -6639.540986960053, -11358.575386831211, -9164.908130754011, -6234.303859985335, -8484.699843490105, -7174.75350794238, -7876.061841972094, -10699.936532966678, -7354.327422896317, -6641.3067747720215, -6002.024531605784, -9817.89199327135, -10832.750598520113, -15296.371614500478, 0.0056875, 0.23367187500000003, 0.94703125, 192.0, 0.0, 0.0, 0.0, 0.0, 0.0, 0.0, 0.0, 0.0, 0.0, 1.644587317826436E9, 0.0, 2022-02-12 00:48:37.826
122.0, -9296.425795129036, -9303.243077187906, -6625.861719353405, -11347.175997159005, -9150.915938724987, -6222.032752279371, -8469.970043894058, -7155.441600732995, -7869.646891313421, -10697.679006776692, -7351.466399606037, -6639.69744917124, -5989.239333777348, -9834.789912079563, -10826.112130416886, -15251.332849423034, 0.0056875, 0.23367187500000003, 0.94703125, 192.0, 0.0, 0.0, 0.0, 0.0, 0.0, 0.0, 0.0, 0.0, 0.0, 1.64458731783251E9, 0.0, 2022-02-12 00:48:37.832
124.0, -9289.36264388116, -9314.08367324873, -6624.83353910846, -11353.658003051043, -9152.704078281413, -6222.591545890755, -8481.414137055175, -7162.236531047408, -7865.265949400181, -10703.892791735267, -7330.411056329139, -6626.889899598348, -5982.399699974025, -9818.204917693725, -10817.484357057137, -15304.977036115772, 0.0056875, 0.23367187500000003, 0.94703125, 192.0, 0.0, 0.0, 0.0, 0.0, 0.0, 0.0, 0.0, 0.0, 0.0, 1.644587317839877E9, 0.0, 2022-02-12 00:48:37.839
126.0, -9308.361626668171, -9298.526859107837, -6631.226138022678, -11336.268345864815, -9141.23763337584, -6211.2815631963695, -8476.697918975105, -7158.190865300998, -7852.07842017155, -10686.793707226958, -7335.775474998412, -6628.722742643684, -5962.730164853355, -9817.221440937692, -10816.43382506774, -15243.73325630823, 0.004, 0.234, 0.9480000000000001, 192.0, 0.0, 16.0, 3.5, 40.0, 14.5, 80.0, 0.0, 0.0, 0.0, 1.644587317848063E9, 0.0, 2022-02-12 00:48:37.848
128.0, -9281.293664132794, -9288.759146780867, -6612.875355824871, -11340.29165986677, -9141.14822639802, -6200.731539813464, -8464.225645569044, -7143.662231405048, -7861.376745864957, -10682.859800202823, -7319.816329457322, -6606.706274355206, -5973.906037081008, -9803.855097753418, -10806.710816229679, -15270.935329310338, 0.004, 0.234, 0.9480000000000001, 192.0, 0.0, 0.0, 0.0, 0.0, 0.0, 0.0, 0.0, 0.0, 0.0, 1.644587317855041E9, 0.0, 2022-02-12 00:48:37.855
130.0, -9270.631882027612, -9278.253826886872, -6613.791777347538, -11333.563784785723, -9132.14047338253, -6192.953132743017, -8466.572578736852, -7146.277385506319, -7850.64790852641, -10689.788840983969, -7325.426617315605, -6608.695579611729, -5975.381252215058, -9789.304112113014, -10799.222981837152, -15266.710849608286, 0.004, 0.234, 0.9480000000000001, 192.0, 0.0, 0.0, 0.0, 0.0, 0.0, 0.0, 0.0, 0.0, 0.0, 1.644587317862668E9, 0.0, 2022-02-12 00:48:37.862
132.0, -9286.166344424051, -9268.150838393074, -6598.033797506547, -11329.607526017133, -9118.394150542515, -6183.923027983074, -8456.33547977632, -7138.610737158148, -7831.112483872472, -10646.113532318299, -7321.380951569195, -6608.740283100639, -5958.662147362488, -9794.512068571099, -10789.70113869919, -15222.119119419947, 0.004, 0.234, 0.9480000000000001, 192.0, 0.0, 0.0, 0.0, 0.0, 0.0, 0.0, 0.0, 0.0, 0.0, 1.644587317877877E9, 0.0, 2022-02-12 00:48:37.877
134.0, -9297.275161418338, -9280.131373421118, -6599.3078469405, -11337.117712154117, -9125.010266901287, -6196.350597900224, -8452.245110541, -7141.22589125942, -7852.525455060656, -10701.523506823005, -7288.702701175535, -6606.885088310849, -5959.243292718326, -9790.46640282469, -10784.023795607543, -15276.679727635352, 0.004, 0.234, 0.9480000000000001, 192.0, 0.0, 0.0, 0.0, 0.0, 0.0, 0.0, 0.0, 0.0, 0.0, 1.644587317884584E9, 0.0, 2022-02-12 00:48:37.884
136.0, -9278.052661186775, -9277.829143742221, -6600.179564974256, -11315.90590666603, -9106.435967258927, -6181.799612259819, -8456.536645476419, -7149.898368108078, -7831.872443183952, -10676.198980355142, -7299.409186769627, -6605.6780941102625, -5951.330775181148, -9792.500411570121, -10781.051013594988, -15219.123985662936, 0.002, 0.234, 0.9500000000000001, 192.0, 0.0, 8.0, 3.5, 40.0, 14.5, 88.0, 0.0, 0.0, 0.0, 1.64458731789227E9, 0.0, 2022-02-12 00:48:37.892
138.0, -9255.92443417602, -9263.591082524192, -6585.87444852286, -11320.867993935108, -9098.299932277196, -6169.573208042766, -8435.615412666251, -7118.427111915006, -7826.172748347849, -10663.927872649178, -7294.424747756094, -6585.87444852286, -5946.79337105672, -9781.88333295385, -10777.340624015407, -15244.06853247506, 0.002, 0.234, 0.9500000000000001, 192.0, 0.0, 0.0, 0.0, 0.0, 0.0, 0.0, 0.0, 0.0, 0.0, 1.644587317900556E9, 0.0, 2022-02-12 00:48:37.900
140.0, -9274.811658240755, -9253.935128919498, -6594.144593971324, -11310.653246719034, -9091.482650218326, -6159.112591637682, -8431.994430064491, -7110.179318210998, -7817.723788943743, -10676.556608266426, -7288.903866875633, -6588.288436924034, -5927.7049812918885, -9767.98054790265, -10767.282339010519, -15234.949020737295, 0.002, 0.234, 0.9500000000000001, 192.0, 0.0, 0.0, 0.0, 0.0, 0.0, 0.0, 0.0, 0.0, 0.0, 1.644587317908261E9, 0.0, 2022-02-12 00:48:37.908
142.0, -9267.8379139707, -9254.046887641774, -6580.01829147557, -11301.734900681366, -9082.65371115848, -6148.204940343492, -8432.57557542033, -7119.008257270844, -7815.265097053659, -10658.652860957725, -7283.20417203953, -6588.869582279871, -5931.46007436038, -9773.926111927762, -10767.014118077055, -15191.564284749544, 0.002, 0.234, 0.9500000000000001, 192.0, 0.0, 0.0, 0.0, 0.0, 0.0, 0.0, 0.0, 0.0, 0.0, 1.644587317914815E9, 0.0, 2022-02-12 00:48:37.914
144.0, -9243.742733447878, -9268.910797704553, -6587.528477612553, -11311.86024091962, -9095.28244677573, -6149.635451988632, -8439.012877823458, -7113.196803712464, -7828.653791982388, -10675.617834999304, -7270.396622466639, -6573.379823372344, -5929.001382470296, -9762.59377748892, -10768.355222744372, -15247.287183676623, 0.002, 0.234, 0.9500000000000001, 192.0, 0.0, 0.0, 0.0, 0.0, 0.0, 0.0, 0.0, 0.0, 0.0, 1.644587317923101E9, 0.0, 2022-02-12 00:48:37.923
146.0, -9249.040096883786, -9232.231585053396, -6583.3039979105, -11299.05269134673, -9077.22223725584, -6144.382792041635, -8422.964325304547, -7110.1346147220875, -7808.73838767271, -10646.739381163046, -7286.7580994079235, -6582.745204299117, -5938.031487230241, -9769.925149670262, -10761.739106385601, -15188.323281803523, 0.004, 0.234, 0.9500000000000001, 192.0, 0.0, 16.0, 3.5, 40.0, 14.5, 88.0, 0.0, 0.0, 0.0, 1.644587317929954E9, 0.0, 2022-02-12 00:48:37.929
148.0, -9252.616375996635, -9246.134370104595, -6569.937654726226, -11308.775700184788, -9084.71007164837, -6139.308946050281, -8425.400665450175, -7106.915963520523, -7808.492518483701, -10638.9609740926, -7269.971939321988, -6584.376881644354, -5936.243347673816, -9770.707460726198, -10756.911129583255, -15218.274619373635, 0.004, 0.234, 0.9500000000000001, 192.0, 0.0, 0.0, 0.0, 0.0, 0.0, 0.0, 0.0, 0.0, 0.0, 1.644587317938081E9, 0.0, 2022-02-12 00:48:37.938
150.0, -9261.914701690042, -9246.02261138232, -6572.664567549774, -11294.269418033293, -9066.247530728286, -6139.130132094638, -8423.791339849395, -7106.915963520523, -7809.163070817361, -10679.685852490169, -7261.254758984418, -6568.551846569997, -5924.016943456762, -9768.762858958586, -10754.608899904359, -15221.895601975395, 0.004, 0.234, 0.9500000000000001, 192.0, 0.0, 0.0, 0.0, 0.0, 0.0, 0.0, 0.0, 0.0, 0.0, 1.644587317944667E9, 0.0, 2022-02-12 00:48:37.944
152.0, -9244.569747992724, -9223.603811693647, -6565.847285490905, -11295.118784322594, -9057.575053879626, -6135.710315192976, -8408.078063497313, -7097.662341316026, -7795.059120066062, -10638.402180481218, -7259.7571921059125, -6577.9172274967705, -5899.83235595612, -9777.949425929717, -10746.204643989164, -15174.979290363704, 0.004, 0.234, 0.9500000000000001, 192.0, 0.0, 0.0, 0.0, 0.0, 0.0, 0.0, 0.0, 0.0, 0.0, 1.644587317952437E9, 0.0, 2022-02-12 00:48:37.952
154.0, -9230.935183874988, -9237.774817678312, -6560.996956944104, -11304.417110016002, -9068.259187729262, -6135.710315192976, -8416.459967668054, -7103.585553596682, -7810.1688993178495, -10667.615910484305, -7249.765962334391, -6575.614997817874, -5922.407617855981, -9766.79590544652, -10744.774132344024, -15238.234727172225, 0.004, 0.234, 0.9500000000000001, 192.0, 0.0, 0.0, 0.0, 0.0, 0.0, 0.0, 0.0, 0.0, 0.0, 1.644587317960609E9, 0.0, 2022-02-12 00:48:37.960
156.0, -9239.406495023548, -9240.278213057305, -6559.521741810053, -11284.412298728503, -9047.226196196818, -6120.421721985545, -8405.842889051783, -7094.421338370006, -7800.043559079595, -10656.48474174556, -7261.38886945115, -6566.450782591198, -5914.36098985207, -9771.445068293222, -10741.846053820378, -15179.114363087936, 0.002, 0.23600000000000002, 0.9480000000000001, 192.0, 0.0, 8.0, 3.5, 48.0, 14.5, 80.0, 0.0, 0.0, 0.0, 1.644587317967102E9, 0.0, 2022-02-12 00:48:37.967
158.0, -9225.816634394721, -9227.381256506593, -6547.429448059732, -11292.682444176966, -9051.003641009765, -6116.621925428143, -8397.863316281238, -7090.755652279336, -7797.786032889609, -10649.309831775408, -7251.822322824279, -6552.659756262274, -5907.141376393006, -9755.50827449659, -10732.771245571525, -15199.186229608802, 0.002, 0.23600000000000002, 0.9480000000000001, 192.0, 0.0, 0.0, 0.0, 0.0, 0.0, 0.0, 0.0, 0.0, 0.0, 1.644587317975217E9, 0.0, 2022-02-12 00:48:37.975
160.0, -9249.241262583884, -9210.103358042641, -6552.995032429103, -11291.184877298461, -9042.867606028034, -6112.598611426189, -8400.2326011935, -7079.512724818316, -7798.59069569, -10652.148503321232, -7244.088619242742, -6561.689861022218, -5903.83331821362, -9750.143855827315, -10726.69157107968, -15205.91410468985, 0.002, 0.23600000000000002, 0.9480000000000001, 192.0, 0.0, 0.0, 0.0, 0.0, 0.0, 0.0, 0.0, 0.0, 0.0, 1.644587317983755E9, 0.0, 2022-02-12 00:48:37.983
162.0, -9225.794282650266, -9187.48339265387, -6540.858035189872, -11277.840885858643, -9027.534309331693, -6094.270180972837, -8386.083946953291, -7070.30380610273, -7783.0562332935615, -10610.52955514545, -7240.802912807812, -6563.63446278983, -5878.039405112196, -9749.74152442712, -10724.389341400783, -15154.95212733175, 0.002, 0.23600000000000002, 0.9480000000000001, 192.0, 0.0, 0.0, 0.0, 0.0, 0.0, 0.0, 0.0, 0.0, 0.0, 1.644587317996975E9, 0.0, 2022-02-12 00:48:37.996
164.0, -9197.96636080341, -9177.335700671161, -6536.38768629881, -11288.94970285293, -9032.965783234333, -6093.577276894722, -8378.305539882844, -7068.716832246403, -7781.44690769278, -10623.62767739626, -7219.077017197254, -6538.466398533154, -5888.455318028369, -9730.54137594001, -10716.096844207865, -15207.344616334989, 0.002, 0.23600000000000002, 0.9480000000000001, 192.0, 0.0, 0.0, 0.0, 0.0, 0.0, 0.0, 0.0, 0.0, 0.0, 1.64458731800491E9, 0.0, 2022-02-12 00:48:38.004
166.0, -9215.356017989638, -9218.7758348913, -6542.1097328793685, -11271.984728811352, -9014.905573714444, -6090.984474537907, -8385.771022530917, -7063.888855444057, -7771.343919198981, -10629.193261765631, -7233.069209226276, -6559.454686576687, -5890.757547707266, -9738.073913821449, -10708.519602837516, -15150.973516818705, 0.006, 0.23600000000000002, 0.9540000000000001, 192.0, 0.0, 24.0, 3.5, 48.0, 14.5, 104.0, 0.0, 0.0, 0.0, 1.644587318012789E9, 0.0, 2022-02-12 00:48:38.012
168.0, -9223.961439604931, -9212.360884232627, -6525.591793726897, -11278.958473081408, -9023.131015673998, -6093.554925150267, -8382.284150395888, -7058.3009193302305, -7786.3419397284915, -10639.318602003885, -7227.14599694562, -6526.48586350511, -5889.5505535066795, -9741.78430340103, -10704.473937091105, -15175.247511297168, 0.006, 0.23600000000000002, 0.9540000000000001, 192.0, 0.0, 0.0, 0.0, 0.0, 0.0, 0.0, 0.0, 0.0, 0.0, 1.644587318020163E9, 0.0, 2022-02-12 00:48:38.020
170.0, -9230.82342515271, -9198.994541048354, -6530.173901340235, -11273.526999178768, -9023.846271496568, -6091.207991982459, -8381.077156195302, -7066.191085122953, -7794.522678199134, -10659.815151669402, -7219.5464038308155, -6534.443084531198, -5893.305646575171, -9749.339193026924, -10702.104652178843, -15188.211523081247, 0.006, 0.23600000000000002, 0.9540000000000001, 192.0, 0.0, 0.0, 0.0, 0.0, 0.0, 0.0, 0.0, 0.0, 0.0, 1.644587318027376E9, 0.0, 2022-02-12 00:48:38.027
172.0, -9182.00721526232, -9173.737069813857, -6518.394532012288, -11267.939063064941, -9011.530460301694, -6077.77459356482, -8368.001385688947, -7053.4282390389735, -7764.906616795853, -10615.491642414529, -7232.800988292813, -6535.337154309411, -5881.1015941025735, -9718.851413589886, -10700.920009722711, -15140.870528324907, 0.006, 0.23600000000000002, 0.9540000000000001, 192.0, 0.0, 0.0, 0.0, 0.0, 0.0, 0.0, 0.0, 0.0, 0.0, 1.6445873180356E9, 0.0, 2022-02-12 00:48:38.035
174.0, -9202.235543994373, -9174.586436103158, -6514.773549410528, -11277.215037013893, -9012.893916713467, -6079.62978835461, -8373.455211336042, -7063.888855444057, -7769.958111042752, -10617.726816860059, -7209.8010432483015, -6514.170052310235, -5870.037480597196, -9732.888309107819, -10691.822849729402, -15200.303816831569, 0.006, 0.23600000000000002, 0.9540000000000001, 192.0, 0.0, 0.0, 0.0, 0.0, 0.0, 0.0, 0.0, 0.0, 0.0, 1.644587318043474E9, 0.0, 2022-02-12 00:48:38.043
176.0, -9202.05673003873, -9156.392116116538, -6514.90765987726, -11269.190760754438, -8992.509125770226, -6065.43643062549, -8368.001385688947, -7043.235843567353, -7751.137942211383, -10613.681151113648, -7207.588220547226, -6536.097113620891, -5856.425268223914, -9730.943707340206, -10691.867553218312, -15139.641182379864, 0.006, 0.234, 0.9500000000000001, 192.0, 0.0, 24.0, 3.5, 40.0, 14.5, 88.0, 0.0, 0.0, 0.0, 1.644587318049781E9, 0.0, 2022-02-12 00:48:38.049
178.0, -9183.549485629735, -9177.849790793633, -6500.691950403685, -11273.57170266768, -8993.894933926456, -6065.34702364767, -8353.60686225973, -7037.022058608778, -7753.194302701271, -10601.834726552335, -7199.385130332128, -6521.546127980487, -5865.745945661777, -9720.125463023838, -10683.418593814205, -15158.90838610034, 0.006, 0.234, 0.9500000000000001, 192.0, 0.0, 0.0, 0.0, 0.0, 0.0, 0.0, 0.0, 0.0, 0.0, 1.644587318056987E9, 0.0, 2022-02-12 00:48:38.056
180.0, -9209.499860942347, -9182.387194918061, -6510.750235408573, -11260.6076908836, -8993.000864148244, -6073.416003396035, -8370.057746178836, -7054.0764396281775, -7767.521770897123, -10622.443034940128, -7205.554211801793, -6498.9038108472605, -5853.720707144822, -9744.779437158042, -10681.384585068774, -15173.794647907574, 0.006, 0.234, 0.9500000000000001, 192.0, 0.0, 0.0, 0.0, 0.0, 0.0, 0.0, 0.0, 0.0, 0.0, 1.64458731806517E9, 0.0, 2022-02-12 00:48:38.065
182.0, -9191.685520611469, -9151.564139314192, -6497.473299202121, -11255.17621698096, -8982.20497157633, -6053.321785130714, -8352.355164570232, -7046.029811624267, -7759.028108004107, -10609.389616178229, -7204.727197256947, -6503.62002892733, -5856.402916479459, -9716.280962977526, -10680.982253668577, -15128.711179341219, 0.006, 0.234, 0.9500000000000001, 192.0, 0.0, 0.0, 0.0, 0.0, 0.0, 0.0, 0.0, 0.0, 0.0, 1.644587318073018E9, 0.0, 2022-02-12 00:48:38.073
184.0, -9181.336662928661, -9131.559328026691, -6496.132194534802, -11261.457057172902, -8993.582009504082, -6045.208101893438, -8360.781772229884, -7047.057991869211, -7771.969768043729, -10622.934773318146, -7181.079051623232, -6500.468432959132, -5861.454410726358, -9697.6396081018, -10679.171762367698, -15186.132810846902, 0.006, 0.234, 0.9500000000000001, 192.0, 0.0, 0.0, 0.0, 0.0, 0.0, 0.0, 0.0, 0.0, 0.0, 1.644587318080077E9, 0.0, 2022-02-12 00:48:38.080
186.0, -9185.29292169725, -9133.570985027669, -6498.255610258057, -11243.173330208461, -8962.9154161114, -6040.022497179806, -8338.787655685861, -7037.469093497884, -7749.305099166048, -10591.687034569626, -7195.294761096807, -6498.747348636073, -5850.6361664099895, -9707.474375662134, -10674.321433820896, -15128.621772363398, 0.006, 0.23, 0.9460000000000001, 192.0, 0.0, 24.0, 3.5, 24.0, 14.5, 72.0, 0.0, 0.0, 0.0, 1.644587318087686E9, 0.0, 2022-02-12 00:48:38.087
188.0, -9166.696270310435, -9140.991764186832, -6478.0049297815485, -11245.162635464983, -8962.289567266651, -6020.777645203787, -8336.686591707063, -7017.307819999197, -7752.926081767808, -10582.90279899869, -7182.688377224014, -6493.941723578182, -5838.655631381945, -9696.946704023685, -10667.280634317474, -15149.699467384753, 0.006, 0.23, 0.9460000000000001, 192.0, 0.0, 0.0, 0.0, 0.0, 0.0, 0.0, 0.0, 0.0, 0.0, 1.644587318095873E9, 0.0, 2022-02-12 00:48:38.095
190.0, -9169.646700578536, -9144.568043299681, -6485.224543240613, -11241.564004607679, -8962.066049822099, -6022.43167429348, -8338.27356556339, -7020.191195033932, -7747.740477054176, -10609.903706300702, -7180.98964464541, -6486.789165352484, -5840.622584894012, -9684.697948062176, -10661.558587736916, -15157.813150622029, 0.006, 0.23, 0.9460000000000001, 192.0, 0.0, 0.0, 0.0, 0.0, 0.0, 0.0, 0.0, 0.0, 0.0, 1.64458731810371E9, 0.0, 2022-02-12 00:48:38.103
192.0, -9177.179238459974, -9129.838243703633, -6477.848467570361, -11236.691324316422, -8954.667622407393, -6017.491938768857, -8329.60108871473, -7021.018209578778, -7734.910575736831, -10588.647197323704, -7189.080976138232, -6483.9951972955705, -5822.607078863034, -9691.425823143223, -10660.10572434732, -15112.349702399935, 0.006, 0.23, 0.9460000000000001, 192.0, 0.0, 0.0, 0.0, 0.0, 0.0, 0.0, 0.0, 0.0, 0.0, 1.644587318110864E9, 0.0, 2022-02-12 00:48:38.110
194.0, -9178.699157082934, -9121.724560466357, -6474.339243690878, -11252.136379735039, -8963.183637044864, -6015.323819556692, -8328.550556725331, -7013.373912975063, -7753.641337590378, -10605.969799276567, -7157.408554245062, -6473.221656468112, -5818.829634050087, -9674.684366546198, -10655.76948592299, -15170.508941472644, 0.008, 0.232, 0.9480000000000001, 192.0, 0.0, 40.0, 3.5, 40.0, 14.5, 88.0, 0.0, 0.0, 0.0, 1.644587318125424E9, 0.0, 2022-02-12 00:48:38.125
196.0, -9164.125819698074, -9094.701301419891, -6470.695909344663, -11228.309420145682, -8937.747351854725, -6004.706740940421, -8328.036466602858, -7002.801537847703, -7736.609308315434, -10581.986377476023, -7164.292891537296, -6485.04572928497, -5826.384523675982, -9693.124555721826, -10650.047439342432, -15111.388577388356, 0.008, 0.232, 0.9480000000000001, 192.0, 0.0, 0.0, 0.0, 0.0, 0.0, 0.0, 0.0, 0.0, 0.0, 1.644587318131981E9, 0.0, 2022-02-12 00:48:38.131
198.0, -9132.006362915798, -9090.879153118034, -6455.720240559607, -11235.238460926827, -8935.556880898104, -5997.800051903731, -8313.306667006811, -6993.838488321125, -7725.835767487975, -10570.497580825995, -7158.593196701193, -6472.595807623364, -5813.800491547643, -9677.29952064747, -10644.437151484151, -15129.024103763593, 0.008, 0.232, 0.9480000000000001, 192.0, 0.0, 0.0, 0.0, 0.0, 0.0, 0.0, 0.0, 0.0, 0.0, 1.644587318139895E9, 0.0, 2022-02-12 00:48:38.139
200.0, -9168.327947655673, -9130.933479181944, -6457.888359771772, -11234.165577192973, -8929.991296528733, -5997.084796081162, -8308.568097182286, -6995.648979622005, -7734.262375147627, -10583.57335133235, -7147.774952384824, -6459.140057461269, -5806.044436221652, -9676.696023547176, -10633.10481704531, -15139.954106802239, 0.008, 0.232, 0.9480000000000001, 192.0, 0.0, 0.0, 0.0, 0.0, 0.0, 0.0, 0.0, 0.0, 0.0, 1.644587318147966E9, 0.0, 2022-02-12 00:48:38.147
202.0, -9141.774075242767, -9094.433080486428, -6450.2440631680565, -11227.348295134103, -8918.256630689697, -5987.093566309639, -8303.360140724199, -6987.557648129184, -7715.732778994176, -10573.269197138454, -7147.774952384824, -6460.391755150767, -5796.254372150228, -9660.62511928381, -10629.617944910282, -15089.595626544433, 0.008, 0.232, 0.9480000000000001, 192.0, 0.0, 0.0, 0.0, 0.0, 0.0, 0.0, 0.0, 0.0, 0.0, 1.644587318155036E9, 0.0, 2022-02-12 00:48:38.155
204.0, -9149.66424103549, -9094.969522353354, -6454.513246359021, -11237.831263283642, -8925.655058104403, -5988.747595399332, -8301.013207556392, -6984.718976583359, -7735.20114841475, -10593.832802037336, -7152.424115231528, -6458.491856872065, -5800.3894448744595, -9675.690195046687, -10629.77440712147, -15149.721819129209, 0.007, 0.232, 0.9500000000000001, 192.0, 0.0, 24.0, 3.5, 32.0, 14.5, 96.0, 0.0, 0.0, 0.0, 1.644587318162727E9, 0.0, 2022-02-12 00:48:38.162
206.0, -9142.019944431775, -9073.668309887447, -6446.600728821842, -11219.41342585247, -8908.913601507378, -5974.218961503382, -8304.567134924786, -6980.941531770412, -7719.756092996132, -10572.129258171231, -7143.215196515942, -6455.7649440485175, -5796.187316916861, -9661.072154172916, -10619.112625016287, -15093.976568457672, 0.007, 0.232, 0.9500000000000001, 192.0, 0.0, 0.0, 0.0, 0.0, 0.0, 0.0, 0.0, 0.0, 0.0, 1.644587318170607E9, 0.0, 2022-02-12 00:48:38.170
208.0, -9118.416502286971, -9082.027862313731, -6437.32475487289, -11237.764208050277, -8912.780453298146, -5969.905074823508, -8303.74012037994, -6990.19515397491, -7717.43151157278, -10557.198292875088, -7141.583519170705, -6444.589071820864, -5765.028985146164, -9656.557101792945, -10623.448863440617, -15118.362321658413, 0.007, 0.232, 0.9500000000000001, 192.0, 0.0, 0.0, 0.0, 0.0, 0.0, 0.0, 0.0, 0.0, 0.0, 1.644587318177781E9, 0.0, 2022-02-12 00:48:38.177
210.0, -9165.086944709652, -9101.004493356288, -6443.985574720571, -11227.862385256576, -8905.896116005912, -5969.860371334597, -8295.805251098305, -6966.815229274658, -7726.0592849325285, -10579.214761163565, -7133.000449299866, -6450.378173634788, -5801.5070320972245, -9666.458924586645, -10616.34100870383, -15132.242754965158, 0.007, 0.232, 0.9500000000000001, 192.0, 0.0, 0.0, 0.0, 0.0, 0.0, 0.0, 0.0, 0.0, 0.0, 1.64458731818561E9, 0.0, 2022-02-12 00:48:38.185
212.0, -9146.020906689275, -9086.766432138256, -6431.915632714705, -11215.010132194773, -8895.346092623007, -5952.403658915003, -8290.887867318139, -6972.00083398829, -7724.628773287389, -10551.61035676126, -7129.2677079758305, -6437.2129961506125, -5787.783061001666, -9660.222787883615, -10611.691845857125, -15080.409059573301, 0.007, 0.232, 0.9500000000000001, 192.0, 0.0, 0.0, 0.0, 0.0, 0.0, 0.0, 0.0, 0.0, 0.0, 1.644587318192154E9, 0.0, 2022-02-12 00:48:38.192
214.0, -9119.399979043004, -9066.918083061944, -6431.781522247973, -11229.739931790822, -8904.867935760967, -5955.935234538942, -8294.464146430988, -6978.482839880328, -7732.6754012913, -10565.37903134573, -7123.188033483986, -6428.317001857401, -5785.369072600493, -9652.824360468909, -10611.37892143475, -15142.837481836974, 0.0055, 0.23500000000000001, 0.9500000000000001, 192.0, 0.0, 16.0, 3.5, 56.0, 14.5, 88.0, 0.0, 0.0, 0.0, 1.644587318200296E9, 0.0, 2022-02-12 00:48:38.200
216.0, -9122.819795944666, -9047.919100274934, -6431.960336203616, -11220.463957841868, -8888.752328008692, -5943.150036710505, -8290.68670161804, -6964.982386229323, -7713.251735359638, -10561.534531299416, -7135.325030723218, -6444.522016587498, -5783.446822577336, -9651.57266277941, -10605.902744043202, -15088.232170132658, 0.0055, 0.23500000000000001, 0.9500000000000001, 192.0, 0.0, 0.0, 0.0, 0.0, 0.0, 0.0, 0.0, 0.0, 0.0, 1.644587318208725E9, 0.0, 2022-02-12 00:48:38.208
218.0, -9102.792632912711, -9044.968670006832, -6418.549289530431, -11227.191832922916, -8885.287807618119, -5932.532958094234, -8282.215390469479, -6964.5577030846725, -7711.843575458954, -10548.950499171078, -7113.688542090481, -6428.339353601856, -5765.788944457644, -9632.707790459132, -10604.829860309346, -15105.711234296708, 0.0055, 0.23500000000000001, 0.9500000000000001, 192.0, 0.0, 0.0, 0.0, 0.0, 0.0, 0.0, 0.0, 0.0, 0.0, 1.644587318215312E9, 0.0, 2022-02-12 00:48:38.215
220.0, -9133.012191416286, -9061.419553925938, -6430.418065836199, -11221.26862064226, -8886.76302275217, -5935.639850573522, -8280.78487882434, -6954.924101224435, -7712.715293492711, -10567.144819157698, -7113.26385894583, -6427.355876845822, -5766.191275857839, -9632.104293358838, -10597.967874761567, -15118.98817050316, 0.0055, 0.23500000000000001, 0.9500000000000001, 192.0, 0.0, 0.0, 0.0, 0.0, 0.0, 0.0, 0.0, 0.0, 0.0, 1.644587318222845E9, 0.0, 2022-02-12 00:48:38.222
222.0, -9125.457301790393, -9043.918138017432, -6418.035199407959, -11211.903239715486, -8871.22856035573, -5919.41248409897, -8263.708146060484, -6949.85025523308, -7708.759034724121, -10542.13321711221, -7115.744902580369, -6422.863176210306, -5760.692746721834, -9645.180063865193, -10592.46934562556, -15065.858073932895, 0.0055, 0.23500000000000001, 0.9500000000000001, 192.0, 0.0, 0.0, 0.0, 0.0, 0.0, 0.0, 0.0, 0.0, 0.0, 1.644587318231237E9, 0.0, 2022-02-12 00:48:38.231
224.0, -9106.19009806992, -9040.520672860226, -6418.638696508253, -11221.55919332018, -8880.079851160031, -5923.3687428675585, -8265.093954216714, -6943.32354585213, -7717.520918550601, -10540.166263600144, -7103.473794874406, -6411.419083049189, -5754.009575129697, -9625.801101422441, -10587.194333934109, -15121.916249026806, 0.0055, 0.23500000000000001, 0.9500000000000001, 192.0, 0.0, 0.0, 3.5, 56.0, 14.5, 80.0, 0.0, 0.0, 0.0, 1.644587318244516E9, 0.0, 2022-02-12 00:48:38.244
226.0, -9111.979199883843, -9048.142617719486, -6414.838899950851, -11201.487326799313, -8866.110010875465, -5918.429007342936, -8275.867495044171, -6950.543159311195, -7690.296493804038, -10532.209042574053, -7119.432940415495, -6410.502661526521, -5762.704403722812, -9622.358932776324, -10587.283740911931, -15070.88721643534, 0.0055, 0.23500000000000001, 0.9500000000000001, 192.0, 0.0, 0.0, 0.0, 0.0, 0.0, 0.0, 0.0, 0.0, 0.0, 1.644587318256797E9, 0.0, 2022-02-12 00:48:38.256
228.0, -9126.753702968801, -9058.536178891203, -6407.708693469607, -11216.910030473475, -8870.625063255437, -5920.306553877182, -8273.051175242803, -6942.1389033959995, -7713.341142337459, -10546.04477239189, -7105.194879197465, -6418.057551152415, -5757.2505780757165, -9624.124720588294, -10591.083537469332, -15090.400289344823, 0.0055, 0.23500000000000001, 0.9500000000000001, 192.0, 0.0, 0.0, 0.0, 0.0, 0.0, 0.0, 0.0, 0.0, 0.0, 1.644587318262927E9, 0.0, 2022-02-12 00:48:38.262
230.0, -9125.010266901287, -9048.634356097504, -6415.978838918071, -11217.804100251687, -8862.578435251527, -5924.285164390227, -8271.419497897567, -6941.244833617787, -7721.879508719387, -10566.38485984622, -7102.333855907185, -6417.252888352024, -5749.785095427644, -9630.09263635786, -10586.702595556093, -15112.304998911024, 0.0055, 0.23500000000000001, 0.9500000000000001, 192.0, 0.0, 0.0, 0.0, 0.0, 0.0, 0.0, 0.0, 0.0, 0.0, 1.644587318270214E9, 0.0, 2022-02-12 00:48:38.270
232.0, -9105.877173647545, -9017.83365223809, -6399.930286399161, -11205.063605912163, -8844.786446665103, -5903.721559491344, -8261.048288470303, -6924.883356676502, -7697.113775862906, -10532.969001885534, -7109.21819319942, -6405.764091701996, -5748.2651768046835, -9620.056703097427, -10581.204066420087, -15057.342059295424, 0.0055, 0.23500000000000001, 0.9500000000000001, 192.0, 0.0, 0.0, 0.0, 0.0, 0.0, 0.0, 0.0, 0.0, 0.0, 1.644587318280105E9, 0.0, 2022-02-12 00:48:38.280
234.0, -9108.492327748816, -9011.351646346051, -6396.421062519677, -11215.79244325071, -8855.112952603455, -5903.542745535701, -8261.741192548418, -6926.760903210748, -7717.543270295057, -10541.306202567364, -7094.957780236934, -6387.212143804091, -5738.363354010982, -9606.556249446423, -10575.683185539627, -15113.08730996696, 0.0055, 0.23500000000000001, 0.9500000000000001, 192.0, 0.0, 0.0, 3.5, 56.0, 14.5, 72.0, 0.0, 0.0, 0.0, 1.644587318284741E9, 0.0, 2022-02-12 00:48:38.284
236.0, -9099.41751949996, -9012.648047524459, -6400.690245710641, -11202.984893677818, -8841.500740230173, -5893.439757041902, -8267.463239128976, -6925.978592154813, -7697.627865985378, -10515.691103421583, -7100.6798268174925, -6383.300588524412, -5741.0455633456195, -9630.539671246966, -10575.392612861708, -15063.98052739865, 0.0055, 0.23500000000000001, 0.9500000000000001, 192.0, 0.0, 0.0, 0.0, 0.0, 0.0, 0.0, 0.0, 0.0, 0.0, 1.644587318290739E9, 0.0, 2022-02-12 00:48:38.290
238.0, -9097.338807265616, -9020.78408250619, -6389.044986849426, -11212.372626349048, -8847.51335948865, -5887.695358716889, -8258.231968668935, -6914.735664693793, -7691.861115915909, -10522.642495947182, -7094.376634881096, -6394.364702029789, -5718.805577612588, -9603.739929645053, -10574.319729127852, -15080.498466551122, 0.0055, 0.23500000000000001, 0.9500000000000001, 192.0, 0.0, 0.0, 0.0, 0.0, 0.0, 0.0, 0.0, 0.0, 0.0, 1.644587318296941E9, 0.0, 2022-02-12 00:48:38.296
240.0, -9102.747929423802, -9020.828785995101, -6398.4103677762, -11206.516469301758, -8841.925423374823, -5896.412539054459, -8255.10272444519, -6912.880469904002, -7693.559848494512, -10542.602603745772, -7083.40192835354, -6394.252943307512, -5740.978508112253, -9603.337598244858, -10573.671528538649, -15100.592684816444, 0.0055, 0.23500000000000001, 0.9500000000000001, 192.0, 0.0, 0.0, 0.0, 0.0, 0.0, 0.0, 0.0, 0.0, 0.0, 1.644587318304779E9, 0.0, 2022-02-12 00:48:38.304
242.0, -9088.46516471686, -8994.721948471302, -6388.665007193686, -11191.7419662168, -8830.74955114717, -5879.201695823872, -8247.190206908013, -6915.406217027452, -7689.268313559093, -10523.156586069654, -7091.225038912898, -6400.287914310446, -5733.021287086164, -9613.731159416577, -10569.782325003425, -15047.127312079348, 0.0055, 0.23500000000000001, 0.9500000000000001, 192.0, 0.0, 0.0, 0.0, 0.0, 0.0, 0.0, 0.0, 0.0, 0.0, 1.644587318312843E9, 0.0, 2022-02-12 00:48:38.312
