%OpenBCI Raw EEG Data
%Number of channels = 16
%Sample Rate = 125 Hz
%Board = OpenBCI_GUI$BoardCytonSerialDaisy
Sample Index, EXG Channel 0, EXG Channel 1, EXG Channel 2, EXG Channel 3, EXG Channel 4, EXG Channel 5, EXG Channel 6, EXG Channel 7, EXG Channel 8, EXG Channel 9, EXG Channel 10, EXG Channel 11, EXG Channel 12, EXG Channel 13, EXG Channel 14, EXG Channel 15, Accel Channel 0, Accel Channel 1, Accel Channel 2, Other, Other, Other, Other, Other, Other, Other, Analog Channel 0, Analog Channel 1, Analog Channel 2, Timestamp, Other, Timestamp (Formatted)
2.0, -9999.45521348181, -10068.94678699336, -7395.342873971806, -11219.659295041478, -10228.247669726334, -6955.549950069184, -9476.312634505348, -7629.589155863423, -9821.915307273306, -12233.199147367377, -7884.197876953826, -6865.159495491922, -7501.24543920105, -11073.52358979268, -11191.920780172442, -15326.881745681972, 0.0, 0.0, 0.0, 192.0, 0.0, 0.0, 0.0, 0.0, 0.0, 0.0, 0.0, 0.0, 0.0, 1.644587275980154E9, 0.0, 2022-02-12 00:47:55.980
4.0, -10011.569858976587, -10086.85053430206, -7410.340894501316, -11226.990667222819, -10249.280661258777, -6963.99890947329, -9501.45834701757, -7637.389914678325, -9847.306888974535, -12261.0941244476, -7887.148307221927, -6871.574446150595, -7526.502910435547, -11070.863732202499, -11196.212315107861, -15384.929226032404, 0.0, 0.0, 0.0, 192.0, 0.0, 0.0, 0.0, 0.0, 0.0, 0.0, 0.0, 0.0, 0.0, 1.644587275980159E9, 0.0, 2022-02-12 00:47:55.980
0.0, -5414.106597197842, -5468.376632735328, -3715.865756972523, -6289.780889723407, -5265.512200058961, -3739.5809578396033, -5050.041383509802, -4151.009518028441, -4917.4508354009195, -6118.11949230665, -3950.268501075328, -3442.9062536843126, -3768.593522142592, -5534.71661027868, -5603.090596567464, -7655.271310242571, 0.014, 0.23800000000000002, 0.9500000000000001, 192.0, 0.0, 56.0, 3.5, 56.0, 14.5, 88.0, 0.0, 0.0, 0.0, 1.644587276028191E9, 0.0, 2022-02-12 00:47:56.028
2.0, -10813.081063399442, -10907.53953546757, -7424.668362697168, -12568.005927563421, -10515.914620866135, -7464.074488171875, -10098.339330952089, -8304.365969224687, -10816.076197156453, -13130.912259925874, -8527.369323655286, -7615.149928945295, -7649.392801450826, -11678.182980797646, -12284.541104381216, -16805.22612395598, 0.014, 0.23800000000000002, 0.9500000000000001, 192.0, 0.0, 0.0, 0.0, 0.0, 0.0, 0.0, 0.0, 0.0, 0.0, 1.644587276034455E9, 0.0, 2022-02-12 00:47:56.034
4.0, -10845.915776004289, -10956.892187224888, -7430.926851144654, -12589.173029562597, -10533.997182130479, -7471.897598731232, -10099.52397340822, -8308.433986715554, -10855.795247053535, -13155.298013126614, -8529.224518445077, -7604.376388117837, -7647.0458682830185, -11663.252015501503, -12285.636339859528, -16862.245424061468, 0.014, 0.23800000000000002, 0.9500000000000001, 192.0, 0.0, 0.0, 0.0, 0.0, 0.0, 0.0, 0.0, 0.0, 0.0, 1.644587276041736E9, 0.0, 2022-02-12 00:47:56.041
6.0, -10847.927433005267, -10953.494722067682, -7450.596386265324, -12585.194419049552, -10522.575440713816, -7471.674081286679, -10101.803851342662, -8312.569059439786, -10859.237415699652, -13178.588530849043, -8545.78716108646, -7616.066350467962, -7652.969080563675, -11665.576596924853, -12287.558589882683, -16845.727484909, 0.012, 0.23600000000000002, 0.9500000000000001, 192.0, 0.0, 40.0, 3.5, 40.0, 14.5, 88.0, 0.0, 0.0, 0.0, 1.644587276049933E9, 0.0, 2022-02-12 00:47:56.049
8.0, -10821.194746636718, -10919.989457129175, -7441.096894871819, -12586.021433594398, -10524.363580270241, -7458.397145080226, -10095.14303149498, -8314.290143762844, -10856.979889509665, -13133.907393682885, -8558.59471065935, -7631.623164608856, -7652.879673585853, -11646.35409669329, -12287.871514305058, -16817.363121195212, 0.012, 0.23600000000000002, 0.9500000000000001, 192.0, 0.0, 0.0, 0.0, 0.0, 0.0, 0.0, 0.0, 0.0, 0.0, 1.644587276056384E9, 0.0, 2022-02-12 00:47:56.056
10.0, -10870.43563967176, -10964.871759995433, -7457.503075302015, -12592.771660419901, -10552.213853861555, -7483.319340147894, -10120.221688773834, -8324.683704934563, -10882.840857844456, -13163.076420197061, -8562.349803727842, -7606.768024774555, -7683.389804767347, -11656.188864253625, -12297.57217139866, -16881.087944637293, 0.012, 0.23600000000000002, 0.9500000000000001, 192.0, 0.0, 0.0, 0.0, 0.0, 0.0, 0.0, 0.0, 0.0, 0.0, 1.644587276064536E9, 0.0, 2022-02-12 00:47:56.064
12.0, -10869.452162915726, -10937.267355593129, -7451.736325232545, -12579.762945146913, -10537.260536820953, -7469.707127774612, -10114.946677082382, -8323.186138056057, -10869.496866404637, -13156.214434649282, -8569.323547997898, -7619.597926091901, -7685.3791100238695, -11673.69028016213, -12306.088186036133, -16810.210562969514, 0.012, 0.23600000000000002, 0.9500000000000001, 192.0, 0.0, 0.0, 0.0, 0.0, 0.0, 0.0, 0.0, 0.0, 0.0, 1.644587276072401E9, 0.0, 2022-02-12 00:47:56.072
14.0, -10840.037267212543, -10943.771713229622, -7447.221272852573, -12598.538410489371, -10556.058353907867, -7474.199828410128, -10121.47338646333, -8327.45532124702, -10876.805886841523, -13141.082303653038, -8548.558777398917, -7607.483280597125, -7676.974854108675, -11680.261693031991, -12305.462337191384, -16868.86154042024, 0.012, 0.23600000000000002, 0.9500000000000001, 192.0, 0.0, 0.0, 0.0, 0.0, 0.0, 0.0, 0.0, 0.0, 0.0, 1.64458727607914E9, 0.0, 2022-02-12 00:47:56.079
16.0, -10836.282174144051, -10938.787274216089, -7460.699374759123, -12585.261474282917, -10548.011725903956, -7472.165819664696, -10123.105063808569, -8332.573870727287, -10880.650386887835, -13149.88889096843, -8553.565568156906, -7621.855452281887, -7680.2158570546935, -11688.64359720273, -12305.417633702475, -16852.90239487915, 0.01, 0.23600000000000002, 0.9490000000000001, 192.0, 0.0, 32.0, 3.5, 48.0, 14.5, 80.0, 0.0, 0.0, 0.0, 1.644587276094001E9, 0.0, 2022-02-12 00:47:56.094
18.0, -10831.565956063982, -10944.285803352095, -7447.265976341484, -12590.983520863478, -10556.32657484133, -7463.202770138118, -10120.221688773834, -8315.74300715244, -10863.841875057446, -13130.062893636572, -8566.55193168544, -7606.45510035218, -7667.0059760816075, -11649.908024061684, -12306.043482547222, -16823.398092198146, 0.01, 0.23600000000000002, 0.9490000000000001, 192.0, 0.0, 0.0, 0.0, 0.0, 0.0, 0.0, 0.0, 0.0, 0.0, 1.644587276102616E9, 0.0, 2022-02-12 00:47:56.102
20.0, -10867.373450681383, -10946.364515586438, -7451.892787443732, -12598.784279678379, -10559.791095231903, -7470.265921385994, -10130.279973778723, -8327.254155546923, -10872.670814117291, -13170.474847611767, -8553.677326879184, -7613.428844622236, -7660.009880067097, -11662.82733235685, -12306.91520058098, -16883.47958129401, 0.01, 0.23600000000000002, 0.9490000000000001, 192.0, 0.0, 0.0, 0.0, 0.0, 0.0, 0.0, 0.0, 0.0, 0.0, 1.644587276109276E9, 0.0, 2022-02-12 00:47:56.109
22.0, -10845.736962048646, -10938.429646304805, -7448.160046119696, -12580.29938701384, -10539.65217347767, -7464.141543405241, -10125.72021790984, -8327.79059741385, -10859.550340122027, -13147.296088611614, -8557.45477169213, -7604.465795095658, -7651.583272407445, -11672.662099917186, -12305.57409591366, -16811.99870252594, 0.01, 0.23600000000000002, 0.9490000000000001, 192.0, 0.0, 0.0, 0.0, 0.0, 0.0, 0.0, 0.0, 0.0, 0.0, 1.644587276117445E9, 0.0, 2022-02-12 00:47:56.117
24.0, -10807.336665074428, -10909.238268046174, -7437.341801803327, -12595.900904643644, -10558.56174928686, -7462.979252693564, -10126.994267343793, -8317.97818159797, -10870.05566001602, -13145.17267288836, -8537.539367382451, -7594.1616409017615, -7674.024423840574, -11658.692259632619, -12302.891886579024, -16864.257081062446, 0.01, 0.23600000000000002, 0.9490000000000001, 192.0, 0.0, 0.0, 0.0, 0.0, 0.0, 0.0, 0.0, 0.0, 0.0, 1.644587276124177E9, 0.0, 2022-02-12 00:47:56.124
26.0, -10831.185976408242, -10922.06816936352, -7450.015240909486, -12583.987424848965, -10551.364487572251, -7468.500133574025, -10133.923308124937, -8311.317361750289, -10854.878825530866, -13143.898623454408, -8540.109817994811, -7612.735940544122, -7671.766897650587, -11660.838027100328, -12307.809270359192, -16846.822720387307, 0.006, 0.23500000000000001, 0.9495, 192.0, 0.0, 8.0, 3.5, 40.0, 14.5, 88.0, 0.0, 0.0, 0.0, 1.644587276134688E9, 0.0, 2022-02-12 00:47:56.134
28.0, -10822.200575137207, -10913.64156170387, -7441.767447205478, -12580.00881433592, -10557.198292875088, -7472.255226642517, -10133.208052302367, -8311.02678907237, -10859.282119188561, -13117.12123359695, -8542.121474995789, -7587.7690419875435, -7657.819409110476, -11667.387088225734, -12309.664465148982, -16821.18526949707, 0.006, 0.23500000000000001, 0.9495, 192.0, 0.0, 0.0, 0.0, 0.0, 0.0, 0.0, 0.0, 0.0, 0.0, 1.644587276141085E9, 0.0, 2022-02-12 00:47:56.141
30.0, -10830.850700241412, -10937.446169548772, -7454.351479333816, -12593.799840664846, -10572.553941315884, -7479.519543590492, -10150.016564132759, -8325.622478201685, -10869.988604782655, -13140.277640852648, -8535.840634803848, -7583.097527396385, -7659.473438200169, -11645.728247848541, -12315.274753007265, -16888.419316818632, 0.006, 0.23500000000000001, 0.9495, 192.0, 0.0, 0.0, 0.0, 0.0, 0.0, 0.0, 0.0, 0.0, 0.0, 1.644587276147196E9, 0.0, 2022-02-12 00:47:56.147
32.0, -10820.099511158409, -10929.935983411788, -7456.139618890241, -12580.455849225027, -10555.544263785394, -7466.488476573048, -10135.86790989255, -8319.989838598947, -10847.614508582892, -13114.617838217955, -8558.41589670371, -7598.788452004011, -7671.990415095141, -11665.464838202577, -12315.364159985085, -16819.55359215183, 0.006, 0.23500000000000001, 0.9495, 192.0, 0.0, 0.0, 0.0, 0.0, 0.0, 0.0, 0.0, 0.0, 0.0, 1.644587276153637E9, 0.0, 2022-02-12 00:47:56.153
34.0, -10836.013953210588, -10925.979724643199, -7448.271804841973, -12606.696797215558, -10571.369298859752, -7466.913159717698, -10139.377133772032, -8313.060797817803, -10875.509485663115, -13141.909318197886, -8550.659841377717, -7591.747652500589, -7668.682356915755, -11653.014916540971, -12310.53618318274, -16874.449476534068, 0.006, 0.23500000000000001, 0.9495, 192.0, 0.0, 0.0, 0.0, 0.0, 0.0, 0.0, 0.0, 0.0, 0.0, 1.644587276161605E9, 0.0, 2022-02-12 00:47:56.161
36.0, -10837.958554978199, -10910.53466922458, -7461.951072448621, -12592.30227378634, -10571.078726181833, -7467.159028906707, -10160.63364274903, -8330.830434659772, -10868.066354759498, -13146.670239766865, -8543.753152341027, -7619.12853945834, -7657.215912010183, -11654.221910741559, -12315.67708440746, -16861.91014789464, 0.006, 0.23550000000000001, 0.95075, 192.0, 0.0, 24.0, 3.5, 48.0, 14.5, 96.0, 0.0, 0.0, 0.0, 1.644587276169809E9, 0.0, 2022-02-12 00:47:56.169
38.0, -10828.14613916232, -10928.326657811005, -7451.37869732126, -12583.9203696156, -10580.734679786525, -7462.576921293369, -10152.67642172294, -8316.838242630749, -10867.686375103758, -13110.862745149463, -8548.178797743178, -7585.600922775379, -7675.454935485714, -11651.651460129198, -12322.919049610979, -16829.142490523158, 0.006, 0.23550000000000001, 0.95075, 192.0, 0.0, 0.0, 0.0, 0.0, 0.0, 0.0, 0.0, 0.0, 0.0, 1.644587276176262E9, 0.0, 2022-02-12 00:47:56.176
40.0, -10839.76904627908, -10938.49670153817, -7460.386450336749, -12601.332378546284, -10592.402290392196, -7480.301854646427, -10155.559796757674, -8326.516547979898, -10888.071166046997, -13136.522547784156, -8546.994155287046, -7581.555257028968, -7679.210028554205, -11664.391954468723, -12328.73050316936, -16895.4377645776, 0.006, 0.23550000000000001, 0.95075, 192.0, 0.0, 0.0, 0.0, 0.0, 0.0, 0.0, 0.0, 0.0, 0.0, 1.644587276184429E9, 0.0, 2022-02-12 00:47:56.184
42.0, -10824.94983970521, -10911.54049772507, -7454.418534567182, -12577.259549767918, -10566.51897031295, -7468.567188807391, -10157.750267714295, -8331.478635248975, -10853.470665630182, -13112.427367261334, -8543.820207574392, -7590.607713533368, -7667.207141781705, -11660.949785822606, -12325.15422405651, -16827.220240500003, 0.006, 0.23550000000000001, 0.95075, 192.0, 0.0, 0.0, 0.0, 0.0, 0.0, 0.0, 0.0, 0.0, 0.0, 1.64458727619227E9, 0.0, 2022-02-12 00:47:56.192
44.0, -10801.70402547169, -10897.771823140602, -7456.541950290436, -12602.047634368853, -10588.28956941242, -7469.0142236964975, -10158.465523536865, -8320.973315354982, -10869.943901293744, -13131.426350048347, -8539.483969150064, -7581.912884940253, -7668.190618537738, -11643.604832125287, -12326.87530837957, -16882.04906964887, 0.006, 0.23550000000000001, 0.95075, 192.0, 0.0, 0.0, 0.0, 0.0, 0.0, 0.0, 0.0, 0.0, 0.0, 1.644587276199618E9, 0.0, 2022-02-12 00:47:56.199
46.0, -10837.645630555824, -10921.241154818674, -7473.7751452654775, -12598.11372734472, -10589.585970590828, -7480.123040690785, -10175.363442345077, -8325.264850290401, -10869.809790827012, -13140.635268763932, -8546.79298958695, -7598.654341537278, -7687.882505402864, -11649.326878705846, -12334.161977071999, -16871.476694521512, 0.009000000000000001, 0.23475000000000001, 0.948375, 192.0, 0.0, 48.0, 3.5, 40.0, 14.5, 72.0, 0.0, 0.0, 0.0, 1.644587276214218E9, 0.0, 2022-02-12 00:47:56.214
48.0, -10818.311371601983, -10928.281954322096, -7462.375755593272, -12591.9222941306, -10597.274970683453, -7471.763488264501, -10166.57920677414, -8322.64969618913, -10868.446334415237, -13101.050329333584, -8543.194358729645, -7600.464832838158, -7678.070089586984, -11669.465800460077, -12337.738256184848, -16843.87229011921, 0.009000000000000001, 0.23475000000000001, 0.948375, 192.0, 0.0, 0.0, 0.0, 0.0, 0.0, 0.0, 0.0, 0.0, 0.0, 1.644587276221912E9, 0.0, 2022-02-12 00:47:56.221
50.0, -10828.52611881806, -10931.254736334651, -7470.064755685897, -12594.604503465236, -10612.228287724052, -7473.931607476665, -10183.119497671069, -8323.74493166744, -10886.037157301565, -13142.289297853626, -8542.054419762424, -7580.750594228577, -7680.238208799149, -11667.722364392563, -12341.49334925334, -16904.11024142626, 0.009000000000000001, 0.23475000000000001, 0.948375, 192.0, 0.0, 0.0, 0.0, 0.0, 0.0, 0.0, 0.0, 0.0, 0.0, 1.644587276230397E9, 0.0, 2022-02-12 00:47:56.230
52.0, -10833.421150853772, -10927.790215944078, -7470.33297661936, -12584.233294037975, -10597.386729405729, -7479.966578479598, -10190.182648918944, -8331.813911415806, -10866.725250092179, -13123.223259833248, -8559.421725204198, -7594.832193235421, -7683.590970467445, -11668.571730681864, -12345.449608021929, -16835.84801385975, 0.009000000000000001, 0.23475000000000001, 0.948375, 192.0, 0.0, 0.0, 0.0, 0.0, 0.0, 0.0, 0.0, 0.0, 0.0, 1.644587276236917E9, 0.0, 2022-02-12 00:47:56.236
54.0, -10819.987752436133, -10895.201372528241, -7467.226084140073, -12608.999026894455, -10615.938677303635, -7477.418479611693, -10189.154468674002, -8338.787655685861, -10880.471572932192, -13126.55366975709, -8548.35761169882, -7586.562047786957, -7687.457822258213, -11659.318108477368, -12350.031715635267, -16895.05778492186, 0.009000000000000001, 0.23475000000000001, 0.948375, 192.0, 0.0, 0.0, 0.0, 0.0, 0.0, 0.0, 0.0, 0.0, 0.0, 1.644587276244547E9, 0.0, 2022-02-12 00:47:56.244
56.0, -10835.76808402158, -10910.400558757849, -7484.883962259765, -12599.521887245404, -10611.445976668118, -7484.638093070757, -10192.596637320119, -8333.512643994409, -10880.449221187739, -13125.659599978877, -8554.21376874611, -7607.863260252865, -7679.701766932222, -11651.696163618108, -12350.076419124178, -16885.982976673007, 0.007500000000000001, 0.235375, 0.9501875, 192.0, 0.0, 24.0, 3.5, 48.0, 14.5, 96.0, 0.0, 0.0, 0.0, 1.644587276251966E9, 0.0, 2022-02-12 00:47:56.251
58.0, -10831.029514197055, -10939.21195736074, -7469.371851607782, -12595.453869754538, -10611.736549346037, -7477.329072633872, -10192.708396042395, -8335.814873673306, -10876.20238974123, -13115.489556251712, -8553.07382977889, -7588.037262921008, -7681.489906488647, -11660.748620122507, -12348.243576078841, -16850.689572178075, 0.007500000000000001, 0.235375, 0.9501875, 192.0, 0.0, 0.0, 0.0, 0.0, 0.0, 0.0, 0.0, 0.0, 0.0, 1.644587276259197E9, 0.0, 2022-02-12 00:47:56.259
60.0, -10820.255973369596, -10929.578355500504, -7474.892732488243, -12611.16714610662, -10624.499395430017, -7478.044328456442, -10207.438195638442, -8340.285222564367, -10882.796154355545, -13153.912204970386, -8541.473274406586, -7576.704928482167, -7698.030197385574, -11657.082934031838, -12346.969526644889, -16916.82838402133, 0.007500000000000001, 0.235375, 0.9501875, 192.0, 0.0, 0.0, 0.0, 0.0, 0.0, 0.0, 0.0, 0.0, 0.0, 1.644587276266421E9, 0.0, 2022-02-12 00:47:56.266
62.0, -10820.054807669498, -10914.312114037528, -7476.85968600031, -12601.35473029074, -10613.591744135827, -7471.897598731232, -10204.3089514147, -8337.245385318445, -10857.829255798968, -13127.470091279756, -8567.803629374937, -7608.22088816415, -7690.85528741542, -11662.425000956655, -12350.948137157935, -16843.492310463465, 0.007500000000000001, 0.235375, 0.9501875, 192.0, 0.0, 0.0, 0.0, 0.0, 0.0, 0.0, 0.0, 0.0, 0.0, 1.644587276274204E9, 0.0, 2022-02-12 00:47:56.274
64.0, -10830.895403730323, -10915.474404749204, -7472.121116175786, -12621.672466000613, -10628.321543731874, -7475.451526099626, -10200.129175201557, -8335.747818439939, -10884.517238678603, -13128.990009902718, -8548.178797743178, -7595.770966502544, -7691.905819404819, -11653.59606189681, -12356.938404671957, -16897.739994256495, 0.007500000000000001, 0.235375, 0.9501875, 192.0, 0.0, 0.0, 0.0, 0.0, 0.0, 0.0, 0.0, 0.0, 0.0, 1.644587276281588E9, 0.0, 2022-02-12 00:47:56.281
66.0, -10828.324953117963, -10925.175061842807, -7485.263941915506, -12614.385797308183, -10624.097064029822, -7483.654616314723, -10214.456643397409, -8345.336716811265, -10881.969139810699, -13136.567251273067, -8556.583053658373, -7594.608675790868, -7694.364511294903, -11632.45131164209, -12360.514683784806, -16890.207456375058, 0.00575, 0.2376875, 0.95709375, 192.0, 0.0, 16.0, 3.5, 64.0, 15.0, 16.0, 0.0, 0.0, 0.0, 1.644587276288784E9, 0.0, 2022-02-12 00:47:56.288
68.0, -10805.906153429289, -10899.403500485838, -7472.255226642517, -12611.88240192919, -10623.940601818635, -7481.128869191274, -10210.410977650998, -8345.582586000275, -10870.703860605225, -13116.383626029925, -8562.327451983387, -7597.000312447586, -7673.733851162655, -11673.153838295202, -12360.49233204035, -16864.726467696008, 0.00575, 0.2376875, 0.95709375, 192.0, 0.0, 0.0, 0.0, 0.0, 0.0, 0.0, 0.0, 0.0, 0.0, 1.644587276297125E9, 0.0, 2022-02-12 00:47:56.297
70.0, -10834.248165398618, -10931.59001250148, -7478.379604623271, -12623.952343935054, -10628.299191987418, -7490.226029184584, -10201.11265195759, -8340.911071409115, -10884.58429391197, -13133.572117516056, -8554.303175723931, -7598.140251414807, -7696.33146480697, -11668.83995161533, -12355.709058726914, -16924.763253302965, 0.00575, 0.2376875, 0.95709375, 192.0, 0.0, 0.0, 0.0, 0.0, 0.0, 0.0, 0.0, 0.0, 0.0, 1.644587276304726E9, 0.0, 2022-02-12 00:47:56.304
72.0, -10836.818616010978, -10924.169233342318, -7476.323244133383, -12593.241047053463, -10615.156366247698, -7490.158973951218, -10205.471242126376, -8349.65060349114, -10867.976947781677, -13126.039579634617, -8557.745344370049, -7601.336550871915, -7692.308150805015, -11675.947806352116, -12357.340736072152, -16854.265851290926, 0.00575, 0.2376875, 0.95709375, 192.0, 0.0, 0.0, 0.0, 0.0, 0.0, 0.0, 0.0, 0.0, 0.0, 1.644587276311734E9, 0.0, 2022-02-12 00:47:56.311
74.0, -10810.063577897976, -10926.985553143688, -7474.758622021512, -12621.717169489524, -10640.816168882391, -7486.9179710051985, -10218.50230914382, -8338.944117897048, -10866.077049502976, -13115.35544578498, -8541.853254062326, -7578.202495360672, -7694.029235128073, -11656.21121599808, -12366.214378620909, -16906.54658157189, 0.00575, 0.2376875, 0.95709375, 192.0, 0.0, 0.0, 0.0, 0.0, 0.0, 0.0, 0.0, 0.0, 0.0, 1.64458727631945E9, 0.0, 2022-02-12 00:47:56.319
76.0, -10833.465854342683, -10940.821282961522, -7489.778994295478, -12624.533489290892, -10634.758846135002, -7493.310569919417, -10234.752027362827, -8354.478580293488, -10884.226666000684, -13159.008402706195, -8568.809457875426, -7623.285963927026, -7700.153613108828, -11674.137315051237, -12372.450515323939, -16897.06944192284, 0.002, 0.23800000000000002, 0.96, 192.0, 0.0, 8.0, 3.5, 56.0, 15.0, 0.0, 0.0, 0.0, 0.0, 1.644587276327444E9, 0.0, 2022-02-12 00:47:56.327
78.0, -10838.360886378394, -10939.8825096944, -7476.166781922196, -12616.419806053616, -10641.9114043607, -7480.838296513355, -10234.573213407186, -8340.84401617575, -10866.211159969707, -13129.45939653628, -8566.082545051879, -7610.500766098591, -7677.9806826091635, -11669.823428371363, -12374.663338025015, -16861.798389172363, 0.002, 0.23800000000000002, 0.96, 192.0, 0.0, 0.0, 0.0, 0.0, 0.0, 0.0, 0.0, 0.0, 0.0, 1.644587276341262E9, 0.0, 2022-02-12 00:47:56.341
80.0, -10853.202444696719, -10951.058381922054, -7481.799421524933, -12631.060198671843, -10647.186416052153, -7484.906314004221, -10232.382742450565, -8354.344469826754, -10891.669796904302, -13174.118181957983, -8551.30804196692, -7596.575629302934, -7724.986401198674, -11657.64172764322, -12378.64194853806, -16926.797262048396, 0.002, 0.23800000000000002, 0.96, 192.0, 0.0, 0.0, 0.0, 0.0, 0.0, 0.0, 0.0, 0.0, 0.0, 1.644587276348983E9, 0.0, 2022-02-12 00:47:56.348
82.0, -10839.94786023472, -10947.415047575838, -7489.6225320842905, -12623.862936957234, -10633.976535079068, -7478.826639512377, -10223.285582457254, -8357.786638472871, -10876.917645563799, -13160.84124575153, -8566.954263085636, -7621.788397048521, -7710.055435902529, -11668.728192893052, -12376.876160726091, -16859.540862982376, 0.002, 0.23800000000000002, 0.96, 192.0, 0.0, 0.0, 0.0, 0.0, 0.0, 0.0, 0.0, 0.0, 0.0, 1.644587276357207E9, 0.0, 2022-02-12 00:47:56.357
84.0, -10793.9479701457, -10924.057474620042, -7484.615741326302, -12632.133082405697, -10647.365230007796, -7483.788726781456, -10233.053294784224, -8353.003365159437, -10873.184904239763, -13131.538108770623, -8565.188475273666, -7610.254896909582, -7690.452956015224, -11662.626166656753, -12379.714832271915, -16911.039282207406, 0.002, 0.23800000000000002, 0.96, 192.0, 0.0, 0.0, 0.0, 0.0, 0.0, 0.0, 0.0, 0.0, 0.0, 1.644587276363665E9, 0.0, 2022-02-12 00:47:56.363
86.0, -10846.04988647102, -10964.134152428407, -7496.618628098801, -12621.650114256157, -10634.311811245896, -7491.142450707252, -10231.332210461165, -8351.662260492118, -10872.670814117291, -13173.17940869086, -8566.060193307423, -7598.497879326092, -7706.456805045224, -11666.403611469701, -12379.379556105085, -16905.451346093578, 0.006, 0.23600000000000002, 0.9520000000000001, 192.0, 0.0, 24.0, 3.5, 48.0, 14.5, 96.0, 0.0, 0.0, 0.0, 1.644587276371735E9, 0.0, 2022-02-12 00:47:56.371
88.0, -10834.583441565448, -10925.26446882063, -7482.022938969486, -12622.767701478924, -10626.265183241985, -7489.376662895283, -10227.063027270202, -8343.07919062128, -10861.182017467263, -13140.367047830468, -8557.141847269755, -7602.118861927851, -7682.920418133786, -11672.371527239267, -12377.591416548661, -16868.883892164697, 0.006, 0.23600000000000002, 0.9520000000000001, 192.0, 0.0, 0.0, 0.0, 0.0, 0.0, 0.0, 0.0, 0.0, 0.0, 1.644587276380036E9, 0.0, 2022-02-12 00:47:56.380
90.0, -10843.23356666965, -10946.766846986635, -7490.158973951218, -12636.335210363295, -10650.650936442726, -7493.332921663871, -10245.637326912562, -8357.093734394757, -10877.409383941816, -13165.22218766477, -8551.822132089394, -7601.493013083103, -7694.073938616984, -11676.461896474588, -12383.157000918032, -16937.59315462031, 0.006, 0.23600000000000002, 0.9520000000000001, 192.0, 0.0, 0.0, 0.0, 0.0, 0.0, 0.0, 0.0, 0.0, 0.0, 1.644587276386844E9, 0.0, 2022-02-12 00:47:56.386
92.0, -10840.327839890462, -10940.821282961522, -7491.09774721834, -12622.745349734469, -10635.407046724207, -7476.949092978131, -10244.005649567325, -8350.388211058165, -10861.33847967845, -13149.061876423584, -8555.800742602438, -7607.12565268584, -7707.663799245811, -11660.949785822606, -12388.87904749859, -16867.632194475198, 0.006, 0.23600000000000002, 0.9520000000000001, 192.0, 0.0, 0.0, 0.0, 0.0, 0.0, 0.0, 0.0, 0.0, 0.0, 1.644587276393262E9, 0.0, 2022-02-12 00:47:56.393
94.0, -10803.603923750392, -10930.15950085634, -7480.033633712964, -12633.518890561925, -10650.941509120645, -7473.8869039877545, -10250.845283370649, -8349.36003081322, -10873.319014706494, -13152.861672980986, -8550.101047766335, -7587.813745476455, -7710.748339980643, -11655.317146219868, -12388.432012609484, -16916.314293898857, 0.006, 0.23600000000000002, 0.9520000000000001, 192.0, 0.0, 0.0, 0.0, 0.0, 0.0, 0.0, 0.0, 0.0, 0.0, 1.644587276401454E9, 0.0, 2022-02-12 00:47:56.401
96.0, -10841.244261413129, -10943.727009740713, -7491.947113507643, -12626.50044280296, -10633.216575767587, -7488.884924517265, -10242.821007111193, -8351.058763391824, -10865.987642525155, -13149.352449101503, -8551.620966389295, -7595.346283357893, -7687.994264125141, -11656.993527054015, -12387.0238527088, -16910.525192084933, 0.004, 0.23800000000000002, 0.9440000000000001, 192.0, 0.0, 16.0, 3.5, 56.0, 14.5, 64.0, 0.0, 0.0, 0.0, 1.644587276410049E9, 0.0, 2022-02-12 00:47:56.410
98.0, -10829.889575229834, -10932.104102623953, -7483.140526192252, -12628.109768403741, -10634.781197879458, -7479.653654057223, -10230.706361616418, -8341.782789442872, -10860.086781988954, -13146.826701978052, -8555.532521668974, -7594.07223392394, -7688.486002503158, -11654.847759586306, -12387.560294575727, -16875.52236026792, 0.004, 0.23800000000000002, 0.9440000000000001, 192.0, 0.0, 0.0, 0.0, 0.0, 0.0, 0.0, 0.0, 0.0, 0.0, 1.644587276416543E9, 0.0, 2022-02-12 00:47:56.416
100.0, -10827.699104273213, -10942.74353298468, -7491.075395473886, -12639.285640631395, -10658.094067346343, -7490.628360584779, -10262.043507342758, -8356.55729252783, -10875.330671707472, -13169.536074344645, -8549.430495432674, -7592.731129256622, -7706.635619000866, -11661.39682071171, -12392.969416733911, -16948.813730336875, 0.004, 0.23800000000000002, 0.9440000000000001, 192.0, 0.0, 0.0, 0.0, 0.0, 0.0, 0.0, 0.0, 0.0, 0.0, 1.644587276424331E9, 0.0, 2022-02-12 00:47:56.424
102.0, -10827.788511251034, -10929.377189800405, -7491.902410018732, -12619.906678188645, -10647.834616641358, -7485.398052382237, -10263.071687587702, -8351.818722703305, -10865.473552402682, -13144.479768810246, -8567.893036352758, -7611.484242854624, -7711.463595803213, -11662.715573634574, -12400.054919726244, -16882.42904930461, 0.004, 0.23800000000000002, 0.9440000000000001, 192.0, 0.0, 0.0, 0.0, 0.0, 0.0, 0.0, 0.0, 0.0, 0.0, 1.644587276432065E9, 0.0, 2022-02-12 00:47:56.432
104.0, -10825.03924668303, -10933.802835202556, -7493.601142597336, -12644.225376156019, -10671.549817508438, -7500.86545954531, -10263.921053877004, -8368.850751978249, -10882.215008999707, -13150.93942295783, -8551.397448944743, -7591.50178331158, -7703.99811315514, -11661.150951522703, -12401.910114516035, -16934.195689463104, 0.004, 0.23800000000000002, 0.9440000000000001, 192.0, 0.0, 0.0, 0.0, 0.0, 0.0, 0.0, 0.0, 0.0, 0.0, 1.644587276439982E9, 0.0, 2022-02-12 00:47:56.439
106.0, -10840.774874779569, -10936.909727681843, -7504.5311456359805, -12634.100035917763, -10666.185398839165, -7498.317360677405, -10277.734431950383, -8383.669958552118, -10887.44531720225, -13163.83637950854, -8571.715184654617, -7614.188803933716, -7733.837692002976, -11674.07025981787, -12408.056844241244, -16934.620372607755, 0.004, 0.23800000000000002, 0.9420000000000001, 192.0, 0.0, 16.0, 3.5, 56.0, 14.5, 56.0, 0.0, 0.0, 0.0, 1.644587276446701E9, 0.0, 2022-02-12 00:47:56.446
108.0, -10849.469703372682, -10939.994268416676, -7497.512697877014, -12635.329381862806, -10669.895788418746, -7494.025825741986, -10277.08623136118, -8364.425106576098, -10887.020634057599, -13142.937498442829, -8572.0728125659, -7602.230620650127, -7711.575354525489, -11670.248111516014, -12408.45917564144, -16894.20841863256, 0.004, 0.23800000000000002, 0.9420000000000001, 192.0, 0.0, 0.0, 0.0, 0.0, 0.0, 0.0, 0.0, 0.0, 0.0, 1.644587276461782E9, 0.0, 2022-02-12 00:47:56.461
110.0, -10847.703915560713, -10956.579262802514, -7508.15212823774, -12650.908547748155, -10677.87536118929, -7511.840166072866, -10277.600321483651, -8377.746746271461, -10899.738776652668, -13172.5088563572, -8561.522789182996, -7593.602847290379, -7699.103081119429, -11658.133466021236, -12409.733225075392, -16962.73886713253, 0.004, 0.23800000000000002, 0.9420000000000001, 192.0, 0.0, 0.0, 0.0, 0.0, 0.0, 0.0, 0.0, 0.0, 0.0, 1.644587276468667E9, 0.0, 2022-02-12 00:47:56.468
112.0, -10841.691296302235, -10950.432533077304, -7509.739102094067, -12633.697704517568, -10672.06390763091, -7497.266828688005, -10279.209647084434, -8368.716641511517, -10879.82337234299, -13162.897606241419, -8579.538295213973, -7613.36178938887, -7723.354723853437, -11677.98181509755, -12411.051977998255, -16890.386270330702, 0.004, 0.23800000000000002, 0.9420000000000001, 192.0, 0.0, 0.0, 0.0, 0.0, 0.0, 0.0, 0.0, 0.0, 0.0, 1.644587276476358E9, 0.0, 2022-02-12 00:47:56.476
114.0, -10799.200630092697, -10926.359704298939, -7500.708997334123, -12653.277832660418, -10694.169782897208, -7492.014168741009, -10288.776193711305, -8379.3784236167, -10891.44627945975, -13160.75183877371, -8570.776411387493, -7597.6261612923345, -7724.33820060947, -11660.25688174449, -12418.137480990586, -16936.36380867527, 0.004, 0.23800000000000002, 0.9420000000000001, 192.0, 0.0, 0.0, 0.0, 0.0, 0.0, 0.0, 0.0, 0.0, 0.0, 1.644587276484456E9, 0.0, 2022-02-12 00:47:56.484
116.0, -10835.321049132473, -10940.083675394497, -7513.695360862656, -12643.26425114444, -10682.032785657977, -7502.541840379458, -10282.584760497184, -8373.857542736238, -10889.546381181048, -13166.250367909715, -8584.79095516097, -7608.712626542167, -7736.654011804344, -11677.64653893072, -12417.489280401383, -16934.150985974193, 0.004, 0.234, 0.9420000000000001, 192.0, 0.0, 16.0, 3.5, 40.0, 14.5, 56.0, 0.0, 0.0, 0.0, 1.644587276492192E9, 0.0, 2022-02-12 00:47:56.492
118.0, -10858.14218022134, -10948.577338287514, -7502.564192123913, -12640.82791099881, -10677.853009444834, -7505.447567158648, -10281.690690718971, -8367.509647310932, -10884.718404378702, -13157.712001527787, -8578.197190546654, -7598.5649345594575, -7718.616154028911, -11677.445373230621, -12424.239507226886, -16894.163715143648, 0.004, 0.234, 0.9420000000000001, 192.0, 0.0, 0.0, 0.0, 0.0, 0.0, 0.0, 0.0, 0.0, 0.0, 1.644587276499083E9, 0.0, 2022-02-12 00:47:56.499
120.0, -10857.113999976398, -10961.161370415852, -7512.644828873257, -12657.435257129104, -10697.991931199067, -7494.606971097824, -10286.2280948434, -8372.829362491293, -10912.099291336453, -13188.84798155403, -8565.277882251488, -7591.702949011678, -7718.102063906439, -11668.862303359783, -12429.022780540321, -16964.348192733312, 0.004, 0.234, 0.9420000000000001, 192.0, 0.0, 0.0, 0.0, 0.0, 0.0, 0.0, 0.0, 0.0, 0.0, 1.644587276506774E9, 0.0, 2022-02-12 00:47:56.506
122.0, -10837.310354388996, -10944.039934163087, -7511.281372461483, -12641.54316682138, -10689.319454350407, -7487.320302405394, -10303.37188284062, -8375.824496248306, -10896.609532428925, -13163.277585897158, -8584.567437716418, -7615.015818478563, -7729.3449913674585, -11669.130524293247, -12435.303620732264, -16898.499953567978, 0.004, 0.234, 0.9420000000000001, 192.0, 0.0, 0.0, 0.0, 0.0, 0.0, 0.0, 0.0, 0.0, 0.0, 1.644587276514055E9, 0.0, 2022-02-12 00:47:56.514
124.0, -10837.310354388996, -10929.757169456145, -7496.551572865435, -12658.977527496521, -10704.652751046748, -7489.041386728452, -10294.632350758595, -8379.80310676135, -10902.77861389859, -13152.45934158079, -8572.385736988275, -7600.21896364915, -7739.29151765007, -11668.907006848694, -12434.02957129831, -16944.36573319027, 0.004, 0.234, 0.9420000000000001, 192.0, 0.0, 0.0, 0.0, 0.0, 0.0, 0.0, 0.0, 0.0, 0.0, 1.64458727652195E9, 0.0, 2022-02-12 00:47:56.521
126.0, -10865.741773336145, -10960.580225060014, -7517.0928260198625, -12646.92993723511, -10703.736329524081, -7500.396072911749, -10305.13767065259, -8375.913903226126, -10901.30339876454, -13171.190103434337, -8573.637434677772, -7596.486222325114, -7728.026238444596, -11638.910965789672, -12433.493129431383, -16942.421131422656, 0.006, 0.23800000000000002, 0.9420000000000001, 192.0, 0.0, 24.0, 3.5, 56.0, 14.5, 56.0, 0.0, 0.0, 0.0, 1.644587276528405E9, 0.0, 2022-02-12 00:47:56.528
128.0, -10849.00031673912, -10951.840692977989, -7506.363988681315, -12648.248690157974, -10699.601256799848, -7505.402863669738, -10295.99580717037, -8371.152981657146, -10903.516221465616, -13169.334908644547, -8584.79095516097, -7604.354036373382, -7734.843520503465, -11684.26265528949, -12436.801187610768, -16902.545619314387, 0.006, 0.23800000000000002, 0.9420000000000001, 192.0, 0.0, 0.0, 0.0, 0.0, 0.0, 0.0, 0.0, 0.0, 0.0, 1.644587276537558E9, 0.0, 2022-02-12 00:47:56.537
130.0, -10849.514406861594, -10951.013678433143, -7510.409654427726, -12662.419696142639, -10703.736329524081, -7515.952887052642, -10300.197935127966, -8383.647606807663, -10910.8252419025, -13194.637083367954, -8575.98436784558, -7606.768024774555, -7737.257508904638, -11692.845725160329, -12431.749693363869, -16979.16739930718, 0.006, 0.23800000000000002, 0.9420000000000001, 192.0, 0.0, 0.0, 0.0, 0.0, 0.0, 0.0, 0.0, 0.0, 0.0, 1.644587276544532E9, 0.0, 2022-02-12 00:47:56.544
132.0, -10845.20052018172, -10952.511245311647, -7515.125872507796, -12647.60048956877, -10691.97931194059, -7513.114215506818, -10299.192106627477, -8367.80021998885, -10886.998282313143, -13176.666280825888, -8586.154411572745, -7616.6474958238, -7732.697753035754, -11692.801021671417, -12432.17437650852, -16909.541715328898, 0.006, 0.23800000000000002, 0.9420000000000001, 192.0, 0.0, 0.0, 0.0, 0.0, 0.0, 0.0, 0.0, 0.0, 0.0, 1.644587276551607E9, 0.0, 2022-02-12 00:47:56.551
134.0, -10842.808883525, -10953.002983689665, -7508.308590448927, -12670.55573112437, -10709.54778308246, -7504.441738658159, -10302.835440973693, -8375.735089270484, -10900.699901664246, -13177.537998859645, -8571.335204998875, -7605.583382318424, -7731.96014546873, -11669.689317904631, -12438.812844611746, -16954.938108317627, 0.006, 0.23800000000000002, 0.9420000000000001, 192.0, 0.0, 0.0, 0.0, 0.0, 0.0, 0.0, 0.0, 0.0, 0.0, 1.644587276559271E9, 0.0, 2022-02-12 00:47:56.559
136.0, -10865.205331469218, -10969.699736797778, -7523.351314467349, -12656.921167006632, -10706.887925492278, -7505.782843325477, -10312.066711433734, -8388.341473143277, -10903.270352276606, -13189.071498998583, -8570.999928832047, -7612.355960888382, -7723.131206408883, -11670.985719083039, -12441.092722546187, -16957.620317652265, 0.008, 0.23800000000000002, 0.9400000000000001, 192.0, 0.0, 32.0, 3.5, 56.0, 14.5, 48.0, 0.0, 0.0, 0.0, 1.644587276567532E9, 0.0, 2022-02-12 00:47:56.567
138.0, -10842.965345736187, -10950.87956796641, -7519.05977953193, -12655.177730939118, -10713.101710450854, -7496.730386821078, -10303.595400285174, -8376.830324748793, -10902.175116798297, -13165.132780686949, -8581.818173148415, -7604.823423006943, -7728.897956478353, -11675.50077146301, -12446.859472615657, -16917.186011932616, 0.008, 0.23800000000000002, 0.9400000000000001, 192.0, 0.0, 0.0, 0.0, 0.0, 0.0, 0.0, 0.0, 0.0, 0.0, 1.644587276574367E9, 0.0, 2022-02-12 00:47:56.574
140.0, -10862.254901201119, -10946.297460353073, -7523.910108078731, -12673.260292203462, -10728.032675747, -7508.308590448927, -10316.224135902421, -8383.334682385288, -10916.21201231623, -13182.27656868417, -8575.090298067367, -7602.700007283689, -7741.616099073422, -11669.242283015525, -12450.189882539498, -16987.057565099905, 0.008, 0.23800000000000002, 0.9400000000000001, 192.0, 0.0, 0.0, 0.0, 0.0, 0.0, 0.0, 0.0, 0.0, 0.0, 1.644587276589E9, 0.0, 2022-02-12 00:47:56.589
142.0, -10865.562959380504, -10971.666690309847, -7527.933422080687, -12654.59658558328, -10716.722693052614, -7505.715788092111, -10325.745979040383, -8384.452269608053, -10901.526916209092, -13176.263949425693, -8578.55481845794, -7622.905984271287, -7751.696735822766, -11674.673756918164, -12451.821559884735, -16921.052863723384, 0.008, 0.23800000000000002, 0.9400000000000001, 192.0, 0.0, 0.0, 0.0, 0.0, 0.0, 0.0, 0.0, 0.0, 0.0, 1.644587276596762E9, 0.0, 2022-02-12 00:47:56.596
144.0, -10832.705895031202, -10966.257568151661, -7517.651619631246, -12674.13201023722, -10727.943268769177, -7508.889735804765, -10309.540964310285, -8383.245275407467, -10910.557020969036, -13187.059841997605, -8577.258417279532, -7607.036245708018, -7750.646203833367, -11683.100364577815, -12449.631088928116, -16966.136332289738, 0.008, 0.23800000000000002, 0.9400000000000001, 192.0, 0.0, 0.0, 0.0, 0.0, 0.0, 0.0, 0.0, 0.0, 0.0, 1.644587276604063E9, 0.0, 2022-02-12 00:47:56.604
146.0, -10838.115017189386, -10955.238158135195, -7526.927593580198, -12668.499370634481, -10722.288277421985, -7510.521413150002, -10327.511766852353, -8394.331740657299, -10896.453070217738, -13200.783813093163, -8583.472202238108, -7612.043036466007, -7752.791971301076, -11683.994434356027, -12445.093684803687, -16972.014841081484, 0.006, 0.23600000000000002, 0.9480000000000001, 192.0, 0.0, 24.0, 3.5, 48.0, 14.5, 80.0, 0.0, 0.0, 0.0, 1.644587276611437E9, 0.0, 2022-02-12 00:47:56.611
148.0, -10875.263616474107, -10953.092390667485, -7519.171538254206, -12662.687917076102, -10706.776166770002, -7505.514622392014, -10299.37092058312, -8383.625255063207, -10899.738776652668, -13159.254271895203, -8576.677271923694, -7603.392911361803, -7720.38194184088, -11657.149989265203, -12443.886690603102, -16929.77004406095, 0.006, 0.23600000000000002, 0.9480000000000001, 192.0, 0.0, 0.0, 0.0, 0.0, 0.0, 0.0, 0.0, 0.0, 0.0, 1.644587276619558E9, 0.0, 2022-02-12 00:47:56.619
150.0, -10878.705785120224, -10972.516056599148, -7527.821663358411, -12669.438143901605, -10724.903431523257, -7518.165709753717, -10313.56427831224, -8371.04122293487, -10938.228480604706, -13200.381481692968, -8572.519847455007, -7598.609638048368, -7750.445038133269, -11689.001225114016, -12438.566975422738, -16993.45016401412, 0.006, 0.23600000000000002, 0.9480000000000001, 192.0, 0.0, 0.0, 0.0, 0.0, 0.0, 0.0, 0.0, 0.0, 0.0, 1.644587276627355E9, 0.0, 2022-02-12 00:47:56.627
152.0, -10860.422058155782, -10935.233346847695, -7536.0471053179635, -12650.640326814691, -10713.727559295603, -7498.227953699584, -10318.258144647854, -8363.218112375513, -10912.680436692292, -13163.501103341712, -8595.855068666348, -7615.909888256775, -7742.3760583849025, -11673.064431317382, -12442.925565591522, -16920.87404976774, 0.006, 0.23600000000000002, 0.9480000000000001, 192.0, 0.0, 0.0, 0.0, 0.0, 0.0, 0.0, 0.0, 0.0, 0.0, 1.644587276634242E9, 0.0, 2022-02-12 00:47:56.634
154.0, -10863.305433190517, -10964.335318128506, -7528.179291269696, -12664.967795010543, -10731.877175793312, -7496.037482742964, -10316.984095213902, -8363.821609475805, -10931.992343901677, -13156.862635238485, -8590.960036630635, -7596.799146747488, -7723.95822095373, -11662.760277123485, -12444.065504558743, -16957.776779863452, 0.006, 0.233, 0.9500000000000001, 192.0, 0.0, 24.0, 3.5, 24.0, 14.5, 96.0, 0.0, 0.0, 0.0, 1.644587276641075E9, 0.0, 2022-02-12 00:47:56.641
156.0, -10865.473552402682, -10977.947530501788, -7541.5679861984245, -12657.926995507121, -10729.038504247488, -7509.895564305254, -10324.47192960643, -8376.785621259884, -10937.535576526592, -13173.492333113234, -8591.585885475384, -7605.113995684862, -7772.953244799763, -11670.650442916209, -12446.546548193282, -16963.163550277182, 0.006, 0.233, 0.9500000000000001, 192.0, 0.0, 0.0, 0.0, 0.0, 0.0, 0.0, 0.0, 0.0, 0.0, 1.644587276649127E9, 0.0, 2022-02-12 00:47:56.649
158.0, -10878.48226767567, -10959.97672795972, -7526.0111720575305, -12659.424562385628, -10720.343675654374, -7503.637075857768, -10312.42433934502, -8356.825513461294, -10927.29847756606, -13120.675160965344, -8596.391510533274, -7607.930315486231, -7756.368250413925, -11682.541570966432, -12446.747713893381, -16921.052863723384, 0.006, 0.233, 0.9500000000000001, 192.0, 0.0, 0.0, 0.0, 0.0, 0.0, 0.0, 0.0, 0.0, 0.0, 1.644587276657072E9, 0.0, 2022-02-12 00:47:56.657
160.0, -10878.996357798143, -10970.012661220153, -7531.576756426902, -12667.761763067456, -10740.102617752866, -7502.161860723718, -10330.752769798371, -8369.543656056363, -10945.559852786047, -13163.501103341712, -8578.376004502297, -7595.301579868982, -7739.179758927794, -11654.758352608485, -12447.015934826844, -16990.633844212753, 0.006, 0.233, 0.9500000000000001, 192.0, 0.0, 0.0, 0.0, 0.0, 0.0, 0.0, 0.0, 0.0, 0.0, 1.644587276663846E9, 0.0, 2022-02-12 00:47:56.663
162.0, -10864.691241346747, -10955.774600002123, -7535.39890472876, -12644.672411045125, -10729.530242625504, -7500.306665933927, -10320.448615604475, -8363.285167608878, -10918.804814673045, -13170.27368191167, -8596.704434955649, -7597.715568270156, -7759.385735915392, -11663.341422479323, -12443.663173158548, -16917.901267755184, 0.006, 0.233, 0.9500000000000001, 192.0, 0.0, 0.0, 0.0, 0.0, 0.0, 0.0, 0.0, 0.0, 0.0, 1.644587276671639E9, 0.0, 2022-02-12 00:47:56.671
164.0, -10860.19854071123, -10963.910634983855, -7528.11223603633, -12662.531454864915, -10737.465111907139, -7500.91016303422, -10318.504013836862, -8370.3259671123, -10919.654180962347, -13164.752801031209, -8584.969769116613, -7594.005178690574, -7756.122381224916, -11658.424038699155, -12447.530024949316, -16958.55909091939, 0.004, 0.2335, 0.9480000000000001, 192.0, 0.0, 8.0, 3.5, 40.0, 14.5, 72.0, 0.0, 0.0, 0.0, 1.644587276679753E9, 0.0, 2022-02-12 00:47:56.679
166.0, -10870.43563967176, -10978.305158413072, -7542.462055976636, -12662.531454864915, -10720.678951821203, -7507.414520670715, -10321.700313293972, -8380.428955606098, -10940.865986450433, -13180.488429127745, -8590.602408719351, -7606.969190474652, -7748.768657299121, -11647.382276938233, -12443.059676058254, -16964.482303200042, 0.004, 0.2335, 0.9480000000000001, 192.0, 0.0, 0.0, 0.0, 0.0, 0.0, 0.0, 0.0, 0.0, 0.0, 1.644587276686174E9, 0.0, 2022-02-12 00:47:56.686
168.0, -10874.72717460718, -10968.604501319469, -7526.055875546441, -12656.563539095348, -10709.950114482655, -7499.524354877992, -10306.724644508917, -8362.882836208682, -10924.63861997588, -13151.520568313666, -8584.612141205329, -7607.997370719597, -7733.167139669316, -11648.186939738625, -12437.695257388981, -16927.132538215224, 0.004, 0.2335, 0.9480000000000001, 192.0, 0.0, 0.0, 0.0, 0.0, 0.0, 0.0, 0.0, 0.0, 0.0, 1.644587276694584E9, 0.0, 2022-02-12 00:47:56.694
170.0, -10886.528895679581, -10962.658937294358, -7533.521358194514, -12666.331251422316, -10736.615745617837, -7506.5875061258685, -10324.494281350886, -8359.395964073654, -10938.362591071438, -13170.050164467117, -8571.134039298779, -7600.21896364915, -7739.537386839079, -11661.754448622996, -12440.958612079456, -16990.11975409028, 0.004, 0.2335, 0.9480000000000001, 192.0, 0.0, 0.0, 0.0, 0.0, 0.0, 0.0, 0.0, 0.0, 0.0, 1.644587276709329E9, 0.0, 2022-02-12 00:47:56.709
172.0, -10875.084802518464, -10952.153617400363, -7543.8031606439545, -12650.774437281423, -10739.342658441385, -7502.184212468173, -10341.794531559293, -8367.576702544296, -10926.627925232402, -13152.861672980986, -8594.670426210216, -7596.6873880252115, -7765.308948196048, -11670.985719083039, -12450.659269173058, -16927.66898008215, 0.004, 0.2335, 0.9480000000000001, 192.0, 0.0, 0.0, 0.0, 0.0, 0.0, 0.0, 0.0, 0.0, 0.0, 1.644587276716161E9, 0.0, 2022-02-12 00:47:56.716
174.0, -10840.99839222412, -10947.102123153463, -7541.836207131888, -12672.388574169705, -10740.572004386426, -7512.577773639891, -10328.607002330662, -8370.70594676804, -10925.06330312053, -13153.755742759198, -8594.357501787843, -7594.876896724331, -7741.414933373325, -11658.133466021236, -12456.671888431536, -16969.287928257934, 0.004, 0.2335, 0.9480000000000001, 192.0, 0.0, 0.0, 3.5, 40.0, 14.5, 72.0, 0.0, 0.0, 0.0, 1.644587276724057E9, 0.0, 2022-02-12 00:47:56.724
176.0, -10875.91181706331, -10976.718184556745, -7551.268643292027, -12658.12816120722, -10744.550614899472, -7510.700227105645, -10346.2425287059, -8382.060632951336, -10933.512262524637, -13181.13662971695, -8600.213658835133, -7603.236449150616, -7766.024204018618, -11658.714611377074, -12461.097533833687, -16977.64748068422, 0.004, 0.2335, 0.9480000000000001, 192.0, 0.0, 0.0, 0.0, 0.0, 0.0, 0.0, 0.0, 0.0, 0.0, 1.644587276732089E9, 0.0, 2022-02-12 00:47:56.732
178.0, -10866.76995358109, -10955.372268601926, -7538.326983252405, -12659.916300763643, -10730.871347292823, -7504.888773547265, -10320.605077815662, -8362.391097830665, -10924.683323464791, -13148.257213623192, -8587.383757517786, -7592.820536234443, -7756.77058181412, -11663.631995157242, -12457.65536518757, -16930.01591324996, 0.004, 0.2335, 0.9480000000000001, 192.0, 0.0, 0.0, 0.0, 0.0, 0.0, 0.0, 0.0, 0.0, 0.0, 1.644587276741257E9, 0.0, 2022-02-12 00:47:56.741
180.0, -10883.779631111578, -10978.17104794634, -7544.451361233158, -12675.495466648992, -10745.17646374422, -7510.67787536119, -10329.009333730857, -8378.909036983137, -10943.324678340517, -13172.911187757396, -8579.962978358624, -7604.130518928829, -7753.931910268297, -11659.07223928836, -12451.553338951271, -17003.061414129905, 0.004, 0.2335, 0.9480000000000001, 192.0, 0.0, 0.0, 0.0, 0.0, 0.0, 0.0, 0.0, 0.0, 0.0, 1.644587276747506E9, 0.0, 2022-02-12 00:47:56.747
182.0, -10885.232494501173, -10962.480123338715, -7548.653489190757, -12658.664603074147, -10736.101655495366, -7499.166726966707, -10337.480644879419, -8375.198647403557, -10930.87475667891, -13165.98214697625, -8593.061100609435, -7607.907963741775, -7756.077677736006, -11657.64172764322, -12452.670926174036, -16936.855547053285, 0.004, 0.2335, 0.9480000000000001, 192.0, 0.0, 0.0, 0.0, 0.0, 0.0, 0.0, 0.0, 0.0, 0.0, 1.644587276754682E9, 0.0, 2022-02-12 00:47:56.754
184.0, -10866.05469775852, -10951.483065066705, -7544.339602510882, -12674.154361981675, -10752.686649881203, -7510.67787536119, -10344.85672054967, -8372.337624113277, -10935.054532892053, -13163.277585897158, -8589.775394174505, -7588.59605653239, -7741.884320006886, -11657.64172764322, -12457.476551231928, -16973.78062889345, 0.005, 0.23175, 0.9450000000000001, 192.0, 0.0, 24.0, 3.5, 24.0, 14.5, 56.0, 0.0, 0.0, 0.0, 1.64458727676179E9, 0.0, 2022-02-12 00:47:56.761
186.0, -10876.20238974123, -10959.574396559525, -7556.54365498348, -12673.282643947918, -10752.686649881203, -7514.589430640868, -10351.115208997157, -8376.98678695998, -10937.133245126397, -13190.725528088276, -8590.960036630635, -7601.180088660728, -7764.9736720292185, -11648.030477527438, -12463.645632701593, -16983.07895458686, 0.005, 0.23175, 0.9450000000000001, 192.0, 0.0, 0.0, 0.0, 0.0, 0.0, 0.0, 0.0, 0.0, 0.0, 1.644587276768914E9, 0.0, 2022-02-12 00:47:56.768
188.0, -10867.686375103758, -10950.49958831067, -7544.317250766427, -12668.678184590124, -10745.422332933227, -7490.538953606958, -10348.969441529447, -8374.595150303263, -10926.247945576662, -13148.972469445762, -8596.83854542238, -7601.895344483298, -7752.970785256718, -11649.416285683667, -12462.483341989917, -16932.25108769549, 0.005, 0.23175, 0.9450000000000001, 192.0, 0.0, 0.0, 0.0, 0.0, 0.0, 0.0, 0.0, 0.0, 0.0, 1.644587276776435E9, 0.0, 2022-02-12 00:47:56.776
190.0, -10868.111058248409, -10974.79593453359, -7546.842997889877, -12680.368146940249, -10758.207530761663, -7499.859631044821, -10348.656517107072, -8379.870161994715, -10937.043838148575, -13178.700289571321, -8583.002815604546, -7598.229658392627, -7765.10778249595, -11652.389067696222, -12466.506655991872, -17002.726137963073, 0.005, 0.23175, 0.9450000000000001, 192.0, 0.0, 0.0, 0.0, 0.0, 0.0, 0.0, 0.0, 0.0, 0.0, 1.644587276784324E9, 0.0, 2022-02-12 00:47:56.784
192.0, -10863.528950635071, -10939.591937016481, -7547.133570567796, -12661.391515897694, -10744.50591141056, -7491.656540829724, -10339.268784435842, -8365.542693798863, -10912.702788436745, -13159.500141084212, -8595.98917913308, -7613.227678922139, -7769.511076153645, -11663.430829457144, -12461.835141400712, -16934.530965629932, 0.005, 0.23175, 0.9450000000000001, 192.0, 0.0, 0.0, 0.0, 0.0, 0.0, 0.0, 0.0, 0.0, 0.0, 1.644587276791436E9, 0.0, 2022-02-12 00:47:56.791
194.0, -10869.00512802662, -10957.540387814091, -7538.371686741315, -12674.22141721504, -10754.787713860002, -7494.9645990091085, -10339.827578047227, -8359.887702451671, -10928.751340955656, -13157.376725360959, -8585.528562727995, -7589.065443165951, -7757.239968447682, -11647.02464902695, -12463.355060023674, -16970.181998036147, 0.0045000000000000005, 0.232875, 0.9465000000000001, 192.0, 0.0, 16.0, 3.5, 40.0, 14.5, 80.0, 0.0, 0.0, 0.0, 1.644587276798969E9, 0.0, 2022-02-12 00:47:56.798
196.0, -10878.616378142402, -10968.112762941451, -7552.341527025882, -12667.001803755977, -10746.517568411538, -7494.428157142182, -10335.893671023092, -8363.441629820065, -10934.674553236313, -13176.196894192326, -8586.735556928583, -7585.757384986567, -7759.832770804498, -11651.763218851474, -12463.265653045852, -16977.31220451739, 0.0045000000000000005, 0.232875, 0.9465000000000001, 192.0, 0.0, 0.0, 0.0, 0.0, 0.0, 0.0, 0.0, 0.0, 0.0, 1.644587276806904E9, 0.0, 2022-02-12 00:47:56.806
198.0, -10864.847703557934, -10945.06811440803, -7544.250195533061, -12664.163132210153, -10734.782902572502, -7488.013206483509, -10320.94035398249, -8354.031545404381, -10923.409274030839, -13148.12310315646, -8600.437176279685, -7595.055710679974, -7748.366325898925, -11652.54552990741, -12461.902196634079, -16927.758387059974, 0.0045000000000000005, 0.232875, 0.9465000000000001, 192.0, 0.0, 0.0, 0.0, 0.0, 0.0, 0.0, 0.0, 0.0, 0.0, 1.644587276816292E9, 0.0, 2022-02-12 00:47:56.816
200.0, -10865.25003495813, -10958.859140736955, -7545.434837989193, -12680.256388217973, -10758.118123783843, -7494.7857850534665, -10347.42717116203, -8364.939196698571, -10936.060361392541, -13165.021021964672, -8579.515943469518, -7589.445422821692, -7747.271090420615, -11646.868186815762, -12467.311318792263, -16997.853457671816, 0.0045000000000000005, 0.232875, 0.9465000000000001, 192.0, 0.0, 0.0, 0.0, 0.0, 0.0, 0.0, 0.0, 0.0, 0.0, 1.644587276822329E9, 0.0, 2022-02-12 00:47:56.822
202.0, -10874.548360651537, -10951.728934255712, -7544.674878677712, -12666.420658400139, -10742.494254409583, -7496.238648443062, -10341.548662370285, -8363.262815864422, -10921.039989118575, -13153.442818336824, -8592.099975597856, -7599.056672937474, -7759.184570215294, -11639.4474076566, -12471.692260705502, -16934.754483074485, 0.0045000000000000005, 0.232875, 0.9465000000000001, 192.0, 0.0, 0.0, 0.0, 0.0, 0.0, 0.0, 0.0, 0.0, 0.0, 1.644587276836499E9, 0.0, 2022-02-12 00:47:56.836
204.0, -10860.176188966774, -10942.005925417654, -7533.5884134278795, -12679.429373673127, -10740.572004386426, -7490.002511740031, -10327.265897663343, -8342.520397009897, -10920.369436784917, -13144.703286254799, -8573.883303866782, -7589.534829799513, -7737.078694948995, -11624.963477249561, -12464.494998990895, -16966.248091012014, 0.00425, 0.23543750000000002, 0.94625, 192.0, 0.0, 16.0, 3.5, 56.0, 14.5, 72.0, 0.0, 0.0, 0.0, 1.644587276844449E9, 0.0, 2022-02-12 00:47:56.844
206.0, -10866.76995358109, -10950.656050521857, -7552.87796889281, -12667.806466556367, -10745.422332933227, -7503.8829450467765, -10358.491284667407, -8361.65349026364, -10919.54242224007, -13164.08224869755, -8585.707376683638, -7591.233562378116, -7759.363384170936, -11646.82348332685, -12468.540664737304, -16972.864207370785, 0.00425, 0.23543750000000002, 0.94625, 192.0, 0.0, 0.0, 0.0, 0.0, 0.0, 0.0, 0.0, 0.0, 0.0, 1.644587276851138E9, 0.0, 2022-02-12 00:47:56.851
208.0, -10855.90700577581, -10964.22355940623, -7548.586433957391, -12667.806466556367, -10747.322231211929, -7497.311532176916, -10354.311508454264, -8361.094696652257, -10918.715407695223, -13149.307745612592, -8591.943513386668, -7587.322007098438, -7760.212750460238, -11650.846797328806, -12481.102345121188, -16934.50861388548, 0.00425, 0.23543750000000002, 0.94625, 192.0, 0.0, 0.0, 0.0, 0.0, 0.0, 0.0, 0.0, 0.0, 0.0, 1.64458727685936E9, 0.0, 2022-02-12 00:47:56.859
210.0, -10870.189770482752, -10968.7386117862, -7552.430934003703, -12689.532362166925, -10755.167693515741, -7515.461148674625, -10344.275575193831, -8374.572798558807, -10938.250832349162, -13182.835362295553, -8583.427498749197, -7589.490126310602, -7764.884265051397, -11650.980907795538, -12478.576597997737, -17008.291722332444, 0.00425, 0.23543750000000002, 0.94625, 192.0, 0.0, 0.0, 0.0, 0.0, 0.0, 0.0, 0.0, 0.0, 0.0, 1.644587276867098E9, 0.0, 2022-02-12 00:47:56.867
212.0, -10883.82433460049, -10968.068059452542, -7557.080096850407, -12671.405097413672, -10745.198815488675, -7520.311477221428, -10352.299851453286, -8347.661298234618, -10928.30430606655, -13164.261062653193, -8589.976559874602, -7607.706798041678, -7754.021317246118, -11669.532855693444, -12474.732097951424, -16948.12082625876, 0.00425, 0.23543750000000002, 0.94625, 192.0, 0.0, 0.0, 0.0, 0.0, 0.0, 0.0, 0.0, 0.0, 0.0, 1.644587276874022E9, 0.0, 2022-02-12 00:47:56.874
214.0, -10874.414250184805, -10974.326547900027, -7554.330832282404, -12682.312748707862, -10757.9393098282, -7495.322226920393, -10356.971366044447, -8363.03929841987, -10937.02148640412, -13168.79846677762, -8587.160240073234, -7585.489164053102, -7741.2584711621375, -11646.979945538038, -12475.17913284053, -16979.92735861866, 0.006125, 0.23571875000000003, 0.9461250000000001, 192.0, 0.0, 32.0, 3.5, 48.0, 14.5, 72.0, 0.0, 0.0, 0.0, 1.644587276883069E9, 0.0, 2022-02-12 00:47:56.883
216.0, -10870.547398394037, -10949.06907666553, -7567.227788833116, -12682.357452196771, -10754.9888795601, -7494.495212375547, -10353.395086931598, -8362.435801319576, -10941.35772482845, -13183.28239718466, -8591.943513386668, -7600.151908415784, -7771.343919198981, -11642.286079202424, -12481.459973032472, -16990.499733746023, 0.006125, 0.23571875000000003, 0.9461250000000001, 192.0, 0.0, 0.0, 0.0, 0.0, 0.0, 0.0, 0.0, 0.0, 0.0, 1.644587276889046E9, 0.0, 2022-02-12 00:47:56.889
218.0, -10856.979889509665, -10955.081695924007, -7554.375535771315, -12676.389536427205, -10746.629327133815, -7491.231857685073, -10345.057886249768, -8367.979033944492, -10927.432588032794, -13135.27085009466, -8601.487708269085, -7608.1314811863285, -7760.436267904791, -11625.63402958322, -12477.66017647507, -16939.738922088018, 0.006125, 0.23571875000000003, 0.9461250000000001, 192.0, 0.0, 0.0, 0.0, 0.0, 0.0, 0.0, 0.0, 0.0, 0.0, 1.644587276897564E9, 0.0, 2022-02-12 00:47:56.897
220.0, -10873.453125173226, -10968.626853063925, -7558.309442795449, -12684.70438536458, -10757.402867961273, -7501.401901412238, -10350.109380496668, -8368.068440922314, -10940.150730627864, -13166.093905698528, -8584.433327249686, -7591.524135056035, -7762.358517927947, -11655.384201453233, -12480.18592359852, -17015.01959741349, 0.006125, 0.23571875000000003, 0.9461250000000001, 192.0, 0.0, 0.0, 0.0, 0.0, 0.0, 0.0, 0.0, 0.0, 0.0, 1.644587276903771E9, 0.0, 2022-02-12 00:47:56.903
222.0, -10895.201372528241, -10989.257513196173, -7563.651509720267, -12668.477018890026, -10745.981126544611, -7502.027750256986, -10350.511711896863, -8359.552426284841, -10932.30526832405, -13177.18037094836, -8595.27392331051, -7600.151908415784, -7760.548026627068, -11662.581463167842, -12476.27436831884, -16951.384180949233, 0.006125, 0.23571875000000003, 0.9461250000000001, 192.0, 0.0, 0.0, 0.0, 0.0, 0.0, 0.0, 0.0, 0.0, 0.0, 1.644587276911442E9, 0.0, 2022-02-12 00:47:56.911
224.0, -10867.57461638148, -10970.146771686885, -7554.062611348941, -12680.7928300849, -10765.471847709638, -7495.322226920393, -10358.960671300969, -8351.192873858556, -10943.503492296159, -13171.257158667704, -8592.926990142703, -7582.7175477406445, -7771.433326176802, -11641.794340824406, -12480.677661976537, -16981.491980730534, 0.006, 0.23600000000000002, 0.9420000000000001, 192.0, 0.0, 24.0, 3.5, 48.0, 14.5, 56.0, 0.0, 0.0, 0.0, 1.644587276919397E9, 0.0, 2022-02-12 00:47:56.919
226.0, -10858.589215110447, -10944.062285907541, -7564.903207409765, -12676.07661200483, -10750.898510324778, -7492.14827920774, -10351.159912486066, -8359.619481518208, -10937.870852693422, -13182.522437873178, -8602.627647236306, -7597.067367680952, -7775.456640178757, -11641.727285591041, -12478.598949742192, -16992.332576791356, 0.006, 0.23600000000000002, 0.9420000000000001, 192.0, 0.0, 0.0, 0.0, 0.0, 0.0, 0.0, 0.0, 0.0, 0.0, 1.644587276926587E9, 0.0, 2022-02-12 00:47:56.926
228.0, -10860.645575600336, -10950.141960399385, -7550.531035725002, -12668.722888079035, -10738.716809596635, -7481.598255824835, -10344.744961827393, -8351.79637095885, -10926.091483365475, -13140.702323997299, -8599.31958905692, -7603.750539273088, -7746.354668897948, -11644.476550159045, -12472.586330483715, -16936.25204995299, 0.006, 0.23600000000000002, 0.9420000000000001, 192.0, 0.0, 0.0, 0.0, 0.0, 0.0, 0.0, 0.0, 0.0, 0.0, 1.644587276933966E9, 0.0, 2022-02-12 00:47:56.933
230.0, -10870.346232693939, -10964.625890806425, -7552.185064814695, -12688.817106344355, -10758.498103439582, -7495.9033722762315, -10349.371772929642, -8352.89160643716, -10936.149768370364, -13158.963699217284, -8575.023242834002, -7597.983789203619, -7757.083506236495, -11618.548526590888, -12467.46778100345, -17006.905914176215, 0.006, 0.23600000000000002, 0.9420000000000001, 192.0, 0.0, 0.0, 0.0, 0.0, 0.0, 0.0, 0.0, 0.0, 0.0, 1.644587276942122E9, 0.0, 2022-02-12 00:47:56.942
232.0, -10881.633863643869, -10971.6890420543, -7555.783695671999, -12663.693745576591, -10739.141492741286, -7481.441793613648, -10354.736191598915, -8351.349336069743, -10922.671666463813, -13154.627460792955, -8588.613103462829, -7586.696158253689, -7756.301195180559, -11650.82444558435, -12474.597987484693, -16948.746675103506, 0.006, 0.23600000000000002, 0.9420000000000001, 192.0, 0.0, 0.0, 0.0, 0.0, 0.0, 0.0, 0.0, 0.0, 0.0, 1.644587276956074E9, 0.0, 2022-02-12 00:47:56.956
234.0, -10843.993525981132, -10940.016620161132, -7541.232710031594, -12676.03190851592, -10747.925728312222, -7473.819848754389, -10347.628336862128, -8347.393077301154, -10927.454939777248, -13160.617728306977, -8582.958112115635, -7572.748669713577, -7746.0193927311175, -11643.940108292116, -12471.915778150056, -16976.753410906007, 0.008, 0.232, 0.9460000000000001, 192.0, 0.0, 32.0, 3.5, 32.0, 14.5, 72.0, 0.0, 0.0, 0.0, 1.644587276963586E9, 0.0, 2022-02-12 00:47:56.963
236.0, -10872.603758883924, -10954.500550568171, -7558.845884662376, -12675.27194920444, -10753.737181870601, -7477.016148211497, -10353.14921774259, -8347.773056956894, -10934.652201491857, -13167.077382454561, -8582.399318504253, -7577.822515704932, -7759.877474293408, -11626.170471450147, -12470.351156038185, -16986.74464067753, 0.008, 0.232, 0.9460000000000001, 192.0, 0.0, 0.0, 0.0, 0.0, 0.0, 0.0, 0.0, 0.0, 0.0, 1.644587276971786E9, 0.0, 2022-02-12 00:47:56.971
238.0, -10864.780648324568, -10949.426704576816, -7549.055820590952, -12671.65096660268, -10735.967545028632, -7476.278540644472, -10341.727476325927, -8358.099562895246, -10923.58808798648, -13141.685800753332, -8576.632568434783, -7583.6563210077675, -7732.541290824568, -11619.86727951375, -12470.708783949469, -16940.990619777516, 0.008, 0.232, 0.9460000000000001, 192.0, 0.0, 0.0, 0.0, 0.0, 0.0, 0.0, 0.0, 0.0, 0.0, 1.644587276979634E9, 0.0, 2022-02-12 00:47:56.979
240.0, -10855.683488331259, -10954.187626145796, -7551.313346780938, -12683.206818486075, -10755.614728404847, -7467.695470773634, -10345.750790327882, -8334.227899816979, -10931.321791568016, -13163.32228938607, -8566.21665551861, -7582.806954718466, -7748.589843343479, -11628.226831940035, -12470.485266504917, -17007.062376387403, 0.008, 0.232, 0.9460000000000001, 192.0, 0.0, 0.0, 0.0, 0.0, 0.0, 0.0, 0.0, 0.0, 0.0, 1.644587276986311E9, 0.0, 2022-02-12 00:47:56.986
242.0, -10872.24613097264, -10943.8834719519, -7555.113143338341, -12667.091210733797, -10742.516606154039, -7468.500133574025, -10352.389258431109, -8350.030583146881, -10919.274201306605, -13151.74408575822, -8580.924103370202, -7590.40654783327, -7759.206921959749, -11639.02272451195, -12470.75348743838, -16940.655343610688, 0.008, 0.232, 0.9460000000000001, 192.0, 0.0, 0.0, 0.0, 0.0, 0.0, 0.0, 0.0, 0.0, 0.0, 1.644587276994241E9, 0.0, 2022-02-12 00:47:56.994
244.0, -10849.67086907278, -10949.359649343449, -7547.021811845519, -12677.50712364997, -10759.101600539876, -7466.24260738404, -10351.584595630717, -8352.444571548054, -10930.15950085634, -13147.31844035607, -8565.255530507033, -7569.999405145575, -7747.7181253097215, -11635.289983187913, -12469.837065915712, -16971.970137592572, 0.008, 0.232, 0.9500000000000001, 192.0, 0.0, 32.0, 3.5, 32.0, 14.5, 88.0, 0.0, 0.0, 0.0, 1.644587277002398E9, 0.0, 2022-02-12 00:47:57.002
246.0, -10845.781665537557, -10951.930099955809, -7566.199608588173, -12674.802562570878, -10759.436876706706, -7475.831505755366, -10367.297871982799, -8365.118010654212, -10936.328582326005, -13170.117219700483, -8573.212751533121, -7578.1354401273065, -7745.281785164093, -11626.34928540579, -12473.145124095097, -16986.431716255156, 0.008, 0.232, 0.9500000000000001, 192.0, 0.0, 0.0, 0.0, 0.0, 0.0, 0.0, 0.0, 0.0, 0.0, 1.644587277009374E9, 0.0, 2022-02-12 00:47:57.009
248.0, -10859.796209311035, -10949.40435283236, -7554.979032871608, -12667.895873534188, -10752.619594647836, -7467.628415540268, -10360.927624813035, -8354.36682157121, -10928.080788621997, -13147.452550822802, -8600.615990235328, -7586.316178597949, -7762.716145839232, -11630.841986041307, -12479.045984631299, -16937.660209853675, 0.008, 0.232, 0.9500000000000001, 192.0, 0.0, 0.0, 0.0, 0.0, 0.0, 0.0, 0.0, 0.0, 0.0, 1.644587277015976E9, 0.0, 2022-02-12 00:47:57.015
250.0, -10904.052663332543, -10987.692891084302, -7566.467829521636, -12689.957045311576, -10771.104487312376, -7472.568151064891, -10363.945110314502, -8350.678783736084, -10949.203187132262, -13177.336833159547, -8577.213713790621, -7578.940102927698, -7763.051422006062, -11636.20640471058, -12478.196618341997, -17009.74458572204, 0.008, 0.232, 0.9500000000000001, 192.0, 0.0, 0.0, 0.0, 0.0, 0.0, 0.0, 0.0, 0.0, 0.0, 1.644587277024009E9, 0.0, 2022-02-12 00:47:57.024
252.0, -10885.947750323743, -10969.163294930851, -7564.612634731846, -12671.65096660268, -10749.624460890826, -7465.102668416819, -10355.920834055047, -8347.147208112146, -10936.552099770559, -13171.74889704572, -8583.628664449294, -7594.206344390673, -7743.225424674204, -11640.386180923722, -12481.214103843464, -16950.55716640439, 0.008, 0.232, 0.9500000000000001, 192.0, 0.0, 0.0, 0.0, 0.0, 0.0, 0.0, 0.0, 0.0, 0.0, 1.64458727703202E9, 0.0, 2022-02-12 00:47:57.032
254.0, -10835.52221483257, -10938.697867238268, -7545.591300200379, -12679.496428906492, -10755.502969682571, -7459.984118936553, -10361.57582540224, -8343.436818532566, -10920.570602485013, -13157.5555393166, -8573.45862072213, -7570.40173654577, -7755.049497491062, -11620.873108014239, -12476.90021716359, -16972.484227715042, -0.002, 0.246, 0.962, 192.0, 127.5, 120.0, 3.5, 88.0, 15.0, 8.0, 0.0, 0.0, 0.0, 1.6445872770387E9, 0.0, 2022-02-12 00:47:57.038
0.0, -10862.880750045866, -10945.761018486146, -7562.399812030771, -12685.374937698238, -10749.736219613102, -7470.377680108271, -10370.181247017534, -8350.36585931371, -10925.465634520726, -13170.631309822955, -8578.755984158039, -7581.868181451343, -7748.791009043576, -11610.993636964993, -12475.961443896467, -16987.996338367026, -0.002, 0.246, 0.962, 192.0, 0.0, 0.0, 0.0, 0.0, 0.0, 0.0, 0.0, 0.0, 0.0, 1.644587277046616E9, 0.0, 2022-02-12 00:47:57.046
2.0, -10847.949784749722, -10943.145864384875, -7554.263777049038, -12680.301091706884, -10742.918937554234, -7470.489438830547, -10357.999546289391, -8345.381420300177, -10928.371361299916, -13132.253364593193, -8595.98917913308, -7595.659207780267, -7743.270128163115, -11643.671887358652, -12481.03528988782, -16939.425997665643, -0.002, 0.246, 0.962, 192.0, 0.0, 0.0, 0.0, 0.0, 0.0, 0.0, 0.0, 0.0, 0.0, 1.644587277054688E9, 0.0, 2022-02-12 00:47:57.054
4.0, -10882.997320055643, -10977.45579212377, -7557.571835228424, -12690.98522555652, -10759.012193562055, -7478.603122067824, -10363.587482403218, -8349.918824424603, -10947.21388187574, -13180.331966916558, -8580.857048136837, -7578.694233738689, -7750.310927666537, -11624.337628404812, -12481.907007921578, -17012.292684589946, -0.002, 0.246, 0.962, 192.0, 0.0, 0.0, 0.0, 0.0, 0.0, 0.0, 0.0, 0.0, 0.0, 1.644587277061811E9, 0.0, 2022-02-12 00:47:57.061
6.0, -10880.762145610111, -10971.97961473222, -7563.271530064528, -12674.377879426227, -10744.483559666105, -7474.088069687852, -10364.570959159251, -8357.160789628124, -10936.462692792737, -13176.353356403513, -8586.310873783932, -7597.581457803423, -7736.944584482263, -11627.77979705093, -12482.175228855041, -16950.043076281916, -0.002, 0.246, 0.962, 192.0, 0.0, 0.0, 0.0, 0.0, 0.0, 0.0, 0.0, 0.0, 0.0, 1.644587277069354E9, 0.0, 2022-02-12 00:47:57.069
8.0, -10868.20046522623, -10971.063193209553, -7557.63889046179, -12690.471135434049, -10769.875141367334, -7463.336880604849, -10372.595235418707, -8340.776960942383, -10935.456864292248, -13172.687670312844, -8574.21858003361, -7574.536809270002, -7747.762828798632, -11614.480509100022, -12482.599911999692, -16980.642614441233, 0.002, 0.234, 0.9580000000000001, 192.0, 0.0, 8.0, 3.5, 40.0, 14.5, 120.0, 0.0, 0.0, 0.0, 1.644587277084361E9, 0.0, 2022-02-12 00:47:57.084
10.0, -10861.159665722807, -10947.683268509301, -7573.776849958522, -12687.520705165947, -10761.470885452138, -7465.035613183452, -10371.745869129405, -8350.36585931371, -10946.945660942276, -13184.824667552075, -8587.383757517786, -7592.21703913415, -7742.018430473618, -11630.640820341208, -12485.215066100964, -16993.22664656957, 0.002, 0.234, 0.9580000000000001, 192.0, 0.0, 0.0, 0.0, 0.0, 0.0, 0.0, 0.0, 0.0, 0.0, 1.644587277091603E9, 0.0, 2022-02-12 00:47:57.091
12.0, -10865.71942159169, -10946.20805337525, -7563.338585297894, -12678.781173083922, -10763.03550756401, -7459.090049158341, -10362.067563780256, -8339.212338830512, -10939.45782654975, -13152.660507280889, -8600.41482453523, -7598.8555072373765, -7769.10874475345, -11630.976096508039, -12486.80203995729, -16938.129596487237, 0.002, 0.234, 0.9580000000000001, 192.0, 0.0, 0.0, 0.0, 0.0, 0.0, 0.0, 0.0, 0.0, 0.0, 1.64458727709884E9, 0.0, 2022-02-12 00:47:57.098
14.0, -10871.508523405615, -10967.084582696509, -7568.971224900631, -12690.8958185787, -10772.534998957515, -7467.963691707098, -10378.205523276989, -8347.951870912537, -10950.343126099484, -13175.191065691837, -8577.772507402004, -7580.348262828382, -7766.292424952081, -11617.162718434658, -12489.148973125099, -17008.69405373264, 0.002, 0.234, 0.9580000000000001, 192.0, 0.0, 0.0, 0.0, 0.0, 0.0, 0.0, 0.0, 0.0, 0.0, 1.644587277106967E9, 0.0, 2022-02-12 00:47:57.106
16.0, -10892.496811449148, -10972.828981021523, -7573.732146469611, -12676.41188817166, -10762.432010463717, -7473.931607476665, -10368.817790605759, -8344.55440575533, -10936.865024192934, -13169.200798177815, -8589.149545329756, -7587.45611756517, -7752.277881178604, -11634.30650643188, -12487.763164968868, -16951.11596001577, 0.002, 0.234, 0.9580000000000001, 192.0, 0.0, 0.0, 0.0, 0.0, 0.0, 0.0, 0.0, 0.0, 0.0, 1.644587277115196E9, 0.0, 2022-02-12 00:47:57.115
18.0, -10878.146991508842, -10952.108913911452, -7560.052878862964, -12692.594551157303, -10776.424202492739, -7475.563284821902, -10363.743944614405, -8338.541786496853, -10949.203187132262, -13168.485542355245, -8581.169972559212, -7582.7398994851, -7756.927044025308, -11637.189881466615, -12486.645577746103, -16979.569730707375, 0.002, 0.234, 0.9580000000000001, 192.0, 0.0, 0.0, 3.5, 80.0, 14.5, 104.0, 0.0, 0.0, 0.0, 1.644587277122784E9, 0.0, 2022-02-12 00:47:57.122
20.0, -10864.780648324568, -10945.7833702306, -7574.156829614262, -12688.303016221884, -10777.497086226593, -7479.094860445841, -10388.1520495596, -8349.069458135302, -10946.878605708911, -13177.22507443727, -8580.834696392381, -7603.661132295268, -7741.169064184316, -11633.479491887032, -12492.077051648743, -17003.75431820802, 0.002, 0.234, 0.9580000000000001, 192.0, 0.0, 0.0, 0.0, 0.0, 0.0, 0.0, 0.0, 0.0, 0.0, 1.644587277129429E9, 0.0, 2022-02-12 00:47:57.129
22.0, -10844.48526435915, -10959.954376215264, -7553.906149137753, -12676.098963749286, -10759.772152873535, -7460.788781736945, -10372.818752863259, -8338.631193474674, -10930.003038645154, -13154.918033470874, -8587.786088917981, -7587.612579776357, -7753.10489572345, -11626.72926506153, -12490.42302255905, -16944.36573319027, 0.002, 0.234, 0.9580000000000001, 192.0, 0.0, 0.0, 0.0, 0.0, 0.0, 0.0, 0.0, 0.0, 0.0, 1.64458727713662E9, 0.0, 2022-02-12 00:47:57.136
24.0, -10866.05469775852, -10961.720164027234, -7560.186989329695, -12695.32146398085, -10768.824609377934, -7475.987967966554, -10375.568017431262, -8350.991708158459, -10945.582204530503, -13178.521475615678, -8570.798763131948, -7570.178219101217, -7753.015488745629, -11605.29394212889, -12487.360833568673, -17015.13135613577, 0.002, 0.234, 0.9580000000000001, 192.0, 0.0, 0.0, 0.0, 0.0, 0.0, 0.0, 0.0, 0.0, 0.0, 1.644587277143584E9, 0.0, 2022-02-12 00:47:57.143
26.0, -10874.503657162626, -10948.398524331871, -7569.9770534011195, -12674.735507337513, -10762.722583141636, -7465.952034706121, -10376.43973546502, -8333.780864927872, -10936.909727681843, -13163.992841719728, -8590.22242906361, -7583.969245430142, -7747.986346243185, -11624.181166193624, -12490.80300221479, -16959.07318104186, 0.002, 0.234, 0.9580000000000001, 192.0, 0.0, 0.0, 0.0, 0.0, 0.0, 0.0, 0.0, 0.0, 0.0, 1.644587277151469E9, 0.0, 2022-02-12 00:47:57.151
28.0, -10865.160627980307, -10956.26633838014, -7549.771076413522, -12683.31857720835, -10777.050051337488, -7459.157104391707, -10376.283273253832, -8341.045181875847, -10946.319812097528, -13149.754780501698, -8577.660748679727, -7578.984806416608, -7757.843465547975, -11598.34254960329, -12492.054699904287, -16978.563902206886, -0.006, 0.24, 0.9440000000000001, 192.0, 127.5, 104.0, 3.5, 64.0, 14.5, 64.0, 0.0, 0.0, 0.0, 1.644587277159135E9, 0.0, 2022-02-12 00:47:57.159
30.0, -10862.47841864567, -10963.955338472764, -7565.484352765603, -12676.456591660572, -10773.004385591077, -7471.7187847755895, -10384.039328579824, -8350.432914547077, -10948.97966968771, -13178.633234337954, -8573.905655611235, -7569.440611534192, -7746.645241575867, -11630.439654641112, -12491.562961526271, -17003.88842867475, -0.006, 0.24, 0.9440000000000001, 192.0, 0.0, 0.0, 0.0, 0.0, 0.0, 0.0, 0.0, 0.0, 0.0, 1.644587277167473E9, 0.0, 2022-02-12 00:47:57.167
32.0, -10866.233511714163, -10946.54332954208, -7560.075230607418, -12674.13201023722, -10762.432010463717, -7455.491418301037, -10369.421287706053, -8336.954812640526, -10933.668724735824, -13153.129893914449, -8580.164144058723, -7585.556219286468, -7744.7229915527105, -11616.782738778918, -12490.37831907014, -16943.29284945641, -0.006, 0.24, 0.9440000000000001, 192.0, 0.0, 0.0, 0.0, 0.0, 0.0, 0.0, 0.0, 0.0, 0.0, 1.644587277173873E9, 0.0, 2022-02-12 00:47:57.173
34.0, -10876.291796719051, -10958.479161081215, -7563.942082398186, -12696.148478525696, -10777.98882460461, -7461.660499770702, -10376.95382558749, -8341.022830131393, -10956.109876168952, -13169.51372260019, -8571.469315465607, -7574.223884847628, -7751.495570122668, -11598.454308325567, -12491.987644670922, -17019.914629449206, -0.006, 0.24, 0.9440000000000001, 192.0, 0.0, 0.0, 0.0, 0.0, 0.0, 0.0, 0.0, 0.0, 0.0, 1.644587277181668E9, 0.0, 2022-02-12 00:47:57.181
36.0, -10872.760221095112, -10938.228480604706, -7569.462963278647, -12682.446859174594, -10761.090905796398, -7456.698412501623, -10377.132639543133, -8343.012135387915, -10943.727009740713, -13161.221225407271, -8589.440118007675, -7588.350187343382, -7765.040727262584, -11617.229773668025, -12495.675682506047, -16963.096495043814, 0.003, 0.235, 0.9430000000000001, 192.0, 0.0, 48.0, 3.5, 24.0, 14.5, 56.0, 0.0, 0.0, 0.0, 1.644587277189911E9, 0.0, 2022-02-12 00:47:57.189
38.0, -10873.654290873324, -10962.413068105348, -7560.701079452167, -12693.220400002052, -10771.484466968115, -7454.686755500646, -10370.538874928818, -8331.590393971252, -10953.74059125669, -13150.98412644674, -8588.858972651837, -7580.415318061748, -7747.427552631802, -11618.459119613066, -12495.273351105852, -16986.632881955255, 0.003, 0.235, 0.9430000000000001, 192.0, 0.0, 0.0, 0.0, 0.0, 0.0, 0.0, 0.0, 0.0, 0.0, 1.644587277203693E9, 0.0, 2022-02-12 00:47:57.203
40.0, -10870.279177460574, -10976.7405363012, -7577.598998260379, -12694.829725602833, -10766.36591748785, -7464.074488171875, -10379.0995930552, -8340.911071409115, -10962.256605894161, -13191.016100766195, -8577.571341701907, -7577.554294771468, -7747.695773565266, -11604.399872350677, -12498.201429629496, -17004.201353097124, 0.003, 0.235, 0.9430000000000001, 192.0, 0.0, 0.0, 0.0, 0.0, 0.0, 0.0, 0.0, 0.0, 0.0, 1.644587277211323E9, 0.0, 2022-02-12 00:47:57.211
42.0, -10873.67664261778, -10957.227463391717, -7566.087849865896, -12682.871542319244, -10755.994708060589, -7453.278595599962, -10359.877092823637, -8323.432007245065, -10941.178910872808, -13159.768362017676, -8588.858972651837, -7590.518306555547, -7735.782293770587, -11614.793433522396, -12499.587237785727, -16953.440541439122, 0.003, 0.235, 0.9430000000000001, 192.0, 0.0, 0.0, 0.0, 0.0, 0.0, 0.0, 0.0, 0.0, 0.0, 1.644587277219592E9, 0.0, 2022-02-12 00:47:57.219
44.0, -10885.634825901368, -10975.801763034078, -7564.903207409765, -12698.383652971228, -10769.875141367334, -7460.587616036847, -10364.794476603804, -8321.50975722191, -10953.472370323227, -13175.03460348065, -8575.760850401026, -7581.912884940253, -7749.148636954861, -11609.473718342033, -12495.653330761592, -17019.780518982472, 0.003, 0.235, 0.9430000000000001, 192.0, 0.0, 0.0, 0.0, 0.0, 0.0, 0.0, 0.0, 0.0, 0.0, 1.644587277226505E9, 0.0, 2022-02-12 00:47:57.226
46.0, -10879.130468264875, -10950.92427145532, -7570.066460378941, -12685.978434798531, -10754.295975481984, -7462.353403848816, -10374.361023230675, -8336.351315540232, -10948.59969003197, -13167.569120832577, -8591.295312797465, -7609.8972689982975, -7769.354613942459, -11613.653494555176, -12500.302493608297, -16966.73982939003, 0.0045000000000000005, 0.2345, 0.9415, 192.0, 0.0, 24.0, 3.5, 40.0, 14.5, 48.0, 0.0, 0.0, 0.0, 1.644587277234166E9, 0.0, 2022-02-12 00:47:57.234
48.0, -10876.738831608156, -10953.561777301047, -7562.332756797405, -12699.501240193993, -10770.32217625644, -7456.385488079249, -10379.948959344501, -8330.450455004031, -10959.440286092793, -13158.762533517187, -8586.89201913977, -7585.153887886273, -7752.948433512263, -11591.704081500064, -12499.09549940771, -16989.493905245534, 0.0045000000000000005, 0.2345, 0.9415, 192.0, 0.0, 0.0, 0.0, 0.0, 0.0, 0.0, 0.0, 0.0, 0.0, 1.644587277243578E9, 0.0, 2022-02-12 00:47:57.243
50.0, -10873.564883895504, -10979.623911335935, -7576.190838359695, -12698.450708204593, -10770.188065789707, -7474.155124921218, -10389.113174571177, -8348.51066452392, -10967.330451885517, -13185.763440819197, -8588.277827295999, -7586.830268720421, -7760.548026627068, -11617.855622512774, -12503.007054687389, -17017.590048025853, 0.0045000000000000005, 0.2345, 0.9415, 192.0, 0.0, 0.0, 0.0, 0.0, 0.0, 0.0, 0.0, 0.0, 0.0, 1.644587277250156E9, 0.0, 2022-02-12 00:47:57.250
52.0, -10900.49873596415, -10965.318794884539, -7563.137419597795, -12688.928865066633, -10757.760495872557, -7450.551682776414, -10380.597159933706, -8335.1666730841, -10945.69396325278, -13151.051181680106, -8586.959074373135, -7586.6514547647785, -7747.561663098534, -11622.370674892745, -12500.682473264036, -16957.419151952166, 0.0045000000000000005, 0.2345, 0.9415, 192.0, 0.0, 0.0, 0.0, 0.0, 0.0, 0.0, 0.0, 0.0, 0.0, 1.644587277256227E9, 0.0, 2022-02-12 00:47:57.256
54.0, -10884.763107867611, -10960.982556460209, -7570.245274334583, -12703.591609429313, -10770.433934978717, -7446.975403663565, -10375.031575564335, -8331.590393971252, -10961.273129138128, -13179.482600627256, -8578.264245780021, -7590.02656817753, -7732.787160013576, -11611.463023598555, -12500.503659308393, -17020.451071316133, 0.0045000000000000005, 0.2345, 0.9415, 192.0, 0.0, 0.0, 0.0, 0.0, 0.0, 0.0, 0.0, 0.0, 0.0, 1.644587277263811E9, 0.0, 2022-02-12 00:47:57.263
56.0, -10866.524084392082, -10945.202224874762, -7569.015928389541, -12682.133934752219, -10754.27362373753, -7451.6469182547235, -10370.427116206542, -8327.857652647215, -10936.97678291521, -13162.6070335635, -8587.204943562145, -7592.418204834248, -7739.827959516998, -11593.224000123026, -12494.111060394176, -16963.856454355297, 0.00525, 0.23425, 0.94275, 192.0, 0.0, 24.0, 3.5, 40.0, 14.5, 64.0, 0.0, 0.0, 0.0, 1.64458727727155E9, 0.0, 2022-02-12 00:47:57.271
58.0, -10863.081915745965, -10965.519960584637, -7561.170466085729, -12699.41183321617, -10776.670071681747, -7458.5089038025035, -10373.779877874837, -8325.711885179506, -10942.02827716211, -13155.36506835998, -8578.152487057745, -7579.677710494722, -7767.0300325191065, -11605.808032251363, -12497.66498776257, -16987.16932382218, 0.00525, 0.23425, 0.94275, 192.0, 0.0, 0.0, 0.0, 0.0, 0.0, 0.0, 0.0, 0.0, 0.0, 1.644587277278811E9, 0.0, 2022-02-12 00:47:57.278
60.0, -10900.275218519595, -10976.964053745754, -7571.340509812893, -12700.931751839133, -10783.710871185169, -7462.487514315548, -10398.545610731318, -8346.946042412048, -10969.11859144194, -13188.758574576208, -8580.342958014364, -7579.677710494722, -7774.160239000349, -11625.745788305496, -12505.801022744301, -17016.74068173655, 0.00525, 0.23425, 0.94275, 192.0, 0.0, 0.0, 0.0, 0.0, 0.0, 0.0, 0.0, 0.0, 0.0, 1.644587277286388E9, 0.0, 2022-02-12 00:47:57.286
62.0, -10890.01576781461, -10966.16816117384, -7564.657338220756, -12695.567333169858, -10765.538902943004, -7452.384525821749, -10379.479572710941, -8322.984972355958, -10957.071001180531, -13156.974393960762, -8597.978484389601, -7584.997425675086, -7760.05628824905, -11627.802148795385, -12501.040101175322, -16957.88853858573, 0.00525, 0.23425, 0.94275, 192.0, 0.0, 0.0, 0.0, 0.0, 0.0, 0.0, 0.0, 0.0, 0.0, 1.644587277294306E9, 0.0, 2022-02-12 00:47:57.294
64.0, -10880.426869443283, -10969.36446063095, -7568.881817922809, -12714.968647357065, -10778.949949616188, -7453.412706066693, -10378.071412810257, -8326.851824146726, -10969.163294930851, -13180.17550470537, -8580.812344647926, -7585.332701841915, -7749.43920963278, -11606.858564240762, -12495.51922029486, -17025.70373126313, 0.00525, 0.23425, 0.94275, 192.0, 0.0, 0.0, 0.0, 0.0, 0.0, 0.0, 0.0, 0.0, 0.0, 1.644587277302622E9, 0.0, 2022-02-12 00:47:57.302
66.0, -10872.492000161648, -10965.922291984833, -7572.122820868829, -12696.081423292331, -10759.79450461799, -7456.385488079249, -10382.38529949013, -8336.865405662706, -10951.17014064433, -13166.898568498918, -8596.123289599811, -7595.927428713731, -7762.91731153933, -11597.24731412498, -12495.832144717235, -16972.05954457039, 0.008625, 0.23512500000000003, 0.9413750000000001, 192.0, 0.0, 48.0, 3.5, 48.0, 14.5, 48.0, 0.0, 0.0, 0.0, 1.644587277309054E9, 0.0, 2022-02-12 00:47:57.309
68.0, -10879.19752349824, -10964.849408250977, -7560.030527118508, -12707.123185053253, -10778.32410077144, -7462.688680015645, -10388.934360615536, -8325.689533435052, -10951.438361577793, -13151.811140991585, -8579.113612069323, -7582.426975062725, -7760.525674882612, -11626.014009238961, -12498.916685452066, -16994.299530303422, 0.008625, 0.23512500000000003, 0.9413750000000001, 192.0, 0.0, 0.0, 0.0, 0.0, 0.0, 0.0, 0.0, 0.0, 0.0, 1.644587277316879E9, 0.0, 2022-02-12 00:47:57.316
70.0, -10892.206238771229, -10979.892132269399, -7578.113088382851, -12705.536211196926, -10781.60980720637, -7466.600235295325, -10399.193811320521, -8346.163731356113, -10966.54814082958, -13200.984978793262, -8580.141792314267, -7583.566914029946, -7757.9328725257965, -11622.482433615021, -12506.784499500334, -17023.826184728885, 0.008625, 0.23512500000000003, 0.9413750000000001, 192.0, 0.0, 0.0, 0.0, 0.0, 0.0, 0.0, 0.0, 0.0, 0.0, 1.64458727733197E9, 0.0, 2022-02-12 00:47:57.331
72.0, -10885.277197990084, -10964.067097195042, -7567.943044655686, -12694.650911647192, -10771.149190801287, -7456.832522968355, -10378.943130844013, -8331.188062571056, -10948.040896420587, -13164.663394053388, -8589.350711029854, -7589.9371611997085, -7744.9018055083525, -11627.869204028751, -12505.979836699944, -16964.482303200042, 0.008625, 0.23512500000000003, 0.9413750000000001, 192.0, 0.0, 0.0, 0.0, 0.0, 0.0, 0.0, 0.0, 0.0, 0.0, 1.644587277338647E9, 0.0, 2022-02-12 00:47:57.338
74.0, -10889.099346291941, -10960.088486681996, -7568.457134778158, -12710.766519399467, -10778.681728682724, -7458.28538635795, -10385.29102626932, -8332.350353282733, -10972.158428687862, -13184.712908829799, -8574.710318411628, -7579.655358750268, -7740.9678984842185, -11614.391102122201, -12505.733967510936, -17035.60555405683, 0.008625, 0.23512500000000003, 0.9413750000000001, 192.0, 0.0, 0.0, 0.0, 0.0, 0.0, 0.0, 0.0, 0.0, 0.0, 1.644587277346519E9, 0.0, 2022-02-12 00:47:57.346
76.0, -10877.58819789746, -10959.373230859426, -7574.156829614262, -12697.489583193015, -10766.768248888045, -7451.423400810171, -10388.48732572643, -8327.88000439167, -10960.155541915363, -13167.4573621103, -8601.152432102255, -7588.461946065659, -7771.008643032151, -11621.588363836809, -12507.47740357845, -16978.27332952897, 0.009312500000000001, 0.2355625, 0.9416875, 192.0, 0.0, 40.0, 3.5, 48.0, 14.5, 56.0, 0.0, 0.0, 0.0, 1.644587277354713E9, 0.0, 2022-02-12 00:47:57.354
78.0, -10868.044003015042, -10954.902881968366, -7560.276396307516, -12712.71112116708, -10771.171542545742, -7454.66440375619, -10386.542723958817, -8341.335754553766, -10965.02822220662, -13161.154170173904, -8579.873571380804, -7587.165544887251, -7759.586901615489, -11617.319180645845, -12507.119775667165, -16999.105155361314, 0.009312500000000001, 0.2355625, 0.9416875, 192.0, 0.0, 0.0, 0.0, 0.0, 0.0, 0.0, 0.0, 0.0, 0.0, 1.644587277361252E9, 0.0, 2022-02-12 00:47:57.361
80.0, -10886.350081723938, -10965.36349837345, -7573.933312169709, -12715.080406079342, -10774.256083280574, -7467.650767284724, -10391.013072849879, -8331.724504437983, -10966.011698962653, -13189.674996098876, -8576.40905099023, -7586.316178597949, -7756.0553259915505, -11613.117052688249, -12508.170307656565, -17029.190603398158, 0.009312500000000001, 0.2355625, 0.9416875, 192.0, 0.0, 0.0, 0.0, 0.0, 0.0, 0.0, 0.0, 0.0, 0.0, 1.644587277369161E9, 0.0, 2022-02-12 00:47:57.369
82.0, -10894.955503339232, -10970.102068197975, -7571.541675512991, -12705.17858328564, -10769.383402989317, -7448.785894964444, -10391.683625183538, -8324.281373534366, -10949.449056321271, -13169.021984222172, -8595.184516332689, -7585.891495453298, -7745.237081675182, -11615.799262022885, -12509.310246623785, -16970.383163736245, 0.009312500000000001, 0.2355625, 0.9416875, 192.0, 0.0, 0.0, 0.0, 0.0, 0.0, 0.0, 0.0, 0.0, 0.0, 1.644587277377172E9, 0.0, 2022-02-12 00:47:57.377
84.0, -10900.342273752962, -10995.583056877025, -7576.92844592672, -12719.215478803573, -10786.080156097432, -7455.178493878662, -10400.53491598784, -8334.563175983809, -10976.271149667638, -13182.902417528918, -8579.493591725062, -7582.248161107083, -7760.033936504596, -11618.101491701782, -12512.126566425153, -17042.288725648967, 0.009312500000000001, 0.2355625, 0.9416875, 192.0, 0.0, 0.0, 0.0, 0.0, 0.0, 0.0, 0.0, 0.0, 0.0, 1.644587277384261E9, 0.0, 2022-02-12 00:47:57.384
86.0, -10880.851552587934, -10973.07485021053, -7582.248161107083, -12702.116394295264, -10763.862522108857, -7460.207636381107, -10394.991683362923, -8345.627289489184, -10966.235216407207, -13186.143420474938, -8591.69764419766, -7587.567876287446, -7765.130134240406, -11627.042189483904, -12516.038121704833, -16990.723251190575, 0.006656250000000001, 0.23878125, 0.94484375, 192.0, 0.0, 16.0, 3.5, 72.0, 14.5, 80.0, 0.0, 0.0, 0.0, 1.644587277390951E9, 0.0, 2022-02-12 00:47:57.390
88.0, -10863.461895401704, -10943.190567873784, -7572.100469124373, -12716.913249124676, -10768.84696112239, -7460.364098592294, -10379.85955236668, -8314.156033296113, -10959.97672795972, -13165.60216732051, -8589.238952307576, -7581.421146562237, -7750.601500344455, -11626.796320294896, -12512.595953058715, -17002.234399585057, 0.006656250000000001, 0.23878125, 0.94484375, 192.0, 0.0, 0.0, 0.0, 0.0, 0.0, 0.0, 0.0, 0.0, 0.0, 1.644587277398893E9, 0.0, 2022-02-12 00:47:57.398
90.0, -10898.755299896635, -10961.764867516145, -7585.7126814976555, -12716.130938068742, -10779.12876357183, -7458.0395171689415, -10411.330808559753, -8347.013097645415, -10970.593806575991, -13181.337795417046, -8592.770527931516, -7587.299655353982, -7749.43920963278, -11614.480509100022, -12518.966200228477, -17031.33637086587, 0.006656250000000001, 0.23878125, 0.94484375, 192.0, 0.0, 0.0, 0.0, 0.0, 0.0, 0.0, 0.0, 0.0, 0.0, 1.64458727740676E9, 0.0, 2022-02-12 00:47:57.406
92.0, -10884.293721234051, -10970.750268787178, -7568.904169667265, -12706.430280975137, -10766.142400043298, -7442.147426861218, -10390.141354816122, -8336.440722518055, -10965.02822220662, -13154.023963692662, -8595.206868077144, -7583.969245430142, -7749.461561377235, -11608.669055541643, -12523.011865974888, -16969.556149191398, 0.006656250000000001, 0.23878125, 0.94484375, 192.0, 0.0, 0.0, 0.0, 0.0, 0.0, 0.0, 0.0, 0.0, 0.0, 1.644587277414157E9, 0.0, 2022-02-12 00:47:57.414
94.0, -10888.451145702738, -10978.036937479608, -7566.780753944011, -12722.14355732722, -10779.41933624975, -7448.405915308705, -10389.046119337812, -8330.383399770666, -10974.684175811313, -13179.840228538542, -8568.250664264044, -7569.597073745379, -7771.545084899079, -11604.4892793285, -12518.161537428086, -17042.55694658243, 0.006656250000000001, 0.23878125, 0.94484375, 192.0, 0.0, 0.0, 0.0, 0.0, 0.0, 0.0, 0.0, 0.0, 0.0, 1.644587277421431E9, 0.0, 2022-02-12 00:47:57.421
96.0, -10896.564828940014, -10973.052498466075, -7574.112126125351, -12707.480812964537, -10761.493237196593, -7450.037592653942, -10396.645712452617, -8335.971335884493, -10960.021431448631, -13172.687670312844, -8585.796783661459, -7591.144155400295, -7763.0961254949725, -11610.524250331433, -12518.787386272836, -16985.492942988032, 0.006328125, 0.23739062500000002, 0.9474218750000001, 192.0, 0.0, 24.0, 3.5, 48.0, 14.5, 88.0, 0.0, 0.0, 0.0, 1.644587277429438E9, 0.0, 2022-02-12 00:47:57.429
98.0, -10871.620282127891, -10965.855236751466, -7564.500876009569, -12716.667379935669, -10769.875141367334, -7457.301909601916, -10389.91783737157, -8326.337734024255, -10965.430553606815, -13155.990917204728, -8584.835658649881, -7572.078117379919, -7747.762828798632, -11614.234639911014, -12516.686322294036, -16998.2110855831, 0.006328125, 0.23739062500000002, 0.9474218750000001, 192.0, 0.0, 0.0, 0.0, 0.0, 0.0, 0.0, 0.0, 0.0, 0.0, 1.644587277437504E9, 0.0, 2022-02-12 00:47:57.437
100.0, -10891.558038182025, -10972.583111832513, -7580.437669806203, -12721.316542782371, -10783.107374084875, -7453.457409555604, -10406.547535246318, -8334.093789350247, -10974.46065836676, -13194.458269412313, -8588.724862185105, -7573.039242391496, -7744.9018055083525, -11614.05582595537, -12518.273296150363, -17032.3198476219, 0.006328125, 0.23739062500000002, 0.9474218750000001, 192.0, 0.0, 0.0, 0.0, 0.0, 0.0, 0.0, 0.0, 0.0, 0.0, 1.644587277451168E9, 0.0, 2022-02-12 00:47:57.451
102.0, -10881.67856713278, -10942.45296030676, -7566.40077428827, -12710.386539743728, -10756.575853416427, -7444.09202862883, -10380.932436100537, -8327.432969502564, -10953.606480789958, -13151.006478191195, -8586.087356339378, -7580.25885585056, -7768.371137186425, -11614.949895733584, -12516.887487994134, -16967.54449219042, 0.006328125, 0.23739062500000002, 0.9474218750000001, 192.0, 0.0, 0.0, 0.0, 0.0, 0.0, 0.0, 0.0, 0.0, 0.0, 1.644587277460916E9, 0.0, 2022-02-12 00:47:57.460
104.0, -10895.335482994973, -10966.749306529679, -7565.238483576594, -12726.725664940557, -10769.741030900603, -7457.14544739073, -10394.72346242946, -8330.785731170861, -10967.755135030167, -13171.525379601168, -8575.135001556278, -7572.391041802292, -7752.814323045532, -11612.58061082132, -12515.076996693255, -17040.61234481482, 0.006328125, 0.23739062500000002, 0.9474218750000001, 192.0, 0.0, 0.0, 0.0, 0.0, 0.0, 0.0, 0.0, 0.0, 0.0, 1.644587277467023E9, 0.0, 2022-02-12 00:47:57.467
106.0, -10903.471517976704, -10993.16906847585, -7567.518361511035, -12711.571182199858, -10755.03358304901, -7459.559435791903, -10396.668064197072, -8334.563175983809, -10961.340184371495, -13180.041394238639, -8578.823039391404, -7574.469754036636, -7747.651070076356, -11605.897439229184, -12516.798081016314, -16988.577483722864, 0.0061640625, 0.23769531250000003, 0.9467109375, 192.0, 0.0, 24.0, 3.5, 56.0, 14.5, 72.0, 0.0, 0.0, 0.0, 1.644587277473629E9, 0.0, 2022-02-12 00:47:57.473
108.0, -10877.521142664093, -10976.941702001299, -7557.214207317139, -12727.865603907778, -10768.51168495556, -7457.212502624096, -10384.48636346893, -8327.768245669395, -10966.07875419602, -13172.128876701461, -8580.208847547632, -7578.113088382851, -7739.425628116803, -11582.875142440218, -12521.00020897391, -17009.31990257739, 0.0061640625, 0.23769531250000003, 0.9467109375, 192.0, 0.0, 0.0, 0.0, 0.0, 0.0, 0.0, 0.0, 0.0, 0.0, 1.6445872774817E9, 0.0, 2022-02-12 00:47:57.481
110.0, -10879.510447920615, -10985.927103272332, -7575.006195903564, -12726.211574818084, -10769.159885544765, -7454.195017122629, -10406.949866646513, -8341.961603398515, -10973.231312421718, -13195.598208379533, -8589.954208130146, -7583.790431474499, -7731.200186157249, -11619.844927769296, -12523.995342730921, -17036.946658724148, 0.0061640625, 0.23769531250000003, 0.9467109375, 192.0, 0.0, 0.0, 0.0, 0.0, 0.0, 0.0, 0.0, 0.0, 0.0, 1.644587277489778E9, 0.0, 2022-02-12 00:47:57.489
112.0, -10886.797116613045, -10948.823207476522, -7561.773963186021, -12713.046397333908, -10759.325117984428, -7439.107589615297, -10394.052910095801, -8320.034542087858, -10957.383925602904, -13162.383516118947, -8588.70251044065, -7583.723376241133, -7742.174892684805, -11610.72541603153, -12525.448206120516, -16971.098419558813, 0.0061640625, 0.23769531250000003, 0.9467109375, 192.0, 0.0, 0.0, 0.0, 0.0, 0.0, 0.0, 0.0, 0.0, 0.0, 1.644587277496242E9, 0.0, 2022-02-12 00:47:57.496
114.0, -10878.035232786564, -10957.540387814091, -7562.131591097306, -12725.652781206702, -10775.574836203437, -7452.652746755212, -10403.507698000396, -8339.726428952985, -10971.487876354204, -13176.263949425693, -8573.995062589058, -7579.878876194821, -7753.0601922345395, -11604.91396247315, -12521.223726418464, -17041.55111808194, 0.0061640625, 0.23769531250000003, 0.9467109375, 192.0, 0.0, 0.0, 0.0, 0.0, 0.0, 0.0, 0.0, 0.0, 0.0, 1.644587277503439E9, 0.0, 2022-02-12 00:47:57.503
116.0, -10887.691186391257, -10986.240027694706, -7570.759364457055, -12707.592571686813, -10761.694402896692, -7450.372868820771, -10412.448395782518, -8342.900376665637, -10955.327565113017, -13164.194007419826, -8587.473164495608, -7569.9770534011195, -7752.143770711872, -11610.144270675692, -12529.203299189008, -16993.45016401412, 0.006, 0.232, 0.9480000000000001, 192.0, 0.0, 24.0, 3.5, 32.0, 14.5, 80.0, 0.0, 0.0, 0.0, 1.644587277511407E9, 0.0, 2022-02-12 00:47:57.511
118.0, -10869.452162915726, -10967.643376307891, -7560.321099796427, -12720.534231726437, -10764.689536653703, -7445.835464696344, -10391.281293783342, -8312.323190250778, -10948.733800498701, -13170.005460978206, -8575.492629467562, -7554.643756704779, -7748.969822999218, -11598.878991470217, -12525.649371820615, -17004.98366415306, 0.006, 0.232, 0.9480000000000001, 192.0, 0.0, 0.0, 0.0, 0.0, 0.0, 0.0, 0.0, 0.0, 0.0, 1.644587277519474E9, 0.0, 2022-02-12 00:47:57.519
120.0, -10866.457029158715, -10958.188588403296, -7578.828344205421, -12723.954048628098, -10762.342603485895, -7450.864607198788, -10396.131622330144, -8337.737123696461, -10962.770696016634, -13186.99278676424, -8586.400280761753, -7569.753535956566, -7731.513110579624, -11598.230790881014, -12521.42489211856, -17037.997190713548, 0.006, 0.232, 0.9480000000000001, 192.0, 0.0, 0.0, 0.0, 0.0, 0.0, 0.0, 0.0, 0.0, 0.0, 1.644587277525856E9, 0.0, 2022-02-12 00:47:57.525
122.0, -10885.634825901368, -10937.513224782137, -7564.858503920854, -12711.66058917768, -10758.632213906314, -7441.007487893998, -10391.616569950173, -8319.11812056519, -10947.54915804257, -13151.252347380203, -8590.736519186083, -7581.711719240156, -7741.683154306788, -11600.957703704562, -12525.492909609427, -16975.03232658295, 0.006, 0.232, 0.9480000000000001, 192.0, 0.0, 0.0, 0.0, 0.0, 0.0, 0.0, 0.0, 0.0, 0.0, 1.644587277534174E9, 0.0, 2022-02-12 00:47:57.534
124.0, -10891.178058526286, -10981.635568336913, -7562.623329475324, -12735.33108655585, -10764.778943631523, -7440.493397771525, -10383.189962290522, -8324.683704934563, -10970.325585642528, -13183.550618118123, -8572.721013155106, -7567.048974877474, -7749.595671843967, -11593.648683267676, -12526.655200321104, -17043.115740193814, 0.006, 0.232, 0.9480000000000001, 192.0, 0.0, 0.0, 0.0, 0.0, 0.0, 0.0, 0.0, 0.0, 0.0, 1.644587277542391E9, 0.0, 2022-02-12 00:47:57.542
126.0, -10882.617340399902, -10972.40429787687, -7571.87695167982, -12718.299057280907, -10756.911129583255, -7446.260147840995, -10399.663197954083, -8323.722579922984, -10956.40044884687, -13177.359184904002, -8582.086394081878, -7579.096565138885, -7754.736573068688, -11601.538849060398, -12530.007961989399, -16996.244132071035, 0.006, 0.23600000000000002, 0.9440000000000001, 192.0, 0.0, 24.0, 3.5, 48.0, 14.5, 64.0, 0.0, 0.0, 0.0, 1.644587277549266E9, 0.0, 2022-02-12 00:47:57.549
128.0, -10849.022668483576, -10963.8882832394, -7557.460076506148, -12721.338894526827, -10756.709963883159, -7434.883109913244, -10388.53202921534, -8313.68664666255, -10948.443227820782, -13169.133742944448, -8575.202056789643, -7557.281262550505, -7734.083561191984, -11581.176409861615, -12528.53274685535, -17004.916608919695, 0.006, 0.23600000000000002, 0.9440000000000001, 192.0, 0.0, 0.0, 0.0, 0.0, 0.0, 0.0, 0.0, 0.0, 0.0, 1.644587277556606E9, 0.0, 2022-02-12 00:47:57.556
130.0, -10866.814657070001, -10962.234254149706, -7571.16169585725, -12724.691656195124, -10759.950966829178, -7442.862682683788, -10397.986817119934, -8317.844071131238, -10955.327565113017, -13190.591417621545, -8587.249647051054, -7562.712736453144, -7724.360552353925, -11584.752688974464, -12523.123624697164, -17032.74453076655, 0.006, 0.23600000000000002, 0.9440000000000001, 192.0, 0.0, 0.0, 0.0, 0.0, 0.0, 0.0, 0.0, 0.0, 0.0, 1.644587277564675E9, 0.0, 2022-02-12 00:47:57.564
132.0, -10888.33938698046, -10959.015602948142, -7564.746745198578, -12714.700426423602, -10751.345545213884, -7437.028877380953, -10398.67972119805, -8324.303725278822, -10954.768771501635, -13133.21448960477, -8585.193286561167, -7573.508629025058, -7733.502415836146, -11609.607828808765, -12528.353932899707, -16973.11007655979, 0.006, 0.23600000000000002, 0.9440000000000001, 192.0, 0.0, 0.0, 0.0, 0.0, 0.0, 0.0, 0.0, 0.0, 0.0, 1.644587277578749E9, 0.0, 2022-02-12 00:47:57.578
134.0, -10883.8690380894, -10974.058326966564, -7568.971224900631, -12738.61679299078, -10768.891664611301, -7441.968612905576, -10409.743834703426, -8320.727446165973, -10964.871759995433, -13179.99669074973, -8568.407126475231, -7557.1248003393175, -7740.72202929521, -11587.881933198207, -12528.845671277722, -17042.2216704156, 0.006, 0.23600000000000002, 0.9440000000000001, 192.0, 0.0, 0.0, 0.0, 0.0, 0.0, 0.0, 0.0, 0.0, 0.0, 1.644587277586276E9, 0.0, 2022-02-12 00:47:57.586
136.0, -10878.884599075867, -10979.378042146927, -7575.7885069594995, -12726.077464351352, -10751.680821380714, -7447.0648106413855, -10406.34636954622, -8339.592318486253, -10955.126399412919, -13184.824667552075, -8590.423594763708, -7576.54846627098, -7734.932927481285, -11604.288113628401, -12532.399598646118, -17003.262579830003, 0.008, 0.23, 0.9440000000000001, 192.0, 0.0, 32.0, 3.5, 24.0, 14.5, 64.0, 0.0, 0.0, 0.0, 1.644587277594361E9, 0.0, 2022-02-12 00:47:57.594
138.0, -10867.8651890594, -10957.205111647263, -7567.361899299848, -12737.678019723657, -10760.398001718284, -7433.676115712657, -10392.1530118171, -8308.45633846001, -10962.949509972277, -13163.32228938607, -8580.030033591991, -7570.066460378941, -7738.196282171761, -11593.156944889659, -12531.773749801368, -17009.185792110657, 0.008, 0.23, 0.9440000000000001, 192.0, 0.0, 0.0, 0.0, 0.0, 0.0, 0.0, 0.0, 0.0, 0.0, 1.644587277601501E9, 0.0, 2022-02-12 00:47:57.601
140.0, -10876.62707288588, -10977.053460723575, -7579.655358750268, -12734.794644688922, -10762.074382552431, -7439.420514037671, -10405.63111372365, -8322.537937466854, -10970.347937386983, -13186.99278676424, -8579.381833002786, -7569.8652946788425, -7738.978593227696, -11585.892627941685, -12531.99726724592, -17040.925269237196, 0.008, 0.23, 0.9440000000000001, 192.0, 0.0, 0.0, 0.0, 0.0, 0.0, 0.0, 0.0, 0.0, 0.0, 1.644587277608954E9, 0.0, 2022-02-12 00:47:57.608
142.0, -10872.335537950461, -10971.867856009943, -7575.319120325938, -12721.450653249103, -10748.015135290043, -7431.597403478313, -10390.990721105423, -8308.54574543783, -10954.589957545992, -13164.194007419826, -8599.923086157214, -7577.755460471566, -7735.536424581579, -11599.840116481795, -12533.517185868883, -16978.563902206886, 0.008, 0.23, 0.9440000000000001, 192.0, 0.0, 0.0, 0.0, 0.0, 0.0, 0.0, 0.0, 0.0, 0.0, 1.644587277617074E9, 0.0, 2022-02-12 00:47:57.617
144.0, -10901.213991786719, -11003.875554069944, -7566.646643477278, -12734.839348177833, -10764.756591887068, -7443.622641995268, -10398.746776431415, -8312.814928628793, -10976.181742689818, -13174.185237191348, -8575.045594578456, -7565.1043731098625, -7743.985383985685, -11588.284264598402, -12531.661991079092, -17046.93788849567, 0.008, 0.23, 0.9440000000000001, 192.0, 0.0, 0.0, 0.0, 0.0, 0.0, 0.0, 0.0, 0.0, 0.0, 1.644587277624966E9, 0.0, 2022-02-12 00:47:57.624
146.0, -10904.097366821452, -10975.779411289623, -7576.034376148507, -12721.584763715837, -10754.899472582278, -7443.197958850617, -10405.228782323455, -8322.73910316695, -10970.414992620348, -13175.124010458472, -8586.512039484029, -7575.07325113693, -7739.693849050266, -11615.173413178136, -12534.679476580559, -17005.60951299781, 0.01, 0.23600000000000002, 0.9480000000000001, 192.0, 0.0, 40.0, 3.5, 48.0, 14.5, 80.0, 0.0, 0.0, 0.0, 1.644587277630973E9, 0.0, 2022-02-12 00:47:57.630
148.0, -10869.787439082556, -10970.839675764999, -7565.193780087684, -12735.353438300304, -10760.286242996008, -7440.582804749347, -10396.757471174893, -8314.044274573836, -10968.291576897094, -13176.040431981139, -8587.674330195705, -7566.9819196441085, -7737.145750182361, -11596.15207864667, -12536.087636481243, -17019.020559670993, 0.01, 0.23600000000000002, 0.9480000000000001, 192.0, 0.0, 0.0, 0.0, 0.0, 0.0, 0.0, 0.0, 0.0, 0.0, 1.64458727763862E9, 0.0, 2022-02-12 00:47:57.638
150.0, -10867.641671614847, -10968.962129230755, -7567.227788833116, -12732.313601054384, -10751.07732428042, -7446.148389118718, -10415.845860939726, -8316.681780419562, -10957.205111647263, -13190.524362388178, -8583.27103653801, -7576.883742437809, -7733.81534025852, -11580.595264505777, -12532.600764346214, -17052.27995542049, 0.01, 0.23600000000000002, 0.9480000000000001, 192.0, 0.0, 0.0, 0.0, 0.0, 0.0, 0.0, 0.0, 0.0, 0.0, 1.644587277646497E9, 0.0, 2022-02-12 00:47:57.646
152.0, -10876.24709323014, -10958.412105847849, -7565.529056254513, -12724.825766661856, -10729.9325740257, -7437.274746569961, -10382.00531983439, -8312.07732106177, -10951.930099955809, -13150.470036324268, -8592.74817618706, -7581.398794817781, -7699.036025886063, -11599.191915892592, -12529.225650933464, -16985.582349965855, 0.01, 0.23600000000000002, 0.9480000000000001, 192.0, 0.0, 0.0, 0.0, 0.0, 0.0, 0.0, 0.0, 0.0, 0.0, 1.644587277654541E9, 0.0, 2022-02-12 00:47:57.654
154.0, -10873.25195947313, -10986.150620716884, -7567.1607335997505, -12735.554604000403, -10753.491312681594, -7444.181435606652, -10394.231724051444, -8318.894603120638, -10974.304196155572, -13172.17358019037, -8585.819135405914, -7557.080096850407, -7733.1000844359505, -11582.137534873193, -12527.638677077137, -17054.76099905503, 0.01, 0.23600000000000002, 0.9480000000000001, 192.0, 0.0, 0.0, 0.0, 0.0, 0.0, 0.0, 0.0, 0.0, 0.0, 1.644587277661166E9, 0.0, 2022-02-12 00:47:57.661
156.0, -10897.63771267387, -10998.734652845224, -7578.381309316315, -12725.339856784327, -10745.735257355602, -7446.818941452378, -10400.713729943482, -8330.450455004031, -10973.588940333002, -13184.958778018807, -8603.879344925803, -7572.011062146553, -7742.420761873814, -11614.97224747804, -12534.523014369372, -17012.896181690237, 0.008, 0.23800000000000002, 0.9440000000000001, 192.0, 0.0, 32.0, 3.5, 56.0, 14.5, 64.0, 0.0, 0.0, 0.0, 1.644587277669534E9, 0.0, 2022-02-12 00:47:57.669
158.0, -10872.939035050755, -10952.645355778379, -7560.298748051971, -12735.465197022582, -10756.665260394248, -7443.354421061805, -10398.97029387597, -8300.789690111838, -10976.31585315655, -13159.276623639658, -8593.977522132102, -7570.40173654577, -7729.1661774118165, -11599.549543803876, -12537.629906848659, -17017.902972448228, 0.008, 0.23800000000000002, 0.9440000000000001, 192.0, 0.0, 0.0, 0.0, 0.0, 0.0, 0.0, 0.0, 0.0, 0.0, 1.644587277677143E9, 0.0, 2022-02-12 00:47:57.677
160.0, -10878.146991508842, -10963.195379161285, -7568.166562100239, -12728.402045774705, -10754.31832722644, -7440.403990793704, -10408.313323058286, -8316.033579830359, -10969.02918446412, -13161.400039362912, -8583.315740026921, -7564.277358565017, -7739.470331605713, -11599.884819970706, -12542.368476673184, -17056.057400233436, 0.008, 0.23800000000000002, 0.9440000000000001, 192.0, 0.0, 0.0, 0.0, 0.0, 0.0, 0.0, 0.0, 0.0, 0.0, 1.644587277684281E9, 0.0, 2022-02-12 00:47:57.684
162.0, -10886.148916023842, -10974.572417089035, -7563.49504750908, -12723.886993394732, -10741.60018463137, -7428.401104021204, -10397.338616530731, -8317.844071131238, -10952.712411011746, -13162.204702163304, -8585.975597617102, -7576.593169759891, -7727.780369255587, -11601.002407193471, -12537.272278937375, -16988.75629767851, 0.008, 0.23800000000000002, 0.9440000000000001, 192.0, 0.0, 0.0, 0.0, 0.0, 0.0, 0.0, 0.0, 0.0, 0.0, 1.644587277698799E9, 0.0, 2022-02-12 00:47:57.698
164.0, -10863.774819824079, -10978.41691713535, -7569.217094089639, -12745.590537260836, -10758.31928948394, -7444.628470495757, -10404.267657311877, -8322.783806655862, -10975.377079889427, -13182.433030895358, -8584.723899927605, -7560.835189918899, -7728.048590189051, -11589.021872165427, -12540.602688861214, -17061.108894480338, 0.008, 0.23800000000000002, 0.9440000000000001, 192.0, 0.0, 0.0, 0.0, 0.0, 0.0, 0.0, 0.0, 0.0, 0.0, 1.64458727770708E9, 0.0, 2022-02-12 00:47:57.707
166.0, -10899.336445252473, -10981.03207123662, -7578.761288972055, -12725.116339339775, -10746.092885266888, -7440.7839704494445, -10405.72052070147, -8318.22405078698, -10966.682251296312, -13176.152190703415, -8600.928914657703, -7568.904169667265, -7735.938755981774, -11593.358110589757, -12544.134264485154, -17014.572562524387, 0.01, 0.24, 0.9480000000000001, 192.0, 0.0, 40.0, 3.5, 64.0, 14.5, 80.0, 0.0, 0.0, 0.0, 1.644587277713524E9, 0.0, 2022-02-12 00:47:57.713
168.0, -10889.591084669959, -10979.087469469008, -7564.92555915422, -12734.079388866352, -10751.636117891803, -7442.862682683788, -10404.155898589599, -8313.485480962454, -10979.93683575831, -13168.306728399602, -8582.309911526432, -7562.846846919876, -7737.413971115825, -11603.326988616824, -12543.217842962486, -17018.148841637238, 0.01, 0.24, 0.9480000000000001, 192.0, 0.0, 0.0, 0.0, 0.0, 0.0, 0.0, 0.0, 0.0, 0.0, 1.644587277721457E9, 0.0, 2022-02-12 00:47:57.721
170.0, -10885.411308456816, -10976.069983967542, -7572.323986568927, -12734.816996433377, -10750.853806835867, -7451.691621743635, -10409.989703892436, -8325.376609012677, -10979.489800869203, -13192.670129855887, -8586.065004594922, -7569.731184212111, -7751.115590466928, -11591.10058439977, -12544.469540651982, -17061.175949713703, 0.01, 0.24, 0.9480000000000001, 192.0, 0.0, 0.0, 0.0, 0.0, 0.0, 0.0, 0.0, 0.0, 0.0, 1.64458727772938E9, 0.0, 2022-02-12 00:47:57.729
172.0, -10874.123677506886, -10966.145809429385, -7563.852675420365, -12717.986132858532, -10735.02877176151, -7441.990964650031, -10398.411500264585, -8311.764396639395, -10955.55108255757, -13141.372876330957, -8592.03292036449, -7564.970262643131, -7724.584069798479, -11583.00925290695, -12543.53076738486, -16992.958425636105, 0.01, 0.24, 0.9480000000000001, 192.0, 0.0, 0.0, 0.0, 0.0, 0.0, 0.0, 0.0, 0.0, 0.0, 1.644587277736699E9, 0.0, 2022-02-12 00:47:57.736
174.0, -10882.77380261109, -10964.514132084149, -7567.406602788759, -12741.656630236701, -10755.435914449205, -7450.28346184295, -10403.82062242277, -8316.950001353027, -10970.303233898072, -13169.51372260019, -8576.900789368246, -7566.356070799359, -7718.90672670683, -11603.595209550287, -12545.073037752276, -17060.974784013604, 0.01, 0.24, 0.9480000000000001, 192.0, 0.0, 0.0, 0.0, 0.0, 0.0, 0.0, 0.0, 0.0, 0.0, 1.644587277744026E9, 0.0, 2022-02-12 00:47:57.744
176.0, -10893.279122505084, -10981.926141014832, -7580.862352950854, -12729.8549091643, -10750.496178924583, -7453.993851422531, -10406.458128268496, -8319.431044987565, -10972.761925788156, -13177.046260481628, -8595.028054121502, -7573.240408091594, -7748.589843343479, -11610.546602075889, -12549.118703498687, -17020.831050971872, 0.008, 0.23800000000000002, 0.9520000000000001, 192.0, 0.0, 32.0, 3.5, 56.0, 14.5, 96.0, 0.0, 0.0, 0.0, 1.644587277751528E9, 0.0, 2022-02-12 00:47:57.751
178.0, -10872.290834461552, -10987.64818759539, -7566.02079463253, -12743.511825026491, -10754.184216759708, -7457.771296235478, -10404.871154412169, -8328.84112940325, -10966.928120485321, -13168.686708055344, -8590.960036630635, -7559.315271295938, -7743.650107818856, -11595.883857713206, -12552.270299466885, -17028.18477489767, 0.008, 0.23800000000000002, 0.9520000000000001, 192.0, 0.0, 0.0, 0.0, 0.0, 0.0, 0.0, 0.0, 0.0, 0.0, 1.644587277759029E9, 0.0, 2022-02-12 00:47:57.759
180.0, -10886.707709635224, -10981.70262357028, -7578.001329660575, -12744.629412249258, -10758.945138328689, -7455.849046212322, -10409.833241681248, -8325.711885179506, -10971.97961473222, -13200.5155921597, -8584.70154818315, -7565.462001021147, -7741.81726477352, -11593.179296634115, -12552.560872144804, -17074.944624298172, 0.008, 0.23800000000000002, 0.9520000000000001, 192.0, 0.0, 0.0, 0.0, 0.0, 0.0, 0.0, 0.0, 0.0, 0.0, 1.644587277767408E9, 0.0, 2022-02-12 00:47:57.767
182.0, -10883.220837500196, -10978.014585735153, -7575.721451726134, -12730.190185331128, -10752.59724290338, -7441.588633249836, -10410.0567591258, -8311.630286172664, -10965.631719306914, -13158.606071306, -8597.866725667325, -7579.297730838983, -7725.142863409861, -11601.62825603822, -12553.320831456283, -16997.942864649638, 0.008, 0.23800000000000002, 0.9520000000000001, 192.0, 0.0, 0.0, 0.0, 0.0, 0.0, 0.0, 0.0, 0.0, 0.0, 1.644587277773938E9, 0.0, 2022-02-12 00:47:57.773
184.0, -10875.397726940839, -10981.121478214442, -7574.380347058815, -12754.799455976423, -10760.107429040365, -7454.060906655897, -10403.239477066933, -8309.775091382873, -10975.488838611704, -13178.879103526962, -8583.65101619375, -7573.240408091594, -7734.463540847724, -11582.517514528932, -12551.979726788966, -17068.216749217125, 0.006, 0.23600000000000002, 0.9510000000000001, 192.0, 0.0, 16.0, 3.5, 40.0, 14.5, 88.0, 0.0, 0.0, 0.0, 1.644587277782251E9, 0.0, 2022-02-12 00:47:57.782
186.0, -10875.554189152026, -10978.84160028, -7584.550390785979, -12733.632353977246, -10745.779960844513, -7446.28249958545, -10405.184078834543, -8307.897544848627, -10969.766792031145, -13170.027812722661, -8595.69860645516, -7584.237466363606, -7746.53348285359, -11610.926581731628, -12546.771770330879, -17025.61432428531, 0.006, 0.23600000000000002, 0.9510000000000001, 192.0, 0.0, 0.0, 0.0, 0.0, 0.0, 0.0, 0.0, 0.0, 0.0, 1.644587277789884E9, 0.0, 2022-02-12 00:47:57.789
188.0, -10872.603758883924, -10969.878550753421, -7569.060631878452, -12741.8577959368, -10749.020963790532, -7445.611947251791, -10396.846878152714, -8309.909201849605, -10971.107896698464, -13160.953004473808, -8596.190344833178, -7562.265701564039, -7714.458729560224, -11600.756538004463, -12545.743590085935, -17024.27321961799, 0.006, 0.23600000000000002, 0.9510000000000001, 192.0, 0.0, 0.0, 0.0, 0.0, 0.0, 0.0, 0.0, 0.0, 0.0, 1.644587277796293E9, 0.0, 2022-02-12 00:47:57.796
190.0, -10909.707654679734, -11003.27205696965, -7581.018815162041, -12746.931641928155, -10762.789638375001, -7450.66344149869, -10416.87404118467, -8321.710922922006, -10981.03207123662, -13192.13368798896, -8588.344882529365, -7562.846846919876, -7751.920253267319, -11594.453346068067, -12551.53269189986, -17073.00002253056, 0.006, 0.23600000000000002, 0.9510000000000001, 192.0, 0.0, 0.0, 0.0, 0.0, 0.0, 0.0, 0.0, 0.0, 0.0, 1.644587277804399E9, 0.0, 2022-02-12 00:47:57.804
192.0, -10891.893314348856, -10988.855181795978, -7579.633007005812, -12740.471987780571, -10749.043315534987, -7438.682906470645, -10399.797308420815, -8310.93738209455, -10963.955338472764, -13166.27271965417, -8590.356539530343, -7568.680652222712, -7749.148636954861, -11575.275549325414, -12555.824226835279, -17007.196486854136, 0.006, 0.23600000000000002, 0.9510000000000001, 192.0, 0.0, 0.0, 0.0, 0.0, 0.0, 0.0, 0.0, 0.0, 0.0, 1.644587277812355E9, 0.0, 2022-02-12 00:47:57.812
194.0, -10870.949729794233, -10975.779411289623, -7578.984806416608, -12757.213444377596, -10763.303728497474, -7442.929737917154, -10398.612665964683, -8307.45050995952, -10976.092335711997, -13175.6604523254, -8583.338091771377, -7562.645681219778, -7748.031049732095, -11598.431956581111, -12554.706639612514, -17072.463580663632, 0.004, 0.23600000000000002, 0.9505000000000001, 192.0, 0.0, 8.0, 3.5, 48.0, 14.5, 88.0, 0.0, 0.0, 0.0, 1.644587277825923E9, 0.0, 2022-02-12 00:47:57.825
196.0, -10882.416174699805, -10978.260454924162, -7588.730166999122, -12737.298040067917, -10747.523396912027, -7443.689697228635, -10408.91682015858, -8313.016094328892, -10966.88341699641, -13174.766382547186, -8598.783147189994, -7594.943951957697, -7743.694811307766, -11599.661302526154, -12554.796046590334, -17027.782443497472, 0.004, 0.23600000000000002, 0.9505000000000001, 192.0, 0.0, 0.0, 0.0, 0.0, 0.0, 0.0, 0.0, 0.0, 0.0, 1.644587277833999E9, 0.0, 2022-02-12 00:47:57.833
198.0, -10881.276235732585, -10983.110783470964, -7576.995501160086, -12746.216386105585, -10746.65167887827, -7443.33206931735, -10401.428985766051, -8309.842146616238, -10971.778449032123, -13165.646870809422, -8598.067891367424, -7565.909035910254, -7739.96206998373, -11597.716700758541, -12555.62306113518, -17030.978742954583, 0.004, 0.23600000000000002, 0.9505000000000001, 192.0, 0.0, 0.0, 0.0, 0.0, 0.0, 0.0, 0.0, 0.0, 0.0, 1.644587277841943E9, 0.0, 2022-02-12 00:47:57.841
200.0, -10900.565791197514, -10995.761870832666, -7584.148059385784, -12752.13959838624, -10750.31736496894, -7452.47393279957, -10407.508660257896, -8318.827547887271, -10985.904751527876, -13198.414528180901, -8587.719033684616, -7564.947910898675, -7739.20211067225, -11581.556389517355, -12556.539482657849, -17075.548121398464, 0.004, 0.23600000000000002, 0.9505000000000001, 192.0, 0.0, 0.0, 0.0, 0.0, 0.0, 0.0, 0.0, 0.0, 0.0, 1.644587277848613E9, 0.0, 2022-02-12 00:47:57.848
202.0, -10890.596913170448, -10984.295425927094, -7573.4415737916925, -12738.482682524049, -10736.906318295756, -7447.176569363663, -10400.445509010018, -8320.235707787957, -10965.11762918444, -13156.54971081611, -8592.435251764686, -7567.965396400142, -7742.241947918171, -11589.066575654339, -12555.15367450162, -17006.682396731663, 0.004, 0.23600000000000002, 0.9505000000000001, 192.0, 0.0, 0.0, 0.0, 0.0, 0.0, 0.0, 0.0, 0.0, 0.0, 1.644587277856513E9, 0.0, 2022-02-12 00:47:57.856
204.0, -10875.733003107669, -10973.723050799734, -7578.761288972055, -12758.576900789369, -10761.023850563031, -7452.742153733034, -10401.160764832588, -8310.40094022762, -10987.804649806578, -13190.211437965803, -8584.098051082856, -7564.344413798382, -7748.1875119432825, -11607.752634018974, -12554.52782565687, -17076.03985977648, 0.005, 0.234, 0.9512500000000002, 192.0, 0.0, 24.0, 3.5, 32.0, 14.5, 96.0, 0.0, 0.0, 0.0, 1.644587277864665E9, 0.0, 2022-02-12 00:47:57.864
206.0, -10871.53087515007, -10978.014585735153, -7584.304521596971, -12740.695505225123, -10755.570024915938, -7447.109514130297, -10421.29968658682, -8315.564193196797, -10972.449001365781, -13172.262987168193, -8603.387606547787, -7579.990634917097, -7744.9018055083525, -11601.717663016041, -12560.696907126536, -17031.13520516577, 0.005, 0.234, 0.9512500000000002, 192.0, 0.0, 0.0, 0.0, 0.0, 0.0, 0.0, 0.0, 0.0, 0.0, 1.644587277871712E9, 0.0, 2022-02-12 00:47:57.871
208.0, -10875.397726940839, -10982.015547992653, -7568.904169667265, -12754.732400743056, -10741.309611953451, -7426.56826097587, -10382.206485534489, -8306.847012859227, -10967.665728052347, -13141.484635053235, -8586.601446461851, -7572.011062146553, -7748.567491599023, -11578.248331337969, -12558.282918725363, -17031.202260399135, 0.005, 0.234, 0.9512500000000002, 192.0, 0.0, 0.0, 0.0, 0.0, 0.0, 0.0, 0.0, 0.0, 0.0, 1.644587277878211E9, 0.0, 2022-02-12 00:47:57.878
210.0, -10885.076032289986, -11010.335208217528, -7582.181105873717, -12751.826673963866, -10747.79161784549, -7440.962784405087, -10404.558229989796, -8318.335809509255, -10984.295425927094, -13191.150211232927, -8587.36140577333, -7569.999405145575, -7742.867796762919, -11572.235712079491, -12556.695944869036, -17074.363478942334, 0.005, 0.234, 0.9512500000000002, 192.0, 0.0, 0.0, 0.0, 0.0, 0.0, 0.0, 0.0, 0.0, 0.0, 1.644587277886126E9, 0.0, 2022-02-12 00:47:57.886
212.0, -10897.615360929414, -10983.93779801581, -7578.627178505323, -12740.919022669677, -10727.898565280268, -7436.157159347196, -10393.136488573133, -8312.479652461965, -10970.102068197975, -13176.398059892424, -8596.771490189016, -7566.8701609218315, -7735.022334459107, -11587.278436097913, -12556.852407080223, -17004.98366415306, 0.005, 0.234, 0.9512500000000002, 192.0, 0.0, 0.0, 0.0, 0.0, 0.0, 0.0, 0.0, 0.0, 0.0, 1.644587277894249E9, 0.0, 2022-02-12 00:47:57.894
214.0, -10873.117849006398, -10953.226501134217, -7578.828344205421, -12763.784857247456, -10750.049144035476, -7439.599327993314, -10395.192849063022, -8310.020960571881, -10983.98250150472, -13188.892685042942, -8584.388623760775, -7563.673861464723, -7730.596689056956, -11574.090906869282, -12554.416066934595, -17071.86008356334, 0.006500000000000001, 0.234, 0.952625, 192.0, 0.0, 32.0, 3.5, 40.0, 14.5, 104.0, 0.0, 0.0, 0.0, 1.644587277901295E9, 0.0, 2022-02-12 00:47:57.901
216.0, -10890.574561425992, -10991.358577174971, -7582.918713440742, -12744.204729104607, -10735.095826994877, -7442.773275705967, -10400.132584587644, -8315.899469363627, -10972.247835665685, -13174.855789525009, -8601.063025124435, -7580.21415236165, -7756.480009136201, -11599.4377850816, -12555.846578579734, -17035.13616742327, 0.006500000000000001, 0.234, 0.952625, 192.0, 0.0, 0.0, 0.0, 0.0, 0.0, 0.0, 0.0, 0.0, 0.0, 1.64458727790947E9, 0.0, 2022-02-12 00:47:57.909
218.0, -10878.77284035359, -11005.909562815377, -7566.959567899653, -12753.413647820193, -10735.498158395072, -7430.032781366442, -10389.113174571177, -8309.417463471587, -10977.388736890405, -13177.627405837466, -8584.187458060678, -7561.103410852363, -7727.534500066579, -11589.692424499086, -12553.991383789944, -17027.760091753018, 0.006500000000000001, 0.234, 0.952625, 192.0, 0.0, 0.0, 0.0, 0.0, 0.0, 0.0, 0.0, 0.0, 0.0, 1.644587277917064E9, 0.0, 2022-02-12 00:47:57.917
220.0, -10878.10228801993, -11003.763795347668, -7579.141268627795, -12768.724592772078, -10744.304745710462, -7442.974441406065, -10392.778860661849, -8307.271696003878, -10988.631664351424, -13214.4183772109, -8579.292426024966, -7565.26083532105, -7748.0086979876405, -11578.29303482688, -12555.310136712807, -17072.66474636373, 0.006500000000000001, 0.234, 0.952625, 192.0, 0.0, 0.0, 0.0, 0.0, 0.0, 0.0, 0.0, 0.0, 0.0, 1.644587277924077E9, 0.0, 2022-02-12 00:47:57.924
222.0, -10866.635843114358, -10967.97865247472, -7572.815724946943, -12755.760580988, -10725.663390834736, -7431.172720333662, -10392.421232750563, -8311.004437327914, -10964.290614639594, -13177.895626770929, -8598.157298345244, -7590.361844344359, -7740.945546739763, -11574.448534780568, -12561.993308304944, -17006.950617665127, 0.006500000000000001, 0.234, 0.952625, 192.0, 0.0, 0.0, 0.0, 0.0, 0.0, 0.0, 0.0, 0.0, 0.0, 1.644587277931467E9, 0.0, 2022-02-12 00:47:57.931
224.0, -10901.593971442458, -10980.69679506979, -7574.805030203465, -12770.691546284146, -10750.406771946762, -7447.891825186232, -10393.404709506596, -8322.426178744576, -10984.138963715908, -13196.067595013094, -8587.584923217884, -7566.758402199555, -7737.905709493842, -11584.43976455209, -12561.948604816032, -17073.067077763924, 0.00525, 0.23500000000000001, 0.9483125000000001, 192.0, 0.0, 16.0, 3.5, 48.0, 14.5, 64.0, 0.0, 0.0, 0.0, 1.644587277946953E9, 0.0, 2022-02-12 00:47:57.946
226.0, -10912.993361114664, -10984.608350349468, -7579.9012279392755, -12751.022011163475, -10741.063742764443, -7435.978345391553, -10407.463956768985, -8320.191004299046, -10992.498516142192, -13205.768252106698, -8597.643208222773, -7571.16169585725, -7758.424610903813, -11590.586494277299, -12564.206131006018, -17035.493795334554, 0.00525, 0.23500000000000001, 0.9483125000000001, 192.0, 0.0, 0.0, 0.0, 0.0, 0.0, 0.0, 0.0, 0.0, 0.0, 1.644587277953717E9, 0.0, 2022-02-12 00:47:57.953
228.0, -10882.907913077821, -10986.262379439162, -7571.8545999353655, -12762.913139213699, -10733.866481049834, -7431.5079965004925, -10379.166648288567, -8304.187155269046, -10987.827001551033, -13172.195931934826, -8598.380815789797, -7564.076192864918, -7732.764808269121, -11582.495162784477, -12560.205168748518, -17032.677475533186, 0.00525, 0.23500000000000001, 0.9483125000000001, 192.0, 0.0, 0.0, 0.0, 0.0, 0.0, 0.0, 0.0, 0.0, 0.0, 1.644587277961115E9, 0.0, 2022-02-12 00:47:57.961
230.0, -10879.756317109623, -10987.849353295489, -7583.812783218955, -12765.237720637051, -10747.054010278465, -7430.032781366442, -10399.86436365418, -8305.461204702999, -11003.65203662539, -13210.104490531026, -8602.426481536208, -7572.256931335561, -7730.082598934484, -11570.447572523068, -12559.176988503576, -17075.190493487178, 0.00525, 0.23500000000000001, 0.9483125000000001, 192.0, 0.0, 0.0, 0.0, 0.0, 0.0, 0.0, 0.0, 0.0, 0.0, 1.644587277969275E9, 0.0, 2022-02-12 00:47:57.969
232.0, -10905.282009277584, -11011.98923730722, -7573.754498214066, -12757.10168565532, -10724.389341400783, -7437.811188436889, -10378.227875021443, -8310.758568138906, -10987.290559684106, -13187.685690842354, -8612.238897352088, -7588.0596146654625, -7750.422686388813, -11588.887761698696, -12561.680383882569, -17010.32573107788, 0.00525, 0.23500000000000001, 0.9483125000000001, 192.0, 0.0, 0.0, 0.0, 0.0, 0.0, 0.0, 0.0, 0.0, 0.0, 1.644587277977181E9, 0.0, 2022-02-12 00:47:57.977
234.0, -10918.15661408384, -11008.480013427738, -7570.558198756958, -12775.72068878659, -10753.580719659414, -7435.799531435911, -10398.567962475772, -8309.909201849605, -10997.393548177904, -13206.081176529071, -8577.884266124282, -7564.746745198578, -7744.812398530531, -11582.226941851013, -12562.395639705139, -17078.47619992211, 0.004625000000000001, 0.23450000000000001, 0.9471562500000001, 192.0, 0.0, 16.0, 3.5, 40.0, 14.5, 72.0, 0.0, 0.0, 0.0, 1.644587277983874E9, 0.0, 2022-02-12 00:47:57.983
236.0, -10924.035122875586, -10990.017472507652, -7583.477507052125, -12761.169703146184, -10742.65071662077, -7427.551737731903, -10406.614590479683, -8313.999571084925, -10992.856144053478, -13185.763440819197, -8590.669463952716, -7576.950797671176, -7747.293442165071, -11581.355223817256, -12568.877645597178, -17040.835862259373, 0.004625000000000001, 0.23450000000000001, 0.9471562500000001, 192.0, 0.0, 0.0, 0.0, 0.0, 0.0, 0.0, 0.0, 0.0, 0.0, 1.64458727799168E9, 0.0, 2022-02-12 00:47:57.991
