%OpenBCI Raw EEG Data
%Number of channels = 16
%Sample Rate = 125 Hz
%Board = OpenBCI_GUI$BoardCytonSerialDaisy
Sample Index, EXG Channel 0, EXG Channel 1, EXG Channel 2, EXG Channel 3, EXG Channel 4, EXG Channel 5, EXG Channel 6, EXG Channel 7, EXG Channel 8, EXG Channel 9, EXG Channel 10, EXG Channel 11, EXG Channel 12, EXG Channel 13, EXG Channel 14, EXG Channel 15, Accel Channel 0, Accel Channel 1, Accel Channel 2, Other, Other, Other, Other, Other, Other, Other, Analog Channel 0, Analog Channel 1, Analog Channel 2, Timestamp, Other, Timestamp (Formatted)
0.0, -10367.744906871905, -9808.861888511407, -7277.593884181248, -12681.575141140836, -9469.830628613308, -6102.607381654666, -9132.162825126985, -6965.183551929421, 0.0, 0.0, 0.0, 0.0, 0.0, 0.0, 0.0, 0.0, 0.0, 0.0, 0.0, 192.0, 0.0, 0.0, 0.0, 0.0, 0.0, 0.0, 0.0, 0.0, 0.0, 1.644587430169138E9, 0.0, 2022-02-12 00:50:30.169
200.0, -10369.24247375041, -9809.264219911602, -7268.5637794213035, -12666.241844444496, -9458.990032552485, -6091.990303038395, -9122.529223266749, -6951.28076687822, -9951.264852436168, -11889.07168973347, -8271.933588020038, -6241.210549022026, -6474.451002413154, -9235.53964323278, -12182.304225242642, -16762.534292046344, 0.0, 0.0, 0.0, 192.0, 0.0, 0.0, 0.0, 0.0, 0.0, 0.0, 0.0, 0.0, 0.0, 1.644587430169143E9, 0.0, 2022-02-12 00:50:30.169
202.0, -10351.405781675076, -9832.353571933934, -7260.740668861947, -12678.915283550656, -9462.566311665334, -6094.828974584219, -9122.775092455757, -6946.229272631321, -9964.742954342719, -11907.914210309293, -8261.070640214759, -6222.055104023827, -6457.731897560585, -9226.800111150755, -12174.659928638928, -16813.764490337908, 0.0, 0.0, 0.0, 192.0, 0.0, 0.0, 0.0, 0.0, 0.0, 0.0, 0.0, 0.0, 0.0, 1.644587430169147E9, 0.0, 2022-02-12 00:50:30.169
0.0, -5180.664978106615, -4775.763127298728, -3518.4551499432505, -5990.982769844863, -4573.1222120669145, -2909.057189113759, -4477.41204230929, -3323.235013870599, -4974.671301206506, -5952.336603681637, -4135.028020742896, -3116.079046258813, -3231.5705098593844, -4614.29412535359, -6084.971855279428, -8381.680653295596, 0.004, 0.117, 0.47600000000000003, 192.0, 0.0, 32.0, 3.5, 40.0, 14.5, 96.0, 0.0, 0.0, 0.0, 1.644587430269215E9, 0.0, 2022-02-12 00:50:30.269
2.0, -10374.495133697406, -9560.824580290864, -7036.977355119867, -11999.086975942491, -9161.890645252544, -5827.412703920925, -8963.273044022686, -6660.261054070122, -9195.127689257586, -11144.579785416101, -8433.536700431909, -6340.787570570418, -6565.333195368433, -9296.917533507054, -11587.881933198207, -16111.204458618697, 0.004, 0.117, 0.47600000000000003, 192.0, 0.0, 0.0, 0.0, 0.0, 0.0, 0.0, 0.0, 0.0, 0.0, 1.644587430276843E9, 0.0, 2022-02-12 00:50:30.276
4.0, -10406.145203846121, -9562.99269950303, -7044.889872657046, -11992.068528183525, -9141.550557798215, -5823.545852130157, -8952.566558428593, -6645.128923073879, -9193.384253190072, -11157.387334988993, -8444.62316568174, -6338.440637402611, -6549.44110506071, -9301.723158564944, -11585.400889563667, -16078.101525080387, 0.004, 0.117, 0.47600000000000003, 192.0, 0.0, 0.0, 0.0, 0.0, 0.0, 0.0, 0.0, 0.0, 0.0, 1.644587430283441E9, 0.0, 2022-02-12 00:50:30.283
6.0, -10401.697206699517, -9565.36198441529, -7033.758703918303, -11996.56122881904, -9150.826531747167, -5823.791721319166, -8956.880445108467, -6646.425324252287, -9199.508631170826, -11154.436904720891, -8436.91181384466, -6336.20546295708, -6544.948404425193, -9297.632789329624, -11587.01021516445, -16078.637966947314, 0.004, 0.117, 0.47600000000000003, 192.0, 0.0, 0.0, 0.0, 0.0, 0.0, 0.0, 0.0, 0.0, 0.0, 1.644587430291499E9, 0.0, 2022-02-12 00:50:30.291
8.0, -10388.1520495596, -9577.633092121256, -7041.134779588554, -11999.355196875955, -9159.43195336246, -5835.504035413746, -8961.127276554977, -6661.2668825706105, -9207.890535341565, -11176.296910798183, -8423.880746827215, -6337.390105413211, -6562.785096500528, -9300.985550997919, -11590.608846021754, -16120.122804656365, 0.008, 0.234, 0.9500000000000001, 192.0, 0.0, 32.0, 3.5, 40.0, 14.5, 88.0, 0.0, 0.0, 0.0, 1.644587430299409E9, 0.0, 2022-02-12 00:50:30.299
10.0, -10372.684642396527, -9561.539836113434, -7034.742180674337, -11979.640958266373, -9137.23667111834, -5826.004544020241, -8954.801732874124, -6645.2183300517, -9190.00913977732, -11151.464122708336, -8444.086723814813, -6347.5825008848315, -6553.710288251673, -9302.37135915415, -11591.34645358878, -16062.120027794843, 0.008, 0.234, 0.9500000000000001, 192.0, 0.0, 0.0, 0.0, 0.0, 0.0, 0.0, 0.0, 0.0, 0.0, 1.644587430307881E9, 0.0, 2022-02-12 00:50:30.307
12.0, -10398.746776431415, -9539.813940502876, -7031.925860872968, -12003.311455644543, -9155.00630796031, -5835.325221458104, -8955.561692185604, -6660.171647092301, -9204.940105073465, -11153.229910520306, -8429.312220729855, -6342.933338038128, -6536.924128165738, -9303.377187654638, -11587.81487796484, -16113.841964464424, 0.008, 0.234, 0.9500000000000001, 192.0, 0.0, 0.0, 0.0, 0.0, 0.0, 0.0, 0.0, 0.0, 0.0, 1.644587430314185E9, 0.0, 2022-02-12 00:50:30.314
14.0, -10400.713729943482, -9570.79345831793, -7047.952061647423, -11996.337711374488, -9152.726430025868, -5833.022991779208, -8964.189465545353, -6658.204693580234, -9202.883744583576, -11148.223119762317, -8439.392857479199, -6366.425021460655, -6553.129142895836, -9299.711501563967, -11591.167639633137, -16087.13162984033, 0.008, 0.234, 0.9500000000000001, 192.0, 0.0, 0.0, 0.0, 0.0, 0.0, 0.0, 0.0, 0.0, 0.0, 1.644587430322245E9, 0.0, 2022-02-12 00:50:30.322
16.0, -10383.905218113092, -9582.23755147905, -7038.094942342633, -12000.003397465158, -9153.262871892795, -5834.341744702071, -8958.936805598356, -6664.0832023719795, -9200.134480015575, -11153.855759365053, -8446.321898260343, -6348.364811940767, -6553.8443987184055, -9289.563809581257, -11597.068500169338, -16085.835228661923, 0.007, 0.23600000000000002, 0.9520000000000001, 192.0, 0.0, 24.0, 3.5, 56.0, 14.5, 104.0, 0.0, 0.0, 0.0, 1.644587430329146E9, 0.0, 2022-02-12 00:50:30.329
18.0, -10392.823564150758, -9582.215199734594, -7048.309689558708, -12006.351292890466, -9160.035450462754, -5832.240680723272, -8968.39159350295, -6656.237740068167, -9216.004218578842, -11195.318245329649, -8436.397723722188, -6342.262785704468, -6558.135933653824, -9311.535574380825, -11599.415433337144, -16125.442519836728, 0.007, 0.23600000000000002, 0.9520000000000001, 192.0, 0.0, 0.0, 0.0, 0.0, 0.0, 0.0, 0.0, 0.0, 0.0, 1.644587430345338E9, 0.0, 2022-02-12 00:50:30.345
20.0, -10393.784689162338, -9551.548606341912, -7047.102695358121, -11992.806135750548, -9152.52526432577, -5829.513767899724, -8963.071878322588, -6653.711992944717, -9199.687445126468, -11165.389259503992, -8443.684392414618, -6346.6437276177085, -6556.168980141757, -9312.854327303688, -11601.605904293765, -16071.351298254884, 0.007, 0.23600000000000002, 0.9520000000000001, 192.0, 0.0, 0.0, 0.0, 0.0, 0.0, 0.0, 0.0, 0.0, 0.0, 1.644587430351687E9, 0.0, 2022-02-12 00:50:30.351
22.0, -10410.950828904013, -9559.438772134636, -7042.922919144979, -12016.767205806638, -9162.29297665274, -5841.20373024985, -8969.687994681359, -6662.540932004564, -9220.429863980993, -11175.268730553238, -8431.636802153207, -6351.337593953323, -6551.586872528419, -9311.379112169638, -11603.505802572467, -16130.181089661253, 0.007, 0.23600000000000002, 0.9520000000000001, 192.0, 0.0, 0.0, 0.0, 0.0, 0.0, 0.0, 0.0, 0.0, 0.0, 1.64458743035878E9, 0.0, 2022-02-12 00:50:30.358
24.0, -10402.479517755452, -9577.789554332443, -7048.980241892367, -12001.299798643566, -9157.643813806035, -5836.040477280674, -8981.48971575376, -6667.212446595722, -9209.656323153535, -11167.602082205067, -8437.135331289212, -6368.101402294803, -6552.883273706827, -9321.213879729972, -11606.925619474128, -16099.715661968668, 0.007, 0.23600000000000002, 0.9520000000000001, 192.0, 0.0, 0.0, 0.0, 0.0, 0.0, 0.0, 0.0, 0.0, 0.0, 1.644587430366428E9, 0.0, 2022-02-12 00:50:30.366
26.0, -10376.685604654027, -9578.773031088476, -7039.6372127100485, -12005.94896149027, -9155.766267271789, -5840.264956982727, -8968.793924903146, -6667.637129740373, -9197.742843358856, -11161.365945502037, -8440.488092957508, -6363.362832470279, -6556.258387119578, -9309.45686214648, -11605.137479917703, -16098.575723001448, 0.0075, 0.238, 0.9530000000000001, 192.0, 0.0, 32.0, 3.5, 64.0, 14.5, 104.0, 0.0, 0.0, 0.0, 1.644587430374595E9, 0.0, 2022-02-12 00:50:30.374
28.0, -10412.068416126778, -9581.835220078852, -7050.522512259783, -12011.983932493202, -9155.900377738522, -5846.903425085953, -8980.796811675646, -6670.744022219661, -9216.697122656957, -11171.178361317918, -8436.665944655651, -6359.9653673130715, -6567.009576202581, -9310.149766224595, -11605.852735740273, -16138.786511276545, 0.0075, 0.238, 0.9530000000000001, 192.0, 0.0, 0.0, 0.0, 0.0, 0.0, 0.0, 0.0, 0.0, 0.0, 1.644587430382288E9, 0.0, 2022-02-12 00:50:30.382
30.0, -10406.368721290675, -9565.853722793308, -7048.10852385861, -12005.27840915661, -9145.886796222543, -5831.838349323077, -8971.900817382433, -6659.299929058544, -9208.181108019484, -11163.087029825096, -8448.53472096142, -6352.254015475991, -6558.225340631645, -9313.726045337444, -11608.57964856382, -16082.70598443818, 0.0075, 0.238, 0.9530000000000001, 192.0, 0.0, 0.0, 0.0, 0.0, 0.0, 0.0, 0.0, 0.0, 0.0, 1.644587430388942E9, 0.0, 2022-02-12 00:50:30.388
32.0, -10403.239477066933, -9571.553417629411, -7040.888910399546, -12015.783729050605, -9149.66424103549, -5833.53708190168, -8966.670509179892, -6642.849045139438, -9223.201480293452, -11174.084088097106, -8427.613488151252, -6344.1179804942585, -6557.510084809075, -9289.049719458786, -11605.875087484728, -16132.796243762523, 0.0075, 0.238, 0.9530000000000001, 192.0, 0.0, 0.0, 0.0, 0.0, 0.0, 0.0, 0.0, 0.0, 0.0, 1.644587430396255E9, 0.0, 2022-02-12 00:50:30.396
34.0, -10394.410538007085, -9558.410591889691, -7049.136704103555, -12002.32797888851, -9135.895566451021, -5840.086143027084, -8959.29443350964, -6655.544835990052, -9212.472642954903, -11174.665233452944, -8436.62124116674, -6359.920663824161, -6547.0941718929025, -9315.8494610607, -11601.516497315944, -16100.542676513514, 0.0075, 0.238, 0.9530000000000001, 192.0, 0.0, 0.0, 0.0, 0.0, 0.0, 0.0, 0.0, 0.0, 0.0, 1.644587430403955E9, 0.0, 2022-02-12 00:50:30.403
36.0, -10386.185096047533, -9567.79832456092, -7043.1017331006215, -12006.686569057294, -9136.14143564003, -5825.468102153314, -8952.030116561666, -6644.3019085290325, -9201.185012004973, -11153.520483198225, -8438.67760165663, -6362.0217278029595, -6523.021343114537, -9313.122548237152, -11600.91300021565, -16094.574760743948, 0.00675, 0.238, 0.9555, 192.0, 0.0, 24.0, 3.5, 56.0, 14.5, 120.0, 0.0, 0.0, 0.0, 1.644587430412074E9, 0.0, 2022-02-12 00:50:30.412
38.0, -10425.568869777784, -9590.060662038406, -7051.282471571264, -12011.000455737169, -9152.52526432577, -5835.5487389026575, -8968.369241758495, -6665.804286695038, -9217.904116857544, -11180.566093989146, -8439.10228480128, -6337.770085068952, -6555.073744663447, -9289.921437492543, -11605.763328762452, -16130.494014083626, 0.00675, 0.238, 0.9555, 192.0, 0.0, 0.0, 0.0, 0.0, 0.0, 0.0, 0.0, 0.0, 0.0, 1.644587430418497E9, 0.0, 2022-02-12 00:50:30.418
40.0, -10402.390110777631, -9559.952862257107, -7049.315518059197, -11998.930513731304, -9141.908185709499, -5824.864605053021, -8959.652061420926, -6654.248434811644, -9217.390026735071, -11165.299852526172, -8439.325802245832, -6347.336631695823, -6549.530512038531, -9306.729949322933, -11611.261857898458, -16077.386269257817, 0.00675, 0.238, 0.9555, 192.0, 0.0, 0.0, 0.0, 0.0, 0.0, 0.0, 0.0, 0.0, 0.0, 1.644587430426673E9, 0.0, 2022-02-12 00:50:30.426
42.0, -10387.839125137225, -9562.858589036297, -7051.058954126711, -12024.769130321638, -9166.495104610338, -5835.951070302853, -8968.659814436414, -6668.419440796309, -9235.718457188423, -11173.927625885919, -8439.594023179296, -6356.54555041141, -6563.209779645179, -9305.388844655616, -11612.334741632312, -16134.517328085582, 0.00675, 0.238, 0.9555, 192.0, 0.0, 0.0, 0.0, 0.0, 0.0, 0.0, 0.0, 0.0, 0.0, 1.644587430434499E9, 0.0, 2022-02-12 00:50:30.434
44.0, -10422.037294153846, -9582.885752068252, -7058.815009452702, -12014.800252294572, -9159.051973706719, -5835.213462735827, -8971.67729993788, -6664.597292494452, -9223.089721571174, -11173.681756696911, -8459.15179957769, -6356.322032966857, -6571.0999454379025, -9316.31884769426, -11614.25699165547, -16110.086871395932, 0.00675, 0.238, 0.9555, 192.0, 0.0, 0.0, 0.0, 0.0, 0.0, 0.0, 0.0, 0.0, 0.0, 1.644587430441427E9, 0.0, 2022-02-12 00:50:30.441
46.0, -10435.78361699386, -9586.216161992093, -7047.437971524951, -12021.863403542447, -9156.727392283368, -5828.686753354878, -8967.899855124933, -6654.427248767287, -9236.634878711091, -11161.20948329085, -8456.424886754143, -6364.323957481856, -6554.649061518796, -9315.93886803852, -11617.050959712382, -16104.141307370819, 0.007375, 0.236, 0.9537500000000001, 192.0, 0.0, 32.0, 3.5, 40.0, 14.5, 96.0, 0.0, 0.0, 0.0, 1.644587430449224E9, 0.0, 2022-02-12 00:50:30.449
48.0, -10437.191776894544, -9591.714691128098, -7056.1328001180655, -12029.127720490424, -9154.246348648829, -5844.154160517951, -8968.525703969683, -6662.69739421575, -9252.437562040992, -11193.395995306491, -8437.381200478221, -6361.30647198039, -6575.324425139956, -9308.98747551292, -11613.586439321809, -16146.00612473561, 0.007375, 0.236, 0.9537500000000001, 192.0, 0.0, 0.0, 0.0, 0.0, 0.0, 0.0, 0.0, 0.0, 0.0, 1.644587430464343E9, 0.0, 2022-02-12 00:50:30.464
50.0, -10403.910029400591, -9562.79153380293, -7056.043393140244, -12008.966446991737, -9147.451418334416, -5840.354363960549, -8963.116581811499, -6660.663385470318, -9233.103303087151, -11176.811000920654, -8458.10126758829, -6360.21123650208, -6557.934767953726, -9321.102121007696, -11611.351264876279, -16092.049013620499, 0.007375, 0.236, 0.9537500000000001, 192.0, 0.0, 0.0, 0.0, 0.0, 0.0, 0.0, 0.0, 0.0, 0.0, 1.644587430471065E9, 0.0, 2022-02-12 00:50:30.471
52.0, -10414.594163250227, -9597.503792942023, -7057.384497807562, -12027.630153611917, -9164.394040631538, -5840.242605238272, -8975.655910450925, -6671.503981531141, -9244.30152705926, -11180.946073644885, -8451.328689018332, -6358.914835323672, -6572.552808827497, -9315.22361221595, -11613.832308510819, -16146.140235202342, 0.007375, 0.236, 0.9537500000000001, 192.0, 0.0, 0.0, 0.0, 0.0, 0.0, 0.0, 0.0, 0.0, 0.0, 1.64458743047931E9, 0.0, 2022-02-12 00:50:30.479
54.0, -10438.577585050773, -9609.931362859174, -7069.834419469169, -12017.2365924402, -9159.789581273744, -5843.841236095576, -8979.276893052685, -6672.263940842622, -9247.095495116175, -11185.505829513768, -8461.856360656782, -6354.3997829437, -6575.123259439857, -9318.039932017318, -11615.799262022885, -16119.631066278347, 0.007375, 0.236, 0.9537500000000001, 192.0, 0.0, 0.0, 0.0, 0.0, 0.0, 0.0, 0.0, 0.0, 0.0, 1.644587430486863E9, 0.0, 2022-02-12 00:50:30.486
56.0, -10437.750570505927, -9597.704958642122, -7060.737259475859, -12025.394979166387, -9159.09667719563, -5840.935509316387, -8976.505276740227, -6670.1852286082785, -9238.668887456524, -11169.144352572484, -8456.983680365525, -6365.598006915809, -6569.088288436925, -9322.17500474155, -11618.526174846433, -16118.804051733501, 0.0076875, 0.238, 0.953875, 192.0, 0.0, 32.0, 3.5, 64.0, 14.5, 104.0, 0.0, 0.0, 0.0, 1.64458743049418E9, 0.0, 2022-02-12 00:50:30.494
58.0, -10443.651431042128, -9594.307493484914, -7069.968529935901, -12033.28514495911, -9161.868293508089, -5843.081276784096, -8981.646177964947, -6679.260036857133, -9254.717439975433, -11202.31434134416, -8446.05367732688, -6362.736983625529, -6568.305977380989, -9306.618190600657, -11618.548526590888, -16160.311241187006, 0.0076875, 0.238, 0.953875, 192.0, 0.0, 0.0, 0.0, 0.0, 0.0, 0.0, 0.0, 0.0, 0.0, 1.644587430501441E9, 0.0, 2022-02-12 00:50:30.501
60.0, -10410.548497503818, -9575.75554558701, -7063.687689743959, -12020.455243641763, -9159.163732428997, -5842.053096539152, -8981.512067498215, -6680.712900246728, -9248.704820716956, -11170.97719561782, -8454.346174519798, -6356.903178322695, -6549.6199190163525, -9308.607495857179, -11622.68359931512, -16104.387176559829, 0.0076875, 0.238, 0.953875, 192.0, 0.0, 0.0, 0.0, 0.0, 0.0, 0.0, 0.0, 0.0, 0.0, 1.644587430509552E9, 0.0, 2022-02-12 00:50:30.509
62.0, -10384.933398358036, -9583.80217359092, -7056.535131518261, -12033.307496703566, -9173.692366324945, -5846.210521007839, -8985.20010533334, -6682.1657636363225, -9253.957480663954, -11189.573847004634, -8454.323822775343, -6367.721422639063, -6576.77728852955, -9314.50835639338, -11621.387198136712, -16154.320973672984, 0.0076875, 0.238, 0.953875, 192.0, 0.0, 0.0, 0.0, 0.0, 0.0, 0.0, 0.0, 0.0, 0.0, 1.644587430516561E9, 0.0, 2022-02-12 00:50:30.516
64.0, -10455.274338158886, -9607.85265062483, -7059.574968764183, -12022.735121576205, -9158.984918473354, -5850.502055943258, -8985.647140222447, -6674.096783887957, -9243.250995069862, -11184.321187057638, -8448.601776194784, -6362.222893503058, -6568.484791336631, -9318.643429117612, -11622.035398725915, -16130.47166233917, 0.0076875, 0.238, 0.953875, 192.0, 0.0, 0.0, 0.0, 0.0, 0.0, 0.0, 0.0, 0.0, 0.0, 1.64458743052351E9, 0.0, 2022-02-12 00:50:30.523
66.0, -10443.360858364209, -9602.085900555361, -7048.4438000254395, -12031.765226336149, -9160.616595818592, -5845.5846721630905, -8978.87456165249, -6671.883961186882, -9246.648460227068, -11175.380489275514, -8442.164473791656, -6352.723402109552, -6556.727773753139, -9318.17404248405, -11619.554355091377, -16121.039226179031, 0.00584375, 0.235, 0.9509375, 192.0, 0.0, 16.0, 3.5, 32.0, 14.5, 80.0, 0.0, 0.0, 0.0, 1.644587430531124E9, 0.0, 2022-02-12 00:50:30.531
68.0, -10426.552346533817, -9583.824525335374, -7058.367974563596, -12039.945964806791, -9169.423183133982, -5852.804285622155, -8987.323521056596, -6682.2775223585995, -9256.21500685394, -11199.475669798336, -8444.019668581446, -6361.284120235935, -6567.523666325053, -9307.55696386778, -11621.945991748094, -16165.00510752262, 0.00584375, 0.235, 0.9509375, 192.0, 0.0, 0.0, 0.0, 0.0, 0.0, 0.0, 0.0, 0.0, 0.0, 1.644587430539246E9, 0.0, 2022-02-12 00:50:30.539
70.0, -10408.156860847099, -9589.479516682568, -7062.458343798918, -12025.596144866484, -9164.684613309457, -5847.238701252782, -8987.882314667979, -6687.440775327776, -9243.11688460313, -11166.909178126953, -8454.234415797522, -6370.046004062415, -6550.2681196055555, -9320.900955307598, -11628.807977295874, -16110.66801675177, 0.00584375, 0.235, 0.9509375, 192.0, 0.0, 0.0, 0.0, 0.0, 0.0, 0.0, 0.0, 0.0, 0.0, 1.644587430547077E9, 0.0, 2022-02-12 00:50:30.547
72.0, -10434.956602449012, -9612.479461727078, -7053.897625672535, -12044.058685786567, -9166.986842988354, -5852.647823410967, -8983.16609658791, -6686.457298571742, -9262.294681345784, -11198.335730831115, -8452.33451751882, -6354.980928299538, -6572.172829171757, -9323.493757664413, -11630.238488941013, -16165.273328456084, 0.00584375, 0.235, 0.9509375, 192.0, 0.0, 0.0, 0.0, 0.0, 0.0, 0.0, 0.0, 0.0, 0.0, 1.644587430553672E9, 0.0, 2022-02-12 00:50:30.553
74.0, -10448.993497966945, -9611.652447182232, -7063.911207188512, -12030.267659457644, -9162.80706677521, -5848.713916386833, -8986.20593383383, -6688.781879995094, -9258.047849899274, -11196.815812208153, -8458.503598988485, -6368.302567994901, -6572.977491972148, -9314.731873837933, -11632.16073896417, -16134.249107152118, 0.00584375, 0.235, 0.9509375, 192.0, 0.0, 0.0, 0.0, 0.0, 0.0, 0.0, 0.0, 0.0, 0.0, 1.644587430561913E9, 0.0, 2022-02-12 00:50:30.561
76.0, -10421.791424964837, -9600.767147632498, -7054.299957072731, -12032.346371691987, -9163.164694686497, -5837.58274764809, -8974.963006372811, -6668.151219862845, -9257.287890587795, -11181.862495167554, -8454.457933242074, -6363.049908047904, -6568.06010819198, -9311.982609269931, -11627.757445306474, -16121.553316301504, 0.003921875, 0.2355, 0.9474687500000001, 192.0, 0.0, 8.0, 3.5, 48.0, 14.5, 64.0, 0.0, 0.0, 0.0, 1.644587430570021E9, 0.0, 2022-02-12 00:50:30.570
78.0, -10433.012000681401, -9602.488231955556, -7063.3524135771295, -12036.257926971666, -9169.57964534517, -5854.748887389766, -8991.324483314096, -6685.049138671057, -9263.54637903528, -11203.007245422274, -8448.825293639338, -6362.334652225334, -6563.925035467749, -9314.016618015363, -11627.288058672913, -16164.312203444506, 0.003921875, 0.2355, 0.9474687500000001, 192.0, 0.0, 0.0, 0.0, 0.0, 0.0, 0.0, 0.0, 0.0, 0.0, 1.644587430576107E9, 0.0, 2022-02-12 00:50:30.576
80.0, -10434.062532670801, -9587.266693981492, -7057.585663507661, -12028.546575134586, -9155.8109707607, -5848.356288475548, -8986.25063732274, -6694.3698161089205, -9255.387992309094, -11182.980082390319, -8451.261633784967, -6379.411384989189, -6560.840494732916, -9323.247888475405, -11631.981925008527, -16112.411452819284, 0.003921875, 0.2355, 0.9474687500000001, 192.0, 0.0, 0.0, 0.0, 0.0, 0.0, 0.0, 0.0, 0.0, 0.0, 1.644587430591717E9, 0.0, 2022-02-12 00:50:30.591
82.0, -10409.207392836499, -9597.973179575585, -7058.278567585775, -12052.418238212853, -9168.618520333592, -5848.132771030995, -8982.048509365142, -6687.865458472426, -9264.060469157752, -11185.416422535947, -8455.128485575735, -6369.576617428854, -6561.376936599843, -9315.044798260307, -11632.585422108821, -16169.698973858236, 0.003921875, 0.2355, 0.9474687500000001, 192.0, 0.0, 0.0, 0.0, 0.0, 0.0, 0.0, 0.0, 0.0, 0.0, 1.64458743060082E9, 0.0, 2022-02-12 00:50:30.600
84.0, -10451.631003812672, -9632.797197436952, -7062.972433921389, -12036.548499649585, -9160.326023140673, -5850.4573524543475, -8983.769593688201, -6691.911124218836, -9263.971062179931, -11195.698224985388, -8465.119715347257, -6366.805001116396, -6578.230151919145, -9322.264411719372, -11637.3463436778, -16145.71555205769, 0.003921875, 0.2355, 0.9474687500000001, 192.0, 0.0, 0.0, 0.0, 0.0, 0.0, 0.0, 0.0, 0.0, 0.0, 1.644587430607171E9, 0.0, 2022-02-12 00:50:30.607
86.0, -10447.093599688245, -9624.5717554774, -7053.182369849965, -12041.801159596582, -9166.271587165784, -5847.01518380823, -8987.25646582323, -6680.84701071346, -9263.412268568549, -11197.441661052902, -8449.004107594981, -6361.664099891675, -6575.369128628866, -9316.542365138814, -11636.496977388499, -16131.924525728766, 0.0049609375, 0.23375, 0.945734375, 192.0, 0.0, 24.0, 3.5, 32.0, 14.5, 64.0, 0.0, 0.0, 0.0, 1.644587430614451E9, 0.0, 2022-02-12 00:50:30.614
88.0, -10448.322945633287, -9608.970237847596, -7064.201779866431, -12054.295784747099, -9170.540770356747, -5852.960747833342, -8999.616980507015, -6694.70509227575, -9271.704765761468, -11222.78853926522, -8452.96036636357, -6370.046004062415, -6577.850172263405, -9307.802833056789, -11639.581518123332, -16178.39380245135, 0.0049609375, 0.23375, 0.945734375, 192.0, 0.0, 0.0, 0.0, 0.0, 0.0, 0.0, 0.0, 0.0, 0.0, 1.644587430622131E9, 0.0, 2022-02-12 00:50:30.622
90.0, -10438.711695517504, -9588.943074815641, -7066.749878734337, -12038.247232228188, -9159.253139406817, -5843.77418086221, -8994.610189749026, -6684.89267645987, -9260.953576678465, -11196.301722085682, -8466.885503159227, -6386.273370536968, -6572.575160571952, -9328.791121100321, -11642.263727457968, -16123.09558666892, 0.0049609375, 0.23375, 0.945734375, 192.0, 0.0, 0.0, 0.0, 0.0, 0.0, 0.0, 0.0, 0.0, 0.0, 1.644587430629104E9, 0.0, 2022-02-12 00:50:30.629
92.0, -10418.438663296542, -9620.5707932199, -7069.566198535705, -12056.463903959264, -9174.362918658606, -5849.25035825376, -8988.351701301539, -6687.641941027873, -9270.162495394052, -11200.5932570211, -8456.715459432062, -6370.135411040236, -6560.549922054997, -9319.068112262263, -11637.525157633443, -16171.330651203472, 0.0049609375, 0.23375, 0.945734375, 192.0, 0.0, 0.0, 0.0, 0.0, 0.0, 0.0, 0.0, 0.0, 0.0, 1.644587430636617E9, 0.0, 2022-02-12 00:50:30.636
94.0, -10455.140227692154, -9631.523148003, -7079.6691870295035, -12044.662182886861, -9167.389174388549, -5847.283404741694, -8999.326407829096, -6695.0180166981245, -9273.40349834007, -11216.820623495654, -8481.592951010818, -6381.020710589971, -6577.693710052217, -9317.212917472472, -11643.314259447368, -16151.191729449241, 0.0049609375, 0.23375, 0.945734375, 192.0, 0.0, 0.0, 0.0, 0.0, 0.0, 0.0, 0.0, 0.0, 0.0, 1.644587430643758E9, 0.0, 2022-02-12 00:50:30.643
96.0, -10461.97986149548, -9616.23455479557, -7062.68186124347, -12043.85752008647, -9159.52136034028, -5843.282442484194, -8979.16513433041, -6682.433984569787, -9278.991434453897, -11208.639885025012, -8470.86411367227, -6366.201504016102, -6555.766648741562, -9314.016618015363, -11639.11213148977, -16139.05473221001, -0.004, 0.23, 0.9420000000000001, 192.0, 127.5, 112.0, 3.5, 24.0, 14.5, 56.0, 0.0, 0.0, 0.0, 1.644587430651745E9, 0.0, 2022-02-12 00:50:30.651
98.0, -10446.959489221512, -9612.18888904916, -7067.3980793235405, -12054.899281847393, -9164.259930164806, -5856.089992057085, -9002.813279964123, -6695.08507193149, -9284.221742656438, -11206.851745468586, -8454.346174519798, -6373.287007008435, -6581.761727543084, -9315.424777916049, -11639.223890212046, -16183.91468333181, -0.004, 0.23, 0.9420000000000001, 192.0, 0.0, 0.0, 0.0, 0.0, 0.0, 0.0, 0.0, 0.0, 0.0, 1.644587430658457E9, 0.0, 2022-02-12 00:50:30.658
100.0, -10445.104294431721, -9602.331769744369, -7063.955910677423, -12043.835168342015, -9158.984918473354, -5837.627451137001, -8994.274913582196, -6685.540877049074, -9261.110038889652, -11200.146222131994, -8468.316014804366, -6375.946864598616, -6577.716061796673, -9311.60262961419, -11643.001335024994, -16128.035322193542, -0.004, 0.23, 0.9420000000000001, 192.0, 0.0, 0.0, 0.0, 0.0, 0.0, 0.0, 0.0, 0.0, 0.0, 1.644587430666297E9, 0.0, 2022-02-12 00:50:30.666
102.0, -10410.570849248274, -9619.050874596938, -7067.353375834629, -12057.849712115492, -9168.439706377949, -5848.400991964459, -8984.417794277406, -6677.829525211993, -9272.97881519542, -11216.775920006743, -8464.560921735874, -6366.089745293826, -6576.844343762916, -9299.242114930406, -11639.402704167689, -16173.387011693361, -0.004, 0.23, 0.9420000000000001, 192.0, 0.0, 0.0, 0.0, 0.0, 0.0, 0.0, 0.0, 0.0, 0.0, 1.644587430674341E9, 0.0, 2022-02-12 00:50:30.674
104.0, -10453.665012558105, -9625.599935722345, -7080.0715184297, -12053.155845779878, -9160.817761518689, -5858.34751824707, -8997.471213039305, -6684.51269680413, -9268.776687237822, -11220.195736908405, -8474.842724185315, -6380.260751278491, -6570.518800082064, -9332.143882768618, -11644.387143181222, -16159.171302219786, -0.004, 0.23, 0.9420000000000001, 192.0, 0.0, 0.0, 0.0, 0.0, 0.0, 0.0, 0.0, 0.0, 0.0, 1.644587430681418E9, 0.0, 2022-02-12 00:50:30.681
106.0, -10472.909864534124, -9616.882755384775, -7071.622559025594, -12056.598014425996, -9166.33864239915, -5863.935454360897, -8988.508163512726, -6694.995664953669, -9280.98073971042, -11218.385245607526, -8472.361680550775, -6385.714576925586, -6555.878407463838, -9332.076827535251, -11651.53970140692, -16152.28696492755, -0.004, 0.23, 0.9420000000000001, 192.0, 0.0, 0.0, 3.5, 48.0, 14.5, 56.0, 0.0, 0.0, 0.0, 1.644587430689113E9, 0.0, 2022-02-12 00:50:30.689
108.0, -10480.084774504277, -9642.296688830458, -7078.484544573373, -12064.085848818524, -9181.96251177341, -5866.908236373453, -9004.288495098173, -6690.815888740527, -9295.26350441736, -11249.364763422582, -8463.1974653241, -6369.755431384496, -6587.707291568196, -9328.65701063359, -11652.746695607508, -16201.416099240316, -0.004, 0.23, 0.9420000000000001, 192.0, 0.0, 0.0, 0.0, 0.0, 0.0, 0.0, 0.0, 0.0, 0.0, 1.64458743069695E9, 0.0, 2022-02-12 00:50:30.696
110.0, -10454.581434080772, -9622.984781621073, -7075.221189882897, -12051.658278901372, -9164.639909820546, -5851.977271077308, -8993.269085081707, -6684.289179359577, -9279.349062365183, -11225.35898987758, -8476.407346297186, -6383.412347246689, -6587.170849701268, -9324.745455353912, -11657.015878798471, -16141.893403755834, -0.004, 0.23, 0.9420000000000001, 192.0, 0.0, 0.0, 0.0, 0.0, 0.0, 0.0, 0.0, 0.0, 0.0, 1.644587430711122E9, 0.0, 2022-02-12 00:50:30.711
112.0, -10419.980933663957, -9619.85553739733, -7068.180390379476, -12061.738915650716, -9168.283244166762, -5853.318375744627, -8992.240904836763, -6689.050100928557, -9288.93796073651, -11214.496042072302, -8473.859247429282, -6380.283103022945, -6583.661625821785, -9322.689094864023, -11657.708782876585, -16191.402517724338, -0.004, 0.23, 0.9420000000000001, 192.0, 0.0, 0.0, 0.0, 0.0, 0.0, 0.0, 0.0, 0.0, 0.0, 1.644587430718606E9, 0.0, 2022-02-12 00:50:30.718
114.0, -10468.730088320981, -9635.702924216142, -7075.221189882897, -12053.066438802058, -9159.72252604038, -5855.620605423523, -8990.430413535883, -6688.7371765061835, -9282.210085655463, -11223.16851892096, -8474.86507592977, -6374.650463420208, -6577.134916440835, -9326.623001888156, -11654.713649119574, -16169.9671947917, -0.004, 0.23, 0.9420000000000001, 192.0, 0.0, 0.0, 0.0, 0.0, 0.0, 0.0, 0.0, 0.0, 0.0, 1.644587430726427E9, 0.0, 2022-02-12 00:50:30.726
116.0, -10465.936120264068, -9622.940078132162, -7065.341718833652, -12055.972165581246, -9164.818723776189, -5852.4019542219585, -8992.442070536861, -6685.585580537985, -9281.226608899427, -11214.071358927651, -8462.996299624003, -6374.315187253379, -6573.066898949969, -9314.84363256021, -11658.4016869547, -16159.752447575624, 0.008, 0.23, 0.9480000000000001, 192.0, 0.0, 32.0, 3.5, 24.0, 14.5, 80.0, 0.0, 0.0, 0.0, 1.64458743073466E9, 0.0, 2022-02-12 00:50:30.734
118.0, -10440.365724607198, -9615.89927862874, -7075.288245116263, -12062.297709262099, -9170.160790701007, -5853.251320511261, -8992.576181003593, -6696.604990554451, -9287.708614791467, -11235.93136500494, -8468.092497359812, -6375.142201798225, -6552.637404517818, -9323.583164642236, -11658.267576487968, -16206.936980120778, 0.008, 0.23, 0.9480000000000001, 192.0, 0.0, 0.0, 0.0, 0.0, 0.0, 0.0, 0.0, 0.0, 0.0, 1.644587430741143E9, 0.0, 2022-02-12 00:50:30.741
120.0, -10436.990611194446, -9613.887621627764, -7072.203704381431, -12048.774903866639, -9159.051973706719, -5851.709050143844, -8991.436242036372, -6688.670121272818, -9268.866094215644, -11219.055797941184, -8477.524933519951, -6376.058623320892, -6568.104811680891, -9327.740589110923, -11660.435695700133, -16148.218947436686, 0.008, 0.23, 0.9480000000000001, 192.0, 0.0, 0.0, 0.0, 0.0, 0.0, 0.0, 0.0, 0.0, 0.0, 1.644587430749423E9, 0.0, 2022-02-12 00:50:30.749
122.0, -10426.932326189557, -9615.318133272904, -7070.192047380454, -12065.851636630492, -9165.891607510044, -5857.609910680046, -8988.262294323718, -6685.451470071253, -9286.07693744623, -11220.531013075235, -8468.941863649114, -6372.7058616525965, -6587.394367145821, -9318.732836095434, -11660.055716044393, -16200.857305628933, 0.008, 0.23, 0.9480000000000001, 192.0, 0.0, 0.0, 0.0, 0.0, 0.0, 0.0, 0.0, 0.0, 0.0, 1.644587430757428E9, 0.0, 2022-02-12 00:50:30.757
124.0, -10468.30540517633, -9640.307383573936, -7080.272684129797, -12058.676726660338, -9163.209398175406, -5857.364041491037, -8995.392500804961, -6678.790650223572, -9287.328635135727, -11223.302629387694, -8468.472477015554, -6377.26561752148, -6582.722852554662, -9323.98549604243, -11657.68643113213, -16179.10905827392, 0.008, 0.23, 0.9480000000000001, 192.0, 0.0, 0.0, 0.0, 0.0, 0.0, 0.0, 0.0, 0.0, 0.0, 1.644587430764215E9, 0.0, 2022-02-12 00:50:30.764
126.0, -10448.322945633287, -9632.506624759035, -7067.889817701557, -12066.589244197517, -9163.298805153228, -5857.162875790939, -8994.297265326652, -6687.9772171947025, -9286.12164093514, -11217.044140940206, -8476.541456763918, -6374.918684353672, -6568.77536401455, -9326.779464099343, -11661.419172456166, -16165.921529045288, 0.006, 0.234, 0.9520000000000001, 192.0, 0.0, 24.0, 3.5, 40.0, 14.5, 96.0, 0.0, 0.0, 0.0, 1.644587430771428E9, 0.0, 2022-02-12 00:50:30.771
128.0, -10457.710678304515, -9632.596031736855, -7077.098736417143, -12077.385136769431, -9165.981014487865, -5858.794553136177, -8995.25839033823, -6684.445641570765, -9299.89031551961, -11243.620365097568, -8472.2499218285, -6379.992530345026, -6573.759803028083, -9319.60455412919, -11663.631995157242, -16215.54240173607, 0.006, 0.234, 0.9520000000000001, 192.0, 0.0, 0.0, 0.0, 0.0, 0.0, 0.0, 0.0, 0.0, 0.0, 1.644587430778933E9, 0.0, 2022-02-12 00:50:30.778
130.0, -10456.727201548481, -9618.603839707834, -7079.132745162577, -12066.43278198633, -9155.47569459387, -5851.977271077308, -8995.884239182978, -6676.89075194487, -9278.656158287067, -11221.469786342357, -8480.944750421613, -6390.654312450209, -6552.480942306632, -9313.27901044834, -11665.666003902676, -16158.210177208208, 0.006, 0.234, 0.9520000000000001, 192.0, 0.0, 0.0, 0.0, 0.0, 0.0, 0.0, 0.0, 0.0, 0.0, 1.644587430787206E9, 0.0, 2022-02-12 00:50:30.787
132.0, -10457.174236437588, -9647.035258654983, -7074.081250915677, -12076.938101880325, -9173.446497135938, -5868.048175340674, -9002.478003797294, -6683.8644962149265, -9292.514239849359, -11239.641754584522, -8464.091535102312, -6374.896332609217, -6576.576122829452, -9316.050626760796, -11669.912835349183, -16208.233381299184, 0.006, 0.234, 0.9520000000000001, 192.0, 0.0, 0.0, 0.0, 0.0, 0.0, 0.0, 0.0, 0.0, 0.0, 1.644587430793633E9, 0.0, 2022-02-12 00:50:30.793
134.0, -10474.563893623817, -9646.521168532512, -7082.507858575328, -12068.28797677612, -9171.211322690408, -5866.505904973257, -9014.436187080883, -6694.1910021532785, -9298.392748641105, -11251.734048334843, -8473.993357896014, -6386.541591470432, -6576.39730887381, -9337.240080504427, -11670.829256871852, -16191.357814235427, 0.006, 0.234, 0.9520000000000001, 192.0, 0.0, 0.0, 0.0, 0.0, 0.0, 0.0, 0.0, 0.0, 0.0, 1.644587430802038E9, 0.0, 2022-02-12 00:50:30.802
136.0, -10453.217977668999, -9631.970182892106, -7073.880085215579, -12072.244235544711, -9177.738032071356, -5855.374736234515, -9003.841460209067, -6703.466976102231, -9295.50937360637, -11223.012056709775, -8478.709575976083, -6388.441489749132, -6579.459497864187, -9328.321734466761, -11676.618358685775, -16177.25386348413, 0.01, 0.23600000000000002, 0.9460000000000001, 192.0, 0.0, 40.0, 3.5, 48.0, 14.5, 72.0, 0.0, 0.0, 0.0, 1.644587430809655E9, 0.0, 2022-02-12 00:50:30.809
138.0, -10449.976974722978, -9647.214072610626, -7082.418451597507, -12082.794258927615, -9173.714718069401, -5863.689585171889, -9001.06984389661, -6704.092824946979, -9306.260562689373, -11256.159693736994, -8475.669738730161, -6388.754414171507, -6586.567352600975, -9317.41408317257, -11676.908931363694, -16222.471442517215, 0.01, 0.23600000000000002, 0.9460000000000001, 192.0, 0.0, 0.0, 0.0, 0.0, 0.0, 0.0, 0.0, 0.0, 0.0, 1.644587430819614E9, 0.0, 2022-02-12 00:50:30.819
140.0, -10466.539617364362, -9647.929328433196, -7086.911152233023, -12072.735973922727, -9167.05389822172, -5858.25811126925, -9002.098024141553, -6690.413557340331, -9284.355853123172, -11244.26856568677, -8498.043834929924, -6410.010923148504, -6583.169887443768, -9332.836786846732, -11676.372489496767, -16168.782552335568, 0.01, 0.23600000000000002, 0.9460000000000001, 192.0, 0.0, 0.0, 0.0, 0.0, 0.0, 0.0, 0.0, 0.0, 0.0, 1.644587430825643E9, 0.0, 2022-02-12 00:50:30.825
142.0, -10471.144076722156, -9636.373476549803, -7084.966550465411, -12086.549351996107, -9171.926578512977, -5868.092878829584, -9004.221439864808, -6689.8547637289485, -9306.864059789665, -11249.6553361005, -8480.855343443793, -6382.630036190753, -6559.119410409858, -9308.249867945895, -11678.78647789794, -16212.100233089952, 0.01, 0.23600000000000002, 0.9460000000000001, 192.0, 0.0, 0.0, 0.0, 0.0, 0.0, 0.0, 0.0, 0.0, 0.0, 1.644587430839302E9, 0.0, 2022-02-12 00:50:30.839
144.0, -10500.581324169794, -9659.596939038865, -7099.562239594727, -12082.950721138803, -9180.19672396144, -5876.45243125587, -9022.59457380707, -6698.638999299884, -9326.175966999052, -11259.758324594299, -8494.378148839254, -6402.880716667261, -6601.967704530681, -9326.84651933271, -11684.240303545035, -16204.50063997515, 0.01, 0.23600000000000002, 0.9460000000000001, 192.0, 0.0, 0.0, 0.0, 0.0, 0.0, 0.0, 0.0, 0.0, 0.0, 1.644587430846173E9, 0.0, 2022-02-12 00:50:30.846
146.0, -10472.798105811848, -9641.71554347462, -7089.325140634196, -12083.129535094446, -9184.443555407948, -5868.651672440967, -9017.028989437698, -6702.572906324018, -9328.61230714468, -11246.123760476561, -8503.676474532662, -6399.907934654705, -6604.716969098684, -9336.077789792751, -11691.392861770733, -16189.972006079199, 0.008, 0.23600000000000002, 0.9440000000000001, 192.0, 0.0, 32.0, 3.5, 48.0, 14.5, 64.0, 0.0, 0.0, 0.0, 1.644587430854151E9, 0.0, 2022-02-12 00:50:30.854
148.0, -10474.675652346094, -9665.989537953084, -7099.226963427897, -12095.981788156247, -9193.183087489973, -5877.59237022309, -9023.64510579647, -6697.722577777216, -9338.827054360754, -11262.999327540318, -8495.428680828652, -6397.248077064523, -6596.312713183488, -9327.18179549954, -11689.761184425495, -16238.855271202956, 0.008, 0.23600000000000002, 0.9440000000000001, 192.0, 0.0, 0.0, 0.0, 0.0, 0.0, 0.0, 0.0, 0.0, 0.0, 1.644587430861664E9, 0.0, 2022-02-12 00:50:30.861
150.0, -10471.993443011457, -9649.739819734075, -7097.5729343382045, -12080.58143622654, -9179.794392561245, -5874.038442854696, -9024.606230808047, -6702.215278412733, -9326.019504787864, -11264.541597907735, -8519.032122973458, -6417.163481374202, -6604.426396420765, -9346.046667819819, -11695.974969384071, -16184.719346132202, 0.008, 0.23600000000000002, 0.9440000000000001, 192.0, 0.0, 0.0, 0.0, 0.0, 0.0, 0.0, 0.0, 0.0, 0.0, 1.644587430868873E9, 0.0, 2022-02-12 00:50:30.868
152.0, -10505.431652716596, -9668.783506009997, -7093.191992424964, -12099.982750413747, -9194.971227046399, -5874.798402166177, -9023.175719162908, -6711.245383172677, -9338.648240405111, -11256.316155948181, -8509.979666469058, -6406.144071357736, -6603.9793615316585, -9344.862025363687, -11695.326768794868, -16229.981628654199, 0.008, 0.23600000000000002, 0.9440000000000001, 192.0, 0.0, 0.0, 0.0, 0.0, 0.0, 0.0, 0.0, 0.0, 0.0, 1.644587430876308E9, 0.0, 2022-02-12 00:50:30.876
154.0, -10517.970981356024, -9666.123648419816, -7103.764367552325, -12084.58239848404, -9183.840058307655, -5867.623492196023, -9020.471158083816, -6698.728406277705, -9329.148749011607, -11276.924464335974, -8502.804756498905, -6408.133376614258, -6598.056149251002, -9333.842615347221, -11694.276236805468, -16216.235305814185, 0.008, 0.23600000000000002, 0.9440000000000001, 192.0, 0.0, 0.0, 0.0, 0.0, 0.0, 0.0, 0.0, 0.0, 0.0, 1.644587430884609E9, 0.0, 2022-02-12 00:50:30.884
156.0, -10485.337434451276, -9663.284976873992, -7089.459251100929, -12085.074136862057, -9183.504782140826, -5869.702204430367, -9019.375922605506, -6697.163784165834, -9334.870795592165, -11259.221882727372, -8506.224573400566, -6402.657199222708, -6610.416663934787, -9321.750321596899, -11694.477402505565, -16194.196485781253, 0.006, 0.234, 0.9400000000000001, 192.0, 0.0, 24.0, 3.5, 40.0, 14.5, 48.0, 0.0, 0.0, 0.0, 1.644587430891377E9, 0.0, 2022-02-12 00:50:30.891
158.0, -10483.1246117502, -9665.631910041799, -7100.948047750956, -12100.206267858299, -9190.098546755142, -5868.5399137186905, -9025.053265697154, -6702.751720279661, -9350.226444032962, -11282.46769696089, -8507.655085045706, -6411.664952238197, -6607.376826688866, -9320.453920418491, -11694.74562343903, -16245.560794539548, 0.006, 0.234, 0.9400000000000001, 192.0, 0.0, 0.0, 0.0, 0.0, 0.0, 0.0, 0.0, 0.0, 0.0, 1.644587430898466E9, 0.0, 2022-02-12 00:50:30.898
160.0, -10508.024455073411, -9672.292729889481, -7097.349416893651, -12080.760250182182, -9170.80899129021, -5865.5447799616795, -9017.11839641552, -6693.676912030806, -9332.389751957626, -11249.744743078321, -8521.379056141264, -6402.612495733798, -6588.869582279871, -9345.711391652989, -11695.371472283778, -16189.167343278808, 0.006, 0.234, 0.9400000000000001, 192.0, 0.0, 0.0, 0.0, 0.0, 0.0, 0.0, 0.0, 0.0, 0.0, 1.644587430906057E9, 0.0, 2022-02-12 00:50:30.906
162.0, -10501.631856159194, -9660.982747195096, -7089.92863773449, -12101.077985892056, -9179.392061161048, -5867.064698584641, -9015.106739414543, -6707.065606959535, -9345.465522463981, -11265.592129897133, -8500.256657631, -6396.868097408784, -6600.11250974089, -9337.08361829324, -11692.823373415873, -16233.602611255958, 0.006, 0.234, 0.9400000000000001, 192.0, 0.0, 0.0, 0.0, 0.0, 0.0, 0.0, 0.0, 0.0, 0.0, 1.644587430914253E9, 0.0, 2022-02-12 00:50:30.914
164.0, -10489.494858919961, -9655.99830818156, -7097.327065149197, -12086.549351996107, -9173.737069813857, -5860.895617114976, -9031.334105889095, -6704.2939906470765, -9326.779464099343, -11279.070231803684, -8501.709521020593, -6412.536670271954, -6593.965780015681, -9341.03987706183, -11693.873905405273, -16220.571544238514, 0.009000000000000001, 0.232, 0.9390000000000001, 192.0, 0.0, 48.0, 3.5, 24.0, 14.5, 40.0, 0.0, 0.0, 0.0, 1.644587430922142E9, 0.0, 2022-02-12 00:50:30.922
166.0, -10440.857462985214, -9641.827302196896, -7091.672073802004, -12085.565875240074, -9172.53007561327, -5849.764448376232, -9009.49645155626, -6695.867382987426, -9312.787272070322, -11258.75249609381, -8512.594820570328, -6415.576507517875, -6590.680073580751, -9337.195377015518, -11698.74658569653, -16200.611436439925, 0.009000000000000001, 0.232, 0.9390000000000001, 192.0, 0.0, 0.0, 0.0, 0.0, 0.0, 0.0, 0.0, 0.0, 0.0, 1.644587430928655E9, 0.0, 2022-02-12 00:50:30.928
168.0, -10488.958417053034, -9644.062476642428, -7097.796451782758, -12095.043014889123, -9183.504782140826, -5866.170628806428, -9022.84044299608, -6706.015074970135, -9340.950470084008, -11277.259740502805, -8496.590971540329, -6396.957504386605, -6598.436128906743, -9326.153615254596, -11699.059510118905, -16249.7852742416, 0.009000000000000001, 0.232, 0.9390000000000001, 192.0, 0.0, 0.0, 0.0, 0.0, 0.0, 0.0, 0.0, 0.0, 0.0, 1.644587430936822E9, 0.0, 2022-02-12 00:50:30.936
170.0, -10508.583248684794, -9671.800991511464, -7099.9198675060115, -12081.386099026931, -9169.311424411706, -5853.698355400366, -9022.147538917963, -6702.952885979758, -9327.450016433004, -11254.170388480472, -8501.217782642578, -6411.352027815822, -6587.7743468015615, -9342.693906151522, -11703.060472376405, -16196.833991626978, 0.009000000000000001, 0.232, 0.9390000000000001, 192.0, 0.0, 0.0, 0.0, 0.0, 0.0, 0.0, 0.0, 0.0, 0.0, 1.644587430946117E9, 0.0, 2022-02-12 00:50:30.946
172.0, -10500.402510214151, -9678.975901481617, -7092.566143580216, -12098.149907368412, -9182.163677473507, -5860.3815269925035, -9013.251544624753, -6706.305647648054, -9340.168159028073, -11259.490103660835, -8493.752299994505, -6396.2422485640345, -6588.154326457301, -9329.7522461119, -11698.679530463163, -16241.69394274878, 0.009000000000000001, 0.232, 0.9390000000000001, 192.0, 0.0, 0.0, 0.0, 0.0, 0.0, 0.0, 0.0, 0.0, 0.0, 1.644587430958532E9, 0.0, 2022-02-12 00:50:30.958
174.0, -10500.715434636526, -9682.686291061198, -7107.005370498344, -12093.545448010618, -9186.634026364569, -5856.224102523816, -9022.21459415133, -6696.56028706554, -9342.716257895978, -11284.412298728503, -8501.731872765049, -6409.027446392471, -6603.688788853739, -9339.452903205503, -11697.539591495943, -16228.439358286781, 0.0055000000000000005, 0.234, 0.9435, 192.0, 0.0, 8.0, 3.5, 48.0, 14.5, 80.0, 0.0, 0.0, 0.0, 1.644587430966313E9, 0.0, 2022-02-12 00:50:30.966
176.0, -10461.845751028748, -9639.256851584536, -7099.338722150174, -12092.494916021218, -9175.592264603647, -5852.424305966414, -9026.394370364473, -6701.321208634521, -9331.56273741278, -11261.211187983894, -8518.316867150888, -6418.102254641325, -6584.39923338881, -9339.27408924986, -11703.015768887493, -16207.54047722107, 0.0055000000000000005, 0.234, 0.9435, 192.0, 0.0, 0.0, 0.0, 0.0, 0.0, 0.0, 0.0, 0.0, 0.0, 1.644587430974315E9, 0.0, 2022-02-12 00:50:30.974
178.0, -10497.74265262397, -9658.792276238475, -7108.391178654573, -12107.44823306182, -9187.796317076245, -5866.148277061972, -9023.68980928538, -6704.495156347175, -9344.012659074386, -11278.42203121448, -8510.180832169155, -6411.977876660571, -6611.0201610350805, -9329.41696994507, -11701.808774686906, -16255.820245244533, 0.0055000000000000005, 0.234, 0.9435, 192.0, 0.0, 0.0, 0.0, 0.0, 0.0, 0.0, 0.0, 0.0, 0.0, 1.644587430980894E9, 0.0, 2022-02-12 00:50:30.980
180.0, -10498.703777635548, -9673.05268920096, -7106.781853053792, -12088.96334039728, -9188.310407198716, -5872.11619283154, -9036.430303624906, -6720.968392010736, -9331.56273741278, -11268.453153187413, -8511.231364158555, -6419.868042453295, -6604.538155143042, -9336.32365898176, -11710.481251535566, -16206.758166165135, 0.0055000000000000005, 0.234, 0.9435, 192.0, 0.0, 0.0, 0.0, 0.0, 0.0, 0.0, 0.0, 0.0, 0.0, 1.64458743098937E9, 0.0, 2022-02-12 00:50:30.989
182.0, -10492.489992676974, -9669.834037999397, -7101.64095182907, -12102.933180681846, -9200.581514904681, -5871.467992242336, -9031.088236700087, -6707.646752315373, -9345.264356763882, -11266.173275252972, -8508.146823423724, -6398.209202076102, -6602.928829542259, -9345.063191063786, -11715.331580082368, -16252.64629753188, 0.0055000000000000005, 0.234, 0.9435, 192.0, 0.0, 0.0, 0.0, 0.0, 0.0, 0.0, 0.0, 0.0, 0.0, 1.644587430996993E9, 0.0, 2022-02-12 00:50:30.996
184.0, -10480.062422759822, -9654.970127936618, -7108.614696099126, -12096.138250367434, -9179.816744305701, -5866.1929805508835, -9022.63927729598, -6704.450452858264, -9346.225481775462, -11262.976975795864, -8511.521936836474, -6407.663989980697, -6593.943428271226, -9340.235214261438, -11709.542478268442, -16232.686189733291, 0.00575, 0.23600000000000002, 0.94875, 192.0, 0.0, 24.0, 3.5, 56.0, 14.5, 104.0, 0.0, 0.0, 0.0, 1.644587431004038E9, 0.0, 2022-02-12 00:50:31.004
186.0, -10484.443364673063, -9651.86323545733, -7101.417434384518, -12103.469622548775, -9189.137421743562, -5867.556436962657, -9025.097969186065, -6702.461147601742, -9333.105007780196, -11261.054725772707, -8514.20414617111, -6408.021617891982, -6595.1727742162675, -9339.877586350154, -11701.853478175817, -16210.580314466992, 0.00575, 0.23600000000000002, 0.94875, 192.0, 0.0, 0.0, 0.0, 0.0, 0.0, 0.0, 0.0, 0.0, 0.0, 1.644587431010558E9, 0.0, 2022-02-12 00:50:31.010
188.0, -10515.333475510297, -9672.113915933838, -7113.666190346025, -12112.879706964459, -9199.978017804387, -5871.915027131442, -9041.906481016455, -6705.366874380931, -9354.607385946201, -11290.7154906649, -8495.853363973303, -6414.973010417582, -6598.033797506547, -9331.830958346243, -11709.676588735174, -16265.632661060414, 0.00575, 0.23600000000000002, 0.94875, 192.0, 0.0, 0.0, 0.0, 0.0, 0.0, 0.0, 0.0, 0.0, 0.0, 1.644587431018529E9, 0.0, 2022-02-12 00:50:31.018
190.0, -10502.36946372622, -9682.395718383279, -7112.101568234154, -12094.01483464418, -9180.666110595002, -5869.545742219179, -9028.003695965255, -6710.70894130575, -9344.303231752305, -11273.258778245305, -8514.49471884903, -6405.272353323979, -6599.620771362874, -9326.913574566075, -11712.649370747731, -16210.87088714491, 0.00575, 0.23600000000000002, 0.94875, 192.0, 0.0, 0.0, 0.0, 0.0, 0.0, 0.0, 0.0, 0.0, 0.0, 1.644587431026936E9, 0.0, 2022-02-12 00:50:31.026
192.0, -10493.384062455185, -9667.375346109313, -7103.987884996878, -12112.991465686735, -9201.229715493884, -5866.572960206623, -9040.051286226664, -6708.85374651596, -9342.984478829441, -11267.536731664746, -8507.029236200957, -6407.149899858225, -6611.981286046659, -9333.529690924846, -11714.348103326334, -16252.825111487522, 0.00575, 0.23600000000000002, 0.94875, 192.0, 0.0, 0.0, 0.0, 0.0, 0.0, 0.0, 0.0, 0.0, 0.0, 1.644587431033731E9, 0.0, 2022-02-12 00:50:31.033
194.0, -10498.36850146872, -9659.060497171939, -7112.727417078903, -12111.24802961922, -9191.57376188919, -5871.579750964613, -9040.632431582502, -6703.668141802328, -9348.66182192109, -11279.316100992692, -8514.718236293584, -6418.07990289687, -6609.88022206786, -9335.518996181368, -11719.354894084323, -16243.92911719431, 0.010875, 0.234, 0.950375, 192.0, 0.0, 64.0, 3.5, 32.0, 14.5, 96.0, 0.0, 0.0, 0.0, 1.644587431041142E9, 0.0, 2022-02-12 00:50:31.041
196.0, -10465.600844097238, -9654.925424447707, -7104.725492563903, -12103.939009182335, -9178.654453594025, -5868.405803251959, -9026.997867464766, -6700.293028389577, -9339.587013672235, -11264.854522330108, -8504.414082099687, -6415.285934839957, -6595.888030038837, -9352.685135923044, -11716.158594627213, -16221.800890183556, 0.010875, 0.234, 0.950375, 192.0, 0.0, 0.0, 0.0, 0.0, 0.0, 0.0, 0.0, 0.0, 0.0, 1.644587431049215E9, 0.0, 2022-02-12 00:50:31.049
198.0, -10501.721263137015, -9673.633834556798, -7107.832385043191, -12109.21402087379, -9184.220037963396, -5874.396070765981, -9029.970649477322, -6711.401845383864, -9340.145807283618, -11297.666883190499, -8505.375207111265, -6408.826280692373, -6590.098928224913, -9348.594766687724, -11708.782518956963, -16272.807571030567, 0.010875, 0.234, 0.950375, 192.0, 0.0, 0.0, 0.0, 0.0, 0.0, 0.0, 0.0, 0.0, 0.0, 1.644587431057242E9, 0.0, 2022-02-12 00:50:31.057
200.0, -10517.881574378202, -9672.449192100668, -7107.675922832003, -12101.457965547797, -9181.582532117669, -5868.025823596218, -9041.235928682796, -6709.814871527537, -9335.362533970181, -11269.883664832552, -8497.865020974281, -6411.262620838002, -6589.204858446701, -9349.712353910489, -11714.549269026431, -16218.917515148822, 0.010875, 0.234, 0.950375, 192.0, 0.0, 0.0, 0.0, 0.0, 0.0, 0.0, 0.0, 0.0, 0.0, 1.644587431063788E9, 0.0, 2022-02-12 00:50:31.063
202.0, -10473.870989545703, -9672.449192100668, -7105.016065241822, -12122.714474524793, -9191.752575844834, -5869.076355585618, -9038.21844318133, -6700.225973156211, -9355.210883046495, -11275.315138735192, -8502.178907654155, -6407.194603347136, -6588.221381690667, -9329.484025178435, -11717.633809761264, -16260.804684258066, 0.010875, 0.234, 0.950375, 192.0, 0.0, 0.0, 0.0, 0.0, 0.0, 0.0, 0.0, 0.0, 0.0, 1.644587431070887E9, 0.0, 2022-02-12 00:50:31.070
204.0, -10505.006969571945, -9683.558009094955, -7115.342571180174, -12114.220811631778, -9197.854602081134, -5877.435908011903, -9053.752905577769, -6714.66520007434, -9353.914481868087, -11295.096432578139, -8526.899937021726, -6428.965202446605, -6614.529384914564, -9343.677382907556, -11723.60172553083, -16251.126378908919, 0.0084375, 0.23500000000000001, 0.9501875, 192.0, 0.0, 24.0, 3.5, 48.0, 14.5, 88.0, 0.0, 0.0, 0.0, 1.644587431085864E9, 0.0, 2022-02-12 00:50:31.085
206.0, -10512.360693497742, -9671.10808743335, -7101.484489617884, -12114.82430873207, -9197.564029403215, -5876.765355678243, -9044.678097328913, -6703.824604013515, -9349.46648472148, -11280.120763793084, -8503.564715810386, -6417.342295329845, -6601.341855685932, -9341.777484628856, -11725.143995898246, -16228.037026886586, 0.0084375, 0.23500000000000001, 0.9501875, 192.0, 0.0, 0.0, 0.0, 0.0, 0.0, 0.0, 0.0, 0.0, 0.0, 1.644587431093591E9, 0.0, 2022-02-12 00:50:31.093
208.0, -10503.419995715618, -9668.224712398614, -7108.055902487744, -12129.576460072572, -9200.782680604778, -5882.912085403453, -9038.330201903605, -6706.618572070429, -9362.944586628031, -11293.822383144186, -8498.803794241405, -6414.727141228574, -6600.872469052371, -9347.879510865154, -11721.344199340845, -16281.569454857046, 0.0084375, 0.23500000000000001, 0.9501875, 192.0, 0.0, 0.0, 0.0, 0.0, 0.0, 0.0, 0.0, 0.0, 0.0, 1.644587431101451E9, 0.0, 2022-02-12 00:50:31.101
210.0, -10508.493841706973, -9676.763078780543, -7112.928582779001, -12115.450157576819, -9189.450346165937, -5872.451468998369, -9053.439981155394, -6706.551516837063, -9339.810531116787, -11263.535769407246, -8517.82512877287, -6426.148882645236, -6583.527515355053, -9353.80272314581, -11722.260620863512, -16223.83489892899, 0.0084375, 0.23500000000000001, 0.9501875, 192.0, 0.0, 0.0, 0.0, 0.0, 0.0, 0.0, 0.0, 0.0, 0.0, 1.644587431109625E9, 0.0, 2022-02-12 00:50:31.109
212.0, -10503.040016059878, -9678.10418344786, -7109.844042044168, -12130.962268228803, -9196.692311369457, -5873.077317843118, -9042.21940543883, -6716.229822186211, -9361.156447071606, -11287.295673763238, -8506.001055956014, -6412.7378359720515, -6583.393404888321, -9353.445095234525, -11727.647391277242, -16267.666669805845, 0.0084375, 0.23500000000000001, 0.9501875, 192.0, 0.0, 0.0, 0.0, 0.0, 0.0, 0.0, 0.0, 0.0, 0.0, 1.64458743111607E9, 0.0, 2022-02-12 00:50:31.116
214.0, -10523.313048280841, -9677.813610769941, -7119.768216582324, -12121.619239046484, -9197.698139869946, -5877.279445800716, -9039.581899593104, -6710.775996539116, -9361.737592427444, -11301.041996603251, -8510.538460080441, -6416.805853462917, -6613.92588781427, -9343.342106740727, -11727.245059877047, -16264.336259882006, 0.00621875, 0.2315, 0.9470937500000001, 192.0, 0.0, 16.0, 3.5, 16.0, 14.5, 64.0, 0.0, 0.0, 0.0, 1.644587431124187E9, 0.0, 2022-02-12 00:50:31.124
216.0, -10494.881629333691, -9677.00894796955, -7110.246373444364, -12121.30631462411, -9195.8205933357, -5877.1676870784395, -9048.50024563077, -6708.809043027049, -9355.747324913422, -11286.736880151855, -8515.366436882787, -6422.907879699216, -6610.59547789043, -9361.715240682988, -11736.073998936892, -16236.150710123864, 0.00621875, 0.2315, 0.9470937500000001, 192.0, 0.0, 0.0, 0.0, 0.0, 0.0, 0.0, 0.0, 0.0, 0.0, 1.644587431132091E9, 0.0, 2022-02-12 00:50:31.132
218.0, -10507.867992862224, -9688.430689386212, -7119.723513093414, -12139.724152055282, -9205.118919029108, -5878.039405112196, -9059.497303902783, -6722.912993778347, -9362.47519999447, -11311.681426963976, -8506.090462933835, -6417.074074396382, -6614.9540680592145, -9333.239118246927, -11740.544347827954, -16290.308986939071, 0.00621875, 0.2315, 0.9470937500000001, 192.0, 0.0, 0.0, 0.0, 0.0, 0.0, 0.0, 0.0, 0.0, 0.0, 1.644587431139117E9, 0.0, 2022-02-12 00:50:31.139
220.0, -10514.104129565256, -9673.656186301254, -7124.640896873581, -12126.044884448635, -9192.601942134135, -5870.484515486302, -9042.64408858348, -6707.691455804284, -9351.165217300084, -11276.589188169144, -8518.74155029554, -6434.9778217050825, -6606.102777254913, -9375.483915267458, -11737.392751859756, -16232.619134499924, 0.00621875, 0.2315, 0.9470937500000001, 192.0, 0.0, 0.0, 0.0, 0.0, 0.0, 0.0, 0.0, 0.0, 0.0, 1.644587431145596E9, 0.0, 2022-02-12 00:50:31.145
222.0, -10521.077873835311, -9700.075948247428, -7114.73907407988, -12131.610468818006, -9196.513497413815, -5878.151163834473, -9036.519710602726, -6708.831394771504, -9365.157409329106, -11288.14504005254, -8510.381997869254, -6409.3627225593, -6596.715044583684, -9360.32943252676, -11737.392751859756, -16273.187550686307, 0.00621875, 0.2315, 0.9470937500000001, 192.0, 0.0, 0.0, 0.0, 0.0, 0.0, 0.0, 0.0, 0.0, 0.0, 1.644587431153737E9, 0.0, 2022-02-12 00:50:31.153
224.0, -10527.291658793887, -9684.25091317307, -7126.093760263177, -12124.189689658844, -9192.356072945127, -5878.732309190311, -9044.365172906539, -6715.536918108096, -9369.851275664721, -11313.022531631295, -8509.800852513416, -6417.275240096479, -6600.492489396631, -9357.893092381131, -11737.3704001153, -16267.152579683374, 0.008109375, 0.23175, 0.947546875, 192.0, 0.0, 40.0, 3.5, 32.0, 14.5, 80.0, 0.0, 0.0, 0.0, 1.644587431161648E9, 0.0, 2022-02-12 00:50:31.161
226.0, -10498.592018913272, -9675.064346201938, -7114.6496671020595, -12126.06723619309, -9195.261799724318, -5874.798402166177, -9046.399181651972, -6718.062665231546, -9363.436325006047, -11282.08771730515, -8519.188585184644, -6422.1255686432805, -6606.6168673773855, -9346.516054453381, -11741.550176328443, -16242.74447473818, 0.008109375, 0.23175, 0.947546875, 192.0, 0.0, 0.0, 0.0, 0.0, 0.0, 0.0, 0.0, 0.0, 0.0, 1.644587431168774E9, 0.0, 2022-02-12 00:50:31.168
228.0, -10505.096376549767, -9695.449137145179, -7118.628277615104, -12145.245032935743, -9199.508631170826, -5889.662312228956, -9045.54981536267, -6732.747761338683, -9377.070889123785, -11303.500688493335, -8515.478195605063, -6427.311173356912, -6614.752902359117, -9354.428571990558, -11742.980687973582, -16301.641321377912, 0.008109375, 0.23175, 0.947546875, 192.0, 0.0, 0.0, 0.0, 0.0, 0.0, 0.0, 0.0, 0.0, 0.0, 1.644587431176372E9, 0.0, 2022-02-12 00:50:31.176
230.0, -10537.998144387979, -9697.304331934969, -7115.633143858093, -12132.482186851763, -9192.467831667404, -5879.268751057238, -9050.020164253732, -6726.153996724367, -9355.680269680057, -11298.85152564663, -8528.017524244491, -6431.535653058965, -6607.175660988768, -9352.595728945224, -11741.617231561808, -16246.007829428654, 0.008109375, 0.23175, 0.947546875, 192.0, 0.0, 0.0, 0.0, 0.0, 0.0, 0.0, 0.0, 0.0, 0.0, 1.644587431184464E9, 0.0, 2022-02-12 00:50:31.184
232.0, -10515.847565632768, -9698.041939501994, -7112.079216489699, -12144.842701535548, -9200.11212827112, -5877.659425456456, -9044.432228139905, -6702.617609812929, -9354.003888845908, -11293.442403488447, -8521.446111374631, -6437.056533939426, -6598.436128906743, -9350.047630077319, -11744.813531018917, -16284.005795002675, 0.008109375, 0.23175, 0.947546875, 192.0, 0.0, 0.0, 0.0, 0.0, 0.0, 0.0, 0.0, 0.0, 0.0, 1.644587431192326E9, 0.0, 2022-02-12 00:50:31.192
234.0, -10515.825213888314, -9703.741634338097, -7127.0325335303, -12137.01959097619, -9197.161698003018, -5873.97138762133, -9044.49928337327, -6713.033522729102, -9364.397450017626, -11304.90884839402, -8530.20799520111, -6427.042952423448, -6595.9327335277485, -9367.973729130475, -11739.963202472116, -16274.305137909072, 0.014, 0.23800000000000002, 0.9440000000000001, 192.0, 0.0, 56.0, 3.5, 56.0, 14.5, 64.0, 0.0, 0.0, 0.0, 1.644587431206071E9, 0.0, 2022-02-12 00:50:31.206
236.0, -10523.17893781411, -9673.097392689871, -7124.9314695515, -12139.902966010925, -9203.688407383968, -5869.411631752448, -9047.740286319291, -6715.648676830373, -9366.453810507513, -11279.718432392889, -8532.152596968723, -6432.362667603811, -6597.206782961701, -9350.360554499694, -11748.926251998693, -16247.8853759629, 0.014, 0.23800000000000002, 0.9440000000000001, 192.0, 0.0, 0.0, 0.0, 0.0, 0.0, 0.0, 0.0, 0.0, 0.0, 1.644587431214099E9, 0.0, 2022-02-12 00:50:31.214
238.0, -10533.70660945256, -9703.294599448991, -7130.765274854336, -12151.525873127684, -9217.702951157446, -5881.727442947322, -9066.180475494919, -6727.517453136141, -9387.598560762235, -11314.922429909997, -8523.390713142242, -6435.693077527652, -6630.779103133572, -9351.031106833352, -11756.36938290231, -16308.27978948114, 0.014, 0.23800000000000002, 0.9440000000000001, 192.0, 0.0, 0.0, 0.0, 0.0, 0.0, 0.0, 0.0, 0.0, 0.0, 1.644587431221169E9, 0.0, 2022-02-12 00:50:31.221
240.0, -10512.69596966457, -9700.187706969704, -7129.893556820579, -12137.220756676288, -9206.080044040686, -5879.536971990701, -9066.895731317489, -6734.267679961644, -9360.731763926955, -11296.638702945555, -8537.427608660175, -6432.943812959649, -6618.686809383251, -9351.031106833352, -11758.001060247549, -16254.523844066125, 0.014, 0.23800000000000002, 0.9440000000000001, 192.0, 0.0, 0.0, 0.0, 0.0, 0.0, 0.0, 0.0, 0.0, 0.0, 1.644587431228883E9, 0.0, 2022-02-12 00:50:31.228
242.0, -10518.686237178594, -9691.96226501015, -7125.0432282737775, -12155.102152240534, -9212.696160399457, -5874.574884721624, -9051.383620665505, -6727.450397902775, -9372.891112910642, -11289.396737742036, -8536.913518537704, -6438.308231628923, -6618.373884960876, -9341.598670673213, -11757.464618380622, -16291.963016028765, 0.014, 0.23800000000000002, 0.9440000000000001, 192.0, 0.0, 0.0, 0.0, 0.0, 0.0, 0.0, 0.0, 0.0, 0.0, 1.644587431236703E9, 0.0, 2022-02-12 00:50:31.236
244.0, -10542.22262409003, -9700.455927903167, -7134.185091755998, -12146.78730330316, -9198.301636970238, -5887.829469183621, -9052.501207888272, -6733.552424139074, -9376.802668190321, -11310.943819396953, -8534.432474903164, -6442.51035958652, -6608.40500693381, -9344.32558349676, -11755.497664868553, -16286.777411315134, 0.01, 0.24, 0.9420000000000001, 192.0, 0.0, 40.0, 3.5, 64.0, 14.5, 56.0, 0.0, 0.0, 0.0, 1.644587431244653E9, 0.0, 2022-02-12 00:50:31.244
246.0, -10519.535603467895, -9704.72511109413, -7126.987830041388, -12147.703724825828, -9193.093680512153, -5873.524352732224, -9045.661574084947, -6720.387246654898, -9370.790048931844, -11298.315083779704, -8533.471349891586, -6432.69794377064, -6604.582858631952, -9376.646205979134, -11756.347031157855, -16258.770675512635, 0.01, 0.24, 0.9420000000000001, 192.0, 0.0, 0.0, 0.0, 0.0, 0.0, 0.0, 0.0, 0.0, 0.0, 1.644587431251378E9, 0.0, 2022-02-12 00:50:31.251
248.0, -10506.0798533058, -9688.833020786407, -7128.820673086724, -12150.542396371651, -9205.364788218116, -5872.920855631931, -9045.818036296134, -6715.291048919088, -9381.80945894831, -11309.021569373796, -8529.40333240072, -6427.981725690571, -6612.920059313782, -9354.428571990558, -11753.32954565639, -16311.163164515874, 0.01, 0.24, 0.9420000000000001, 192.0, 0.0, 0.0, 0.0, 0.0, 0.0, 0.0, 0.0, 0.0, 0.0, 1.644587431258726E9, 0.0, 2022-02-12 00:50:31.258
250.0, -10524.520042481428, -9683.513305606044, -7123.724475350914, -12136.706666553817, -9192.087852011664, -5869.054003841163, -9047.382658408005, -6713.592316340485, -9369.538351242347, -11289.039109830752, -8540.176873228178, -6436.855368239328, -6619.335009972455, -9349.645298677124, -11752.726048556096, -16252.400428342871, 0.01, 0.24, 0.9420000000000001, 192.0, 0.0, 0.0, 0.0, 0.0, 0.0, 0.0, 0.0, 0.0, 0.0, 1.644587431266322E9, 0.0, 2022-02-12 00:50:31.266
252.0, -10526.46464424904, -9692.67752083272, -7111.699236833959, -12148.88836728196, -9198.569857903703, -5877.391204522992, -9049.260204942251, -6718.599107098474, -9374.254569322417, -11294.738804666855, -8527.101102721823, -6423.757245988518, -6615.624620392874, -9346.828978875754, -11757.285804424979, -16291.627739861935, 0.01, 0.24, 0.9420000000000001, 192.0, 0.0, 0.0, 0.0, 0.0, 0.0, 0.0, 0.0, 0.0, 0.0, 1.644587431274532E9, 0.0, 2022-02-12 00:50:31.274
254.0, -10538.378124043718, -9692.655169088266, -7121.466949160928, -12147.12257946999, -9191.037320022264, -5879.961655135353, -9047.717934574835, -6725.170519968334, -9371.058269865307, -11304.975903627384, -8527.034047488458, -6429.255775124523, -6605.409873176798, -9348.460656220992, -11752.033144477982, -16289.45962064977, 0.004, 0.24, 0.9460000000000001, 192.0, 0.0, 16.0, 3.5, 64.0, 14.5, 72.0, 0.0, 0.0, 0.0, 1.6445874312809E9, 0.0, 2022-02-12 00:50:31.280
0.0, -10512.986542342489, -9689.235352186603, -7116.594268869671, -12144.26155617971, -9195.86529682461, -5873.904332387964, -9039.872472271023, -6708.607877326951, -9363.682194195057, -11282.89238010554, -8530.699733579127, -6428.965202446605, -6596.044492250025, -9354.316813268282, -11753.486007867576, -16259.620041801936, 0.004, 0.24, 0.9460000000000001, 192.0, 0.0, 0.0, 0.0, 0.0, 0.0, 0.0, 0.0, 0.0, 0.0, 1.644587431289029E9, 0.0, 2022-02-12 00:50:31.289
2.0, -10519.245030789976, -9697.952532524174, -7116.4154549140285, -12149.670678337894, -9200.223886993395, -5879.469916757335, -9063.073583015632, -6736.14522649589, -9376.400336790126, -11308.462775762413, -8520.015599729491, -6426.975897190082, -6605.231059221156, -9357.80368540331, -11758.068115480914, -16311.252571493695, 0.004, 0.24, 0.9460000000000001, 192.0, 0.0, 0.0, 0.0, 0.0, 0.0, 0.0, 0.0, 0.0, 0.0, 1.644587431296952E9, 0.0, 2022-02-12 00:50:31.296
4.0, -10526.88932739369, -9697.4384424017, -7119.343533437674, -12136.97488748728, -9187.125764742585, -5866.595311951079, -9039.581899593104, -6710.3960168833755, -9363.145752328128, -11294.80585990022, -8530.20799520111, -6429.546347802442, -6603.822899320472, -9348.281842265349, -11756.19056894667, -16257.451922589771, 0.004, 0.24, 0.9460000000000001, 192.0, 0.0, 0.0, 0.0, 0.0, 0.0, 0.0, 0.0, 0.0, 0.0, 1.644587431303608E9, 0.0, 2022-02-12 00:50:31.303
6.0, -10519.625010445716, -9701.394701170291, -7112.861527545635, -12154.677469095883, -9208.426977208494, -5864.337785761093, -9050.534254376204, -6709.971333738725, -9377.584979246258, -11290.961359853907, -8534.79010281445, -6422.684362254663, -6618.172719260779, -9336.256603748394, -11754.894167768261, -16291.247760206195, 0.004, 0.24, 0.9460000000000001, 192.0, 0.0, 0.0, 0.0, 0.0, 0.0, 0.0, 0.0, 0.0, 0.0, 1.64458743131157E9, 0.0, 2022-02-12 00:50:31.311
8.0, -10536.947612398579, -9702.936971537707, -7125.870242818623, -12147.703724825828, -9199.352168959638, -5877.614721967545, -9051.74124857679, -6712.698246562272, -9379.507229269413, -11308.820403673697, -8532.711390580105, -6430.105141413826, -6615.088178525946, -9348.907691110098, -11757.08463872488, -16289.929007283332, 0.004, 0.24, 0.9460000000000001, 192.0, 0.0, 0.0, 3.5, 40.0, 14.5, 72.0, 0.0, 0.0, 0.0, 1.64458743131865E9, 0.0, 2022-02-12 00:50:31.318
10.0, -10530.17503382862, -9688.967131253139, -7118.404760170551, -12142.07108522309, -9191.126727000086, -5869.545742219179, -9047.382658408005, -6710.775996539116, -9367.817266919288, -11287.720356907888, -8528.933945767158, -6434.910766471716, -6604.0911202539355, -9350.114685310684, -11755.743534057563, -16256.60255630047, 0.004, 0.24, 0.9460000000000001, 192.0, 0.0, 0.0, 0.0, 0.0, 0.0, 0.0, 0.0, 0.0, 0.0, 1.644587431333778E9, 0.0, 2022-02-12 00:50:31.333
12.0, -10514.528812709907, -9706.580305883921, -7123.143329995076, -12152.330535928075, -9198.525154414792, -5875.603064966567, -9044.208710695351, -6717.570926853529, -9380.244836836438, -11304.6182757161, -8530.20799520111, -6417.051722651926, -6593.339931170933, -9351.969880100474, -11754.223615434601, -16310.336149971028, 0.004, 0.24, 0.9460000000000001, 192.0, 0.0, 0.0, 0.0, 0.0, 0.0, 0.0, 0.0, 0.0, 0.0, 1.644587431341243E9, 0.0, 2022-02-12 00:50:31.341
14.0, -10547.855263692769, -9698.690140091197, -7124.126806751109, -12138.584213088061, -9192.311369456216, -5860.3815269925035, -9058.69264110239, -6712.1841564398, -9371.907636154609, -11296.169316311994, -8533.247832447032, -6427.311173356912, -6601.7441870861285, -9367.973729130475, -11754.4247811347, -16252.26631787614, 0.004, 0.24, 0.9460000000000001, 192.0, 0.0, 0.0, 0.0, 0.0, 0.0, 0.0, 0.0, 0.0, 0.0, 1.64458743134924E9, 0.0, 2022-02-12 00:50:31.349
16.0, -10530.644420462182, -9692.141078965793, -7116.258992702841, -12156.26444295221, -9198.078119525686, -5862.035556082196, -9056.859798057056, -6718.241479187189, -9381.764755459399, -11304.394758271546, -8517.556907839407, -6436.073057183392, -6605.298114454522, -9355.657917935601, -11758.112818969825, -16290.756021828178, 0.004, 0.24, 0.9460000000000001, 192.0, 0.0, 0.0, 0.0, 0.0, 0.0, 0.0, 0.0, 0.0, 0.0, 1.644587431356617E9, 0.0, 2022-02-12 00:50:31.356
18.0, -10531.60554547376, -9710.849489074884, -7125.736132351892, -12152.554053372629, -9196.513497413815, -5867.712899173845, -9062.581844637614, -6715.939249508292, -9381.340072314748, -11316.28588632177, -8524.30713466491, -6434.240214138057, -6618.93267857226, -9332.635621146634, -11760.37034515981, -16290.08546949452, 0.004, 0.24, 0.9460000000000001, 192.0, 0.0, 0.0, 3.5, 56.0, 14.5, 80.0, 0.0, 0.0, 0.0, 1.644587431364544E9, 0.0, 2022-02-12 00:50:31.364
20.0, -10538.355772299263, -9701.238238959104, -7112.325085678707, -12149.894195782446, -9189.271532210294, -5861.58852119309, -9046.667402585435, -6709.9266302498145, -9380.37894730317, -11283.831153372665, -8536.73470458206, -6426.819434978895, -6608.829690078461, -9354.428571990558, -11758.2245776921, -16261.095256935985, 0.004, 0.24, 0.9460000000000001, 192.0, 0.0, 0.0, 0.0, 0.0, 0.0, 0.0, 0.0, 0.0, 0.0, 1.644587431371196E9, 0.0, 2022-02-12 00:50:31.371
22.0, -10531.717304196038, -9706.15562273927, -7120.282306704797, -12160.287756954165, -9204.91775332901, -5870.842143397587, -9056.36805967904, -6716.073359975024, -9391.398357319636, -11305.489993749858, -8518.83095727336, -6420.672705253685, -6596.044492250025, -9342.89507185162, -11755.587071846376, -16318.338074486028, 0.004, 0.24, 0.9460000000000001, 192.0, 0.0, 0.0, 0.0, 0.0, 0.0, 0.0, 0.0, 0.0, 0.0, 1.644587431379246E9, 0.0, 2022-02-12 00:50:31.379
24.0, -10533.125464096722, -9721.041884546505, -7124.88676606259, -12147.301393425632, -9193.853639823632, -5866.64001543999, -9063.498266160283, -6720.946040266281, -9378.099069368729, -11318.05167413374, -8535.281841192465, -6434.620193793798, -6613.1882802472455, -9365.626795962668, -11764.393659161766, -16264.291556393095, 0.004, 0.24, 0.9460000000000001, 192.0, 0.0, 0.0, 0.0, 0.0, 0.0, 0.0, 0.0, 0.0, 0.0, 1.644587431386141E9, 0.0, 2022-02-12 00:50:31.386
26.0, -10528.31983903883, -9701.819384314942, -7113.7108938349365, -12162.478227910786, -9202.01202654982, -5862.504942715757, -9050.243681698284, -6717.99560999818, -9382.390604304148, -11316.28588632177, -8533.963088269602, -6434.2178623936015, -6591.954123014703, -9359.94945287102, -11765.33243242889, -16300.479030666236, 0.004, 0.24, 0.9460000000000001, 192.0, 0.0, 0.0, 0.0, 0.0, 0.0, 0.0, 0.0, 0.0, 0.0, 1.644587431394232E9, 0.0, 2022-02-12 00:50:31.394
28.0, -10555.052525407378, -9719.566669412456, -7125.490263162883, -12158.03023076418, -9196.982884047377, -5865.96946310633, -9065.062888272154, -6720.789578055093, -9393.81234572081, -11316.755272955332, -8537.338201682354, -6435.626022294286, -6616.384579704354, -9363.078697094763, -11763.99132776157, -16300.121402754952, 0.002, 0.242, 0.9480000000000001, 192.0, 0.0, 8.0, 3.5, 72.0, 14.5, 80.0, 0.0, 0.0, 0.0, 1.644587431400761E9, 0.0, 2022-02-12 00:50:31.400
30.0, -10551.23037710552, -9705.395663427791, -7110.201669955453, -12153.0681434951, -9193.607770634624, -5849.831503609598, -9059.877283558522, -6724.56702286804, -9378.52375251338, -11289.106165064117, -8527.16815795519, -6428.1158361573025, -6612.987114547148, -9353.66861267908, -11764.3266039284, -16266.258509905161, 0.002, 0.242, 0.9480000000000001, 192.0, 0.0, 0.0, 0.0, 0.0, 0.0, 0.0, 0.0, 0.0, 0.0, 1.644587431408896E9, 0.0, 2022-02-12 00:50:31.408
32.0, -10514.037074331889, -9711.251820475081, -7118.404760170551, -12160.578329632084, -9203.956628317432, -5861.409707237448, -9060.167856236441, -6720.007266999158, -9389.945493930041, -11311.949647897442, -8514.651181060217, -6425.1207024002915, -6607.600344133419, -9337.888281093632, -11759.677441081696, -16319.813289620077, 0.002, 0.242, 0.9480000000000001, 192.0, 0.0, 0.0, 0.0, 0.0, 0.0, 0.0, 0.0, 0.0, 0.0, 1.644587431416818E9, 0.0, 2022-02-12 00:50:31.416
34.0, -10520.697894179571, -9711.140061752803, -7122.472777661416, -12148.530739370673, -9196.468793924903, -5858.012242080241, -9062.581844637614, -6719.895508276882, -9375.863894923199, -11302.248990803837, -8550.190454744155, -6444.164388676213, -6612.875355824871, -9353.199226045517, -11764.28190043949, -16266.839655261, 0.002, 0.242, 0.9480000000000001, 192.0, 0.0, 0.0, 0.0, 0.0, 0.0, 0.0, 0.0, 0.0, 0.0, 1.644587431423966E9, 0.0, 2022-02-12 00:50:31.423
36.0, -10548.861092193258, -9700.21005871416, -7113.107396734643, -12160.399515676441, -9208.829308608689, -5862.996681093774, -9062.134809748508, -6721.817758300038, -9380.513057769902, -11292.95066511043, -8526.899937021726, -6426.752379745529, -6595.373939916366, -9342.425685218059, -11761.08560098238, -16299.964940543765, 0.002, 0.242, 0.9480000000000001, 192.0, 0.0, 0.0, 0.0, 0.0, 0.0, 0.0, 0.0, 0.0, 0.0, 1.644587431431582E9, 0.0, 2022-02-12 00:50:31.431
38.0, -10559.545226042894, -9737.246899276603, -7131.569937654726, -12161.78532383267, -9214.908983100531, -5868.696375929878, -9080.70910939087, -6728.746799081183, -9395.645188766144, -11323.416092803012, -8528.0622277334, -6434.910766471716, -6614.797605848027, -9353.065115578785, -11772.082659254393, -16307.765699358666, 0.002, 0.242, 0.9480000000000001, 192.0, 0.0, 0.0, 3.5, 80.0, 15.0, 8.0, 0.0, 0.0, 0.0, 1.644587431439439E9, 0.0, 2022-02-12 00:50:31.439
40.0, -10538.9369176551, -9724.796977614997, -7128.910080064546, -12163.1711319889, -9207.219983007906, -5866.461201484347, -9066.001661539276, -6726.37751416892, -9388.80555496282, -11305.08766234966, -8541.495626151042, -6442.242138653057, -6610.439015679242, -9365.917368640587, -11781.939778559183, -16281.591806601502, 0.002, 0.242, 0.9480000000000001, 192.0, 0.0, 0.0, 0.0, 0.0, 0.0, 0.0, 0.0, 0.0, 0.0, 1.644587431453529E9, 0.0, 2022-02-12 00:50:31.453
42.0, -10549.598699760283, -9726.763931127063, -7126.764312596836, -12178.571483918606, -9219.44638722496, -5866.170628806428, -9067.767449351246, -6728.098598491979, -9399.802613234831, -11320.845642190652, -8539.953355783624, -6440.8563304968275, -6630.779103133572, -9362.27403429437, -11779.637548880286, -16336.353580517005, 0.002, 0.242, 0.9480000000000001, 192.0, 0.0, 0.0, 0.0, 0.0, 0.0, 0.0, 0.0, 0.0, 0.0, 1.64458743146109E9, 0.0, 2022-02-12 00:50:31.461
44.0, -10549.688106738104, -9732.30716375198, -7130.072370776221, -12159.594852876051, -9208.851660353144, -5863.555474705157, -9072.483667431316, -6736.525206151629, -9402.462470825014, -11318.409302045024, -8545.988326786557, -6441.929214230682, -6625.638201908851, -9366.163237829594, -11778.408202935243, -16287.984405515721, 0.002, 0.242, 0.9480000000000001, 192.0, 0.0, 0.0, 0.0, 0.0, 0.0, 0.0, 0.0, 0.0, 0.0, 1.644587431469156E9, 0.0, 2022-02-12 00:50:31.469
46.0, -10560.439295821106, -9725.132253781827, -7124.730303851403, -12172.514161171219, -9209.835137109178, -5873.323187032126, -9069.26501622975, -6729.99849677068, -9412.38664536317, -11316.665865977511, -8537.517015637995, -6437.6823827841745, -6617.16689076029, -9360.441191249036, -11779.503438413554, -16318.695702397312, 0.002, 0.242, 0.9480000000000001, 192.0, 0.0, 0.0, 0.0, 0.0, 0.0, 0.0, 0.0, 0.0, 0.0, 1.644587431476189E9, 0.0, 2022-02-12 00:50:31.476
48.0, -10531.918469896134, -9728.037980561016, -7132.821635344224, -12178.526780429696, -9211.19859352095, -5872.54087597619, -9074.785897110212, -6740.3920579423975, -9407.893944727653, -11324.846604448154, -8543.842559318848, -6448.388868378266, -6615.177585503768, -9362.56460697229, -11779.212865735635, -16325.960019345286, -0.002, 0.23800000000000002, 0.9480000000000001, 192.0, 127.5, 120.0, 3.5, 56.0, 14.5, 80.0, 0.0, 0.0, 0.0, 1.644587431483709E9, 0.0, 2022-02-12 00:50:31.483
50.0, -10522.0837023358, -9705.06038726096, -7124.976173040411, -12162.50057965524, -9205.96828531841, -5862.236721782294, -9071.522542419738, -6726.1316449799115, -9384.648130494134, -11292.302464521226, -8548.782294843471, -6443.516188087009, -6596.06684399448, -9356.32847026926, -11781.13511575879, -16288.36438517146, -0.002, 0.23800000000000002, 0.9480000000000001, 192.0, 0.0, 0.0, 0.0, 0.0, 0.0, 0.0, 0.0, 0.0, 0.0, 1.644587431491743E9, 0.0, 2022-02-12 00:50:31.491
52.0, -10548.592871259794, -9731.278983507036, -7121.958687538945, -12173.855265838536, -9213.836099366677, -5864.561303205646, -9073.668309887447, -6731.943098538291, -9399.646151023646, -11320.823290446198, -8537.137035982256, -6429.434589080166, -6621.681943140262, -9362.028165105363, -11779.19051399118, -16343.170862575873, -0.002, 0.23800000000000002, 0.9480000000000001, 192.0, 0.0, 0.0, 0.0, 0.0, 0.0, 0.0, 0.0, 0.0, 0.0, 1.644587431499736E9, 0.0, 2022-02-12 00:50:31.499
54.0, -10565.289624367908, -9712.056483275472, -7127.121940508121, -12158.387858675464, -9207.510555685825, -5847.506922186247, -9068.817981340646, -6709.1666709383335, -9391.130136386173, -11312.933124653475, -8538.232271460565, -6449.349993389845, -6622.196033262734, -9354.160351057095, -11778.85523782435, -16287.246797948696, -0.002, 0.23800000000000002, 0.9480000000000001, 192.0, 0.0, 0.0, 0.0, 0.0, 0.0, 0.0, 0.0, 0.0, 0.0, 1.644587431505833E9, 0.0, 2022-02-12 00:50:31.505
56.0, -10542.75906595696, -9743.326573768447, -7113.442672901473, -12172.044774537657, -9221.212175036928, -5862.951977604864, -9071.097859275087, -6725.416389157342, -9407.178688905084, -11313.402511287035, -8533.091370235845, -6439.917557229705, -6620.519652428586, -9349.332374254749, -11780.822191336418, -16322.227278021252, 0.002, 0.23800000000000002, 0.9440000000000001, 192.0, 0.0, 24.0, 3.5, 56.0, 14.5, 48.0, 0.0, 0.0, 0.0, 1.644587431513379E9, 0.0, 2022-02-12 00:50:31.513
58.0, -10534.690086208593, -9737.82804463244, -7127.121940508121, -12168.960233802823, -9213.523174944303, -5864.15897180545, -9072.863647087055, -6722.421255400331, -9403.222430136495, -11334.144930141561, -8541.719143595594, -6434.731952516074, -6607.823861577972, -9349.37707774366, -11778.38585119079, -16325.557687945091, 0.002, 0.23800000000000002, 0.9440000000000001, 192.0, 0.0, 0.0, 0.0, 0.0, 0.0, 0.0, 0.0, 0.0, 0.0, 1.644587431521386E9, 0.0, 2022-02-12 00:50:31.521
60.0, -10548.972850915534, -9714.537526910011, -7119.634106115593, -12170.278986725687, -9207.130576030086, -5859.152181047461, -9069.287367974206, -6722.756531567161, -9391.018377663897, -11309.75917694082, -8546.748286098038, -6443.002097964537, -6605.700445854717, -9357.84838889222, -11783.146772759768, -16292.834734062522, 0.002, 0.23800000000000002, 0.9440000000000001, 192.0, 0.0, 0.0, 0.0, 0.0, 0.0, 0.0, 0.0, 0.0, 0.0, 1.644587431529343E9, 0.0, 2022-02-12 00:50:31.529
62.0, -10559.411115576162, -9727.546242183, -7125.110283507143, -12187.199257278355, -9220.943954103464, -5869.769259663733, -9065.308757461162, -6728.724447336727, -9412.34194187426, -11338.168244143515, -8533.873681291781, -6432.921461215194, -6606.840384821938, -9350.002926588408, -11782.52092391502, -16353.586775492047, 0.002, 0.23800000000000002, 0.9440000000000001, 192.0, 0.0, 0.0, 0.0, 0.0, 0.0, 0.0, 0.0, 0.0, 0.0, 1.644587431536068E9, 0.0, 2022-02-12 00:50:31.536
64.0, -10545.173054358133, -9721.712436880165, -7126.876071319112, -12170.323690214598, -9213.25495401084, -5860.403878736959, -9068.88503657401, -6719.113197220945, -9395.019339921397, -11318.833985189674, -8544.200187230133, -6437.32475487289, -6629.326239743977, -9358.697755181522, -11784.174953004713, -16301.149582999897, 0.002, 0.23800000000000002, 0.9440000000000001, 192.0, 0.0, 0.0, 0.0, 0.0, 0.0, 0.0, 0.0, 0.0, 0.0, 1.644587431544016E9, 0.0, 2022-02-12 00:50:31.544
66.0, -10525.257650048454, -9718.694951378699, -7118.494167148372, -12186.640463666972, -9207.555259174736, -5867.3105677736485, -9064.191170238397, -6727.293935691588, -9399.847316723743, -11316.308238066225, -8533.471349891586, -6426.193586134146, -6614.037646536547, -9349.622946932668, -11779.704604113651, -16333.917240371376, 0.005, 0.23800000000000002, 0.9460000000000001, 192.0, 0.0, 32.0, 3.5, 56.0, 14.5, 80.0, 0.0, 0.0, 0.0, 1.644587431552023E9, 0.0, 2022-02-12 00:50:31.552
68.0, -10518.261554033943, -9728.26149800557, -7136.3755627126175, -12186.46164971133, -9210.997427820854, -5871.199771308872, -9079.792687868201, -6724.969354268236, -9402.373063847192, -11322.454967791435, -8546.100085508835, -6435.380153105278, -6616.764559360095, -9363.95041512852, -11783.929083815705, -16339.95221137431, 0.005, 0.23800000000000002, 0.9460000000000001, 192.0, 0.0, 0.0, 0.0, 0.0, 0.0, 0.0, 0.0, 0.0, 0.0, 1.644587431559102E9, 0.0, 2022-02-12 00:50:31.559
70.0, -10553.063220150856, -9728.663829405765, -7126.518443407827, -12185.098193299556, -9203.956628317432, -5872.429117253914, -9058.670289357935, -6733.9324037948145, -9395.220505621493, -11321.6726567355, -8553.45380943463, -6459.430630139188, -6605.700445854717, -9370.90180765412, -11783.884380326794, -16304.435289434827, 0.005, 0.23800000000000002, 0.9460000000000001, 192.0, 0.0, 0.0, 0.0, 0.0, 0.0, 0.0, 0.0, 0.0, 0.0, 1.644587431565601E9, 0.0, 2022-02-12 00:50:31.565
72.0, -10570.162304659165, -9745.092361580415, -7133.805112100257, -12199.045681839667, -9222.866204126622, -5872.742041676288, -9066.716917361846, -6723.628249600917, -9416.275848898393, -11339.665811022021, -8543.239062218556, -6441.482179341577, -6619.603230905918, -9361.357612771704, -11786.14190651678, -16364.539130275147, 0.005, 0.23800000000000002, 0.9460000000000001, 192.0, 0.0, 0.0, 0.0, 0.0, 0.0, 0.0, 0.0, 0.0, 0.0, 1.644587431581891E9, 0.0, 2022-02-12 00:50:31.581
74.0, -10534.466568764039, -9734.631745175331, -7137.806074357757, -12182.50539094274, -9208.941067330965, -5868.651672440967, -9064.861722572055, -6725.774017068627, -9397.321569600294, -11324.578383514689, -8552.492684423052, -6455.139095203769, -6598.681998095751, -9364.956243629009, -11787.438307695187, -16310.89494358241, 0.005, 0.23800000000000002, 0.9460000000000001, 192.0, 0.0, 0.0, 0.0, 0.0, 0.0, 0.0, 0.0, 0.0, 0.0, 1.644587431588417E9, 0.0, 2022-02-12 00:50:31.588
76.0, -10538.914565910645, -9714.761044354564, -7120.148196238065, -12187.713347400826, -9219.222869780406, -5860.537989203691, -9073.355385465073, -6722.533014122608, -9414.040674452863, -11311.010874630318, -8541.428570917675, -6434.307269371423, -6621.860757095905, -9363.145752328128, -11790.969883319127, -16341.673295697368, 0.0055, 0.23800000000000002, 0.9460000000000001, 192.0, 0.0, 24.0, 3.5, 56.0, 14.5, 72.0, 0.0, 0.0, 0.0, 1.644587431596564E9, 0.0, 2022-02-12 00:50:31.596
78.0, -10560.61810977675, -9724.282887492525, -7131.681696377003, -12183.332405487587, -9214.73016914489, -5866.707070673356, -9088.286350761218, -6739.207415486267, -9409.167994161606, -11333.273212107804, -8534.276012691977, -6432.0497431814365, -6615.2446407371335, -9361.111743582696, -11790.768717619028, -16347.350638789016, 0.0055, 0.23800000000000002, 0.9460000000000001, 192.0, 0.0, 0.0, 0.0, 0.0, 0.0, 0.0, 0.0, 0.0, 0.0, 1.644587431604423E9, 0.0, 2022-02-12 00:50:31.604
80.0, -10553.018516661945, -9728.887346850319, -7121.26578346083, -12189.188562534877, -9210.30452374274, -5860.202713036861, -9064.191170238397, -6733.485368905708, -9403.580058047779, -11318.454005533935, -8550.79395184445, -6442.0856764418695, -6618.955030316714, -9366.342051785237, -11794.85908685435, -16313.286580239128, 0.0055, 0.23800000000000002, 0.9460000000000001, 192.0, 0.0, 0.0, 0.0, 0.0, 0.0, 0.0, 0.0, 0.0, 0.0, 1.644587431611693E9, 0.0, 2022-02-12 00:50:31.611
82.0, -10554.13610388471, -9740.934937111728, -7132.687524877492, -12191.93782710288, -9225.436654738982, -5871.423288753425, -9072.573074409136, -6731.183139226811, -9413.839508752764, -11332.312087096225, -8543.462579663108, -6441.012792708015, -6613.434149436253, -9348.684173665544, -11794.47910719861, -16365.008516908709, 0.0055, 0.23800000000000002, 0.9460000000000001, 192.0, 0.0, 0.0, 0.0, 0.0, 0.0, 0.0, 0.0, 0.0, 0.0, 1.644587431618997E9, 0.0, 2022-02-12 00:50:31.618
84.0, -10549.822217204835, -9741.73959991212, -7135.280327234308, -12176.783344362182, -9218.149986046552, -5869.009300352252, -9079.837391357112, -6742.649584132384, -9414.28654364187, -11329.629877761588, -8573.391565488764, -6444.3208508874, -6628.052190310024, -9363.481028494958, -11799.351787489866, -16317.84633610801, 0.0055, 0.23800000000000002, 0.9460000000000001, 192.0, 0.0, 0.0, 0.0, 0.0, 0.0, 0.0, 0.0, 0.0, 0.0, 1.644587431627028E9, 0.0, 2022-02-12 00:50:31.627
86.0, -10548.99520265999, -9726.83098636043, -7121.623411372115, -12187.065146811623, -9222.374465748604, -5870.4174602529365, -9075.32233897714, -6738.492159663697, -9417.371084376704, -11314.788319443265, -8545.049553519435, -6433.077923426381, -6622.576012918475, -9359.882397637653, -11800.75994739055, -16349.496406256725, 0.00875, 0.23800000000000002, 0.9460000000000001, 192.0, 0.0, 48.0, 3.5, 56.0, 14.5, 72.0, 0.0, 0.0, 0.0, 1.644587431634026E9, 0.0, 2022-02-12 00:50:31.634
88.0, -10591.441165380618, -9767.108829868894, -7132.508710921849, -12190.88729511348, -9228.007105351342, -5874.6419399549895, -9089.873324617545, -6742.068438776546, -9438.515834631424, -11339.62110753311, -8543.864911063303, -6437.905900228728, -6622.419550707287, -9358.585996459246, -11804.068005569936, -16358.392400549938, 0.00875, 0.23800000000000002, 0.9460000000000001, 192.0, 0.0, 0.0, 0.0, 0.0, 0.0, 0.0, 0.0, 0.0, 0.0, 1.644587431641363E9, 0.0, 2022-02-12 00:50:31.641
90.0, -10578.767726274458, -9731.435445718223, -7127.79249284178, -12189.434431723885, -9212.070311554708, -5865.92475961742, -9067.253359228773, -6741.263775976155, -9436.48182588599, -11312.28492406427, -8552.716201867604, -6448.768848034007, -6611.3107337129995, -9356.149656313617, -11804.939723603693, -16319.030978564142, 0.00875, 0.23800000000000002, 0.9460000000000001, 192.0, 0.0, 0.0, 0.0, 0.0, 0.0, 0.0, 0.0, 0.0, 0.0, 1.644587431648623E9, 0.0, 2022-02-12 00:50:31.648
92.0, -10561.445124321595, -9743.68420167973, -7133.223966744419, -12204.566562720129, -9226.554241961747, -5877.435908011903, -9082.117269291553, -6735.564081140052, -9444.371991678714, -11339.934031955485, -8551.017469289001, -6446.757191033029, -6634.556547946519, -9355.076772579763, -11803.173935791725, -16376.944348447842, 0.00875, 0.23800000000000002, 0.9460000000000001, 192.0, 0.0, 0.0, 0.0, 0.0, 0.0, 0.0, 0.0, 0.0, 0.0, 1.644587431656834E9, 0.0, 2022-02-12 00:50:31.656
94.0, -10548.302298581875, -9752.893120395318, -7134.095684778176, -12191.31197825813, -9220.899250614555, -5877.525314989724, -9091.527353707237, -6744.638889388906, -9428.345790904259, -11329.875746950596, -8564.674385151195, -6445.8407695103615, -6635.495321213642, -9359.480066237458, -11806.057310826458, -16328.083435068542, 0.00875, 0.23800000000000002, 0.9460000000000001, 192.0, 0.0, 0.0, 0.0, 0.0, 0.0, 0.0, 0.0, 0.0, 0.0, 1.644587431666163E9, 0.0, 2022-02-12 00:50:31.666
96.0, -10539.786283944402, -9724.193480514703, -7123.925641051012, -12204.164231319934, -9225.906041372544, -5871.088012586595, -9083.547780936693, -6741.3308312095205, -9433.397285151159, -11335.418979575514, -8561.254568249533, -6442.197435164147, -6629.125074043879, -9367.772563430377, -11809.074796327925, -16355.978412148765, 0.008375, 0.23600000000000002, 0.9480000000000001, 192.0, 0.0, 32.0, 3.5, 40.0, 14.5, 88.0, 0.0, 0.0, 0.0, 1.644587431672239E9, 0.0, 2022-02-12 00:50:31.672
98.0, -10587.57431358985, -9753.36250702888, -7131.41347544354, -12199.872696384513, -9217.613544179625, -5884.677873215423, -9079.569170423647, -6745.197683000289, -9419.941534989064, -11344.180863401993, -8542.769675584994, -6447.092467199858, -6617.50216692712, -9352.998060345419, -11807.353712004866, -16363.913281430398, 0.008375, 0.23600000000000002, 0.9480000000000001, 192.0, 0.0, 0.0, 0.0, 0.0, 0.0, 0.0, 0.0, 0.0, 0.0, 1.644587431679629E9, 0.0, 2022-02-12 00:50:31.679
100.0, -10576.75606927348, -9745.002954602594, -7130.295888220774, -12185.344062488564, -9212.025608065798, -5862.862570627042, -9070.024975541231, -6730.087903748501, -9421.327343145293, -11325.897136437552, -8544.893091308248, -6434.173158904691, -6620.206728006212, -9370.879455909664, -11805.252648026068, -16323.367216988472, 0.008375, 0.23600000000000002, 0.9480000000000001, 192.0, 0.0, 0.0, 0.0, 0.0, 0.0, 0.0, 0.0, 0.0, 0.0, 1.644587431687172E9, 0.0, 2022-02-12 00:50:31.687
102.0, -10568.865903480757, -9741.31491676747, -7131.704048121459, -12203.493678986273, -9227.694180928967, -5883.582637737112, -9081.781993124723, -6753.780752871126, -9450.630480126201, -11346.214872147426, -8544.781332585972, -6436.564795561409, -6628.141597287846, -9361.201150560517, -11808.76187190555, -16383.895740973443, 0.008375, 0.23600000000000002, 0.9480000000000001, 192.0, 0.0, 0.0, 0.0, 0.0, 0.0, 0.0, 0.0, 0.0, 0.0, 1.644587431700837E9, 0.0, 2022-02-12 00:50:31.700
104.0, -10564.060278422867, -9742.298393523502, -7132.307545221752, -12192.094289314067, -9210.930372587487, -5868.092878829584, -9080.396184968495, -6743.498950421686, -9434.045485740362, -11327.439406804968, -8554.973728057592, -6448.679441056185, -6619.469120439187, -9357.714278425488, -11808.225430038623, -16334.498385727215, 0.008375, 0.23600000000000002, 0.9480000000000001, 192.0, 0.0, 0.0, 0.0, 0.0, 0.0, 0.0, 0.0, 0.0, 0.0, 1.644587431709045E9, 0.0, 2022-02-12 00:50:31.709
106.0, -10564.641423778705, -9734.02824807504, -7130.809978343246, -12206.667626698927, -9226.800111150755, -5873.390242265492, -9079.256246001274, -6743.320136466043, -9437.82293055331, -11326.81355796022, -8549.251681477033, -6441.191606663658, -6607.220364477678, -9348.192435287528, -11810.617066695342, -16359.219415094783, 0.0071875, 0.23600000000000002, 0.9510000000000001, 192.0, 0.0, 24.0, 3.5, 48.0, 14.5, 104.0, 0.0, 0.0, 0.0, 1.644587431716798E9, 0.0, 2022-02-12 00:50:31.716
108.0, -10584.310958899374, -9762.839646677929, -7147.953766340467, -12206.332350532097, -9229.370561763115, -5876.49713474478, -9086.31939724915, -6747.410505701364, -9446.517759146423, -11341.364543600625, -8552.827960589882, -6452.99332773606, -6638.713972415206, -9361.581130216256, -11811.734653918107, -16373.077496657073, 0.0071875, 0.23600000000000002, 0.9510000000000001, 192.0, 0.0, 0.0, 0.0, 0.0, 0.0, 0.0, 0.0, 0.0, 0.0, 1.644587431723515E9, 0.0, 2022-02-12 00:50:31.723
110.0, -10569.983490703522, -9754.860073907385, -7137.649612146571, -12194.687091670883, -9215.646590667557, -5866.997643351275, -9086.699376904891, -6746.0246975451355, -9443.612032367235, -11337.587098787679, -8566.976614830091, -6449.014717223015, -6623.157158274313, -9361.178798816061, -11812.829889396417, -16329.983333347242, 0.0071875, 0.23600000000000002, 0.9510000000000001, 192.0, 0.0, 0.0, 0.0, 0.0, 0.0, 0.0, 0.0, 0.0, 0.0, 1.644587431731516E9, 0.0, 2022-02-12 00:50:31.731
112.0, -10546.827083447824, -9760.962100143684, -7133.000449299866, -12210.601533723062, -9223.022666337809, -5866.6847189289, -9083.927760592433, -6741.1520172538785, -9455.324346461815, -11348.651212293054, -8553.230291990078, -6431.133321658769, -6620.40789370631, -9343.6550311631, -11810.617066695342, -16384.029851440173, 0.0071875, 0.23600000000000002, 0.9510000000000001, 192.0, 0.0, 0.0, 0.0, 0.0, 0.0, 0.0, 0.0, 0.0, 0.0, 1.644587431739958E9, 0.0, 2022-02-12 00:50:31.739
114.0, -10573.917397727657, -9755.128294840848, -7132.106379521654, -12195.737623660281, -9211.578573176692, -5872.54087597619, -9085.8947141045, -6745.801180100582, -9438.135854975684, -11339.19642438846, -8566.976614830091, -6453.909749258727, -6626.8675478538935, -9358.13896157014, -11808.806575394461, -16336.264173539184, 0.0071875, 0.23600000000000002, 0.9510000000000001, 192.0, 0.0, 0.0, 0.0, 0.0, 0.0, 0.0, 0.0, 0.0, 0.0, 1.644587431746679E9, 0.0, 2022-02-12 00:50:31.746
116.0, -10588.893066512712, -9751.50731223909, -7122.271611961319, -12208.344007533075, -9220.58632619218, -5869.746907919277, -9087.504039705282, -6751.679688892328, -9443.455570156048, -11337.028305176294, -8555.443114691152, -6445.952528232638, -6616.138710515346, -9354.8085516463, -11811.466432984644, -16363.689763985845, 0.00959375, 0.23600000000000002, 0.9505000000000001, 192.0, 0.0, 48.0, 3.5, 48.0, 14.5, 88.0, 0.0, 0.0, 0.0, 1.644587431753016E9, 0.0, 2022-02-12 00:50:31.753
118.0, -10580.801735019892, -9736.285774265025, -7131.882862077101, -12210.55683023415, -9214.05961681123, -5879.089937101596, -9092.063795574164, -6760.754497141183, -9453.15622724965, -11352.741581528377, -8545.183663986167, -6448.0088887225265, -6610.394312190332, -9358.608348203701, -11817.05436909847, -16383.739278762256, 0.00959375, 0.23600000000000002, 0.9505000000000001, 192.0, 0.0, 0.0, 0.0, 0.0, 0.0, 0.0, 0.0, 0.0, 0.0, 1.644587431760994E9, 0.0, 2022-02-12 00:50:31.760
120.0, -10563.300319111386, -9737.001030087595, -7126.160815496542, -12207.919324388424, -9209.276343497795, -5867.087050329095, -9072.37190870904, -6722.935345522803, -9440.10280848775, -11313.24604907585, -8559.98051881558, -6463.342185418866, -6622.017219307091, -9359.122438326172, -11815.19917430868, -16340.13102532995, 0.00959375, 0.23600000000000002, 0.9505000000000001, 192.0, 0.0, 0.0, 0.0, 0.0, 0.0, 0.0, 0.0, 0.0, 0.0, 1.644587431769314E9, 0.0, 2022-02-12 00:50:31.769
122.0, -10576.845476251303, -9771.288606082035, -7132.642821388581, -12220.27983907221, -9221.011009336831, -5879.961655135353, -9085.55943793767, -6742.113142265456, -9455.614919139734, -11344.493787824367, -8554.996079802046, -6447.092467199858, -6622.419550707287, -9359.167141815084, -11815.62385745333, -16394.199895167338, 0.00959375, 0.23600000000000002, 0.9505000000000001, 192.0, 0.0, 0.0, 0.0, 0.0, 0.0, 0.0, 0.0, 0.0, 0.0, 1.644587431776359E9, 0.0, 2022-02-12 00:50:31.776
124.0, -10567.591854046805, -9765.253635079103, -7141.494112192883, -12207.94167613288, -9211.355055732138, -5870.819791653132, -9088.398109483494, -6746.695249878794, -9449.937576048085, -11353.43448560649, -8566.306062496431, -6457.620138838308, -6629.460350210709, -9367.102011096718, -11822.687008701207, -16344.735484687744, 0.00959375, 0.23600000000000002, 0.9505000000000001, 192.0, 0.0, 0.0, 0.0, 0.0, 0.0, 0.0, 0.0, 0.0, 0.0, 1.64458743178401E9, 0.0, 2022-02-12 00:50:31.784
126.0, -10578.655967552182, -9746.5005214811, -7133.335725466696, -12224.258449585253, -9215.8254046232, -5869.813963152643, -9080.664405901958, -6745.979994056224, -9456.665451129133, -11344.314973868726, -8569.07767880889, -6452.054554468937, -6622.084274540458, -9348.61711843218, -11820.228316811123, -16368.33892683255, 0.01, 0.23600000000000002, 0.9480000000000001, 192.0, 0.0, 40.0, 3.5, 48.0, 14.5, 80.0, 0.0, 0.0, 0.0, 1.644587431791886E9, 0.0, 2022-02-12 00:50:31.791
128.0, -10589.854191524291, -9772.115620626882, -7141.203539514964, -12213.529612246706, -9228.029457095798, -5879.179344079416, -9100.8480311451, -6762.408526230875, -9459.101791274761, -11365.10209621216, -8568.943568342158, -6452.65805156923, -6633.997754335136, -9357.781333658855, -11826.2409360696, -16386.175618907884, 0.01, 0.23600000000000002, 0.9480000000000001, 192.0, 0.0, 0.0, 0.0, 0.0, 0.0, 0.0, 0.0, 0.0, 0.0, 1.644587431799081E9, 0.0, 2022-02-12 00:50:31.799
130.0, -10591.932903758634, -9771.489771782133, -7138.409571458051, -12207.382882521497, -9222.665038426523, -5870.909198630953, -9081.826696613634, -6753.087848793012, -9449.557596392346, -11344.33732561318, -8566.954263085636, -6447.338336388867, -6633.841292123949, -9368.934854142053, -11827.492633759099, -16345.361333532494, 0.01, 0.23600000000000002, 0.9480000000000001, 192.0, 0.0, 0.0, 0.0, 0.0, 0.0, 0.0, 0.0, 0.0, 0.0, 1.644587431806807E9, 0.0, 2022-02-12 00:50:31.806
132.0, -10571.9951477045, -9755.240053563126, -7145.428019217017, -12231.165138621944, -9235.78551242179, -5879.358158035059, -9097.584676454626, -6764.598997187495, -9473.228093770516, -11366.44320087948, -8571.379908487786, -6447.114818944314, -6631.717876400695, -9366.409107018604, -11826.53150874752, -16406.8733342735, 0.01, 0.23600000000000002, 0.9480000000000001, 192.0, 0.0, 0.0, 0.0, 0.0, 0.0, 0.0, 0.0, 0.0, 0.0, 1.64458743181343E9, 0.0, 2022-02-12 00:50:31.813
134.0, -10591.843496780813, -9764.627786234354, -7153.899330365579, -12226.963010664345, -9221.011009336831, -5872.54087597619, -9091.326188007139, -6753.959566826769, -9458.073611029818, -11348.539453570778, -8586.534391228484, -6483.078775772903, -6624.520614686086, -9371.818229176788, -11829.10195935988, -16361.946327918331, 0.01, 0.23600000000000002, 0.9480000000000001, 192.0, 0.0, 0.0, 0.0, 0.0, 0.0, 0.0, 0.0, 0.0, 0.0, 1.644587431828559E9, 0.0, 2022-02-12 00:50:31.828
136.0, -10596.0009212495, -9760.582120487943, -7146.210330272953, -12232.059208400156, -9240.054695612753, -5867.467029984836, -9093.874286875045, -6740.2132439867555, -9467.617805912234, -11348.58415705969, -8572.564550943918, -6476.3061972029445, -6649.196940564745, -9357.736630169944, -11833.080569872925, -16374.038621668653, 0.01, 0.23600000000000002, 0.9460000000000001, 192.0, 0.0, 40.0, 3.5, 48.0, 14.5, 72.0, 0.0, 0.0, 0.0, 1.644587431835961E9, 0.0, 2022-02-12 00:50:31.835
138.0, -10618.889107571735, -9800.859963996407, -7160.470743235439, -12233.243850856286, -9241.284041557794, -5880.6322074690115, -9097.495269476804, -6763.727279153738, -9481.49823921898, -11390.87365756913, -8573.548027699951, -6459.140057461269, -6653.779048178083, -9372.04174662134, -11835.762779207562, -16396.613883568512, 0.01, 0.23600000000000002, 0.9460000000000001, 192.0, 0.0, 0.0, 0.0, 0.0, 0.0, 0.0, 0.0, 0.0, 0.0, 1.644587431844036E9, 0.0, 2022-02-12 00:50:31.844
140.0, -10593.765746803969, -9786.420737078279, -7158.436734490006, -12223.096158873577, -9235.763160677334, -5877.6370737120005, -9098.165821810464, -6758.809895373571, -9471.194085025083, -11378.334328929703, -8590.378891274797, -6463.0963162298585, -6643.921928873293, -9374.723955955978, -11839.786093209517, -16353.497368514225, 0.01, 0.23600000000000002, 0.9460000000000001, 192.0, 0.0, 0.0, 0.0, 0.0, 0.0, 0.0, 0.0, 0.0, 0.0, 1.644587431852294E9, 0.0, 2022-02-12 00:50:31.852
142.0, -10604.025197508956, -9790.399347591323, -7162.527103725327, -12242.698638760881, -9254.359812064149, -5884.990797637796, -9109.319342293662, -6766.00715708818, -9495.043396358895, -11399.032044295316, -8580.253551036543, -6457.4636766271215, -6657.109458101923, -9378.724918213478, -11843.384724066822, -16419.189145468372, 0.01, 0.23600000000000002, 0.9460000000000001, 192.0, 0.0, 0.0, 0.0, 0.0, 0.0, 0.0, 0.0, 0.0, 0.0, 1.644587431858702E9, 0.0, 2022-02-12 00:50:31.858
144.0, -10599.018406750967, -9768.137010113836, -7159.979004857422, -12224.929001918914, -9237.596003722669, -5880.676910957923, -9109.408749271483, -6772.846790891504, -9476.536151949902, -11390.940712802496, -8585.103879583345, -6477.289673958979, -6654.248434811644, -9385.765717716899, -11845.15051187879, -16371.37876407847, 0.01, 0.23600000000000002, 0.9460000000000001, 192.0, 0.0, 0.0, 0.0, 0.0, 0.0, 0.0, 0.0, 0.0, 0.0, 1.644587431866606E9, 0.0, 2022-02-12 00:50:31.866
146.0, -10591.307054913887, -9764.717193212175, -7153.474647220928, -12232.640353755995, -9244.279175314805, -5880.274579557727, -9099.283409033229, -6754.473656949242, -9475.35150949377, -11375.652119595066, -8576.654920179239, -6470.293577944467, -6647.2970422860435, -9372.37702278817, -11843.384724066822, -16387.270854386195, 0.012, 0.232, 0.9500000000000001, 192.0, 0.0, 48.0, 3.5, 32.0, 14.5, 88.0, 0.0, 0.0, 0.0, 1.644587431874702E9, 0.0, 2022-02-12 00:50:31.874
148.0, -10605.411005665184, -9773.277911338559, -7156.022746088833, -12231.768635722237, -9231.53868097528, -5879.559323735157, -9102.502060234792, -6765.560122199074, -9470.836457113797, -11391.141878502594, -8572.385736988275, -6465.577359864397, -6647.855835897427, -9360.083563337752, -11839.316706575955, -16401.57597083759, 0.012, 0.232, 0.9500000000000001, 192.0, 0.0, 0.0, 0.0, 0.0, 0.0, 0.0, 0.0, 0.0, 0.0, 1.644587431881665E9, 0.0, 2022-02-12 00:50:31.881
150.0, -10583.886275754723, -9766.661794979787, -7151.351231497673, -12222.962048406845, -9224.274364027306, -5870.059832341652, -9091.437946729417, -6747.946947568292, -9465.382631466702, -11365.213854934438, -8571.849295121348, -6466.784354064984, -6626.018181564592, -9357.7589819144, -11838.53439552002, -16352.111560357996, 0.012, 0.232, 0.9500000000000001, 192.0, 0.0, 0.0, 0.0, 0.0, 0.0, 0.0, 0.0, 0.0, 0.0, 1.644587431888592E9, 0.0, 2022-02-12 00:50:31.888
152.0, -10585.540304844417, -9774.909588683795, -7154.949862354978, -12241.581051538116, -9242.468684013926, -5877.078280100618, -9102.70322593489, -6750.293880736099, -9482.54877120838, -11373.372241660625, -8577.325472512897, -6460.481162128587, -6651.02978361008, -9362.229330805461, -11841.06014264347, -16405.77809879519, 0.012, 0.232, 0.9500000000000001, 192.0, 0.0, 0.0, 0.0, 0.0, 0.0, 0.0, 0.0, 0.0, 0.0, 1.644587431896296E9, 0.0, 2022-02-12 00:50:31.896
154.0, -10604.047549253411, -9786.376033589368, -7155.7992286442795, -12216.748263448271, -9222.776797148801, -5868.338748018593, -9085.872362360044, -6744.437723688809, -9470.478829202513, -11381.329462686714, -8578.107783568834, -6463.811572052428, -6645.55360621853, -9364.084525595252, -11841.06014264347, -16354.100865614519, 0.012, 0.232, 0.9500000000000001, 192.0, 0.0, 0.0, 0.0, 0.0, 0.0, 0.0, 0.0, 0.0, 0.0, 1.644587431904435E9, 0.0, 2022-02-12 00:50:31.904
156.0, -10575.28085413943, -9746.79109415902, -7149.674850663526, -12223.006751895757, -9236.947803133466, -5866.707070673356, -9091.303836262685, -6742.00138354318, -9471.64111991419, -11378.379032418614, -8576.900789368246, -6463.453944141143, -6630.466178711197, -9363.168104072583, -11837.05918038597, -16372.876330956977, 0.012, 0.234, 0.9540000000000001, 192.0, 0.0, 48.0, 3.5, 40.0, 14.5, 104.0, 0.0, 0.0, 0.0, 1.644587431910834E9, 0.0, 2022-02-12 00:50:31.910
158.0, -10605.388653920729, -9781.302187598014, -7164.494057237394, -12221.218612339331, -9244.815617181734, -5874.6419399549895, -9109.006417871287, -6749.824494102538, -9479.710099662554, -11387.677358112021, -8577.593693446363, -6465.398545908755, -6656.461257512719, -9358.317775525782, -11839.227299598135, -16392.143534677452, 0.012, 0.234, 0.9540000000000001, 192.0, 0.0, 0.0, 0.0, 0.0, 0.0, 0.0, 0.0, 0.0, 0.0, 1.644587431919139E9, 0.0, 2022-02-12 00:50:31.919
160.0, -10567.815371491359, -9771.020385148571, -7160.873074635634, -12214.55779249165, -9232.902137387055, -5870.3057015306595, -9094.835411886623, -6748.103409779479, -9462.409849454147, -11365.839703779186, -8581.862876637326, -6458.581263849886, -6646.872359141393, -9370.834752420755, -11843.138854877812, -16349.47405451227, 0.012, 0.234, 0.9540000000000001, 192.0, 0.0, 0.0, 0.0, 0.0, 0.0, 0.0, 0.0, 0.0, 0.0, 1.644587431926934E9, 0.0, 2022-02-12 00:50:31.926
162.0, -10599.24192419552, -9784.07380391047, -7157.520312967338, -12235.255507857264, -9241.865186913632, -5879.715785946344, -9091.348539751594, -6760.352165740987, -9474.949178093575, -11389.465497668445, -8565.50139969604, -6438.241176395557, -6651.499170243642, -9341.688077651033, -11844.122331633847, -16413.265933187715, 0.012, 0.234, 0.9540000000000001, 192.0, 0.0, 0.0, 0.0, 0.0, 0.0, 0.0, 0.0, 0.0, 0.0, 1.644587431934299E9, 0.0, 2022-02-12 00:50:31.934
164.0, -10614.57522089186, -9782.352719587412, -7165.388127015606, -12219.1846035939, -9231.382218764093, -5872.898503887475, -9093.091975819108, -6744.616537644451, -9480.626521185222, -11383.408174921058, -8569.480010209085, -6457.441324882666, -6631.516710700597, -9358.943624370531, -11842.602413010885, -16365.075572142074, 0.012, 0.234, 0.9540000000000001, 192.0, 0.0, 0.0, 0.0, 0.0, 0.0, 0.0, 0.0, 0.0, 0.0, 1.644587431948673E9, 0.0, 2022-02-12 00:50:31.948
166.0, -10586.367319389263, -9766.237111835137, -7151.597100686682, -12226.493624030785, -9236.053733355253, -5875.7595271777545, -9086.587618182613, -6745.488255678208, -9483.398137497681, -11371.24882593737, -8568.74240264206, -6452.5909963358645, -6641.7761614055835, -9359.457714493003, -11844.234090356123, -16384.365127607005, 0.01, 0.234, 0.9560000000000001, 192.0, 0.0, 40.0, 3.5, 40.0, 14.5, 112.0, 0.0, 0.0, 0.0, 1.644587431956496E9, 0.0, 2022-02-12 00:50:31.956
168.0, -10598.504316628494, -9756.514102997078, -7164.538760726305, -12233.46736830084, -9238.221852567418, -5870.551570719668, -9095.08128107563, -6741.084962020513, -9492.472945746535, -11383.162305732048, -8568.675347408695, -6456.726069060096, -6650.962728376714, -9359.547121470825, -11844.72582873414, -16402.224171426795, 0.01, 0.234, 0.9560000000000001, 192.0, 0.0, 0.0, 0.0, 0.0, 0.0, 0.0, 0.0, 0.0, 0.0, 1.644587431963658E9, 0.0, 2022-02-12 00:50:31.963
170.0, -10573.291548882908, -9764.963062401184, -7158.704955423469, -12223.856118185058, -9233.527986231802, -5870.104535830562, -9096.578847954137, -6744.57183415554, -9471.507009447458, -11368.38780264709, -8581.84052489287, -6463.319833674412, -6639.161007304312, -9356.060249335796, -11846.11163689037, -16355.464322026291, 0.01, 0.234, 0.9560000000000001, 192.0, 0.0, 0.0, 0.0, 0.0, 0.0, 0.0, 0.0, 0.0, 0.0, 1.644587431972446E9, 0.0, 2022-02-12 00:50:31.972
172.0, -10589.608322335282, -9791.561638303, -7163.152952570075, -12238.541214292194, -9240.993468879875, -5882.3979952809805, -9094.611894442069, -6751.1432470254, -9487.041471843895, -11405.134070531616, -8569.144734042256, -6448.612385822819, -6654.494304000653, -9352.7074876675, -11846.53632003502, -16416.194011711363, 0.01, 0.234, 0.9560000000000001, 192.0, 0.0, 0.0, 0.0, 0.0, 0.0, 0.0, 0.0, 0.0, 0.0, 1.644587431979102E9, 0.0, 2022-02-12 00:50:31.979
174.0, -10599.823069551358, -9773.322614827468, -7173.568865486249, -12223.342028062587, -9221.100416314652, -5877.92764638992, -9088.822792628145, -6740.369706197943, -9478.25723627296, -11393.77938434832, -8583.60631270484, -6472.685214601185, -6655.9248156457925, -9376.199171090027, -11845.128160134336, -16370.90937744491, 0.01, 0.234, 0.9560000000000001, 192.0, 0.0, 0.0, 0.0, 0.0, 0.0, 0.0, 0.0, 0.0, 0.0, 1.644587431987065E9, 0.0, 2022-02-12 00:50:31.987
176.0, -10592.961084003578, -9773.635539249843, -7169.076164850732, -12230.695751988382, -9233.863262398632, -5873.636111454501, -9082.877228603033, -6733.954755539269, -9478.525457206424, -11374.199256205471, -8584.500382483051, -6451.316946901911, -6634.936527602259, -9354.026240590363, -11848.77149448055, -16380.878255471976, 0.006, 0.234, 0.9580000000000001, 192.0, 0.0, 24.0, 3.5, 40.0, 14.5, 120.0, 0.0, 0.0, 0.0, 1.6445874319938E9, 0.0, 2022-02-12 00:50:31.993
178.0, -10612.876488313257, -9775.848361950919, -7176.966330643455, -12229.645219998984, -9243.8321404257, -5880.989835380296, -9099.819850900156, -6748.52809292413, -9493.992864369497, -11407.302189743781, -8582.868705137815, -6450.869912012806, -6654.1590278338235, -9351.23227253345, -11848.525625291542, -16403.16294469392, 0.006, 0.234, 0.9580000000000001, 192.0, 0.0, 0.0, 0.0, 0.0, 0.0, 0.0, 0.0, 0.0, 0.0, 1.644587432000726E9, 0.0, 2022-02-12 00:50:32.000
180.0, -10592.357586903285, -9770.618053748376, -7167.46683924995, -12227.70061823137, -9222.374465748604, -5877.301797545171, -9087.124060049542, -6746.2035115007775, -9472.512837947947, -11380.34598593068, -8578.46541148012, -6458.178932449691, -6645.263033540611, -9365.939720385042, -11847.363334579866, -16357.230109838261, 0.006, 0.234, 0.9580000000000001, 192.0, 0.0, 0.0, 0.0, 0.0, 0.0, 0.0, 0.0, 0.0, 0.0, 1.644587432009074E9, 0.0, 2022-02-12 00:50:32.009
182.0, -10587.797831034402, -9775.758954973096, -7165.812810160257, -12244.956164950869, -9225.660172183534, -5876.184210322405, -9083.927760592433, -6732.501892149675, -9486.840306143798, -11386.649177867077, -8567.200132274644, -6458.8718365278055, -6632.924870601281, -9361.84935114972, -11842.423599055242, -16415.9257907779, 0.006, 0.234, 0.9580000000000001, 192.0, 0.0, 0.0, 0.0, 0.0, 0.0, 0.0, 0.0, 0.0, 0.0, 1.644587432015888E9, 0.0, 2022-02-12 00:50:32.015
184.0, -10595.375072404751, -9781.860981209396, -7173.27829280833, -12220.972743150323, -9219.066407569218, -5876.675948700422, -9087.906371105477, -6743.275432977132, -9480.604169440767, -11375.696823083976, -8573.346861999853, -6462.693984829662, -6643.899577128837, -9362.765772672388, -11839.137892620312, -16368.495389043735, 0.006, 0.234, 0.9580000000000001, 192.0, 0.0, 0.0, 0.0, 0.0, 0.0, 0.0, 0.0, 0.0, 0.0, 1.644587432023501E9, 0.0, 2022-02-12 00:50:32.023
186.0, -10593.38576714823, -9761.476190266156, -7162.4376967475055, -12232.394484566985, -9226.800111150755, -5876.318320789137, -9082.430193713928, -6735.787598584605, -9485.409794498659, -11367.404325891057, -8578.510114969029, -6460.883493528783, -6646.1794550632785, -9365.112705840196, -11844.01057291157, -16387.069688686097, 0.008, 0.23600000000000002, 0.9580000000000001, 192.0, 0.0, 32.0, 3.5, 48.0, 14.5, 120.0, 0.0, 0.0, 0.0, 1.644587432031424E9, 0.0, 2022-02-12 00:50:32.031
188.0, -10613.189412735632, -9786.063109166993, -7174.239417819908, -12239.390580581497, -9237.908928145043, -5887.605951739068, -9092.8461066301, -6747.052877790079, -9491.802393412876, -11403.055358297272, -8571.804591632437, -6448.791199778462, -6652.08031559948, -9352.215749289484, -11847.54214853551, -16410.024930241696, 0.008, 0.23600000000000002, 0.9580000000000001, 192.0, 0.0, 0.0, 0.0, 0.0, 0.0, 0.0, 0.0, 0.0, 0.0, 1.644587432039691E9, 0.0, 2022-02-12 00:50:32.039
190.0, -10601.231229452042, -9785.213742877691, -7168.8302956617235, -12233.981458423312, -9225.369599505615, -5878.329977790115, -9085.291217004207, -6749.399810957887, -9484.672186931633, -11398.696768128488, -8577.191362046166, -6466.314967431423, -6636.724667158684, -9370.052441364818, -11851.476055559642, -16367.355450076515, 0.008, 0.23600000000000002, 0.9580000000000001, 192.0, 0.0, 0.0, 0.0, 0.0, 0.0, 0.0, 0.0, 0.0, 0.0, 1.644587432046172E9, 0.0, 2022-02-12 00:50:32.046
192.0, -10591.709386314082, -9785.325501599968, -7177.547475999293, -12248.37598185253, -9249.375373050616, -5884.16378309295, -9093.539010708215, -6744.862406833459, -9497.88206790472, -11411.951352590484, -8577.258417279532, -6461.911673773727, -6640.546815460541, -9360.530598226858, -11852.750104993595, -16425.40293042695, 0.008, 0.23600000000000002, 0.9580000000000001, 192.0, 0.0, 0.0, 0.0, 0.0, 0.0, 0.0, 0.0, 0.0, 0.0, 1.644587432054476E9, 0.0, 2022-02-12 00:50:32.054
194.0, -10599.24192419552, -9797.50720232811, -7184.3871098026175, -12238.027124169723, -9230.197576307963, -5882.800326681177, -9093.60606594158, -6744.281261477621, -9484.560428209357, -11385.509238899856, -8590.065966852424, -6475.590941380375, -6659.232873825178, -9366.230293062961, -11855.164093394767, -16378.6654327709, 0.009000000000000001, 0.23700000000000002, 0.9570000000000001, 192.0, 0.0, 40.0, 3.5, 56.0, 14.5, 112.0, 0.0, 0.0, 0.0, 1.644587432061282E9, 0.0, 2022-02-12 00:50:32.061
196.0, -10615.67045637017, -9792.500411570121, -7167.869170650145, -12249.784141753214, -9231.53868097528, -5880.587503980101, -9086.386452482517, -6736.301688707076, -9497.97147488254, -11389.040814523794, -8585.148583072256, -6465.890284286772, -6640.122132315891, -9360.955281371509, -11856.594605039907, -16393.506991089223, 0.009000000000000001, 0.23700000000000002, 0.9570000000000001, 192.0, 0.0, 0.0, 0.0, 0.0, 0.0, 0.0, 0.0, 0.0, 0.0, 1.644587432075805E9, 0.0, 2022-02-12 00:50:32.075
198.0, -10620.610191894793, -9786.979530689661, -7175.915798654056, -12253.628641799527, -9238.244204311874, -5894.065605886652, -9099.08224333313, -6747.678726634828, -9501.391291784203, -11405.938733332006, -8576.0737748234, -6469.153638977246, -6657.645899968851, -9355.99319410243, -11856.818122484461, -16415.814032055623, 0.009000000000000001, 0.23700000000000002, 0.9570000000000001, 192.0, 0.0, 0.0, 0.0, 0.0, 0.0, 0.0, 0.0, 0.0, 0.0, 1.644587432083704E9, 0.0, 2022-02-12 00:50:32.083
200.0, -10604.159307975688, -9769.16519035878, -7166.70687993847, -12239.502339303774, -9234.10913158764, -5891.696320974389, -9110.258115560784, -6752.864331348459, -9480.648872929678, -11391.767727347342, -8580.030033591991, -6469.198342466158, -6643.094914328446, -9356.574339458268, -11859.030945185536, -16368.920072188386, 0.009000000000000001, 0.23700000000000002, 0.9570000000000001, 192.0, 0.0, 0.0, 0.0, 0.0, 0.0, 0.0, 0.0, 0.0, 0.0, 1.644587432091794E9, 0.0, 2022-02-12 00:50:32.091
202.0, -10611.893011557224, -9798.55773431751, -7170.439621262506, -12256.176740667432, -9244.703858459456, -5900.033521656218, -9116.985990641831, -6756.597072672495, -9504.229963330026, -11408.30801824427, -8569.144734042256, -6459.56474060592, -6642.670231183795, -9359.94945287102, -11865.401192355299, -16433.270744475216, 0.009000000000000001, 0.23700000000000002, 0.9570000000000001, 192.0, 0.0, 0.0, 0.0, 0.0, 0.0, 0.0, 0.0, 0.0, 0.0, 1.644587432098721E9, 0.0, 2022-02-12 00:50:32.098
204.0, -10593.028139236945, -9801.195240163237, -7176.787516687813, -12246.431380084918, -9227.44831173996, -5888.656483728467, -9098.61285669957, -6749.936252824814, -9491.869448646243, -11399.412023951058, -8585.439155750175, -6481.894133316771, -6636.009411336114, -9376.601502490223, -11860.68497427523, -16391.093002688052, 0.007500000000000001, 0.23650000000000002, 0.9535, 192.0, 0.0, 24.0, 3.5, 48.0, 14.5, 88.0, 0.0, 0.0, 0.0, 1.64458743210649E9, 0.0, 2022-02-12 00:50:32.106
206.0, -10593.81045029288, -9781.548056787022, -7170.350214284685, -12253.0921999326, -9235.025553110308, -5896.345483821093, -9087.727557149836, -6741.107313764967, -9490.193067812093, -11384.72692784392, -8596.436214022186, -6478.586075137387, -6651.789742921561, -9370.365365787193, -11858.293337618512, -16402.067709215607, 0.007500000000000001, 0.23650000000000002, 0.9535, 192.0, 0.0, 0.0, 0.0, 0.0, 0.0, 0.0, 0.0, 0.0, 0.0, 1.644587432114266E9, 0.0, 2022-02-12 00:50:32.114
208.0, -10619.514956416484, -9771.288606082035, -7183.716557468958, -12254.835636000114, -9236.321954288716, -5906.560231037168, -9101.764452667769, -6757.28997675061, -9511.114300622261, -11424.423625996546, -8579.739460914072, -6470.986482022582, -6653.376716777888, -9366.297348296326, -11859.433276585733, -16426.744035094267, 0.007500000000000001, 0.23650000000000002, 0.9535, 192.0, 0.0, 0.0, 0.0, 0.0, 0.0, 0.0, 0.0, 0.0, 0.0, 1.644587432121492E9, 0.0, 2022-02-12 00:50:32.121
210.0, -10618.9561628051, -9794.17679240427, -7181.794307445802, -12249.739438264303, -9231.44927399746, -5891.271637829738, -9097.115289821064, -6745.309441722566, -9496.004521370474, -11395.187544249004, -8589.50717324104, -6470.137115733281, -6644.45837074022, -9364.620967462179, -11865.11061967738, -16377.994880437242, 0.007500000000000001, 0.23650000000000002, 0.9535, 192.0, 0.0, 0.0, 0.0, 0.0, 0.0, 0.0, 0.0, 0.0, 0.0, 1.644587432127991E9, 0.0, 2022-02-12 00:50:32.127
212.0, -10612.317694701875, -9810.381807134367, -7177.078089365732, -12263.396354126497, -9242.669849714024, -5895.652579742978, -9098.523449721748, -6749.712735380261, -9513.93062042363, -11414.857079369674, -8582.265208037521, -6461.3752319068, -6646.760600419117, -9354.361516757193, -11867.502256334097, -16437.91990732192, 0.007500000000000001, 0.23650000000000002, 0.9535, 192.0, 0.0, 0.0, 0.0, 0.0, 0.0, 0.0, 0.0, 0.0, 0.0, 1.644587432136275E9, 0.0, 2022-02-12 00:50:32.136
214.0, -10631.450787955617, -9812.102891457425, -7190.109156383176, -12253.80745575517, -9242.803960180756, -5899.765300722755, -9094.611894442069, -6742.940156810303, -9506.889820920209, -11427.128187075637, -8582.756946415539, -6480.128345504802, -6653.8684551559045, -9362.944586628031, -11865.714116777674, -16397.44089811336, 0.004750000000000001, 0.23525000000000001, 0.9497500000000001, 192.0, 0.0, 8.0, 3.5, 40.0, 14.5, 72.0, 0.0, 0.0, 0.0, 1.644587432144007E9, 0.0, 2022-02-12 00:50:32.144
216.0, -10622.621848895771, -9818.204917693725, -7183.984778402421, -12272.180589697433, -9246.02261138232, -5903.78861472471, -9099.484574733326, -6752.037316803613, -9515.964629169062, -11419.908573616574, -8588.121365084811, -6473.378118679299, -6654.784876678572, -9358.608348203701, -11871.3020528915, -16414.24940994375, 0.004750000000000001, 0.23525000000000001, 0.9497500000000001, 192.0, 0.0, 0.0, 0.0, 0.0, 0.0, 0.0, 0.0, 0.0, 0.0, 1.644587432152488E9, 0.0, 2022-02-12 00:50:32.152
218.0, -10627.114549531289, -9820.976534006184, -7190.824412205746, -12268.492551862306, -9245.910852660043, -5907.431949070925, -9101.295066034207, -6757.28997675061, -9519.630315259734, -11444.182568095037, -8592.904638398248, -6485.604522896353, -6640.278594527077, -9366.967900629987, -11872.464343603177, -16439.886860833987, 0.004750000000000001, 0.23525000000000001, 0.9497500000000001, 192.0, 0.0, 0.0, 0.0, 0.0, 0.0, 0.0, 0.0, 0.0, 0.0, 1.644587432158643E9, 0.0, 2022-02-12 00:50:32.158
220.0, -10659.099895846832, -9835.818092324507, -7188.209258104474, -12257.048458701189, -9241.820483424723, -5894.222068097838, -9093.449603730394, -6742.694287621294, -9517.573954769845, -11419.908573616574, -8607.254458338555, -6495.19342126768, -6657.109458101923, -9375.14863910063, -11873.380765125843, -16386.91322647491, 0.004750000000000001, 0.23525000000000001, 0.9497500000000001, 192.0, 0.0, 0.0, 0.0, 0.0, 0.0, 0.0, 0.0, 0.0, 0.0, 1.644587432166698E9, 0.0, 2022-02-12 00:50:32.166
222.0, -10667.593558739849, -9842.121284260904, -7183.984778402421, -12276.71799382186, -9241.999297380364, -5900.189983867405, -9092.019092085255, -6742.873101576937, -9546.005373716996, -11451.603347254199, -8604.102862370357, -6496.66863640173, -6665.692527972762, -9368.979557630964, -11870.944424980215, -16442.613773657533, 0.004750000000000001, 0.23525000000000001, 0.9497500000000001, 192.0, 0.0, 0.0, 0.0, 0.0, 0.0, 0.0, 0.0, 0.0, 0.0, 1.644587432174624E9, 0.0, 2022-02-12 00:50:32.174
224.0, -10694.594466041859, -9854.90648208934, -7186.689339481514, -12263.485761104317, -9225.771930905812, -5885.795460438188, -9096.154164809486, -6738.514511408152, -9522.848966461297, -11445.948355907007, -8604.393435048274, -6536.074761876436, -6650.359231276421, -9368.823095419777, -11868.01634645657, -16402.29122666016, 0.004375, 0.23562500000000003, 0.9488750000000001, 192.0, 0.0, 16.0, 3.5, 48.0, 14.5, 80.0, 0.0, 0.0, 0.0, 1.644587432181597E9, 0.0, 2022-02-12 00:50:32.181
226.0, -10706.150317925254, -9919.324209609535, -7187.583409259726, -12259.820075013648, -9230.510500730337, -5889.930533162419, -9084.017167570253, -6736.100523006979, -9532.907251466186, -11434.660724957077, -8612.931801430203, -6494.656979400752, -6646.8276556524825, -9363.481028494958, -11870.117410435369, -16411.5224971202, 0.004375, 0.23562500000000003, 0.9488750000000001, 192.0, 0.0, 0.0, 0.0, 0.0, 0.0, 0.0, 0.0, 0.0, 0.0, 1.644587432196212E9, 0.0, 2022-02-12 00:50:32.196
228.0, -10717.147376197265, -9941.63125057593, -7193.528973284838, -12259.708316291371, -9234.667925199023, -5898.848879200087, -9097.13764156552, -6748.729258624227, -9546.072428950361, -11464.656766016098, -8629.874423727326, -6491.281865988, -6663.703222716239, -9372.734650699455, -11871.078535446946, -16442.16673876843, 0.004375, 0.23562500000000003, 0.9488750000000001, 192.0, 0.0, 0.0, 0.0, 0.0, 0.0, 0.0, 0.0, 0.0, 0.0, 1.644587432204296E9, 0.0, 2022-02-12 00:50:32.204
230.0, -10784.94021713021, -9949.521416368654, -7199.966275687966, -12260.155351180478, -9227.403608251048, -5888.12004186154, -9083.078394303131, -6732.680706105317, -9552.643841820221, -11443.355553550191, -8641.966717477646, -6513.3430377653885, -6658.9199494028035, -9376.646205979134, -11872.039660458526, -16387.181447408373, 0.004375, 0.23562500000000003, 0.9488750000000001, 192.0, 0.0, 0.0, 0.0, 0.0, 0.0, 0.0, 0.0, 0.0, 0.0, 1.644587432210882E9, 0.0, 2022-02-12 00:50:32.210
232.0, -10808.744824975112, -9941.407733131378, -7197.820508220257, -12270.213636185365, -9251.297623073771, -5897.463071043858, -9090.812097884667, -6743.945985310792, -9579.577693888867, -11479.028937700861, -8638.837473253903, -6526.754084438573, -6665.245493083656, -9363.481028494958, -11875.034794215537, -16445.31833473663, 0.004375, 0.23562500000000003, 0.9488750000000001, 192.0, 0.0, 0.0, 0.0, 0.0, 0.0, 0.0, 0.0, 0.0, 0.0, 1.644587432218922E9, 0.0, 2022-02-12 00:50:32.218
234.0, -10784.22496130764, -9940.670125564353, -7208.28112462534, -12255.57324356714, -9238.423018267515, -5896.032559398718, -9089.22512402834, -6742.00138354318, -9568.93826352814, -11460.611100269689, -8647.129970446822, -6522.57430822543, -6668.441792540764, -9369.873627409175, -11875.906512249294, -16406.135726706474, 0.0041875, 0.23381250000000003, 0.9494375000000002, 192.0, 0.0, 16.0, 3.5, 32.0, 14.5, 88.0, 0.0, 0.0, 0.0, 1.644587432226886E9, 0.0, 2022-02-12 00:50:32.226
236.0, -10762.946100586189, -9942.771189543151, -7191.114984883665, -12266.190322183409, -9236.321954288716, -5892.277466330227, -9087.7946123832, -6736.972241040736, -9563.216216947581, -11448.116475119172, -8640.022115710035, -6510.817290641939, -6666.407783795332, -9374.299272811328, -11874.386593626332, -16414.58468611058, 0.0041875, 0.23381250000000003, 0.9494375000000002, 192.0, 0.0, 0.0, 0.0, 0.0, 0.0, 0.0, 0.0, 0.0, 0.0, 1.64458743223492E9, 0.0, 2022-02-12 00:50:32.234
238.0, -10770.27747276753, -9952.717715825764, -7192.880772695634, -12265.832694272125, -9239.898233401565, -5894.6020477535785, -9089.538048450715, -6748.61749990195, -9569.050022250418, -11468.993004440428, -8617.759778232548, -6490.432499698699, -6656.304795301533, -9363.27986279486, -11870.497390091108, -16448.44757896037, 0.0041875, 0.23381250000000003, 0.9494375000000002, 192.0, 0.0, 0.0, 0.0, 0.0, 0.0, 0.0, 0.0, 0.0, 0.0, 1.644587432241567E9, 0.0, 2022-02-12 00:50:32.241
240.0, -10749.825626590924, -9909.556497282565, -7188.030444148832, -12255.550891822684, -9228.8788233851, -5879.939303390897, -9076.37287096654, -6725.148168223878, -9552.263862164482, -11453.056210643794, -8630.634383038805, -6513.745369165585, -6655.723649945695, -9363.637490706145, -11861.891968475815, -16386.421488096894, 0.0041875, 0.23381250000000003, 0.9494375000000002, 192.0, 0.0, 0.0, 0.0, 0.0, 0.0, 0.0, 0.0, 0.0, 0.0, 1.644587432248514E9, 0.0, 2022-02-12 00:50:32.248
242.0, -10744.148283499275, -9923.10165442248, -7186.935208670522, -12271.554740852684, -9243.07218111422, -5887.874172672531, -9086.453507715882, -6732.90422354987, -9560.7575250575, -11450.172835609059, -8624.934688202702, -6512.3372092649, -6658.718783702706, -9358.921272626076, -11866.138799922324, -16443.01610505773, 0.0041875, 0.23381250000000003, 0.9494375000000002, 192.0, 0.0, 0.0, 0.0, 0.0, 0.0, 0.0, 0.0, 0.0, 0.0, 1.644587432256405E9, 0.0, 2022-02-12 00:50:32.256
