%OpenBCI Raw EEG Data
%Number of channels = 16
%Sample Rate = 125 Hz
%Board = OpenBCI_GUI$BoardCytonSerialDaisy
Sample Index, EXG Channel 0, EXG Channel 1, EXG Channel 2, EXG Channel 3, EXG Channel 4, EXG Channel 5, EXG Channel 6, EXG Channel 7, EXG Channel 8, EXG Channel 9, EXG Channel 10, EXG Channel 11, EXG Channel 12, EXG Channel 13, EXG Channel 14, EXG Channel 15, Accel Channel 0, Accel Channel 1, Accel Channel 2, Other, Other, Other, Other, Other, Other, Other, Analog Channel 0, Analog Channel 1, Analog Channel 2, Timestamp, Other, Timestamp (Formatted)
0.0, -10629.617944910282, -10293.023025157812, -7447.8247699528665, -12937.03322852054, -9824.619868352398, -6415.755321473518, -9542.831426004343, -7246.592014621737, 0.0, 0.0, 0.0, 0.0, 0.0, 0.0, 0.0, 0.0, 0.0, 0.0, 0.0, 192.0, 0.0, 0.0, 0.0, 0.0, 0.0, 0.0, 0.0, 0.0, 0.0, 1.644587375291213E9, 0.0, 2022-02-12 00:49:35.291
110.0, -10659.569282480394, -10314.011313201347, -7455.267900856484, -12931.221774962161, -9812.304057157524, -6423.869004710795, -9543.099646937806, -7245.139151232142, -10453.195625924543, -12429.916850318534, -8458.19067456611, -6646.805303908027, -6914.802719927159, -9801.239943652146, -12486.28794983482, -17073.24589171957, 0.0, 0.0, 0.0, 192.0, 0.0, 0.0, 0.0, 0.0, 0.0, 0.0, 0.0, 0.0, 0.0, 1.644587375291218E9, 0.0, 2022-02-12 00:49:35.291
0.0, -5196.892344581169, -5081.132660047133, -3684.1039281015314, -6489.761947365039, -4841.097276341591, -3130.3171074768434, -4677.4825069287435, -3615.4617208792833, -5228.944746130079, -6213.337923686257, -4222.110417140772, -3324.9113947047467, -3453.769201489592, -4909.851242286115, -6242.909281600629, -8549.475198921586, 0.01, 0.23800000000000002, 0.9520000000000001, 192.0, 0.0, 40.0, 3.5, 56.0, 14.5, 96.0, 0.0, 0.0, 0.0, 1.644587375393401E9, 0.0, 2022-02-12 00:49:35.393
2.0, -10421.389093564641, -10172.882398710537, -7377.930865041121, -12967.364545746392, -9677.992424725584, -6267.876180157206, -9369.180723331061, -7221.401598620606, -10434.040180926346, -12536.691133581537, -8187.9580841014495, -6458.067173727414, -6657.958824391226, -9655.10423840335, -12436.331800977207, -17115.96007537366, 0.01, 0.23800000000000002, 0.9520000000000001, 192.0, 0.0, 0.0, 0.0, 0.0, 0.0, 0.0, 0.0, 0.0, 0.0, 1.644587375400158E9, 0.0, 2022-02-12 00:49:35.400
4.0, -10377.66908141006, -10140.047686105692, -7362.865789278244, -12960.636670665344, -9674.4832008461, -6257.728488174497, -9376.46739202349, -7224.508491099893, -10419.064512141289, -12510.42783384655, -8179.754993886351, -6453.641528325264, -6643.161969561812, -9655.394811081269, -12439.12576903412, -17074.27407196451, 0.01, 0.23800000000000002, 0.9520000000000001, 192.0, 0.0, 0.0, 0.0, 0.0, 0.0, 0.0, 0.0, 0.0, 0.0, 1.644587375406683E9, 0.0, 2022-02-12 00:49:35.406
6.0, -10398.456203753496, -10160.924215426949, -7374.175771972629, -12971.007880092608, -9680.96520673814, -6263.137610332681, -9370.588883231745, -7229.358819646695, -10434.241346626442, -12526.968124743478, -8173.384746716589, -6441.75040027504, -6646.246510296644, -9640.732066718587, -12438.589327167194, -17139.049427395992, 0.008, 0.23800000000000002, 0.9500000000000001, 192.0, 0.0, 24.0, 3.5, 56.0, 14.5, 80.0, 0.0, 0.0, 0.0, 1.644587375414735E9, 0.0, 2022-02-12 00:49:35.414
8.0, -10420.62913425316, -10163.315852083666, -7383.876429066233, -12960.390801476336, -9661.34037510638, -6252.766400905419, -9366.476162251969, -7236.600784850215, -10416.91874467358, -12516.99924671641, -8190.796755647273, -6447.852426511339, -6633.416608979298, -9649.650412756255, -12439.304582989764, -17073.42470567521, 0.008, 0.23800000000000002, 0.9500000000000001, 192.0, 0.0, 0.0, 0.0, 0.0, 0.0, 0.0, 0.0, 0.0, 0.0, 1.644587375422709E9, 0.0, 2022-02-12 00:49:35.422
10.0, -10405.988741634936, -10172.43536382143, -7379.584894130814, -12982.608435464912, -9698.332512179913, -6259.918959131117, -9375.99800538993, -7233.4044853931055, -10440.119855418188, -12518.586220572737, -8188.539229457288, -6454.84852252585, -6651.923853388293, -9642.05081964145, -12443.774931880824, -17109.746290415085, 0.008, 0.23800000000000002, 0.9500000000000001, 192.0, 0.0, 0.0, 0.0, 0.0, 0.0, 0.0, 0.0, 0.0, 0.0, 1.644587375429909E9, 0.0, 2022-02-12 00:49:35.429
12.0, -10412.001360893413, -10177.732727257338, -7394.739376871512, -12974.360641760904, -9685.34614865138, -6265.015156866927, -9383.508191526913, -7237.070171483776, -10441.125683918677, -12560.741610615447, -8193.344854515179, -6455.7649440485175, -6667.815943696016, -9657.831151226897, -12449.139350550098, -17123.40320627728, 0.008, 0.23800000000000002, 0.9500000000000001, 192.0, 0.0, 0.0, 0.0, 0.0, 0.0, 0.0, 0.0, 0.0, 0.0, 1.644587375437364E9, 0.0, 2022-02-12 00:49:35.437
14.0, -10376.797363376303, -10150.977689144336, -7387.475059923538, -12973.958310360707, -9675.220808413125, -6254.107505572737, -9352.394563245125, -7213.578488061248, -10420.740892975438, -12511.724235024958, -8194.90947662705, -6455.988461493071, -6648.526388231086, -9635.389999793768, -12444.378428981117, -17073.514112653032, 0.008, 0.23800000000000002, 0.9500000000000001, 192.0, 0.0, 0.0, 0.0, 0.0, 0.0, 0.0, 0.0, 0.0, 0.0, 1.64458737544531E9, 0.0, 2022-02-12 00:49:35.445
16.0, -10391.14718331661, -10159.940738670915, -7385.709272111568, -12974.338290016449, -9691.135250465304, -6272.592398237276, -9366.163237829594, -7226.900127756611, -10442.042105441345, -12524.643543320126, -8192.80841264825, -6442.599766564342, -6642.8937486283485, -9656.087715159383, -12440.779798123813, -17136.568383761452, 0.007, 0.24, 0.9490000000000001, 192.0, 0.0, 24.0, 3.5, 72.0, 14.5, 80.0, 0.0, 0.0, 0.0, 1.644587375459452E9, 0.0, 2022-02-12 00:49:35.459
18.0, -10398.366796775676, -10161.326546827144, -7378.400251674682, -12954.400533962315, -9678.662977059243, -6256.9461771185615, -9378.814325191299, -7230.141130702631, -10419.779767963859, -12520.463767106983, -8188.740395157385, -6432.3403158593555, -6632.8578153679155, -9657.853502971353, -12443.439655713995, -17071.99419403007, 0.007, 0.24, 0.9490000000000001, 192.0, 0.0, 0.0, 0.0, 0.0, 0.0, 0.0, 0.0, 0.0, 0.0, 1.644587375466914E9, 0.0, 2022-02-12 00:49:35.466
20.0, -10416.337599317741, -10190.942608230425, -7373.16994347214, -12982.720194187188, -9695.67265458973, -6264.389308022179, -9374.90276991162, -7222.072150954265, -10436.074189671777, -12531.326714912262, -8174.9270170840055, -6440.476350841088, -6630.287364755555, -9641.6261364968, -12445.65247841507, -17106.170011302234, 0.007, 0.24, 0.9490000000000001, 192.0, 0.0, 0.0, 0.0, 0.0, 0.0, 0.0, 0.0, 0.0, 0.0, 1.644587375475069E9, 0.0, 2022-02-12 00:49:35.475
22.0, -10414.258887083399, -10167.048593407702, -7382.155344743174, -12983.167229076294, -9688.721262064131, -6264.165790577626, -9373.494610010936, -7227.235403923441, -10448.546463077839, -12548.828130820768, -8191.087328325192, -6461.0399557399705, -6638.557510204018, -9648.733991233586, -12437.851719600169, -17111.221505549136, 0.007, 0.24, 0.9490000000000001, 192.0, 0.0, 0.0, 0.0, 0.0, 0.0, 0.0, 0.0, 0.0, 0.0, 1.644587375483027E9, 0.0, 2022-02-12 00:49:35.483
24.0, -10394.63405545164, -10158.130247370034, -7369.45955389256, -12968.99622309163, -9682.887456761297, -6262.400002765657, -9371.393546032137, -7214.785482261835, -10430.173329135578, -12520.91080199609, -8204.163098831546, -6468.751307577051, -6654.8072284230275, -9645.24711909856, -12438.455216700462, -17061.779446813995, 0.007, 0.24, 0.9490000000000001, 192.0, 0.0, 0.0, 0.0, 0.0, 0.0, 0.0, 0.0, 0.0, 0.0, 1.644587375489579E9, 0.0, 2022-02-12 00:49:35.489
26.0, -10409.67677947006, -10205.381835148553, -7376.902684796177, -12975.120601072384, -9700.970018025639, -6268.7478981909635, -9385.631607250167, -7216.081883440243, -10450.558120078817, -12536.266450436886, -8193.993055104382, -6440.252833396535, -6651.40976326582, -9642.229633597093, -12440.019838812334, -17125.325456300434, 0.0075, 0.241, 0.9455, 192.0, 0.0, 32.0, 3.5, 72.0, 14.5, 56.0, 0.0, 0.0, 0.0, 1.644587375497508E9, 0.0, 2022-02-12 00:49:35.497
28.0, -10396.891581641625, -10193.893038498527, -7379.048452263886, -12958.46855145318, -9695.91852377874, -6275.386366294189, -9388.09029914025, -7227.347162645718, -10425.68062850006, -12536.400560903618, -8199.558639473753, -6435.402504849733, -6644.525425973586, -9656.445343070667, -12441.517405690838, -17061.064190991427, 0.0075, 0.241, 0.9455, 192.0, 0.0, 0.0, 0.0, 0.0, 0.0, 0.0, 0.0, 0.0, 0.0, 1.644587375505746E9, 0.0, 2022-02-12 00:49:35.505
30.0, -10411.77784344886, -10190.607332063597, -7375.494524895493, -12976.506409228614, -9713.509346665067, -6271.7430319479745, -9378.6131594912, -7217.758264274391, -10438.532881561861, -12529.76209280039, -8193.925999871017, -6441.3704206193, -6634.444789224242, -9670.996328711073, -12442.053847557765, -17099.978578088114, 0.0075, 0.241, 0.9455, 192.0, 0.0, 0.0, 0.0, 0.0, 0.0, 0.0, 0.0, 0.0, 0.0, 1.644587375511636E9, 0.0, 2022-02-12 00:49:35.511
32.0, -10431.089750658244, -10203.571343847674, -7391.163097758663, -12974.673566183277, -9715.073968776938, -6280.035529140893, -9394.460546310014, -7237.316040672785, -10450.692230545548, -12553.857273323212, -8200.206840062958, -6445.416086365711, -6656.952995890737, -9662.882645473795, -12441.673867902025, -17103.86778162334, 0.0075, 0.241, 0.9455, 192.0, 0.0, 0.0, 0.0, 0.0, 0.0, 0.0, 0.0, 0.0, 0.0, 1.644587375519343E9, 0.0, 2022-02-12 00:49:35.519
34.0, -10411.241401581932, -10201.49263161333, -7380.925998798132, -12966.783400390554, -9717.309143222468, -6278.068575628827, -9394.326435843283, -7238.634793595647, -10433.056704170313, -12527.750435799413, -8199.849212151672, -6450.288766656968, -6661.378641292888, -9655.953604692651, -12444.020801069833, -17060.818321802417, 0.0075, 0.241, 0.9455, 192.0, 0.0, 0.0, 0.0, 0.0, 0.0, 0.0, 0.0, 0.0, 0.0, 1.644587375527756E9, 0.0, 2022-02-12 00:49:35.527
36.0, -10422.260811598399, -10212.579096863163, -7387.787984345911, -12979.009804607607, -9742.857187134885, -6292.328988591313, -9403.960037703519, -7246.569662877281, -10459.029431227378, -12562.999136805432, -8191.959046358949, -6442.443304353154, -6673.314472832021, -9652.95847093564, -12450.771027895336, -17129.05819762447, 0.00475, 0.2375, 0.94275, 192.0, 0.0, 8.0, 3.5, 40.0, 14.5, 48.0, 0.0, 0.0, 0.0, 1.644587375535319E9, 0.0, 2022-02-12 00:49:35.535
38.0, -10427.714637245494, -10211.886192785048, -7400.304961240883, -12969.778534147566, -9732.284812007525, -6289.24444785648, -9400.048482423841, -7236.667840083581, -10449.485236344963, -12544.380133674162, -8211.852098924172, -6458.380098149789, -6676.264903100122, -9664.290805374481, -12457.923586121035, -17063.969917770617, 0.00475, 0.2375, 0.94275, 192.0, 0.0, 0.0, 0.0, 0.0, 0.0, 0.0, 0.0, 0.0, 0.0, 1.644587375541876E9, 0.0, 2022-02-12 00:49:35.541
40.0, -10412.940134160535, -10206.745291560328, -7386.960969801065, -12972.952481860219, -9748.176902315248, -6305.471814331033, -9406.418729593603, -7253.923386803078, -10460.281128916875, -12543.061380751298, -8203.358436031156, -6460.61527259532, -6670.252283841644, -9669.968148466129, -12455.621356442138, -17099.218618776635, 0.00475, 0.2375, 0.94275, 192.0, 0.0, 0.0, 0.0, 0.0, 0.0, 0.0, 0.0, 0.0, 0.0, 1.64458737554994E9, 0.0, 2022-02-12 00:49:35.549
42.0, -10429.860404713203, -10249.101847303134, -7403.970647331554, -12972.37133650438, -9746.388762758823, -6311.707951034064, -9413.459529097025, -7259.891302572644, -10458.805913782826, -12561.76979086039, -8209.683979712008, -6449.3723451343, -6662.518580260108, -9677.835962514397, -12458.616490199149, -17108.494592725587, 0.00475, 0.2375, 0.94275, 192.0, 0.0, 0.0, 0.0, 0.0, 0.0, 0.0, 0.0, 0.0, 0.0, 1.644587375557862E9, 0.0, 2022-02-12 00:49:35.557
44.0, -10441.505663574419, -10234.461454684908, -7392.370091959249, -12968.638595180344, -9753.720134940164, -6306.924677720628, -9420.299162900348, -7255.085677514753, -10450.267547400897, -12551.063305266298, -8212.343837302189, -6452.188664935668, -6678.5224292901075, -9691.314064420947, -12457.454199487473, -17060.885377035782, 0.00475, 0.2375, 0.94275, 192.0, 0.0, 0.0, 0.0, 0.0, 0.0, 0.0, 0.0, 0.0, 0.0, 1.644587375565021E9, 0.0, 2022-02-12 00:49:35.565
46.0, -10435.694210016038, -10229.052332526724, -7394.6499698936905, -12979.859170896909, -9779.446992808222, -6323.889651762206, -9438.359372420236, -7265.881570086667, -10466.852541786737, -12582.44515448155, -8200.408005763054, -6436.296574627945, -6684.400938081853, -9693.34807316638, -12463.980908868421, -17132.366255803856, 0.005375, 0.23775000000000002, 0.9413750000000001, 192.0, 0.0, 24.0, 3.5, 56.0, 14.5, 48.0, 0.0, 0.0, 0.0, 1.644587375579557E9, 0.0, 2022-02-12 00:49:35.579
48.0, -10432.453207070019, -10238.373009964587, -7401.310789741372, -12962.625975921866, -9768.092306624927, -6321.162738938659, -9422.847261768255, -7257.074982771276, -10455.140227692154, -12562.999136805432, -8221.664514740052, -6460.168237706213, -6687.284313116588, -9711.564744897454, -12466.03726935831, -17064.975746271106, 0.005375, 0.23775000000000002, 0.9413750000000001, 192.0, 0.0, 0.0, 0.0, 0.0, 0.0, 0.0, 0.0, 0.0, 0.0, 1.64458737558752E9, 0.0, 2022-02-12 00:49:35.587
50.0, -10427.289954100843, -10262.98228060988, -7395.566391416359, -12977.489885984647, -9787.3595103454, -6332.6738873331415, -9421.528508845391, -7265.322776475285, -10467.456038887029, -12557.165331502598, -8219.071712383236, -6436.788313005962, -6701.477670845708, -9689.861201031352, -12464.405592013072, -17094.547104185476, 0.005375, 0.23775000000000002, 0.9413750000000001, 192.0, 0.0, 0.0, 0.0, 0.0, 0.0, 0.0, 0.0, 0.0, 0.0, 1.644587375594634E9, 0.0, 2022-02-12 00:49:35.594
52.0, -10458.02360272689, -10279.857847673637, -7416.1299963152405, -12970.985528348152, -9803.497469842134, -6357.238454489524, -9449.021154525419, -7284.165297051108, -10484.219847228509, -12588.457773740027, -8227.565375276254, -6455.742592304063, -6712.474729117719, -9705.97680878363, -12473.368641539651, -17110.595656704387, 0.005375, 0.23775000000000002, 0.9413750000000001, 192.0, 0.0, 0.0, 0.0, 0.0, 0.0, 0.0, 0.0, 0.0, 0.0, 1.644587375602115E9, 0.0, 2022-02-12 00:49:35.602
54.0, -10454.559082336316, -10269.061955101724, -7409.491528212015, -12963.52004570008, -9810.359455389913, -6350.77880034194, -9447.322421946816, -7273.5482184348375, -10468.126591220689, -12572.275110754385, -8230.851081711184, -6469.3771564218, -6709.792519783083, -9722.338285724913, -12476.699051463493, -17061.354763669344, 0.005375, 0.23775000000000002, 0.9413750000000001, 192.0, 0.0, 0.0, 0.0, 0.0, 0.0, 0.0, 0.0, 0.0, 0.0, 1.644587375610244E9, 0.0, 2022-02-12 00:49:35.610
56.0, -10460.974032994991, -10263.809295154726, -7411.927868357643, -12977.579292962468, -9832.062999256015, -6367.475553450055, -9454.273814472415, -7293.530677977882, -10488.198457741555, -12591.452907497038, -8221.038665895303, -6461.442287140166, -6720.074322232524, -9715.073968776938, -12477.391955541607, -17123.649075466285, 0.0036875, 0.235875, 0.9436875, 192.0, 0.0, 8.0, 3.5, 40.0, 14.5, 72.0, 0.0, 0.0, 0.0, 1.64458737561724E9, 0.0, 2022-02-12 00:49:35.617
58.0, -10454.335564891764, -10280.08136511819, -7414.967705603565, -12957.216853763683, -9823.211708451714, -6366.73794588303, -9446.718924846522, -7274.554046935326, -10476.843771558259, -12586.401413250138, -8247.525483074842, -6470.204170966646, -6726.019886257635, -9726.518061938055, -12475.84968517419, -17063.254661948045, 0.0036875, 0.235875, 0.9436875, 192.0, 0.0, 0.0, 0.0, 0.0, 0.0, 0.0, 0.0, 0.0, 0.0, 1.64458737562478E9, 0.0, 2022-02-12 00:49:35.624
60.0, -10449.976974722978, -10317.162909169545, -7410.22913577904, -12968.683298669255, -9845.965784307216, -6378.718480911074, -9455.167884250628, -7274.6658056576025, -10489.159582753133, -12593.084584842276, -8241.53521556082, -6448.232406167079, -6732.2336712162105, -9728.239146261114, -12475.603815985181, -17084.37706045831, 0.0036875, 0.235875, 0.9436875, 192.0, 0.0, 0.0, 0.0, 0.0, 0.0, 0.0, 0.0, 0.0, 0.0, 1.644587375631841E9, 0.0, 2022-02-12 00:49:35.631
62.0, -10483.281073961387, -10313.698388778972, -7425.674191197657, -12967.65511842431, -9857.923967590807, -6398.231553820558, -9485.141573565195, -7313.244916587462, -10495.842754345269, -12617.358579320738, -8249.58184356473, -6469.310101188434, -6738.492159663697, -9723.098245036394, -12482.175228855041, -17107.019377591536, 0.0036875, 0.235875, 0.9436875, 192.0, 0.0, 0.0, 0.0, 0.0, 0.0, 0.0, 0.0, 0.0, 0.0, 1.644587375639789E9, 0.0, 2022-02-12 00:49:35.639
64.0, -10449.596995067239, -10294.811164714238, -7420.332124272839, -12951.271289738572, -9863.020165326616, -6399.103271854315, -9490.908323634663, -7303.231335071485, -10477.69313784756, -12584.836791138267, -8258.567244835764, -6477.110860003336, -6725.170519968334, -9737.291602765514, -12490.42302255905, -17058.24787119006, 0.0036875, 0.235875, 0.9436875, 192.0, 0.0, 0.0, 0.0, 0.0, 0.0, 0.0, 0.0, 0.0, 0.0, 1.644587375646936E9, 0.0, 2022-02-12 00:49:35.646
66.0, -10449.239367155955, -10310.211516643943, -7425.160101075185, -12968.303319013516, -9875.492438732677, -6426.484158812065, -9465.896721589175, -7316.530623022392, -10489.941893809068, -12604.7745471924, -8258.67900355804, -6479.748365849062, -6746.069401034046, -9747.104018581393, -12486.511467279372, -17126.19717433419, 0.00584375, 0.23493750000000002, 0.9458437500000001, 192.0, 0.0, 32.0, 3.5, 40.0, 14.5, 80.0, 0.0, 0.0, 0.0, 1.644587375654429E9, 0.0, 2022-02-12 00:49:35.654
68.0, -10487.63966413017, -10338.173548957533, -7431.731513945046, -12953.484112439646, -9875.514790477133, -6424.383094833266, -9474.59155018229, -7308.551050251848, -10492.557047910339, -12612.530602518393, -8275.867495044171, -6486.453889185655, -6752.797276115093, -9772.629710749354, -12488.791345213813, -17064.863987548826, 0.00584375, 0.23493750000000002, 0.9458437500000001, 192.0, 0.0, 0.0, 0.0, 0.0, 0.0, 0.0, 0.0, 0.0, 0.0, 1.644587375662558E9, 0.0, 2022-02-12 00:49:35.662
70.0, -10496.803879356847, -10354.959709043469, -7431.70916220059, -12960.033173565052, -9900.414633800345, -6439.425818851688, -9489.231942800516, -7319.816329457322, -10508.583248684794, -12618.722035732513, -8263.261111171378, -6483.145831006269, -6754.965395327258, -9757.497579753111, -12491.13827838162, -17091.0825837949, 0.00584375, 0.23493750000000002, 0.9458437500000001, 192.0, 0.0, 0.0, 0.0, 0.0, 0.0, 0.0, 0.0, 0.0, 0.0, 1.644587375670312E9, 0.0, 2022-02-12 00:49:35.670
72.0, -10499.195516013566, -10371.276482495843, -7448.271804841973, -12955.808693862999, -9913.557459540065, -6463.297481929956, -9502.620637729244, -7339.463512833538, -10521.927240124613, -12650.796789025879, -8283.601198625707, -6499.909639347749, -6786.481355009241, -9797.730719772664, -12501.733005253436, -17109.031034592514, 0.00584375, 0.23493750000000002, 0.9458437500000001, 192.0, 0.0, 0.0, 0.0, 0.0, 0.0, 0.0, 0.0, 0.0, 0.0, 1.644587375676956E9, 0.0, 2022-02-12 00:49:35.676
74.0, -10484.108088506233, -10351.517540397352, -7446.7742379634665, -12950.824254849465, -9925.068607934549, -6457.553083604942, -9492.651759702178, -7335.5966610427695, -10503.732920137993, -12612.664712985124, -8294.195925497523, -6513.745369165585, -6789.543543999618, -9796.07669068297, -12511.098386180209, -17054.51512986602, 0.00584375, 0.23493750000000002, 0.9458437500000001, 192.0, 0.0, 0.0, 0.0, 0.0, 0.0, 0.0, 0.0, 0.0, 0.0, 1.644587375685031E9, 0.0, 2022-02-12 00:49:35.685
76.0, -10498.547315424361, -10388.286160026331, -7453.010374666497, -12965.598757934424, -9941.854768020483, -6474.272188457512, -9506.59924824229, -7335.97664069851, -10527.783397171903, -12626.992181180976, -8297.369873210177, -6510.459662730654, -6791.756366700693, -9784.587894032944, -12506.449223333506, -17119.2904852975, 0.006921875, 0.23346875, 0.9469218750000001, 192.0, 0.0, 32.0, 3.5, 32.0, 14.5, 80.0, 0.0, 0.0, 0.0, 1.644587375693179E9, 0.0, 2022-02-12 00:49:35.693
78.0, -10520.161452312643, -10419.578602263762, -7463.292177115939, -12941.078894266951, -9953.522378626154, -6493.3829299668, -9533.756617755487, -7354.528588596415, -10514.931144110102, -12642.124312177219, -8321.21918454399, -6512.896002876282, -6811.381198332453, -9815.120376958892, -12512.171269914064, -17058.4266851457, 0.006921875, 0.23346875, 0.9469218750000001, 192.0, 0.0, 0.0, 0.0, 0.0, 0.0, 0.0, 0.0, 0.0, 0.0, 1.64458737570912E9, 0.0, 2022-02-12 00:49:35.709
80.0, -10514.618219687727, -10406.301666057308, -7463.023956182476, -12944.56576640198, -9980.746803372718, -6506.101072561869, -9540.17156841416, -7361.301167166373, -10528.521004738928, -12642.59369881078, -8317.665257175597, -6509.833813885905, -6828.972021218779, -9820.46244388371, -12523.48125260845, -17084.019432547026, 0.006921875, 0.23346875, 0.9469218750000001, 192.0, 0.0, 0.0, 0.0, 0.0, 0.0, 0.0, 0.0, 0.0, 0.0, 1.6445873757154E9, 0.0, 2022-02-12 00:49:35.715
82.0, -10538.534586254906, -10420.87500344217, -7482.0452907139415, -12942.88938556783, -9989.396928476921, -6526.172939082735, -9538.070504435362, -7370.51008588196, -10545.955365414067, -12670.913359035654, -8328.237632302957, -6528.206947828168, -6847.725134816782, -9835.885147557872, -12524.375322386662, -17101.923179855727, 0.006921875, 0.23346875, 0.9469218750000001, 192.0, 0.0, 0.0, 0.0, 0.0, 0.0, 0.0, 0.0, 0.0, 0.0, 1.644587375722552E9, 0.0, 2022-02-12 00:49:35.722
84.0, -10514.148833054165, -10399.77495667636, -7479.296026145938, -12937.502615154102, -9986.915884842383, -6529.592755984397, -9539.277498635949, -7377.12620224073, -10533.79601643038, -12641.632573799203, -8347.258966834423, -6542.042677646003, -6845.847588282537, -9843.082409272482, -12526.722255554469, -17044.85917626133, 0.006921875, 0.23346875, 0.9469218750000001, 192.0, 0.0, 0.0, 0.0, 0.0, 0.0, 0.0, 0.0, 0.0, 0.0, 1.64458737572986E9, 0.0, 2022-02-12 00:49:35.729
86.0, -10513.522984209418, -10430.463901813497, -7487.700282061134, -12943.738751857132, -10016.531946245665, -6557.666547020262, -9556.84596977782, -7398.785042617923, -10550.179845116121, -12666.711231078058, -8354.053897148837, -6554.514951052064, -6857.917530288402, -9857.76750537962, -12533.226613190964, -17111.154450315767, 0.008, 0.234, 0.9480000000000001, 192.0, 0.0, 32.0, 3.5, 40.0, 14.5, 80.0, 0.0, 0.0, 0.0, 1.644587375737279E9, 0.0, 2022-02-12 00:49:35.737
88.0, -10537.148778098677, -10465.0196987414, -7502.899468290743, -12923.800995803, -10016.755463690217, -6562.941558711715, -9564.84789429282, -7397.734510628523, -10526.17407157112, -12652.27200415993, -8362.36874608621, -6571.189352415723, -6855.97292852079, -9872.184380553292, -12540.915613283589, -17054.001039743547, 0.008, 0.234, 0.9480000000000001, 192.0, 0.0, 0.0, 0.0, 0.0, 0.0, 0.0, 0.0, 0.0, 0.0, 1.644587375745399E9, 0.0, 2022-02-12 00:49:35.745
90.0, -10551.766818972448, -10479.593036126262, -7493.534087363969, -12934.395722674815, -10045.41040008192, -6578.476021108154, -9572.313376940892, -7402.160156030674, -10539.875690922225, -12655.915338506144, -8368.761345000428, -6550.715154494662, -6886.572466680106, -9864.249511271657, -12544.469540651982, -17072.776505086007, 0.008, 0.234, 0.9480000000000001, 192.0, 0.0, 0.0, 0.0, 0.0, 0.0, 0.0, 0.0, 0.0, 0.0, 1.644587375753303E9, 0.0, 2022-02-12 00:49:35.753
92.0, -10564.104981911776, -10475.413259913119, -7512.130738750785, -12931.46764415117, -10056.407458353933, -6592.334102670444, -9574.906179297708, -7409.603286934292, -10554.203159118077, -12683.475039419538, -8374.773964258906, -6565.668471535262, -6909.1477285799665, -9881.773278924618, -12549.230462220963, -17090.4343832057, 0.008, 0.234, 0.9480000000000001, 192.0, 0.0, 0.0, 0.0, 0.0, 0.0, 0.0, 0.0, 0.0, 0.0, 1.64458737576062E9, 0.0, 2022-02-12 00:49:35.760
94.0, -10537.327592054318, -10456.50368410393, -7511.974276539598, -12923.13044346934, -10056.429810098387, -6593.205820704201, -9561.852760535809, -7420.957973117587, -10542.669658979137, -12668.722888079035, -8404.904115784659, -6591.663550336784, -6903.693902932871, -9886.578903982509, -12544.514244140893, -17030.375245854288, 0.008, 0.234, 0.9480000000000001, 192.0, 0.0, 0.0, 0.0, 0.0, 0.0, 0.0, 0.0, 0.0, 0.0, 1.644587375766919E9, 0.0, 2022-02-12 00:49:35.766
96.0, -10551.789170716902, -10496.066271789823, -7515.9752387970975, -12934.507481397091, -10084.771822067718, -6618.351533216422, -9589.434813193657, -7432.200900578607, -10557.354755086275, -12673.327347436829, -8394.868182524227, -6591.64119859233, -6924.5257287652175, -9890.713976706742, -12545.073037752276, -17097.05049956447, 0.006, 0.23600000000000002, 0.9460000000000001, 192.0, 0.0, 24.0, 3.5, 48.0, 14.5, 72.0, 0.0, 0.0, 0.0, 1.644587375775137E9, 0.0, 2022-02-12 00:49:35.775
98.0, -10576.75606927348, -10527.492824493984, -7526.033523801986, -12915.84377477691, -10088.19163896938, -6634.511844457608, -9603.494060456045, -7442.8403309393325, -10545.351868313774, -12676.814219571856, -8408.14511873068, -6590.747128814117, -6935.634545759505, -9903.745043724186, -12548.537558142849, -17042.311077393424, 0.006, 0.23600000000000002, 0.9460000000000001, 192.0, 0.0, 0.0, 0.0, 0.0, 0.0, 0.0, 0.0, 0.0, 0.0, 1.644587375781985E9, 0.0, 2022-02-12 00:49:35.781
100.0, -10559.18759813161, -10514.84173713228, -7518.590392898369, -12917.453100377692, -10104.977799055314, -6647.162931819312, -9601.795327877442, -7456.206674123607, -10546.268289836442, -12676.434239916116, -8403.764176817438, -6592.624675348363, -6925.688019476894, -9923.034599189115, -12550.169235488085, -17061.75709506954, 0.006, 0.23600000000000002, 0.9460000000000001, 192.0, 0.0, 0.0, 0.0, 0.0, 0.0, 0.0, 0.0, 0.0, 0.0, 1.64458737578982E9, 0.0, 2022-02-12 00:49:35.789
102.0, -10581.584046075826, -10521.0331703464, -7540.897433864765, -12913.094510208906, -10111.660970647452, -6651.834446410471, -9599.761319132009, -7445.723705974067, -10550.783342216415, -12688.75005111099, -8415.185918234101, -6614.708198870207, -6948.911481965957, -9936.847977262494, -12549.945718043533, -17075.279900465, 0.006, 0.23600000000000002, 0.9460000000000001, 192.0, 0.0, 0.0, 0.0, 0.0, 0.0, 0.0, 0.0, 0.0, 0.0, 1.644587375797525E9, 0.0, 2022-02-12 00:49:35.797
104.0, -10563.009746433467, -10506.906867850646, -7536.58354718489, -12899.079966435429, -10117.740645139294, -6656.885940657371, -9599.873077854285, -7450.685793243146, -10530.532661739906, -12664.297242676885, -8429.42397945213, -6623.268916996589, -6960.9814239718235, -9934.97043072825, -12550.795084332834, -17006.324768820377, 0.006, 0.23600000000000002, 0.9460000000000001, 192.0, 0.0, 0.0, 0.0, 0.0, 0.0, 0.0, 0.0, 0.0, 0.0, 1.644587375805772E9, 0.0, 2022-02-12 00:49:35.805
106.0, -10570.005842447978, -10515.959324355046, -7548.4970269795695, -12912.401606130792, -10143.355744285076, -6679.818830468515, -9613.641752438754, -7458.933586947154, -10545.843606691791, -12683.31857720835, -8428.731075374017, -6615.825786092972, -6973.006662488779, -9937.049142962593, -12554.684287868058, -17072.351821941356, 0.004, 0.234, 0.9500000000000001, 192.0, 0.0, 16.0, 3.5, 40.0, 14.5, 88.0, 0.0, 0.0, 0.0, 1.644587375812217E9, 0.0, 2022-02-12 00:49:35.812
108.0, -10582.791040276414, -10561.936862699613, -7562.980957386609, -12895.906018722775, -10137.365476771054, -6689.2289148842, -9617.732121674077, -7471.607026053313, -10543.854301435269, -12680.435202173616, -8459.755296677982, -6642.849045139438, -6988.407014418485, -9956.606919360986, -12558.260566980907, -17013.007940412517, 0.004, 0.234, 0.9500000000000001, 192.0, 0.0, 0.0, 0.0, 0.0, 0.0, 0.0, 0.0, 0.0, 0.0, 1.644587375827215E9, 0.0, 2022-02-12 00:49:35.827
110.0, -10552.504426539474, -10559.433467320618, -7561.7069079526555, -12895.50368732258, -10160.879511938037, -6696.984970210192, -9624.884679899775, -7483.900485503732, -10540.166263600144, -12674.780210826422, -8460.381145522731, -6637.305812514522, -6985.322473683653, -9944.984012244227, -12553.05261052282, -17028.810623742418, 0.004, 0.234, 0.9500000000000001, 192.0, 0.0, 0.0, 0.0, 0.0, 0.0, 0.0, 0.0, 0.0, 0.0, 1.644587375834411E9, 0.0, 2022-02-12 00:49:35.834
112.0, -10585.137973444222, -10551.878577694724, -7578.470716294136, -12895.794260000499, -10175.810477234183, -6703.556383080052, -9633.71361895962, -7476.993796467042, -10544.681315980115, -12681.351623696282, -8463.666851957661, -6639.563338704507, -7018.715979899881, -9967.760439844185, -12556.025392535377, -17048.1225309518, 0.004, 0.234, 0.9500000000000001, 192.0, 0.0, 0.0, 0.0, 0.0, 0.0, 0.0, 0.0, 0.0, 0.0, 1.644587375841914E9, 0.0, 2022-02-12 00:49:35.841
114.0, -10580.846438508803, -10535.539452497895, -7572.323986568927, -12877.152905124773, -10176.123401656558, -6710.239554672188, -9626.605764222833, -7483.699319803634, -10520.161452312643, -12655.580062339313, -8458.861226899771, -6658.003527880136, -7019.073607811166, -9966.218169476768, -12559.825189092779, -16983.727155176064, 0.004, 0.234, 0.9500000000000001, 192.0, 0.0, 0.0, 0.0, 0.0, 0.0, 0.0, 0.0, 0.0, 0.0, 1.644587375849806E9, 0.0, 2022-02-12 00:49:35.849
116.0, -10592.648159581204, -10562.540359799905, -7586.897323953787, -12882.964358683153, -10209.583963106152, -6740.123837008934, -9636.708752716631, -7494.629322842279, -10553.890234695702, -12682.670376619146, -8471.91464566167, -6655.164856334312, -7028.260174782297, -9976.209399248291, -12559.378154203672, -17046.200280928646, 0.004, 0.232, 0.9540000000000001, 192.0, 0.0, 16.0, 3.5, 32.0, 14.5, 104.0, 0.0, 0.0, 0.0, 1.644587375859435E9, 0.0, 2022-02-12 00:49:35.859
118.0, -10599.778366062446, -10573.068031438355, -7600.21896364915, -12854.644698458278, -10211.550916618218, -6746.38232545642, -9650.231558112093, -7503.4135584132155, -10536.344115298285, -12664.721925821535, -8480.430660299142, -6665.692527972762, -7051.774209949281, -9992.101489556015, -12564.027317050377, -16984.82239065437, 0.004, 0.232, 0.9540000000000001, 192.0, 0.0, 0.0, 0.0, 0.0, 0.0, 0.0, 0.0, 0.0, 0.0, 1.644587375865426E9, 0.0, 2022-02-12 00:49:35.865
120.0, -10585.875581011245, -10576.174923917642, -7590.764175744555, -12868.614538742846, -10229.231146482367, -6753.28901449311, -9656.400639581758, -7507.861555559821, -10544.323688068831, -12665.571292110837, -8489.706634248094, -6671.325167575499, -7052.176541349476, -10001.846850138529, -12566.620119407193, -16996.288835559946, 0.004, 0.232, 0.9540000000000001, 192.0, 0.0, 0.0, 0.0, 0.0, 0.0, 0.0, 0.0, 0.0, 0.0, 1.644587375872667E9, 0.0, 2022-02-12 00:49:35.872
122.0, -10572.375127360241, -10566.85424647978, -7615.082873711929, -12858.980936882608, -10233.612088395606, -6765.3366047545205, -9667.330642620402, -7508.86738406031, -10537.79697868788, -12670.13104797972, -8500.323712864365, -6669.917007674815, -7066.4593060564175, -9996.16950704688, -12568.542369430348, -17017.098309647838, 0.004, 0.232, 0.9540000000000001, 192.0, 0.0, 0.0, 0.0, 0.0, 0.0, 0.0, 0.0, 0.0, 0.0, 1.644587375879596E9, 0.0, 2022-02-12 00:49:35.879
124.0, -10564.216740634054, -10543.854301435269, -7612.512423099569, -12848.319154777428, -10243.200986766933, -6775.640758948417, -9659.932215205696, -7519.886794076776, -10518.552126711862, -12625.360503835738, -8527.749303311028, -6700.002455711658, -7087.291131888764, -10009.044111853136, -12563.379116461172, -16947.83025358084, 0.004, 0.232, 0.9540000000000001, 192.0, 0.0, 0.0, 0.0, 0.0, 0.0, 0.0, 0.0, 0.0, 0.0, 1.644587375887703E9, 0.0, 2022-02-12 00:49:35.887
126.0, -10575.750240772992, -10585.316787399863, -7621.36371390387, -12853.281242046505, -10262.959928865424, -6802.351093572509, -9664.62608154131, -7545.926576367209, -10524.609449459249, -12663.98431825451, -8501.038968686935, -6681.1599351358345, -7086.68763478847, -10008.977056619771, -12561.233348993463, -17011.488021789555, 0.004, 0.23800000000000002, 0.9500000000000001, 192.0, 0.0, 16.0, 3.5, 56.0, 14.5, 88.0, 0.0, 0.0, 0.0, 1.644587375893997E9, 0.0, 2022-02-12 00:49:35.893
128.0, -10600.471270140562, -10600.068938740365, -7626.41520815077, -12822.145262020262, -10265.373917266597, -6811.582364032551, -9674.72907003511, -7531.48734944908, -10513.388873742686, -12654.395419883183, -8510.761977524993, -6692.805193997049, -7104.367864652618, -10034.279231343178, -12556.807703591312, -16950.49011117102, 0.004, 0.23800000000000002, 0.9500000000000001, 192.0, 0.0, 0.0, 0.0, 0.0, 0.0, 0.0, 0.0, 0.0, 0.0, 1.644587375902254E9, 0.0, 2022-02-12 00:49:35.902
130.0, -10564.66377552316, -10579.147705930198, -7620.626106336846, -12828.984895823587, -10277.689728461472, -6817.863204224492, -9673.34326187888, -7542.7302769101, -10509.276152762908, -12629.719094004524, -8507.11864317878, -6699.913048733837, -7088.676940044992, -10021.628143981474, -12550.43745642155, -16959.140236275227, 0.004, 0.23800000000000002, 0.9500000000000001, 192.0, 0.0, 0.0, 0.0, 0.0, 0.0, 0.0, 0.0, 0.0, 0.0, 1.64458737591061E9, 0.0, 2022-02-12 00:49:35.910
132.0, -10558.181769631121, -10577.493676840506, -7642.597871136412, -12817.004360795541, -10292.531286779797, -6829.329649130064, -9682.753346294565, -7541.836207131888, -10498.994350313467, -12642.92897497761, -8531.079713234867, -6711.848880272971, -7127.144292252576, -10045.209234381824, -12547.665840109092, -16977.31220451739, 0.004, 0.23800000000000002, 0.9500000000000001, 192.0, 0.0, 0.0, 0.0, 0.0, 0.0, 0.0, 0.0, 0.0, 0.0, 1.644587375917387E9, 0.0, 2022-02-12 00:49:35.917
134.0, -10596.805584049891, -10573.827990749836, -7640.9438420467195, -12800.933456532175, -10295.839344959182, -6830.536643330651, -9680.160543937749, -7540.830378631399, -10482.431707672085, -12623.035922412388, -8532.73374232456, -6712.608839584451, -7135.369734212129, -10038.32489708959, -12546.861177308701, -16903.2385233925, 0.004, 0.23800000000000002, 0.9500000000000001, 192.0, 0.0, 0.0, 0.0, 0.0, 0.0, 0.0, 0.0, 0.0, 0.0, 1.644587375924977E9, 0.0, 2022-02-12 00:49:35.924
136.0, -10595.106851471288, -10599.219572451064, -7647.89523457232, -12811.215258981618, -10321.409740616053, -6841.243128924743, -9681.255779416058, -7550.866311891832, -10500.380158469696, -12636.335210363295, -8519.680323562661, -6717.258002431155, -7145.450370961473, -10033.519272031697, -12548.135226742654, -16968.483265457544, -0.002, 0.234, 0.9520000000000001, 192.0, 127.5, 120.0, 3.5, 40.0, 14.5, 96.0, 0.0, 0.0, 0.0, 1.644587375934216E9, 0.0, 2022-02-12 00:49:35.934
138.0, -10570.207008148076, -10595.531534615939, -7660.009880067097, -12792.238627939061, -10314.90538297956, -6855.816466309603, -9694.130384222315, -7567.138381855296, -10482.521114649906, -12619.906678188645, -8535.483006892564, -6734.290031706099, -7145.360963983651, -10050.506597817732, -12541.474406894971, -16905.92073272714, -0.002, 0.234, 0.9520000000000001, 192.0, 0.0, 0.0, 0.0, 0.0, 0.0, 0.0, 0.0, 0.0, 0.0, 1.644587375940408E9, 0.0, 2022-02-12 00:49:35.940
140.0, -10557.690031253103, -10591.016482235967, -7657.484132943647, -12787.634168581268, -10332.920889010536, -6867.55113214864, -9694.599770855877, -7569.597073745379, -10469.490047632462, -12609.088433872275, -8534.231309203065, -6727.8303775585155, -7123.769178839824, -10049.41136233942, -12534.947697514022, -16916.090776454304, -0.002, 0.234, 0.9520000000000001, 192.0, 0.0, 0.0, 0.0, 0.0, 0.0, 0.0, 0.0, 0.0, 0.0, 1.644587375954601E9, 0.0, 2022-02-12 00:49:35.954
142.0, -10556.28187135242, -10595.151554960199, -7678.003034353618, -12770.177456161673, -10345.862549050158, -6880.202219510344, -9706.379140183824, -7579.923579683731, -10466.45021038654, -12622.745349734469, -8539.483969150064, -6731.943098538291, -7169.120868339643, -10063.13533343498, -12535.707656825502, -16933.05575049588, -0.002, 0.234, 0.9520000000000001, 192.0, 0.0, 0.0, 0.0, 0.0, 0.0, 0.0, 0.0, 0.0, 0.0, 1.644587375962985E9, 0.0, 2022-02-12 00:49:35.962
144.0, -10558.718211498048, -10593.631636337237, -7675.767859908088, -12757.615775777791, -10335.468987878441, -6868.802829838137, -9683.178029439216, -7561.662204463745, -10438.130550161666, -12585.954378361033, -8557.678289136684, -6749.913901080358, -7179.536781255816, -10064.834066013584, -12531.594935845726, -16860.636098460687, -0.002, 0.234, 0.9520000000000001, 192.0, 0.0, 0.0, 0.0, 0.0, 0.0, 0.0, 0.0, 0.0, 0.0, 1.644587375969637E9, 0.0, 2022-02-12 00:49:35.969
146.0, -10578.365394874263, -10611.177755734654, -7686.206124568716, -12767.00350844902, -10353.037459020312, -6885.36547247952, -9673.38796536779, -7564.255006820561, -10455.095524203245, -12619.772567721911, -8546.033030275468, -6743.834226588515, -7170.797249173791, -10054.12758041949, -12522.47542410796, -16916.850735765784, 0.002, 0.234, 0.9460000000000001, 192.0, 0.0, 8.0, 3.5, 40.0, 14.5, 72.0, 0.0, 0.0, 0.0, 1.644587375977278E9, 0.0, 2022-02-12 00:49:35.977
148.0, -10562.003917932978, -10585.987339733523, -7697.9407904077525, -12738.303868568406, -10349.23766246291, -6884.024367812201, -9684.899113762274, -7564.880855665309, -10440.432779840563, -12595.386814521173, -8556.672460636195, -6756.015927316657, -7187.873981937645, -10069.147952693458, -12515.993418215921, -16857.86448214823, 0.002, 0.234, 0.9460000000000001, 192.0, 0.0, 0.0, 0.0, 0.0, 0.0, 0.0, 0.0, 0.0, 0.0, 1.644587375985047E9, 0.0, 2022-02-12 00:49:35.985
150.0, -10523.827138403314, -10575.70553728408, -7693.515145005602, -12735.08521736684, -10357.641918378105, -6882.50444918924, -9679.087660203893, -7565.596111487879, -10420.316209830788, -12561.72508737148, -8556.806571102927, -6758.474619206741, -7185.974083658944, -10055.982775209282, -12508.66204603458, -16855.629307702697, 0.002, 0.234, 0.9460000000000001, 192.0, 0.0, 0.0, 0.0, 0.0, 0.0, 0.0, 0.0, 0.0, 0.0, 1.64458737599308E9, 0.0, 2022-02-12 00:49:35.993
152.0, -10514.059426076345, -10583.081612954333, -7713.341142337459, -12726.56920272937, -10362.536950413818, -6897.770690652214, -9687.626026585822, -7578.35895757186, -10404.468823011974, -12571.96218633201, -8555.353707713331, -6752.797276115093, -7191.1373366281205, -10051.668888529408, -12506.248057633407, -16872.326060810814, 0.002, 0.234, 0.9460000000000001, 192.0, 0.0, 0.0, 0.0, 0.0, 0.0, 0.0, 0.0, 0.0, 0.0, 1.644587375999587E9, 0.0, 2022-02-12 00:49:35.999
154.0, -10540.523891511428, -10576.018461706455, -7710.100139391439, -12707.458461220082, -10359.0947817677, -6899.60353369755, -9670.661052544243, -7568.390079544793, -10381.044194822813, -12534.701828325013, -8565.769620629504, -6768.935235611825, -7207.09648216921, -10058.329708377089, -12499.453127318995, -16799.101745975226, 0.006, 0.23500000000000001, 0.9480000000000001, 192.0, 0.0, 40.0, 3.5, 48.0, 14.5, 88.0, 0.0, 0.0, 0.0, 1.6445873760066E9, 0.0, 2022-02-12 00:49:36.006
156.0, -10547.56469101485, -10593.318711914864, -7718.973781940196, -12715.169813057162, -10391.43775599453, -6913.282801304198, -9682.552180594466, -7583.164582629751, -10393.494116484419, -12550.124531999176, -8550.659841377717, -6758.809895373571, -7209.018732192366, -10056.809789754128, -12495.09453715021, -16855.204624558046, 0.006, 0.23500000000000001, 0.9480000000000001, 192.0, 0.0, 0.0, 0.0, 0.0, 0.0, 0.0, 0.0, 0.0, 0.0, 1.644587376015124E9, 0.0, 2022-02-12 00:49:36.015
158.0, -10541.306202567364, -10585.361490888774, -7734.843520503465, -12686.872504576744, -10383.905218113092, -6913.528670493206, -9680.607578826855, -7584.25981810806, -10378.116116299167, -12540.155653972108, -8570.865818365315, -6782.256875307188, -7223.927345744056, -10066.152818936447, -12490.154801625587, -16793.200885439026, 0.006, 0.23500000000000001, 0.9480000000000001, 192.0, 0.0, 0.0, 0.0, 0.0, 0.0, 0.0, 0.0, 0.0, 0.0, 1.644587376022717E9, 0.0, 2022-02-12 00:49:36.022
160.0, -10505.610466672239, -10558.829970220324, -7727.445093088758, -12669.259329945962, -10398.567962475772, -6918.960144395846, -9682.261607916547, -7586.338530342404, -10359.944148057002, -12507.544458811815, -8561.232216505077, -6767.638834433417, -7226.140168445131, -10069.527932349198, -12479.291853820307, -16789.669309815086, 0.006, 0.23500000000000001, 0.9480000000000001, 192.0, 0.0, 0.0, 0.0, 0.0, 0.0, 0.0, 0.0, 0.0, 0.0, 1.644587376029341E9, 0.0, 2022-02-12 00:49:36.029
162.0, -10504.425824216107, -10561.400420832684, -7743.426590374303, -12670.980414269021, -10396.042215352323, -6930.672458490427, -9679.355881137357, -7583.49985879658, -10349.52823514083, -12514.80877575979, -8556.247777491544, -6775.886628137426, -7219.56875557527, -10067.404516625944, -12471.982833383421, -16803.303873932826, 0.006, 0.23500000000000001, 0.9480000000000001, 192.0, 0.0, 0.0, 0.0, 0.0, 0.0, 0.0, 0.0, 0.0, 0.0, 1.644587376037245E9, 0.0, 2022-02-12 00:49:36.037
164.0, -10501.788318370382, -10547.497635781483, -7742.0854857069835, -12646.415847112637, -10393.494116484419, -6921.687057219393, -9663.48614257409, -7563.293881808982, -10320.538022582296, -12484.56686551176, -8571.849295121348, -6786.682520709339, -7221.535709087338, -10066.577502081098, -12457.945937865488, -16729.11843408566, 0.004, 0.2375, 0.9490000000000001, 192.0, 0.0, 8.0, 3.5, 64.0, 14.5, 88.0, 0.0, 0.0, 0.0, 1.644587376045303E9, 0.0, 2022-02-12 00:49:36.045
166.0, -10495.641588645172, -10571.123429670743, -7745.907634008841, -12653.16607393814, -10412.180174849054, -6934.829882959114, -9672.940930478684, -7577.911922682753, -10320.605077815662, -12499.52018255236, -8560.98634731607, -6779.418203761364, -7252.62698562467, -10057.189769409868, -12450.36869649514, -16779.789838765842, 0.004, 0.2375, 0.9490000000000001, 192.0, 0.0, 0.0, 0.0, 0.0, 0.0, 0.0, 0.0, 0.0, 0.0, 1.644587376051925E9, 0.0, 2022-02-12 00:49:36.051
168.0, -10506.348074239264, -10563.702650511581, -7763.230235961704, -12622.8794602012, -10407.687474213539, -6942.18360688491, -9673.030337456506, -7576.302597081972, -10290.251408845355, -12480.23062708743, -8571.290501509966, -6795.064424880079, -7251.621157124181, -10064.409382868933, -12442.07619930222, -16721.31767527076, 0.004, 0.2375, 0.9490000000000001, 192.0, 0.0, 0.0, 0.0, 0.0, 0.0, 0.0, 0.0, 0.0, 0.0, 1.644587376059972E9, 0.0, 2022-02-12 00:49:36.059
170.0, -10488.310216463831, -10540.970926400534, -7754.647166090866, -12625.248745113462, -10413.007189393902, -6940.931909195413, -9662.234444884592, -7572.905131924765, -10288.552676266752, -12448.513501705349, -8556.001908302535, -6787.442480020819, -7241.048781996821, -10057.100362432047, -12433.873109087124, -16713.673378667045, 0.004, 0.2375, 0.9490000000000001, 192.0, 0.0, 0.0, 0.0, 0.0, 0.0, 0.0, 0.0, 0.0, 0.0, 1.644587376075058E9, 0.0, 2022-02-12 00:49:36.075
172.0, -10488.086699019277, -10531.493786751484, -7776.060137279051, -12605.467451270515, -10422.819605209781, -6952.33129886762, -9679.802916026463, -7581.756422729066, -10281.869504674614, -12458.504731476873, -8554.906672824225, -6791.018759133668, -7242.702811086513, -10048.673754772397, -12425.22298398292, -16731.443015509012, 0.004, 0.2375, 0.9490000000000001, 192.0, 0.0, 0.0, 0.0, 0.0, 0.0, 0.0, 0.0, 0.0, 0.0, 1.644587376082966E9, 0.0, 2022-02-12 00:49:36.082
174.0, -10458.604748082727, -10535.56180424235, -7780.217561747738, -12581.528732958883, -10411.643732982127, -6945.201092386376, -9662.927348962707, -7568.635948733801, -10251.806408382226, -12426.295867716774, -8565.523751440496, -6792.695139967816, -7251.017660023887, -10082.402537155454, -12419.724454846913, -16653.748351782364, 0.003, 0.23675000000000002, 0.9455, 192.0, 0.0, 8.0, 3.5, 48.0, 14.5, 56.0, 0.0, 0.0, 0.0, 1.644587376089578E9, 0.0, 2022-02-12 00:49:36.089
176.0, -10478.609559370227, -10542.42378979013, -7789.49353569669, -12580.500552713938, -10435.694210016038, -6953.1136099235555, -9655.372459336813, -7580.392966317292, -10253.75101014984, -12427.838138084191, -8558.795876359449, -6784.156773585889, -7282.3548057502285, -10066.353984636544, -12410.02379775331, -16704.73268088492, 0.003, 0.23675000000000002, 0.9455, 192.0, 0.0, 0.0, 0.0, 0.0, 0.0, 0.0, 0.0, 0.0, 0.0, 1.64458737609775E9, 0.0, 2022-02-12 00:49:36.097
178.0, -10477.491972147462, -10534.779493186414, -7801.965809102751, -12549.364572687695, -10427.960506434501, -6951.392525600497, -9663.508494318545, -7569.798239445477, -10223.531451646264, -12404.637027339582, -8565.032013062479, -6799.713587726783, -7278.331491748273, -10072.14308645047, -12402.535963360782, -16642.43836908798, 0.003, 0.23675000000000002, 0.9455, 192.0, 0.0, 0.0, 0.0, 0.0, 0.0, 0.0, 0.0, 0.0, 0.0, 1.644587376104907E9, 0.0, 2022-02-12 00:49:36.104
180.0, -10452.793294524348, -10517.74746391147, -7785.2243525057265, -12553.969032045488, -10429.167500635089, -6956.153447169477, -9643.235462097582, -7572.54750401348, -10207.281733427255, -12373.881026969078, -8551.59861464484, -6794.639741735428, -7272.564741678803, -10051.221853640302, -12387.180314919988, -16635.934011451485, 0.003, 0.23675000000000002, 0.9455, 192.0, 0.0, 0.0, 0.0, 0.0, 0.0, 0.0, 0.0, 0.0, 0.0, 1.64458737611206E9, 0.0, 2022-02-12 00:49:36.112
182.0, -10460.906977761624, -10530.286792550898, -7802.301085269581, -12532.980744001956, -10436.565928049795, -6973.341938655608, -9653.383154080291, -7587.210248376161, -10204.331303159155, -12394.444631867962, -8552.090353022857, -6799.3783115599535, -7278.555009192826, -10065.75048753625, -12375.088021169666, -16657.525796595313, 0.003, 0.23675000000000002, 0.9455, 192.0, 0.0, 0.0, 0.0, 0.0, 0.0, 0.0, 0.0, 0.0, 0.0, 1.644587376120274E9, 0.0, 2022-02-12 00:49:36.120
184.0, -10439.78457925136, -10513.813556887337, -7801.742291658198, -12506.203354144496, -10413.498927771918, -6953.493589579295, -9618.71559843011, -7547.11121882334, -10179.63262553604, -12349.048238879233, -8569.41295497572, -6808.0731401530675, -7267.893227087645, -10064.85641775804, -12365.476771053884, -16569.6610891415, 0.006500000000000001, 0.235375, 0.9437500000000001, 192.0, 0.0, 40.0, 3.5, 40.0, 14.5, 56.0, 0.0, 0.0, 0.0, 1.644587376127191E9, 0.0, 2022-02-12 00:49:36.127
186.0, -10455.028468969878, -10514.215888287532, -7802.368140502947, -12509.757281512891, -10427.334657589754, -6961.607272816572, -9619.81083390842, -7557.25891080605, -10176.68219526794, -12358.72654422838, -8559.175856015188, -6804.58626801804, -7277.817401625801, -10043.197577380846, -12346.902471411524, -16614.85631643013, 0.006500000000000001, 0.235375, 0.9437500000000001, 192.0, 0.0, 0.0, 0.0, 0.0, 0.0, 0.0, 0.0, 0.0, 0.0, 1.644587376134278E9, 0.0, 2022-02-12 00:49:36.134
188.0, -10498.36850146872, -10525.905850637657, -7816.516794743156, -12481.214103843464, -10420.673837742072, -6959.595615815594, -9626.181081078183, -7560.298748051971, -10163.360555572577, -12337.179462573466, -8573.324510255397, -6831.386009619953, -7294.536506478371, -10049.210196639324, -12340.0628376082, -16557.814664580186, 0.006500000000000001, 0.235375, 0.9437500000000001, 192.0, 0.0, 0.0, 0.0, 0.0, 0.0, 0.0, 0.0, 0.0, 0.0, 1.644587376141911E9, 0.0, 2022-02-12 00:49:36.141
190.0, -10486.566780396317, -10552.459723050562, -7811.35354177398, -12479.560074753772, -10431.581489036262, -6958.23215940382, -9625.890508400264, -7558.197684073172, -10153.928119412438, -12315.498270451817, -8569.100030553345, -6829.687277041349, -7300.392663525661, -10041.387086079965, -12329.9598491144, -16546.504681885803, 0.006500000000000001, 0.235375, 0.9437500000000001, 192.0, 0.0, 0.0, 0.0, 0.0, 0.0, 0.0, 0.0, 0.0, 0.0, 1.644587376149984E9, 0.0, 2022-02-12 00:49:36.149
192.0, -10512.830080131303, -10577.672490796149, -7824.652829724888, -12480.141220109608, -10429.011038423901, -6960.467333849351, -9600.90125809923, -7546.217149045128, -10148.317831554155, -12332.127968326566, -8581.952283615146, -6839.745562046238, -7310.7638729529235, -10036.089722644057, -12315.76649138528, -16567.783542607252, 0.006500000000000001, 0.235375, 0.9437500000000001, 192.0, 0.0, 0.0, 0.0, 0.0, 0.0, 0.0, 0.0, 0.0, 0.0, 1.644587376157843E9, 0.0, 2022-02-12 00:49:36.157
194.0, -10504.31406549383, -10579.460630352572, -7822.9093936573745, -12444.51253944785, -10422.640791254138, -6947.860949976558, -9597.526144686479, -7538.192872785673, -10117.561831183653, -12289.927874794947, -8591.65294070875, -6837.711553300805, -7303.2536868159405, -10044.538682048164, -12299.561476655183, -16483.606872988566, 0.009250000000000001, 0.2346875, 0.9408750000000001, 192.0, 0.0, 48.0, 3.5, 40.0, 14.5, 40.0, 0.0, 0.0, 0.0, 1.644587376166176E9, 0.0, 2022-02-12 00:49:36.166
196.0, -10526.643458204682, -10585.339139144318, -7835.649887996899, -12446.032458070811, -10440.946869963034, -6964.110668195566, -9593.32401672888, -7537.678782663201, -10129.47531097833, -12307.272828492265, -8575.850257378848, -6824.278154883165, -7308.506346762937, -10044.89630995945, -12296.700453364903, -16534.099463713108, 0.009250000000000001, 0.2346875, 0.9408750000000001, 192.0, 0.0, 0.0, 0.0, 0.0, 0.0, 0.0, 0.0, 0.0, 0.0, 1.644587376172625E9, 0.0, 2022-02-12 00:49:36.172
198.0, -10519.803824401359, -10556.684202752615, -7836.700419986299, -12417.355169934652, -10430.150977391122, -6962.277825150231, -9597.056758052917, -7544.697230422167, -10107.548249667674, -12300.0532150332, -8580.521771970007, -6857.448143654841, -7309.422768285605, -10046.907966960427, -12286.061023004178, -16473.16860832794, 0.009250000000000001, 0.2346875, 0.9408750000000001, 192.0, 0.0, 0.0, 0.0, 0.0, 0.0, 0.0, 0.0, 0.0, 0.0, 1.644587376180389E9, 0.0, 2022-02-12 00:49:36.180
200.0, -10486.522076907406, -10568.150647658187, -7823.959925646774, -12410.515536131328, -10422.350218576219, -6957.494551836795, -9584.89740906923, -7528.15693952524, -10070.556112594142, -12241.581051538116, -8564.652033406739, -6854.184788964366, -7321.090378891276, -10034.368638320999, -12273.14171470901, -16457.00829708675, 0.009250000000000001, 0.2346875, 0.9408750000000001, 192.0, 0.0, 0.0, 0.0, 0.0, 0.0, 0.0, 0.0, 0.0, 0.0, 1.644587376187128E9, 0.0, 2022-02-12 00:49:36.187
202.0, -10457.35305039323, -10545.396571802685, -7841.148417132905, -12397.238599924875, -10428.139320390144, -6956.3993163584855, -9592.787574861954, -7525.228861001595, -10052.115923418514, -12254.992098211302, -8569.904693353736, -6822.400608348919, -7312.037922386876, -10014.006199122216, -12258.90365349098, -16475.82846591812, 0.009250000000000001, 0.2346875, 0.9408750000000001, 192.0, 0.0, 0.0, 0.0, 0.0, 0.0, 0.0, 0.0, 0.0, 0.0, 1.644587376202107E9, 0.0, 2022-02-12 00:49:36.202
204.0, -10452.726239290982, -10492.042957787868, -7833.258251340181, -12365.901454198534, -10414.124776616667, -6950.7666767557475, -9578.907141555208, -7520.624401643801, -10026.053789383626, -12206.488812743284, -8565.389640973764, -6823.071160682579, -7322.319724836318, -10001.578629205063, -12243.145673649988, -16388.52255207569, 0.006625000000000001, 0.23834375, 0.9424375, 192.0, 0.0, 16.0, 3.5, 72.0, 14.5, 64.0, 0.0, 0.0, 0.0, 1.644587376210206E9, 0.0, 2022-02-12 00:49:36.210
206.0, -10426.887622700648, -10481.045899515855, -7827.245632081704, -12350.92578541348, -10419.355084819208, -6959.528560582228, -9569.340594928337, -7523.217204000617, -10022.455158526322, -12188.786231134682, -8532.174948713178, -6823.54054731614, -7306.762910695424, -10029.741827218751, -12227.1865281089, -16432.130805507997, 0.006625000000000001, 0.23834375, 0.9424375, 192.0, 0.0, 0.0, 0.0, 0.0, 0.0, 0.0, 0.0, 0.0, 0.0, 1.644587376217074E9, 0.0, 2022-02-12 00:49:36.217
208.0, -10410.794366692826, -10486.723242607504, -7828.519681515656, -12326.048293834721, -10407.441605024529, -6946.0728104201335, -9568.84885655032, -7505.20169796964, -9977.774021360163, -12170.88248382598, -8537.1146842378, -6816.432692579352, -7311.009742141931, -10017.046036368136, -12210.623885467516, -16373.166903634896, 0.006625000000000001, 0.23834375, 0.9424375, 192.0, 0.0, 0.0, 0.0, 0.0, 0.0, 0.0, 0.0, 0.0, 0.0, 1.644587376224759E9, 0.0, 2022-02-12 00:49:36.224
210.0, -10363.453371936486, -10417.656352240605, -7812.337018530014, -12313.732482639847, -10400.937247388036, -6935.142807381489, -9549.425190618658, -7488.147316950241, -9948.649698334897, -12117.01477968869, -8526.363495154797, -6807.402587819409, -7300.392663525661, -9986.178277275358, -12191.22257128031, -16347.685914955846, 0.006625000000000001, 0.23834375, 0.9424375, 192.0, 0.0, 0.0, 0.0, 0.0, 0.0, 0.0, 0.0, 0.0, 0.0, 1.644587376232701E9, 0.0, 2022-02-12 00:49:36.232
212.0, -10362.246377735899, -10413.029541138356, -7821.2106610787705, -12308.345712226119, -10403.015959622378, -6940.440170817396, -9548.732286540542, -7494.919895520198, -9926.096788179491, -12095.937084667336, -8512.483061848052, -6801.702892983305, -7312.864936931723, -9960.227901962746, -12179.063222296623, -16366.751952976223, 0.006625000000000001, 0.23834375, 0.9424375, 192.0, 0.0, 0.0, 0.0, 0.0, 0.0, 0.0, 0.0, 0.0, 0.0, 1.644587376240816E9, 0.0, 2022-02-12 00:49:36.240
214.0, -10329.56812734224, -10388.442622237519, -7820.428350022835, -12274.259301931776, -10399.327921787253, -6939.903728950469, -9539.322202124858, -7508.9344392936755, -9901.91220067885, -12069.67378493235, -8515.098215949323, -6800.808823205093, -7312.216736342519, -9984.88187609695, -12168.177922746889, -16287.917350282354, 0.0043125, 0.238171875, 0.94321875, 192.0, 0.0, 8.0, 3.5, 56.0, 14.5, 64.0, 0.0, 0.0, 0.0, 1.644587376248803E9, 0.0, 2022-02-12 00:49:36.248
216.0, -10311.887897478093, -10374.405726719586, -7827.804425693086, -12277.52265662225, -10415.711750472994, -6949.112647666055, -9543.79255101592, -7488.147316950241, -9890.378700539912, -12067.080982575535, -8504.034102443946, -6802.06052089459, -7317.78232071189, -9980.210361505791, -12158.656079608927, -16337.426464250859, 0.0043125, 0.238171875, 0.94321875, 192.0, 0.0, 0.0, 0.0, 0.0, 0.0, 0.0, 0.0, 0.0, 0.0, 1.644587376254956E9, 0.0, 2022-02-12 00:49:36.254
218.0, -10305.584705541696, -10360.413534690564, -7836.253385097192, -12241.581051538116, -10395.572828718761, -6939.054362661167, -9538.808112002387, -7495.992779254053, -9864.115400804925, -12044.416313697853, -8506.1575181672, -6795.019721391168, -7304.147756594152, -9983.339605729534, -12146.519082369696, -16279.870722278443, 0.0043125, 0.238171875, 0.94321875, 192.0, 0.0, 0.0, 0.0, 0.0, 0.0, 0.0, 0.0, 0.0, 0.0, 1.644587376262387E9, 0.0, 2022-02-12 00:49:36.262
220.0, -10273.577007481696, -10333.502034366375, -7821.478882012235, -12232.461539800352, -10403.261828811388, -6930.717161979337, -9525.50882405148, -7475.026842954975, -9844.065886028515, -12007.312417902043, -8487.87379120276, -6774.478468236741, -7293.7988989113455, -9956.182236216335, -12124.904945481414, -16256.557852811558, 0.0043125, 0.238171875, 0.94321875, 192.0, 0.0, 0.0, 0.0, 0.0, 0.0, 0.0, 0.0, 0.0, 0.0, 1.644587376271083E9, 0.0, 2022-02-12 00:49:36.271
222.0, -10272.861751659126, -10313.072539934223, -7835.649887996899, -12215.787138436692, -10403.351235789209, -6934.405199814463, -9524.748864739999, -7476.524409833481, -9836.734513847174, -12004.496098100675, -8477.547285264407, -6775.998386859702, -7332.199195885563, -9948.180311701335, -12114.086701165046, -16272.137018696907, 0.0043125, 0.238171875, 0.94321875, 192.0, 0.0, 0.0, 0.0, 0.0, 0.0, 0.0, 0.0, 0.0, 0.0, 1.644587376277104E9, 0.0, 2022-02-12 00:49:36.277
224.0, -10231.399265694532, -10282.048318630257, -7820.495405256201, -12188.607417179039, -10379.81484887777, -6916.948487394869, -9507.716835465055, -7468.030746940464, -9794.959103460205, -11948.84025440696, -8477.323767819855, -6773.517343225163, -7317.089416633776, -9943.173520943346, -12093.38898579943, -16185.702822888235, 0.002, 0.242, 0.9460000000000001, 192.0, 0.0, 8.0, 3.5, 72.0, 14.5, 72.0, 0.0, 0.0, 0.0, 1.644587376285173E9, 0.0, 2022-02-12 00:49:36.285
226.0, -10200.263285668289, -10259.942443363958, -7821.791806434609, -12180.158457774933, -10390.968369360968, -6916.635562972494, -9501.056015617372, -7458.464200313592, -9765.320690312468, -11921.705236638218, -8463.309224046377, -6754.518360438152, -7316.932954422588, -9934.836320261516, -12079.86618040397, -16224.237230329185, 0.002, 0.242, 0.9460000000000001, 192.0, 0.0, 0.0, 0.0, 0.0, 0.0, 0.0, 0.0, 0.0, 0.0, 1.644587376292246E9, 0.0, 2022-02-12 00:49:36.292
228.0, -10208.756948561306, -10252.678126415984, -7832.699457728799, -12145.312088169108, -10371.76822087386, -6915.830900172103, -9498.329102793825, -7460.252339870017, -9745.092361580415, -11921.816995360494, -8467.019613625958, -6758.944005840302, -7311.143852608664, -9940.200738930791, -12067.326851764543, -16167.620261623892, 0.002, 0.242, 0.9460000000000001, 192.0, 0.0, 0.0, 0.0, 0.0, 0.0, 0.0, 0.0, 0.0, 0.0, 1.644587376299718E9, 0.0, 2022-02-12 00:49:36.299
230.0, -10190.428518107954, -10230.885175572059, -7816.539146487612, -12138.695971810339, -10361.844046335704, -6907.650161701461, -9474.390384482193, -7458.7994764804225, -9730.250803262092, -11887.73058506615, -8445.494883715497, -6740.034430031113, -7290.401433754138, -9916.999628186182, -12048.350220721988, -16147.682505569757, 0.002, 0.242, 0.9460000000000001, 192.0, 0.0, 0.0, 0.0, 0.0, 0.0, 0.0, 0.0, 0.0, 0.0, 1.644587376307922E9, 0.0, 2022-02-12 00:49:36.307
232.0, -10177.285692368234, -10219.73165508886, -7820.987143634217, -12122.06627393559, -10367.990776060913, -6900.3411412645755, -9483.6887101756, -7448.607081008802, -9717.39855020029, -11878.454611117199, -8439.772837134939, -6737.195758485289, -7303.991294382965, -9897.687720976797, -12029.66416235735, -16169.900139558333, 0.002, 0.242, 0.9460000000000001, 192.0, 0.0, 0.0, 0.0, 0.0, 0.0, 0.0, 0.0, 0.0, 0.0, 1.644587376321795E9, 0.0, 2022-02-12 00:49:36.321
234.0, -10151.268261822255, -10200.263285668289, -7814.21456506426, -12093.29957882161, -10352.992755531403, -6888.762937636726, -9465.360279722248, -7437.878243670255, -9667.688270531688, -11834.175805351235, -8435.011915565958, -6728.925613036825, -7299.766814680912, -9893.239723830191, -12013.52620286062, -16077.788600658012, 0.002, 0.23600000000000002, 0.9500000000000001, 192.0, 0.0, 8.0, 3.5, 48.0, 14.5, 88.0, 0.0, 0.0, 0.0, 1.64458737632939E9, 0.0, 2022-02-12 00:49:36.329
236.0, -10122.546270197186, -10169.239064364323, -7816.762663932164, -12097.233485845743, -10362.112267269167, -6889.567600437117, -9461.269910486926, -7439.9569559045985, -9655.394811081269, -11820.518889489042, -8412.99544727748, -6729.394999670387, -7281.527791205382, -9863.355441493446, -11989.766298504628, -16122.201516890707, 0.002, 0.23600000000000002, 0.9500000000000001, 192.0, 0.0, 0.0, 0.0, 0.0, 0.0, 0.0, 0.0, 0.0, 0.0, 1.644587376337639E9, 0.0, 2022-02-12 00:49:36.337
238.0, -10110.431624702409, -10146.283822808722, -7817.88025115493, -12053.066438802058, -10346.309583939264, -6878.548190420651, -9453.312689460838, -7430.815092422377, -9628.28214505698, -11803.419804980733, -8437.649421411685, -6737.039296274102, -7304.617143227714, -9894.178497097313, -11975.37177507541, -16061.695344650192, 0.002, 0.23600000000000002, 0.9500000000000001, 192.0, 0.0, 0.0, 0.0, 0.0, 0.0, 0.0, 0.0, 0.0, 0.0, 1.644587376346024E9, 0.0, 2022-02-12 00:49:36.346
240.0, -10101.222705986824, -10124.66968592044, -7803.083396325517, -12038.962488050758, -10349.148255485088, -6871.55209440614, -9436.638288097178, -7411.257316023984, -9604.276371511982, -11759.386868403777, -8405.753482073962, -6713.122929706923, -7290.088509331765, -9878.576979467509, -11960.440809779264, -16031.006399513055, 0.002, 0.23600000000000002, 0.9500000000000001, 192.0, 0.0, 0.0, 0.0, 0.0, 0.0, 0.0, 0.0, 0.0, 0.0, 1.644587376351945E9, 0.0, 2022-02-12 00:49:36.351
242.0, -10116.377188727522, -10152.519959511752, -7810.1688993178495, -12029.306534446067, -10351.674002608539, -6877.855286342537, -9450.272852214915, -7417.985191105032, -9600.85655461032, -11767.925234785705, -8387.693272554074, -6690.257095129144, -7280.0078725824205, -9866.462333972733, -11946.94035612826, -16058.02965855952, 0.002, 0.23600000000000002, 0.9500000000000001, 192.0, 0.0, 0.0, 0.0, 0.0, 0.0, 0.0, 0.0, 0.0, 0.0, 1.644587376360351E9, 0.0, 2022-02-12 00:49:36.360
244.0, -10074.601778340553, -10110.699845635872, -7805.6538469378775, -11996.360063118944, -10323.04141796129, -6859.035117511167, -9413.14660467465, -7394.091176282308, -9562.590368102834, -11725.881603465272, -8385.592208575274, -6688.200734639256, -7249.631851867659, -9846.189301751769, -11927.896669852338, -15965.605195236827, -0.002, 0.24, 0.9540000000000001, 192.0, 127.5, 120.0, 3.5, 64.0, 14.5, 104.0, 0.0, 0.0, 0.0, 1.644587376368136E9, 0.0, 2022-02-12 00:49:36.368
246.0, -10032.513443531208, -10067.315109648122, -7798.724806156732, -12000.986874221191, -10327.131787196611, -6860.823257067592, -9402.037787680363, -7392.839478592811, -9543.926661482652, -11708.000207901026, -8375.55627531484, -6680.288217102077, -7278.175029537086, -9821.512975873111, -11905.232000974656, -16006.352425378851, -0.002, 0.24, 0.9540000000000001, 192.0, 0.0, 0.0, 0.0, 0.0, 0.0, 0.0, 0.0, 0.0, 0.0, 1.644587376375125E9, 0.0, 2022-02-12 00:49:36.375
248.0, -10042.974059936292, -10063.291795646168, -7804.670370181843, -11962.698335969251, -10305.361188097142, -6849.9826610067685, -9398.930895201076, -7378.422603419138, -9518.110396636772, -11691.415213515189, -8395.404624391154, -6698.214316155233, -7269.971939321988, -9839.059095270526, -11890.792774056528, -15954.004639864523, -0.002, 0.24, 0.9540000000000001, 192.0, 0.0, 0.0, 0.0, 0.0, 0.0, 0.0, 0.0, 0.0, 0.0, 1.644587376381483E9, 0.0, 2022-02-12 00:49:36.381
250.0, -10027.774873706685, -10055.580443809085, -7782.698605382277, -11948.437923006764, -10299.840307216682, -6833.554128832117, -9379.484877524957, -7366.486771880004, -9502.441823773603, -11651.025611284449, -8360.155923385135, -6676.46606880022, -7252.738744346946, -9817.37790314888, -11871.100887191402, -15917.77246210247, -0.002, 0.24, 0.9540000000000001, 192.0, 0.0, 0.0, 0.0, 0.0, 0.0, 0.0, 0.0, 0.0, 0.0, 1.644587376389768E9, 0.0, 2022-02-12 00:49:36.389
252.0, -10006.317199029589, -10027.886632428961, -7787.794803118087, -11940.3689432584, -10287.882123933092, -6828.63674505195, -9373.114630355196, -7354.483885107504, -9479.754803151465, -11650.64563162871, -8340.218167331, -6677.829525211993, -7243.753343075913, -9799.764728518097, -11847.273927602046, -15938.336067001352, -0.002, 0.24, 0.9540000000000001, 192.0, 0.0, 0.0, 0.0, 0.0, 0.0, 0.0, 0.0, 0.0, 0.0, 1.644587376397771E9, 0.0, 2022-02-12 00:49:36.397
254.0, -9986.200629019813, -9984.524248185666, -7786.677215895322, -11903.108585251402, -10266.625614956096, -6817.259707124199, -9353.601557445712, -7329.6063935287475, -9440.505139887946, -11603.483450828011, -8344.710867966518, -6661.9150831598145, -7213.645543294614, -9793.975626704172, -11828.207889581668, -15846.895080434691, 0.002, 0.23600000000000002, 0.9560000000000001, 192.0, 0.0, 8.0, 3.5, 48.0, 14.5, 112.0, 0.0, 0.0, 0.0, 1.64458737640432E9, 0.0, 2022-02-12 00:49:36.404
0.0, -9959.289128695624, -9998.538791959143, -7781.49161118169, -11892.06682349048, -10277.019176127813, -6813.281096611154, -9346.493702708925, -7333.093265663775, -9434.000782251453, -11592.933427445107, -8332.193891071545, -6639.69744917124, -7242.903976786612, -9780.542228286533, -11812.628723696318, -15885.183618686631, 0.002, 0.23600000000000002, 0.9560000000000001, 192.0, 0.0, 0.0, 0.0, 0.0, 0.0, 0.0, 0.0, 0.0, 0.0, 1.644587376412173E9, 0.0, 2022-02-12 00:49:36.412
2.0, -9951.890701280916, -9972.074326524058, -7785.134945527905, -11864.842398743916, -10252.70047816044, -6797.903096425903, -9330.266336234372, -7315.323628821806, -9400.584924290768, -11579.209456349547, -8331.500986993431, -6636.299984014033, -7240.087656985243, -9760.850341421406, -11795.842563610384, -15830.667713960138, 0.002, 0.23600000000000002, 0.9560000000000001, 192.0, 0.0, 0.0, 0.0, 0.0, 0.0, 0.0, 0.0, 0.0, 0.0, 1.64458737642026E9, 0.0, 2022-02-12 00:49:36.420
4.0, -9931.595317315498, -9928.890756236406, -7766.158314485349, -11845.843415956906, -10245.793789123749, -6783.396814274409, -9309.121585979652, -7306.740558950968, -9381.205961848016, -11545.234804777481, -8325.376609012677, -6634.802417135527, -7218.004133463399, -9759.375126287357, -11770.942720287172, -15795.083736787288, 0.002, 0.23600000000000002, 0.9560000000000001, 192.0, 0.0, 0.0, 0.0, 0.0, 0.0, 0.0, 0.0, 0.0, 0.0, 1.64458737642743E9, 0.0, 2022-02-12 00:49:36.427
6.0, -9940.15603544188, -9936.177424928836, -7772.3720994439245, -11831.583002994419, -10242.441027455454, -6785.0061398751905, -9300.784385297822, -7308.796919440856, -9365.224464562472, -11514.65761836262, -8293.234800485945, -6634.713010157706, -7222.899165499111, -9739.59383244441, -11748.054533964936, -15822.241106300487, 0.002, 0.23600000000000002, 0.9560000000000001, 192.0, 0.0, 0.0, 0.0, 0.0, 0.0, 0.0, 0.0, 0.0, 0.0, 1.644587376434902E9, 0.0, 2022-02-12 00:49:36.434
8.0, -9889.19405808378, -9926.052084690582, -7769.756945342654, -11798.770642134028, -10225.654867369518, -6769.941064112314, -9293.83299277222, -7281.103108060731, -9329.7522461119, -11485.08626044825, -8300.16384126709, -6597.363245172888, -7206.940019958022, -9729.826120117441, -11734.062341935914, -15731.44832032303, 0.008, 0.232, 0.9500000000000001, 192.0, 0.0, 32.0, 3.5, 32.0, 14.5, 88.0, 0.0, 0.0, 0.0, 1.644587376449898E9, 0.0, 2022-02-12 00:49:36.449
10.0, -9845.317583718013, -9890.266941817636, -7763.498456895168, -11797.854220611362, -10217.809405065706, -6779.86523865047, -9284.132335678618, -7277.39271848115, -9311.647333103101, -11486.717937793486, -8288.675044617063, -6592.512916626087, -7194.646560507604, -9719.611372901365, -11715.912725438206, -15769.580396363783, 0.008, 0.232, 0.9500000000000001, 192.0, 0.0, 0.0, 0.0, 0.0, 0.0, 0.0, 0.0, 0.0, 0.0, 1.644587376456884E9, 0.0, 2022-02-12 00:49:36.456
12.0, -9897.687720976797, -9866.819961884017, -7765.845390062976, -11773.781391832996, -10202.341997902633, -6770.678671679339, -9276.085707674707, -7267.356785220717, -9303.421891143547, -11466.60136778371, -8284.987006781937, -6608.829690078461, -7207.364703102673, -9726.942745082706, -11696.958446140105, -15718.461956794496, 0.008, 0.232, 0.9500000000000001, 192.0, 0.0, 0.0, 0.0, 0.0, 0.0, 0.0, 0.0, 0.0, 0.0, 1.644587376464437E9, 0.0, 2022-02-12 00:49:36.464
14.0, -9878.062889345038, -9856.895787345862, -7746.19820668676, -11756.458789880133, -10193.244837909322, -6743.610709143962, -9249.934166661998, -7259.2878054723515, -9275.996300696886, -11424.222460296449, -8255.370945378656, -6590.188335202734, -7180.095574867199, -9704.523945394034, -11675.567826696377, -15684.643767433618, 0.008, 0.232, 0.9500000000000001, 192.0, 0.0, 0.0, 0.0, 0.0, 0.0, 0.0, 0.0, 0.0, 0.0, 1.644587376472463E9, 0.0, 2022-02-12 00:49:36.472
16.0, -9854.705316389241, -9833.292345201058, -7756.412953902835, -11751.072019466403, -10190.897904741514, -6740.369706197943, -9247.274309071816, -7235.460845882994, -9260.528893533814, -11429.229251054438, -8243.546872561797, -6573.201009416701, -7193.685435496025, -9689.257703931058, -11656.367678209268, -15704.358006043198, 0.008, 0.232, 0.9500000000000001, 192.0, 0.0, 0.0, 0.0, 0.0, 0.0, 0.0, 0.0, 0.0, 0.0, 1.644587376479501E9, 0.0, 2022-02-12 00:49:36.479
18.0, -9822.742321818152, -9827.011505009115, -7752.054363734051, -11713.565792270398, -10173.150619644, -6728.031543258613, -9241.909890402543, -7240.847616296723, -9223.000314593353, -11374.333366672203, -8258.321375646756, -6579.861829264382, -7180.676720223037, -9675.10904969085, -11643.917756547662, -15613.632275299105, 0.004, 0.23800000000000002, 0.9580000000000001, 192.0, 0.0, 16.0, 3.5, 56.0, 14.5, 120.0, 0.0, 0.0, 0.0, 1.644587376487087E9, 0.0, 2022-02-12 00:49:36.487
20.0, -9793.08155692596, -9799.496507584632, -7745.147674697361, -11703.663969476696, -10176.995119690315, -6720.789578055093, -9214.193727277961, -7229.090598713232, -9215.646590667557, -11370.824142792719, -8239.367096348655, -6549.932843438726, -7166.349252027185, -9650.05274415645, -11626.751616805985, -15651.563185639763, 0.004, 0.23800000000000002, 0.9580000000000001, 192.0, 0.0, 0.0, 0.0, 0.0, 0.0, 0.0, 0.0, 0.0, 0.0, 1.644587376495017E9, 0.0, 2022-02-12 00:49:36.495
22.0, -9791.852210980918, -9799.965894218194, -7754.647166090866, -11669.26463475998, -10156.699735724895, -6714.396979140875, -9215.758349389835, -7219.099368941709, -9193.563067145715, -11365.124447956616, -8239.143578904102, -6538.891081677804, -7155.910987366556, -9666.414221097735, -11607.529116574422, -15598.790716980782, 0.004, 0.23800000000000002, 0.9580000000000001, 192.0, 0.0, 0.0, 0.0, 0.0, 0.0, 0.0, 0.0, 0.0, 0.0, 1.64458737650225E9, 0.0, 2022-02-12 00:49:36.502
24.0, -9787.694786512231, -9753.340155284424, -7735.514072837123, -11660.949785822606, -10146.507340253274, -6698.214316155233, -9199.016892792808, -7213.399674105606, -9177.603921604625, -11325.181880614982, -8222.849157196184, -6533.213738586157, -7164.784629915313, -9655.171293636715, -11593.447517567578, -15563.117332830112, 0.004, 0.23800000000000002, 0.9580000000000001, 192.0, 0.0, 0.0, 0.0, 0.0, 0.0, 0.0, 0.0, 0.0, 0.0, 1.644587376510572E9, 0.0, 2022-02-12 00:49:36.510
26.0, -9765.700669968208, -9733.469454463657, -7747.382849142891, -11658.513445676977, -10144.562738485663, -6698.594295810974, -9204.716587628913, -7202.179098389041, -9162.583549330659, -11311.435557774968, -8209.236944822902, -6533.459607775165, -7164.739926426402, -9623.968258377106, -11576.951930159561, -15595.728527990404, 0.004, 0.23800000000000002, 0.9580000000000001, 192.0, 0.0, 0.0, 0.0, 0.0, 0.0, 0.0, 0.0, 0.0, 0.0, 1.644587376516712E9, 0.0, 2022-02-12 00:49:36.516
28.0, -9755.910605896785, -9739.862053377874, -7739.805607772542, -11621.118977203249, -10131.017581345748, -6695.822679498516, -9178.34152917165, -7195.13829888562, -9126.9548686689, -11287.273322018782, -8206.822956421729, -6539.67339273374, -7156.067449577743, -9620.23551705307, -11558.176464817103, -15507.215619947388, 0.002, 0.23800000000000002, 0.9560000000000001, 192.0, 0.0, 8.0, 3.5, 56.0, 14.5, 112.0, 0.0, 0.0, 0.0, 1.64458737652483E9, 0.0, 2022-02-12 00:49:36.524
30.0, -9738.54330045501, -9739.3479632554, -7735.268203648116, -11617.095663201293, -10139.779465172227, -6688.871286972915, -9171.658357579512, -7192.590200017715, -9131.42521755996, -11283.540580694746, -8199.469232495932, -6503.262401016045, -7149.004298329866, -9629.556194490933, -11544.251328021446, -15549.572175690197, 0.002, 0.23800000000000002, 0.9560000000000001, 192.0, 0.0, 0.0, 0.0, 0.0, 0.0, 0.0, 0.0, 0.0, 0.0, 1.644587376532626E9, 0.0, 2022-02-12 00:49:36.532
32.0, -9716.482128677622, -9706.177974483726, -7736.899880993353, -11586.116145386237, -10117.67358990593, -6669.738193719172, -9171.77011630179, -7179.268560322352, -9095.863592131567, -11263.647528129522, -8190.327369013712, -6497.205078268657, -7148.400801229573, -9608.657313425221, -11528.158072013626, -15499.079584965657, 0.002, 0.23800000000000002, 0.9560000000000001, 192.0, 0.0, 0.0, 0.0, 0.0, 0.0, 0.0, 0.0, 0.0, 0.0, 1.644587376539317E9, 0.0, 2022-02-12 00:49:36.539
34.0, -9688.788317297498, -9658.09937216036, -7720.136072651872, -11569.5311510004, -10094.271313461222, -6648.481684742175, -9145.14918865552, -7162.057717091766, -9054.222292211329, -11211.120928659551, -8173.5188571833205, -6489.180802009202, -7125.467911418428, -9586.462031181101, -11502.274751934381, -15455.471331533354, 0.002, 0.23800000000000002, 0.9560000000000001, 192.0, 0.0, 0.0, 0.0, 0.0, 0.0, 0.0, 0.0, 0.0, 0.0, 1.644587376547278E9, 0.0, 2022-02-12 00:49:36.547
36.0, -9662.949700707162, -9607.875002369286, -7727.132168666383, -11551.023906591405, -10094.450127416865, -6646.961766119214, -9135.873214706566, -7145.740943639392, -9044.11930371753, -11205.845916968097, -8152.888197051072, -6478.85429607085, -7126.205518985453, -9573.788592074943, -11482.69462379153, -15479.29829112271, 0.003, 0.23600000000000002, 0.9560000000000001, 192.0, 0.0, 16.0, 3.5, 40.0, 14.5, 112.0, 0.0, 0.0, 0.0, 1.644587376555418E9, 0.0, 2022-02-12 00:49:36.555
38.0, -9683.848581772874, -9643.369572564314, -7727.310982622026, -11516.781034085874, -10079.206237698345, -6634.713010157706, -9126.798406457712, -7140.465931947939, -9032.585803578593, -11165.366907759537, -8161.046583777259, -6475.546237891464, -7123.4562544174505, -9579.331824699859, -11468.300100362314, -15387.76789757823, 0.003, 0.23600000000000002, 0.9560000000000001, 192.0, 0.0, 0.0, 0.0, 0.0, 0.0, 0.0, 0.0, 0.0, 0.0, 1.644587376569553E9, 0.0, 2022-02-12 00:49:36.569
40.0, -9678.059479958949, -9635.010020138028, -7718.124415650895, -11518.345656197745, -10084.90593253445, -6623.827710607971, -9120.09288312112, -7139.102475536165, -9035.625640824514, -11179.02382362173, -8140.773551556296, -6441.75040027504, -7126.6302021301035, -9551.839179019831, -11453.682059488543, -15428.33631376461, 0.003, 0.23600000000000002, 0.9560000000000001, 192.0, 0.0, 0.0, 0.0, 0.0, 0.0, 0.0, 0.0, 0.0, 0.0, 1.644587376578562E9, 0.0, 2022-02-12 00:49:36.578
42.0, -9654.925424447707, -9611.943019860151, -7723.935869209275, -11491.098879706728, -10057.055658943136, -6609.813166834494, -9101.675045689946, -7118.5835741261935, -9006.747186988257, -11154.705125654356, -8146.964984770416, -6447.137170688769, -7117.622449114615, -9536.84115849032, -11433.252565056393, -15379.587159107587, 0.003, 0.23600000000000002, 0.9560000000000001, 192.0, 0.0, 0.0, 0.0, 0.0, 0.0, 0.0, 0.0, 0.0, 0.0, 1.644587376585049E9, 0.0, 2022-02-12 00:49:36.585
44.0, -9636.28406957198, -9589.99360680504, -7707.19441261225, -11474.446830087523, -10049.41136233942, -6595.530402127552, -9101.071548589653, -7099.115204705621, -8978.047547107642, -11114.740206568267, -8137.577252099187, -6446.913653244216, -7087.268780144308, -9526.40289382969, -11414.432396225024, -15339.286963854667, 0.003, 0.23600000000000002, 0.9560000000000001, 192.0, 0.0, 0.0, 0.0, 0.0, 0.0, 0.0, 0.0, 0.0, 0.0, 1.64458737659372E9, 0.0, 2022-02-12 00:49:36.593
46.0, -9615.362836761813, -9556.734211055544, -7705.026293400085, -11458.599443268711, -10031.977001664281, -6589.338968913433, -9075.389394210506, -7095.985960481878, -8961.574311444081, -11112.505032122735, -8107.804728484718, -6420.784463975962, -7085.681806287981, -9517.93158268113, -11390.314863957747, -15366.153760689946, 0.0045000000000000005, 0.23600000000000002, 0.9520000000000001, 192.0, 0.0, 24.0, 3.5, 48.0, 14.5, 80.0, 0.0, 0.0, 0.0, 1.644587376600946E9, 0.0, 2022-02-12 00:49:36.600
48.0, -9591.982912061561, -9525.061789162373, -7700.466537531202, -11430.682114444031, -10013.179184577368, -6574.832686761938, -9068.505056918271, -7078.708062017926, -8920.782377813146, -11066.751011222723, -8111.917449464495, -6429.725161758085, -7077.366957350607, -9509.728492466033, -11371.49469512638, -15278.423163702866, 0.0045000000000000005, 0.23600000000000002, 0.9520000000000001, 192.0, 0.0, 0.0, 0.0, 0.0, 0.0, 0.0, 0.0, 0.0, 0.0, 1.644587376607595E9, 0.0, 2022-02-12 00:49:36.607
50.0, -9579.957673544606, -9516.925754180642, -7689.916514148297, -11430.056265599284, -10011.547507232131, -6566.137858168824, -9056.45746665686, -7070.415564825006, -8918.301334178608, -11052.624708726968, -8097.969960924383, -6415.777673217974, -7081.434974841473, -9490.729509679022, -11357.01076471934, -15312.353111786022, 0.0045000000000000005, 0.23600000000000002, 0.9520000000000001, 192.0, 0.0, 0.0, 0.0, 0.0, 0.0, 0.0, 0.0, 0.0, 0.0, 1.644587376615673E9, 0.0, 2022-02-12 00:49:36.615
52.0, -9567.41834490518, -9483.487544475502, -7697.6502177298335, -11389.689015113, -9988.838134865538, -6550.558692283475, -9043.06877172813, -7056.781000707269, -8897.625970557448, -11041.8064644106, -8093.879591689061, -6413.475443539077, -7076.11525966111, -9476.826724627821, -11337.229470876393, -15264.609785629485, 0.0045000000000000005, 0.23600000000000002, 0.9520000000000001, 192.0, 0.0, 0.0, 0.0, 0.0, 0.0, 0.0, 0.0, 0.0, 0.0, 1.644587376621697E9, 0.0, 2022-02-12 00:49:36.621
54.0, -9519.40679781518, -9461.851055842764, -7682.831011155965, -11371.62880559311, -9971.671995123863, -6533.9513461531815, -9014.883221969989, -7037.53614873125, -8853.950661891779, -10997.773527833644, -8082.681367716953, -6380.283103022945, -7050.880140171068, -9462.029869798407, -11313.96130489842, -15217.693474017797, 0.0045000000000000005, 0.23600000000000002, 0.9520000000000001, 192.0, 0.0, 0.0, 0.0, 0.0, 0.0, 0.0, 0.0, 0.0, 0.0, 1.644587376629277E9, 0.0, 2022-02-12 00:49:36.629
56.0, -9535.812978245376, -9470.165904780139, -7687.636636213856, -11361.01172697684, -9972.566064902076, -6533.370200797343, -9017.520727815716, -7022.225203779364, -8840.159635562854, -11003.026187780642, -8061.715431417875, -6368.056698805893, -7038.586680720649, -9464.957948322051, -11298.113918079605, -15255.132645980437, 0.00725, 0.23500000000000001, 0.9530000000000001, 192.0, 0.0, 40.0, 3.5, 40.0, 14.5, 104.0, 0.0, 0.0, 0.0, 1.644587376637328E9, 0.0, 2022-02-12 00:49:36.637
58.0, -9510.197879099595, -9451.099866759761, -7684.552095479024, -11323.90783118103, -9950.057858235581, -6514.795901154984, -8999.92990492939, -7017.352523488107, -8827.12856854541, -10961.608405304958, -8057.200379037903, -6358.44544869011, -7023.454549724406, -9460.487599430991, -11280.880723104563, -15166.530330959598, 0.00725, 0.23500000000000001, 0.9530000000000001, 192.0, 0.0, 0.0, 0.0, 0.0, 0.0, 0.0, 0.0, 0.0, 0.0, 1.64458737664542E9, 0.0, 2022-02-12 00:49:36.645
60.0, -9483.956931109064, -9411.380816862682, -7669.196447038227, -11325.874784693096, -9948.15795995688, -6504.692912661185, -8987.949369901344, -7002.086282025133, -8815.349199217462, -10957.40627734736, -8038.916652073462, -6341.793399070907, -7049.270814570286, -9434.313706673825, -11262.686403117945, -15198.985063908705, 0.00725, 0.23500000000000001, 0.9530000000000001, 192.0, 0.0, 0.0, 0.0, 0.0, 0.0, 0.0, 0.0, 0.0, 0.0, 1.644587376652009E9, 0.0, 2022-02-12 00:49:36.652
62.0, -9479.35247175127, -9399.422633579092, -7674.583217451956, -11298.493897735347, -9923.883965478417, -6492.645322399774, -8986.384747789472, -6992.966770287368, -8788.996492504655, -10953.226501134217, -8032.121721759048, -6346.129637495236, -7027.813139893191, -9407.871592983198, -11246.593147110123, -15155.62267966541, 0.00725, 0.23500000000000001, 0.9530000000000001, 192.0, 0.0, 0.0, 0.0, 0.0, 0.0, 0.0, 0.0, 0.0, 0.0, 1.644587376659924E9, 0.0, 2022-02-12 00:49:36.659
64.0, -9473.183390281605, -9379.306063569316, -7657.685298643744, -11286.513362707301, -9904.52735478012, -6482.721147861618, -8954.15353228492, -6973.163124699966, -8758.374602600885, -10902.488041220671, -8020.118834986549, -6341.972213026549, -7011.406959462996, -9409.167994161606, -11226.588335822624, -15111.70150181073, 0.00725, 0.23500000000000001, 0.9530000000000001, 192.0, 0.0, 0.0, 0.0, 0.0, 0.0, 0.0, 0.0, 0.0, 0.0, 1.644587376668014E9, 0.0, 2022-02-12 00:49:36.668
66.0, -9457.559520907345, -9386.793897961843, -7657.79705736602, -11274.197551512427, -9901.889848934396, -6487.95145606416, -8953.862959607, -6974.124249711544, -8760.408611346318, -10917.106082094442, -7997.141241686492, -6303.05782592986, -7005.304933226697, -9405.14468015965, -11205.667103012456, -15149.319487729013, 0.009625, 0.23650000000000002, 0.9505000000000001, 192.0, 0.0, 48.0, 3.5, 56.0, 14.5, 80.0, 0.0, 0.0, 0.0, 1.644587376674414E9, 0.0, 2022-02-12 00:49:36.674
68.0, -9435.431293896592, -9340.861063106187, -7657.394725965825, -11237.786559794731, -9876.542970722077, -6468.885418043783, -8944.139950768942, -6963.28365365072, -8727.886823163846, -10892.25094226014, -8002.572715589133, -6312.87024174574, -6995.067834266167, -9405.52465981539, -11193.954788917874, -15061.588890741932, 0.009625, 0.23650000000000002, 0.9505000000000001, 192.0, 0.0, 0.0, 0.0, 0.0, 0.0, 0.0, 0.0, 0.0, 0.0, 1.644587376682798E9, 0.0, 2022-02-12 00:49:36.682
70.0, -9404.563534803812, -9318.039932017318, -7645.928281060253, -11242.681591830444, -9886.221276071225, -6458.983595250082, -8939.893119322434, -6957.248682647787, -8711.77121541157, -10872.000261783633, -7988.111136926549, -6293.983017681006, -6988.317607440664, -9390.347825330236, -11179.470858510836, -15093.12720216837, 0.009625, 0.23650000000000002, 0.9505000000000001, 192.0, 0.0, 0.0, 0.0, 0.0, 0.0, 0.0, 0.0, 0.0, 0.0, 1.644587376699017E9, 0.0, 2022-02-12 00:49:36.699
72.0, -9410.866726740209, -9320.543327396314, -7651.22564449616, -11224.576678821646, -9868.04930782906, -6450.221711423602, -8922.257592947197, -6959.148580926488, -8689.218305256165, -10862.031383756565, -7977.650520521465, -6289.780889723407, -6991.625665620049, -9382.055328137318, -11163.243492036283, -15060.493655263623, 0.009625, 0.23650000000000002, 0.9505000000000001, 192.0, 0.0, 0.0, 0.0, 0.0, 0.0, 0.0, 0.0, 0.0, 0.0, 1.644587376705562E9, 0.0, 2022-02-12 00:49:36.705
74.0, -9380.825982192277, -9292.60364682718, -7641.100304257907, -11204.817736723155, -9860.829694369995, -6431.133321658769, -8902.543354337617, -6915.339161794086, -8665.90543578928, -10823.407569337794, -7969.782706473197, -6278.470907029022, -6965.764697285259, -9357.602519703212, -11143.35043947106, -15011.49863141759, 0.009625, 0.23650000000000002, 0.9505000000000001, 192.0, 0.0, 0.0, 0.0, 0.0, 0.0, 0.0, 0.0, 0.0, 0.0, 1.644587376712226E9, 0.0, 2022-02-12 00:49:36.712
76.0, -9365.939720385042, -9274.02934718482, -7636.451141411203, -11203.655446011478, -9862.640185670876, -6424.047818666437, -8908.913601507378, -6918.848385673569, -8665.927787533736, -10845.491092859638, -7961.691374980376, -6273.598226737765, -6976.0464997347, -9350.651127177613, -11128.01714277472, -15047.283774290536, 0.0068125, 0.23625000000000002, 0.94625, 192.0, 0.0, 16.0, 3.5, 48.0, 14.5, 56.0, 0.0, 0.0, 0.0, 1.644587376720165E9, 0.0, 2022-02-12 00:49:36.720
78.0, -9356.820208647277, -9244.59209973718, -7627.778664562544, -11164.91987287043, -9834.074656256993, -6410.748530715529, -8891.859220487979, -6900.497603475762, -8628.46626382664, -10793.478583512138, -7954.561168499133, -6269.083174357793, -6964.937682740412, -9348.818284132276, -11111.208630944328, -14955.90984295724, 0.0068125, 0.23625000000000002, 0.94625, 192.0, 0.0, 0.0, 0.0, 0.0, 0.0, 0.0, 0.0, 0.0, 0.0, 1.644587376727264E9, 0.0, 2022-02-12 00:49:36.727
80.0, -9327.070036777262, -9237.618355467124, -7615.842833023409, -11166.998585104775, -9826.18449046427, -6412.044931893937, -8871.765002222659, -6904.2750482887095, -8609.534336272996, -10792.18218233373, -7921.435883216368, -6234.66148789662, -6941.80362722917, -9336.837749104232, -11088.990996955752, -14990.599750351877, 0.0068125, 0.23625000000000002, 0.94625, 192.0, 0.0, 0.0, 0.0, 0.0, 0.0, 0.0, 0.0, 0.0, 0.0, 1.644587376734872E9, 0.0, 2022-02-12 00:49:36.734
82.0, -9328.008810044386, -9218.39585523556, -7629.142120974318, -11139.282421980193, -9810.582972834465, -6402.478385267065, -8867.9428539208, -6894.753205150749, -8591.138850586278, -10786.974225875643, -7919.9383163378625, -6237.18723502007, -6938.540272538695, -9321.839728574721, -11072.629520014469, -14960.089619170383, 0.0068125, 0.23625000000000002, 0.94625, 192.0, 0.0, 0.0, 0.0, 0.0, 0.0, 0.0, 0.0, 0.0, 0.0, 1.64458737674422E9, 0.0, 2022-02-12 00:49:36.744
84.0, -9284.042928700797, -9192.847811323145, -7612.691237055211, -11116.52834612469, -9802.424586108278, -6377.533838454943, -8849.636775211904, -6869.763954849715, -8572.117516054812, -10743.813007332446, -7916.831423858574, -6212.5779643747765, -6932.527653280217, -9297.230457929429, -11051.350659293015, -14907.741833656053, 0.0068125, 0.23625000000000002, 0.94625, 192.0, 0.0, 0.0, 0.0, 0.0, 0.0, 0.0, 0.0, 0.0, 0.0, 1.644587376750363E9, 0.0, 2022-02-12 00:49:36.750
86.0, -9289.02736771433, -9182.901285040532, -7605.3151613849595, -11112.10270072254, -9791.494583069632, -6373.823448875362, -8846.0381443546, -6867.774649593192, -8568.138905541768, -10729.418483903228, -7892.2892084466475, -6214.835490564763, -6923.27403107572, -9290.860210759665, -11033.8045398956, -14945.404523063246, 0.00740625, 0.23612500000000003, 0.945125, 192.0, 0.0, 32.0, 3.5, 48.0, 14.5, 64.0, 0.0, 0.0, 0.0, 1.644587376756703E9, 0.0, 2022-02-12 00:49:36.756
88.0, -9284.780536267823, -9155.989784716343, -7607.639742808312, -11084.788868998156, -9766.237111835137, -6353.349250954301, -8823.328771988008, -6848.060410983612, -8536.354724926321, -10715.06866396292, -7901.408720184412, -6206.855917794218, -6907.2701820457205, -9289.608513070169, -11012.32451347405, -14851.46014111759, 0.00740625, 0.23612500000000003, 0.945125, 192.0, 0.0, 0.0, 0.0, 0.0, 0.0, 0.0, 0.0, 0.0, 0.0, 1.644587376764591E9, 0.0, 2022-02-12 00:49:36.764
90.0, -9250.627070740113, -9132.408694315995, -7592.060576922963, -11085.593531798546, -9770.685108981743, -6342.553358382387, -8820.60185916446, -6839.276175412676, -8527.682248077661, -10699.467146333116, -7880.733356563253, -6197.4905368674445, -6880.738661377271, -9254.672736486524, -10991.64914985289, -14880.048022275929, 0.00740625, 0.23612500000000003, 0.945125, 192.0, 0.0, 0.0, 0.0, 0.0, 0.0, 0.0, 0.0, 0.0, 0.0, 1.644587376772375E9, 0.0, 2022-02-12 00:49:36.772
92.0, -9249.30831781725, -9126.485482035338, -7597.246181636594, -11046.455627257303, -9756.02236461906, -6332.159797210669, -8811.638809637881, -6822.9817537047575, -8503.855288488305, -10679.35057632334, -7866.8752750009635, -6184.168897172081, -6898.910629619436, -9264.306338346762, -10975.086507211508, -14844.240527658527, 0.00740625, 0.23612500000000003, 0.945125, 192.0, 0.0, 0.0, 0.0, 0.0, 0.0, 0.0, 0.0, 0.0, 0.0, 1.644587376779818E9, 0.0, 2022-02-12 00:49:36.779
94.0, -9213.478471455392, -9100.602161956092, -7579.9012279392755, -11029.513004960181, -9744.757085413587, -6317.228831914525, -8793.936228029279, -6807.335532586042, -8483.381090567242, -10652.439075999151, -7860.885007486941, -6165.482838807445, -6889.813469626126, -9261.78059122331, -10955.998117446676, -14795.245503812494, 0.00740625, 0.23612500000000003, 0.945125, 192.0, 0.0, 0.0, 0.0, 0.0, 0.0, 0.0, 0.0, 0.0, 0.0, 1.644587376787371E9, 0.0, 2022-02-12 00:49:36.787
96.0, -9220.340457003173, -9094.36602525306, -7579.230675605617, -11018.404187965893, -9743.88536737983, -6307.461119587555, -8797.624265864404, -6804.362750573487, -8475.91560791917, -10654.54013997795, -7843.1600741338825, -6141.678230962543, -6885.231362012788, -9233.706800187445, -10935.725085225713, -14833.042303686418, 0.007703125, 0.2350625, 0.9435625000000001, 192.0, 0.0, 32.0, 3.5, 40.0, 14.5, 56.0, 0.0, 0.0, 0.0, 1.644587376795227E9, 0.0, 2022-02-12 00:49:36.795
98.0, -9188.712738598912, -9073.042461042698, -7569.082983622907, -10985.07773698303, -9715.386893199313, -6284.1258983762145, -8770.35513762893, -6781.519267740163, -8443.930261603626, -10620.654895383705, -7846.222263124259, -6146.752076953898, -6864.824219325093, -9232.6786199425, -10918.223669317207, -14742.54009038688, 0.007703125, 0.2350625, 0.9435625000000001, 192.0, 0.0, 0.0, 0.0, 0.0, 0.0, 0.0, 0.0, 0.0, 0.0, 1.64458737680332E9, 0.0, 2022-02-12 00:49:36.803
100.0, -9183.43772690746, -9039.134864703998, -7552.453285748159, -10984.675405582835, -9704.591000627399, -6278.068575628827, -8755.960614199712, -6777.004215360191, -8426.987639306502, -10593.631636337237, -7818.528451744134, -6122.142806308604, -6849.5132743732065, -9215.065445311719, -10896.184849284275, -14772.82670412382, 0.007703125, 0.2350625, 0.9435625000000001, 192.0, 0.0, 0.0, 0.0, 0.0, 0.0, 0.0, 0.0, 0.0, 0.0, 1.644587376816695E9, 0.0, 2022-02-12 00:49:36.816
102.0, -9172.753593057823, -9037.905518758955, -7562.198646330673, -10959.753210515168, -9687.000177741073, -6264.255197555447, -8748.741000740649, -6762.788505886616, -8409.776796075916, -10606.685055099137, -7800.177669546327, -6121.963992352962, -6832.3694863759865, -9197.541677658759, -10876.045927530042, -14740.640192108178, 0.007703125, 0.2350625, 0.9435625000000001, 192.0, 0.0, 0.0, 0.0, 0.0, 0.0, 0.0, 0.0, 0.0, 0.0, 1.644587376824757E9, 0.0, 2022-02-12 00:49:36.824
104.0, -9139.494197308326, -9006.948352688356, -7544.808989144443, -10949.40435283236, -9676.271340402525, -6248.85484562574, -8735.218195345187, -6749.913901080358, -8394.979941246504, -10575.95140647309, -7802.524602714134, -6117.627753928632, -6824.456968838807, -9195.462965424415, -10863.752468079623, -14691.913389195608, 0.007703125, 0.2350625, 0.9435625000000001, 192.0, 0.0, 0.0, 0.0, 0.0, 0.0, 0.0, 0.0, 0.0, 0.0, 1.644587376831715E9, 0.0, 2022-02-12 00:49:36.831
106.0, -9136.655525762502, -9000.01931190721, -7543.959622855142, -10945.604556274959, -9667.5318083205, -6250.464171226522, -8727.68565746375, -6743.945985310792, -8384.854601008248, -10566.85424647978, -7781.402204203869, -6110.341085236202, -6826.82625375107, -9170.652529079023, -10847.547453349525, -14736.348657172759, 0.004, 0.23600000000000002, 0.9480000000000001, 192.0, 0.0, 16.0, 3.5, 48.0, 14.5, 80.0, 0.0, 0.0, 0.0, 1.644587376839352E9, 0.0, 2022-02-12 00:49:36.839
108.0, -9121.411636043982, -8988.463460023817, -7535.220090773117, -10903.270352276606, -9644.129531875793, -6240.584700177276, -8719.482567248651, -6730.758456082161, -8355.08207739378, -10553.823179462335, -7783.212695504749, -6089.44220417049, -6818.712570513794, -9177.961549515909, -10828.123787417864, -14648.595708441224, 0.004, 0.23600000000000002, 0.9480000000000001, 192.0, 0.0, 0.0, 0.0, 0.0, 0.0, 0.0, 0.0, 0.0, 0.0, 1.644587376847347E9, 0.0, 2022-02-12 00:49:36.847
110.0, -9097.204696798884, -8955.181712529864, -7520.825567343899, -10903.292704021062, -9635.501758516046, -6219.775226089386, -8696.996712326612, -6702.148223179367, -8348.13068486818, -10543.22845259052, -7763.990195273184, -6056.115753187627, -6808.609582019995, -9156.23565390535, -10812.298752343506, -14674.09904886473, 0.004, 0.23600000000000002, 0.9480000000000001, 192.0, 0.0, 0.0, 0.0, 0.0, 0.0, 0.0, 0.0, 0.0, 0.0, 1.64458737685534E9, 0.0, 2022-02-12 00:49:36.855
112.0, -9087.057004816175, -8946.129256025464, -7527.866366847321, -10865.026517513576, -9623.320057787903, -6205.604220104721, -8703.255200774098, -6703.466976102231, -8327.187100313557, -10520.295562779374, -7755.474180635712, -6058.015651466329, -6786.168430586867, -9143.517511310281, -10794.842039923911, -14640.124397292662, 0.004, 0.23600000000000002, 0.9480000000000001, 192.0, 0.0, 0.0, 0.0, 0.0, 0.0, 0.0, 0.0, 0.0, 0.0, 1.644587376861873E9, 0.0, 2022-02-12 00:49:36.861
114.0, -9047.963803763843, -8901.403415370396, -7507.079244503885, -10854.454142386216, -9600.074243554383, -6187.968693729484, -8670.95693003618, -6687.708996261239, -8300.722634878473, -10481.090603004766, -7742.867796762919, -6046.48215132739, -6766.76711639966, -9130.441740803926, -10782.32506302894, -14588.625978067636, 0.004, 0.23600000000000002, 0.9480000000000001, 192.0, 0.0, 0.0, 0.0, 0.0, 0.0, 0.0, 0.0, 0.0, 0.0, 1.64458737686895E9, 0.0, 2022-02-12 00:49:36.868
116.0, -9061.419553925938, -8909.852374774502, -7509.940267794164, -10851.794284796035, -9599.403691220725, -6193.087243209749, -8659.401078152785, -6674.856743199438, -8297.369873210177, -10487.17027749661, -7722.483005819679, -6038.077895412194, -6781.631026462439, -9115.957810396887, -10760.375649973828, -14633.955315822997, 0.004, 0.23800000000000002, 0.9460000000000001, 192.0, 0.0, 16.0, 3.5, 56.0, 14.5, 72.0, 0.0, 0.0, 0.0, 1.644587376877203E9, 0.0, 2022-02-12 00:49:36.877
118.0, -9052.79178056619, -8887.500630319195, -7502.206564212628, -10822.669961770769, -9569.586464117345, -6175.4740685789675, -8654.014307739057, -6653.264958055611, -8275.643977599619, -10470.965262766513, -7722.080674419484, -6034.523968043801, -6769.739898412216, -9106.99476087031, -10744.192986988186, -14545.442407779981, 0.004, 0.23800000000000002, 0.9460000000000001, 192.0, 0.0, 0.0, 0.0, 0.0, 0.0, 0.0, 0.0, 0.0, 0.0, 1.644587376885232E9, 0.0, 2022-02-12 00:49:36.885
120.0, -9020.493509828271, -8857.37047879344, -7490.650712329235, -10820.18891813623, -9574.235626964048, -6171.65192027711, -8636.647002297283, -6647.922891130793, -8266.412707139576, -10453.0168119689, -7702.9922846546515, -6002.292752539248, -6757.692308150806, -9103.887868391022, -10726.915088524234, -14574.387916849604, 0.004, 0.23800000000000002, 0.9460000000000001, 192.0, 0.0, 0.0, 0.0, 0.0, 0.0, 0.0, 0.0, 0.0, 0.0, 1.644587376893354E9, 0.0, 2022-02-12 00:49:36.893
122.0, -9017.721893515813, -8855.269414814642, -7497.669160088201, -10787.13068808683, -9552.263862164482, -6159.984309671439, -8634.389476107297, -6643.117266072902, -8246.58670980772, -10443.15969266411, -7698.09725261894, -5999.029397848773, -6747.522264423641, -9089.493344961804, -10715.627457574303, -14546.06825662473, 0.004, 0.23800000000000002, 0.9460000000000001, 192.0, 0.0, 0.0, 0.0, 0.0, 0.0, 0.0, 0.0, 0.0, 0.0, 1.644587376899634E9, 0.0, 2022-02-12 00:49:36.899
124.0, -8983.657834965925, -8824.535766188594, -7473.238703398551, -10768.042298321998, -9531.74496075451, -6137.923137894051, -8605.80159494896, -6615.423454692776, -8216.836537937706, -10422.73019823196, -7683.702729189722, -5981.170354028983, -6719.917860021336, -9073.17657150943, -10696.717881765115, -14491.977035042888, 0.004, 0.23800000000000002, 0.9460000000000001, 192.0, 0.0, 0.0, 0.0, 0.0, 0.0, 0.0, 0.0, 0.0, 0.0, 1.64458737690785E9, 0.0, 2022-02-12 00:49:36.907
126.0, -8967.922206869389, -8814.209260250242, -7469.394203352238, -10767.729373899625, -9519.31739083736, -6133.87747214764, -8599.140775101278, -6611.713065113195, -8214.064921625248, -10429.033390168357, -7655.383068964848, -5971.961435313397, -6705.076301703013, -9041.571204849626, -10674.366137309808, -14534.244183807872, 0.006, 0.23600000000000002, 0.9400000000000001, 192.0, 0.0, 24.0, 3.5, 48.0, 14.5, 48.0, 0.0, 0.0, 0.0, 1.644587376914872E9, 0.0, 2022-02-12 00:49:36.914
128.0, -8965.709384168315, -8806.877888068902, -7455.111438645296, -10732.145396726775, -9492.78587016891, -6115.280820760825, -8595.65390296625, -6592.06588173698, -8177.609226418642, -10392.756508917393, -7659.942824833731, -5973.146077769527, -6712.474729117719, -9060.905463803467, -10660.597462725338, -14450.492197333837, 0.006, 0.23600000000000002, 0.9400000000000001, 192.0, 0.0, 0.0, 0.0, 0.0, 0.0, 0.0, 0.0, 0.0, 0.0, 1.644587376923683E9, 0.0, 2022-02-12 00:49:36.923
130.0, -8952.00776481721, -8775.607797575927, -7439.733438460045, -10723.830547789401, -9500.854849917276, -6097.377073452124, -8581.169972559212, -6581.940541498726, -8172.200104260458, -10371.365889473664, -7630.371466919359, -5943.865292533075, -6697.543763821574, -9025.187376163885, -10644.906538117712, -14473.782715056268, 0.006, 0.23600000000000002, 0.9400000000000001, 192.0, 0.0, 0.0, 0.0, 0.0, 0.0, 0.0, 0.0, 0.0, 0.0, 1.64458737693046E9, 0.0, 2022-02-12 00:49:36.930
132.0, -8933.567575641582, -8752.45139032023, -7439.331107059849, -10701.143527167265, -9480.268893273938, -6081.6190936111325, -8568.161257286221, -6572.798678016506, -8155.369240685612, -10376.372680231652, -7626.996353506608, -5923.525205078746, -6688.044272428068, -9025.768521519723, -10624.946430319123, -14445.418351342483, 0.006, 0.23600000000000002, 0.9400000000000001, 192.0, 0.0, 0.0, 0.0, 0.0, 0.0, 0.0, 0.0, 0.0, 0.0, 1.644587376944415E9, 0.0, 2022-02-12 00:49:36.944
134.0, -8887.344168108008, -8743.555396027017, -7427.7529034320005, -10696.762585254024, -9464.175637266117, -6064.430602125001, -8547.083562264868, -6546.356564325877, -8132.838682274662, -10334.105531466668, -7622.973039504653, -5922.78759751172, -6668.218275096211, -9017.811300493635, -10605.545116131916, -14391.46124022737, 0.006, 0.23600000000000002, 0.9400000000000001, 192.0, 0.0, 0.0, 0.0, 0.0, 0.0, 0.0, 0.0, 0.0, 0.0, 1.644587376952072E9, 0.0, 2022-02-12 00:49:36.952
136.0, -8913.026322487154, -8737.363962812897, -7434.436075024138, -10689.386509583774, -9466.455515200558, -6063.290663157781, -8550.101047766335, -6546.289509092511, -8131.385818885067, -10350.578767130228, -7608.667923053256, -5918.563117809667, -6658.9199494028035, -9005.83076546559, -10588.803659534891, -14438.9586971949, 0.004, 0.232, 0.9500000000000001, 192.0, 0.0, 16.0, 3.5, 32.0, 14.5, 88.0, 0.0, 0.0, 0.0, 1.644587376960197E9, 0.0, 2022-02-12 00:49:36.960
138.0, -8891.143964665409, -8690.224133756654, -7423.729589430045, -10650.650936442726, -9434.87250028521, -6044.984584448885, -8537.382905171264, -6533.3031455639775, -8104.2508011163245, -10316.380598113608, -7603.974056717641, -5913.131643907028, -6635.294155513544, -8996.554791516637, -10571.011670948466, -14350.64695485198, 0.004, 0.232, 0.9500000000000001, 192.0, 0.0, 0.0, 0.0, 0.0, 0.0, 0.0, 0.0, 0.0, 0.0, 1.644587376967119E9, 0.0, 2022-02-12 00:49:36.967
140.0, -8857.683403215815, -8692.124032035355, -7409.491528212015, -10649.44394224214, -9439.991049765475, -6032.154683131538, -8514.628829315761, -6517.768683167539, -8091.532658521254, -10307.305789864755, -7581.354091328871, -5885.527239504724, -6647.162931819312, -8972.34785227154, -10554.85135970728, -14374.898597585989, 0.004, 0.232, 0.9500000000000001, 192.0, 0.0, 0.0, 0.0, 0.0, 0.0, 0.0, 0.0, 0.0, 0.0, 1.644587376974823E9, 0.0, 2022-02-12 00:49:36.974
142.0, -8866.400583553384, -8690.805279112492, -7413.179566047141, -10631.696657144626, -9418.354561132737, -6024.510386527823, -8511.700750792117, -6506.19047953969, -8065.649338442009, -10297.023987415312, -7572.771021458033, -5888.768242450744, -6646.537082974563, -8967.497523724738, -10540.166263600144, -14353.731495586813, 0.004, 0.232, 0.9500000000000001, 192.0, 0.0, 0.0, 0.0, 0.0, 0.0, 0.0, 0.0, 0.0, 0.0, 1.644587376982573E9, 0.0, 2022-02-12 00:49:36.982
144.0, -8820.9818388202, -8663.75966832157, -7386.648045378691, -10609.85900281179, -9391.152488130629, -5997.420072247991, -8489.43841331463, -6483.168182750725, -8045.711582387875, -10278.203818583945, -7559.359974784848, -5865.522428217224, -6623.000696063125, -8957.796866631135, -10516.853394133257, -14295.013462902722, 0.004, 0.232, 0.9500000000000001, 192.0, 0.0, 0.0, 0.0, 0.0, 0.0, 0.0, 0.0, 0.0, 0.0, 1.644587376992217E9, 0.0, 2022-02-12 00:49:36.992
146.0, -8844.875853642923, -8638.725714531627, -7388.637350635213, -10600.985360263034, -9393.007682920419, -5998.247086792838, -8482.084689388836, -6486.632703141297, -8040.302460229691, -10268.659623701527, -7525.7205993796115, -5845.271747740716, -6599.285495196044, -8933.455816919306, -10498.323797979809, -14340.141634957987, 0.006, 0.23600000000000002, 0.9540000000000001, 192.0, 0.0, 24.0, 3.5, 48.0, 14.5, 104.0, 0.0, 0.0, 0.0, 1.644587376998506E9, 0.0, 2022-02-12 00:49:36.998
148.0, -8820.512452186638, -8613.445891552674, -7392.012464047964, -10578.700671041093, -9359.904749382109, -5984.053729063718, -8462.549264734896, -6457.977766749593, -8021.012904764761, -10247.403114724531, -7530.168596526218, -5856.917006601931, -6577.850172263405, -8922.48111039175, -10485.650358873649, -14258.58011944057, 0.006, 0.23600000000000002, 0.9540000000000001, 192.0, 0.0, 0.0, 0.0, 0.0, 0.0, 0.0, 0.0, 0.0, 0.0, 1.644587377004311E9, 0.0, 2022-02-12 00:49:37.004
150.0, -8784.772012802603, -8614.004685164056, -7383.921132555143, -10576.376089617741, -9364.33039478426, -5980.119822039584, -8460.023517611447, -6460.838790039872, -8003.9361720009065, -10236.853091341627, -7521.987858055575, -5822.4059131629365, -6588.2437334351225, -8920.223584201764, -10468.327756920786, -14291.34777681205, 0.006, 0.23600000000000002, 0.9540000000000001, 192.0, 0.0, 0.0, 0.0, 0.0, 0.0, 0.0, 0.0, 0.0, 0.0, 1.644587377012294E9, 0.0, 2022-02-12 00:49:37.012
152.0, -8804.888582812378, -8606.315685071431, -7385.9551413005765, -10554.76195272946, -9355.322641768771, -5969.547446912223, -8460.358793778276, -6453.105086458336, -7993.117927684538, -10238.59652740914, -7512.577773639891, -5827.01037252073, -6582.275817665555, -8928.426674416862, -10455.16257943661, -14270.024212601687, 0.006, 0.23600000000000002, 0.9540000000000001, 192.0, 0.0, 0.0, 0.0, 0.0, 0.0, 0.0, 0.0, 0.0, 0.0, 1.644587377020211E9, 0.0, 2022-02-12 00:49:37.020
154.0, -8784.392033146863, -8589.283655796487, -7373.058184749864, -10535.85237692027, -9337.351839226703, -5944.3793826555475, -8442.09741855829, -6434.061400182414, -7972.643729763477, -10209.986294506347, -7501.558363623424, -5814.739264814766, -6564.72969826814, -8908.868898018467, -10439.561061806806, -14213.027264240654, 0.006, 0.23600000000000002, 0.9540000000000001, 192.0, 0.0, 0.0, 0.0, 0.0, 0.0, 0.0, 0.0, 0.0, 0.0, 1.644587377027137E9, 0.0, 2022-02-12 00:49:37.027
156.0, -8761.347384613442, -8559.399373459742, -7372.6335016052135, -10533.393685030185, -9335.18372001454, -5952.291900192726, -8435.414246966153, -6441.951565975138, -7970.542665784677, -10214.635457353052, -7486.135659949263, -5799.875354751987, -6564.506180823587, -8887.657092530382, -10422.77490172087, -14264.704497421324, 0.008, 0.232, 0.9480000000000001, 192.0, 0.0, 32.0, 3.5, 32.0, 14.5, 80.0, 0.0, 0.0, 0.0, 1.644587377034897E9, 0.0, 2022-02-12 00:49:37.034
158.0, -8738.995640158135, -8531.88437603526, -7367.961987014054, -10502.101242792754, -9303.868926032654, -5924.55338532369, -8421.33264795931, -6409.3627225593, -7940.8371974035745, -10186.472259339364, -7492.14827920774, -5792.767500015199, -6542.243843346101, -8888.61821754196, -10406.636942224139, -14180.080792913532, 0.008, 0.232, 0.9480000000000001, 192.0, 0.0, 0.0, 0.0, 0.0, 0.0, 0.0, 0.0, 0.0, 0.0, 1.644587377043117E9, 0.0, 2022-02-12 00:49:37.043
160.0, -8735.44171278974, -8525.424721887675, -7351.175826928119, -10499.910771836136, -9305.969990011454, -5921.759417266777, -8411.028493765414, -6392.062472350893, -7936.56801421261, -10158.24200609231, -7454.798514222922, -5769.208761359306, -6542.802636957484, -8862.377269551429, -10388.308511770787, -14199.772679778658, 0.008, 0.232, 0.9480000000000001, 192.0, 0.0, 0.0, 0.0, 0.0, 0.0, 0.0, 0.0, 0.0, 0.0, 1.644587377050049E9, 0.0, 2022-02-12 00:49:37.050
162.0, -8726.67982896326, -8532.353762668821, -7357.568425842336, -10477.424916914097, -9292.64835031609, -5916.484405575324, -8410.290886198389, -6405.629981235264, -7920.89944134944, -10161.415953804964, -7448.0035839085085, -5754.009575129697, -6543.786113713517, -8858.242196827197, -10378.227875021443, -14184.081755171032, 0.008, 0.232, 0.9480000000000001, 192.0, 0.0, 0.0, 0.0, 0.0, 0.0, 0.0, 0.0, 0.0, 0.0, 1.644587377066013E9, 0.0, 2022-02-12 00:49:37.066
164.0, -8698.896610605314, -8498.78144249695, -7336.066047676331, -10458.984727738469, -9272.017690183842, -5897.619533255045, -8381.680653295596, -6373.532876197443, -7901.453423673323, -10151.536482755719, -7451.579863021358, -5742.498426735214, -6518.372180267833, -8861.46084802876, -10357.15018000009, -14128.448263221773, 0.008, 0.232, 0.9480000000000001, 192.0, 0.0, 0.0, 0.0, 0.0, 0.0, 0.0, 0.0, 0.0, 0.0, 1.644587377072143E9, 0.0, 2022-02-12 00:49:37.072
166.0, -8699.254238516598, -8481.704709733094, -7332.489768563482, -10466.807838297826, -9267.055602914763, -5889.997588395785, -8376.875028237704, -6359.607739401787, -7900.827574828574, -10152.274090322744, -7429.496339499515, -5732.998935341709, -6511.376084253322, -8840.070228585033, -10343.247394948889, -14176.638624267414, 0.002, 0.23600000000000002, 0.9460000000000001, 192.0, 0.0, 8.0, 3.5, 48.0, 14.5, 72.0, 0.0, 0.0, 0.0, 1.644587377080209E9, 0.0, 2022-02-12 00:49:37.080
168.0, -8659.266967686053, -8455.53081697593, -7324.376085326206, -10430.463901813497, -9238.959460134443, -5861.208541537349, -8351.79637095885, -6340.586404870321, -7860.683841786843, -10101.781499598206, -7424.869528397266, -5740.240900545228, -6493.584095666897, -8829.900184857868, -10328.249374419376, -14092.260788948632, 0.002, 0.23600000000000002, 0.9460000000000001, 192.0, 0.0, 0.0, 0.0, 0.0, 0.0, 0.0, 0.0, 0.0, 0.0, 1.644587377087735E9, 0.0, 2022-02-12 00:49:37.087
170.0, -8656.361240906865, -8422.964325304547, -7312.306143320339, -10435.202471638022, -9241.820483424723, -5849.295061742671, -8341.916899909604, -6338.530044380432, -7846.110504401983, -10091.544400637675, -7391.431318692126, -5694.308065689572, -6485.559819407442, -8799.144184487366, -10306.970513697925, -14110.499812424161, 0.002, 0.23600000000000002, 0.9460000000000001, 192.0, 0.0, 0.0, 0.0, 0.0, 0.0, 0.0, 0.0, 0.0, 0.0, 1.644587377094565E9, 0.0, 2022-02-12 00:49:37.094
172.0, -8655.444819384196, -8431.949726575582, -7310.54035550837, -10417.052855140311, -9226.531890217291, -5846.322279730115, -8354.009193659926, -6334.216157700558, -7853.106600416494, -10097.199391984868, -7403.545964186903, -5716.995086311708, -6475.143906491269, -8787.610684348427, -10299.70619674995, -14105.448318177263, 0.002, 0.23600000000000002, 0.9460000000000001, 192.0, 0.0, 0.0, 0.0, 0.0, 0.0, 0.0, 0.0, 0.0, 0.0, 1.644587377102454E9, 0.0, 2022-02-12 00:49:37.102
174.0, -8643.866615756348, -8438.230566767523, -7293.262457044418, -10395.505773485396, -9214.685465655979, -5837.225119736805, -8329.824606159284, -6312.646724301187, -7822.529414001634, -10066.175170680901, -7401.824879863844, -5695.537411634614, -6472.238179712079, -8767.896445738847, -10284.171734353511, -14045.880919203868, 0.002, 0.23600000000000002, 0.9460000000000001, 192.0, 0.0, 0.0, 0.0, 0.0, 0.0, 0.0, 0.0, 0.0, 0.0, 1.644587377110648E9, 0.0, 2022-02-12 00:49:37.110
176.0, -8667.00067126759, -8435.57070917734, -7295.609390212226, -10394.052910095801, -9219.938125602976, -5833.268860968216, -8326.784768913361, -6309.785701010907, -7832.699457728799, -10091.030310515203, -7372.74526032749, -5685.300312674083, -6468.550141876954, -8785.21904769171, -10271.788867925272, -14100.396823930363, 0.002, 0.23600000000000002, 0.9500000000000001, 192.0, 0.0, 8.0, 3.5, 48.0, 14.5, 88.0, 0.0, 0.0, 0.0, 1.644587377116568E9, 0.0, 2022-02-12 00:49:37.116
178.0, -8635.887042985803, -8407.228697208011, -7290.9825791099765, -10365.085049281723, -9193.741881101356, -5825.646916108956, -8314.513661207398, -6308.981038210516, -7811.867631896453, -10061.28013864519, -7377.819106318844, -5681.03112948312, -6462.224598196101, -8792.662178595327, -10259.182484052479, -14021.763386936593, 0.002, 0.23600000000000002, 0.9500000000000001, 192.0, 0.0, 0.0, 0.0, 0.0, 0.0, 0.0, 0.0, 0.0, 0.0, 1.644587377124378E9, 0.0, 2022-02-12 00:49:37.124
180.0, -8610.428406051207, -8380.339548628277, -7273.838791112757, -10363.743944614405, -9197.67578812549, -5809.307790912127, -8303.069568046281, -6288.238619355991, -7799.596524190489, -10055.669850786908, -7359.691841565591, -5660.422821095326, -6433.614365293309, -8776.278349909586, -10243.536262933763, -14044.673925003282, 0.002, 0.23600000000000002, 0.9500000000000001, 192.0, 0.0, 0.0, 0.0, 0.0, 0.0, 0.0, 0.0, 0.0, 0.0, 1.644587377132028E9, 0.0, 2022-02-12 00:49:37.132
182.0, -8598.98431289009, -8386.240409164478, -7278.5997126817365, -10356.09964801069, -9179.302654183228, -5800.3894448744595, -8303.74012037994, -6286.517535032933, -7795.014416577151, -10057.145065920957, -7358.0154607314425, -5660.132248417407, -6457.9330632606825, -8772.366794629908, -10230.639306383051, -14038.169567366787, 0.002, 0.23600000000000002, 0.9500000000000001, 192.0, 0.0, 0.0, 0.0, 0.0, 0.0, 0.0, 0.0, 0.0, 0.0, 1.644587377140299E9, 0.0, 2022-02-12 00:49:37.140
184.0, -8564.45086770664, -8326.605954957718, -7264.205189252519, -10340.252261191878, -9161.600072574625, -5771.622749760479, -8271.911236275582, -6258.644909697165, -7758.491666137179, -10010.474623498276, -7357.411963631149, -5651.616233779935, -6436.520092072498, -8735.084084878456, -10217.049445754225, -13972.611900879372, 0.002, 0.23600000000000002, 0.9500000000000001, 192.0, 0.0, 0.0, 3.5, 32.0, 14.5, 104.0, 0.0, 0.0, 0.0, 1.644587377146626E9, 0.0, 2022-02-12 00:49:37.146
186.0, -8585.41680400572, -8355.50676053843, -7254.7056978590135, -10334.686676822505, -9164.57285458718, -5770.3934038154375, -8276.15806772209, -6257.750839918953, -7749.998003244163, -10025.98673415026, -7339.798789000367, -5647.0117744221425, -6425.925365200683, -8724.422302773273, -10199.615085079085, -14023.886802659847, 0.002, 0.23600000000000002, 0.9500000000000001, 192.0, 0.0, 0.0, 0.0, 0.0, 0.0, 0.0, 0.0, 0.0, 0.0, 1.64458737715492E9, 0.0, 2022-02-12 00:49:37.154
188.0, -8587.18259181769, -8342.900376665637, -7253.454000169516, -10301.337874095187, -9130.844072204121, -5754.501313507714, -8270.614835097174, -6249.324232259301, -7742.331354895992, -10007.79241416364, -7321.224489358007, -5621.843710165466, -6401.69607421113, -8735.642878489838, -10197.581076333652, -13942.99583947609, 0.002, 0.23600000000000002, 0.9500000000000001, 192.0, 0.0, 0.0, 0.0, 0.0, 0.0, 0.0, 0.0, 0.0, 0.0, 1.644587377162681E9, 0.0, 2022-02-12 00:49:37.162
190.0, -8546.636527375762, -8316.50296646392, -7231.281069669852, -10301.293170606277, -9137.19196762943, -5744.241862802728, -8253.091067444215, -6236.069647797304, -7725.455787832236, -9993.59905643452, -7293.575381466792, -5597.4132534758155, -6379.299626266912, -8708.373750254363, -10179.699680769407, -13963.045354252501, 0.002, 0.23600000000000002, 0.9500000000000001, 192.0, 0.0, 0.0, 0.0, 0.0, 0.0, 0.0, 0.0, 0.0, 0.0, 1.644587377170139E9, 0.0, 2022-02-12 00:49:37.170
192.0, -8543.037896518457, -8319.207527543012, -7242.054610497309, -10285.401080298554, -9123.311534322684, -5736.686973176834, -8242.094009172202, -6229.475883182989, -7729.657915789833, -10010.78754792065, -7302.91841064911, -5608.3879600033715, -6403.484213767554, -8704.395139741318, -10165.103991640091, -13955.177540204233, 0.002, 0.23600000000000002, 0.9500000000000001, 192.0, 0.0, 0.0, 0.0, 0.0, 0.0, 0.0, 0.0, 0.0, 0.0, 1.644587377177298E9, 0.0, 2022-02-12 00:49:37.177
194.0, -8529.82801554537, -8284.785841081839, -7226.2966306563185, -10272.191199325467, -9107.777071926246, -5724.840548615522, -8236.43901782501, -6222.680952868575, -7698.387825296859, -9971.73905035723, -7305.8911926616665, -5601.570677944503, -6382.0935943238255, -8699.969494339168, -10146.686154208917, -13898.22529533211, 0.003, 0.23500000000000001, 0.9510000000000001, 192.0, 0.0, 16.0, 3.5, 40.0, 14.5, 96.0, 0.0, 0.0, 0.0, 1.644587377192495E9, 0.0, 2022-02-12 00:49:37.192
196.0, -8532.242003946543, -8280.047271257314, -7221.8933369986225, -10283.054147130746, -9120.741083710323, -5727.165130038873, -8242.518692316853, -6228.291240726858, -7699.3489503084365, -9981.640873150931, -7288.009797097421, -5581.968198057199, -6376.080975065348, -8695.230924514643, -10144.92036639695, -13961.994822263101, 0.003, 0.23500000000000001, 0.9510000000000001, 192.0, 0.0, 0.0, 0.0, 0.0, 0.0, 0.0, 0.0, 0.0, 0.0, 1.644587377200446E9, 0.0, 2022-02-12 00:49:37.200
198.0, -8511.611343814295, -8259.304852402789, -7213.466729338972, -10255.114466561612, -9097.495269476804, -5706.757987351178, -8230.784026477817, -6206.23006894947, -7679.612359954401, -9953.678840837341, -7274.978730079977, -5597.100329053442, -6368.324919739356, -8691.609941912882, -10132.537499968708, -13889.731632439094, 0.003, 0.23500000000000001, 0.9510000000000001, 192.0, 0.0, 0.0, 0.0, 0.0, 0.0, 0.0, 0.0, 0.0, 0.0, 1.644587377206911E9, 0.0, 2022-02-12 00:49:37.206
200.0, -8482.77759346695, -8250.542968576308, -7198.625171020648, -10249.75004789234, -9093.628417686035, -5696.185612223818, -8216.165985604046, -6188.303969896313, -7664.591987680435, -9958.864445550973, -7253.252834469418, -5565.629072860369, -6358.110172523281, -8665.257235200075, -10117.472424205831, -13902.494478523075, 0.003, 0.23500000000000001, 0.9510000000000001, 192.0, 0.0, 0.0, 0.0, 0.0, 0.0, 0.0, 0.0, 0.0, 0.0, 1.644587377215198E9, 0.0, 2022-02-12 00:49:37.215
202.0, -8502.804756498905, -8253.314584888767, -7209.532822314838, -10235.132007018568, -9083.257208258774, -5692.139946477407, -8224.212613607957, -6190.8520687642185, -7657.327670732459, -9962.977166530749, -7252.559930391304, -5556.9118925227995, -6339.960556025571, -8671.515723647562, -10104.843688588582, -13898.091184865378, 0.003, 0.23500000000000001, 0.9510000000000001, 192.0, 0.0, 0.0, 0.0, 0.0, 0.0, 0.0, 0.0, 0.0, 0.0, 1.644587377225108E9, 0.0, 2022-02-12 00:49:37.225
204.0, -8485.34804407931, -8234.919099202049, -7194.624208763148, -10217.78705332125, -9062.179513237419, -5668.290635143595, -8199.916267385039, -6156.676251492054, -7640.206234479694, -9915.43500607431, -7259.690136872547, -5555.123752966375, -6327.9129657641615, -8643.129008189322, -10093.690168105384, -13834.232250956566, 0.0035, 0.23550000000000001, 0.9485000000000001, 192.0, 0.0, 16.0, 3.5, 48.0, 14.5, 72.0, 0.0, 0.0, 0.0, 1.644587377231354E9, 0.0, 2022-02-12 00:49:37.231
206.0, -8474.194523596112, -8222.603288007174, -7191.584371517226, -10220.625724867074, -9065.532274905716, -5664.826114753022, -8187.421642234522, -6155.804533458297, -7643.603699636901, -9934.97043072825, -7234.879700527156, -5547.568863340481, -6352.946919554105, -8665.704270089182, -10083.184848211391, -13885.171876570212, 0.0035, 0.23550000000000001, 0.9485000000000001, 192.0, 0.0, 0.0, 0.0, 0.0, 0.0, 0.0, 0.0, 0.0, 0.0, 1.644587377237572E9, 0.0, 2022-02-12 00:49:37.237
208.0, -8445.941918604603, -8184.3818049886, -7181.503734767883, -10198.698663556417, -9030.887070999988, -5645.983594177198, -8169.987281559383, -6148.294347321314, -7613.048864966496, -9910.539974038598, -7242.7922180643345, -5561.6057588584135, -6332.293907677402, -8646.61588032435, -10064.409382868933, -13808.930076233159, 0.0035, 0.23550000000000001, 0.9485000000000001, 192.0, 0.0, 0.0, 0.0, 0.0, 0.0, 0.0, 0.0, 0.0, 0.0, 1.644587377244686E9, 0.0, 2022-02-12 00:49:37.244
210.0, -8461.230511812033, -8208.14170934459, -7171.177228829531, -10191.076718697157, -9042.487626372293, -5645.089524398986, -8171.954235071449, -6152.831751445741, -7603.035283450518, -9881.415651013333, -7214.919592728566, -5516.0529036584985, -6311.48443358951, -8636.334077874908, -10053.837007741573, -13832.958201522613, 0.0035, 0.23550000000000001, 0.9485000000000001, 192.0, 0.0, 0.0, 0.0, 0.0, 0.0, 0.0, 0.0, 0.0, 0.0, 1.644587377251735E9, 0.0, 2022-02-12 00:49:37.251
212.0, -8470.551189249896, -8201.726758685918, -7179.827353933734, -10178.962073202381, -9028.897765743466, -5640.932099930299, -8177.631578163097, -6159.872550949162, -7601.381254360826, -9909.712959493752, -7195.786499474824, -5499.311447061473, -6301.761424751452, -8626.56636554794, -10050.596004795552, -13832.980553267069, 0.0035, 0.23550000000000001, 0.9485000000000001, 192.0, 0.0, 0.0, 0.0, 0.0, 0.0, 0.0, 0.0, 0.0, 0.0, 1.644587377259242E9, 0.0, 2022-02-12 00:49:37.259
214.0, -8437.694124900594, -8174.614092661631, -7159.46491473495, -10159.784276459728, -9014.570297547614, -5617.596878718959, -8148.440199904467, -6119.728817907431, -7579.945931428187, -9875.313624777034, -7197.32876984224, -5497.523307505048, -6293.647741514175, -8616.888060198791, -10035.55328077713, -13769.635709480728, 0.00475, 0.23575000000000002, 0.94825, 192.0, 0.0, 24.0, 3.5, 48.0, 14.5, 80.0, 0.0, 0.0, 0.0, 1.64458737726726E9, 0.0, 2022-02-12 00:49:37.267
216.0, -8416.705836857062, -8158.52083665381, -7158.861417634656, -10168.63556726403, -9000.600457263048, -5611.941887371765, -8131.810502029718, -6104.149652022083, -7584.1257076413285, -9874.754831165652, -7199.273371609852, -5490.773080679546, -6294.698273503575, -8607.634437994295, -10020.510556758709, -13825.179794452168, 0.00475, 0.23575000000000002, 0.94825, 192.0, 0.0, 0.0, 0.0, 0.0, 0.0, 0.0, 0.0, 0.0, 0.0, 1.644587377275414E9, 0.0, 2022-02-12 00:49:37.275
218.0, -8422.450235182076, -8132.793978785751, -7152.312356509252, -10132.872776135539, -8974.784192417168, -5595.3568929859275, -8124.724999037386, -6097.712349618954, -7553.615576459834, -9856.180531523292, -7191.919647684056, -5510.643781500314, -6278.739127962485, -8603.007626892046, -10005.132556573459, -13749.317973770854, 0.00475, 0.23575000000000002, 0.94825, 192.0, 0.0, 0.0, 0.0, 0.0, 0.0, 0.0, 0.0, 0.0, 0.0, 1.644587377281883E9, 0.0, 2022-02-12 00:49:37.281
220.0, -8406.669903596629, -8151.480037150388, -7135.772065612325, -10138.416008760454, -8982.339082043061, -5588.874887093889, -8124.009743214816, -6092.079710016216, -7555.0684398494295, -9841.473083671699, -7168.22679856143, -5468.711908902158, -6278.314444817835, -8597.911429156236, -9995.543658202132, -13768.004032135492, 0.00475, 0.23575000000000002, 0.94825, 192.0, 0.0, 0.0, 0.0, 0.0, 0.0, 0.0, 0.0, 0.0, 0.0, 1.644587377290008E9, 0.0, 2022-02-12 00:49:37.290
222.0, -8410.134423987201, -8140.438275389466, -7142.142312782087, -10126.413121987955, -8967.9669103583, -5576.693186365746, -8119.829967001673, -6086.3129599467475, -7549.167579313229, -9855.174703022803, -7164.22583630393, -5461.827571609923, -6264.769287677919, -8583.673367938205, -9989.463983710288, -13771.513256014974, 0.00475, 0.23575000000000002, 0.94825, 192.0, 0.0, 0.0, 0.0, 0.0, 0.0, 0.0, 0.0, 0.0, 0.0, 1.644587377297891E9, 0.0, 2022-02-12 00:49:37.297
224.0, -8373.99165320297, -8095.243048100835, -7120.751693338358, -10111.10217703607, -8952.72302063978, -5553.872055276877, -8114.309086121212, -6083.474288400923, -7510.1637852387175, -9811.432339123767, -7153.27348152083, -5458.877141341823, -6257.504970729944, -8574.799725389448, -9977.5058004267, -13707.676673850618, 0.004375, 0.235875, 0.949125, 192.0, 0.0, 16.0, 3.5, 48.0, 14.5, 88.0, 0.0, 0.0, 0.0, 1.644587377311542E9, 0.0, 2022-02-12 00:49:37.311
226.0, -8364.827437976293, -8097.075891146171, -7122.4057224280505, -10123.52974695322, -8960.68024166587, -5554.162627954796, -8106.977713939872, -6077.327558675714, -7518.568041153913, -9825.491586386155, -7144.3551354831625, -5452.171618005231, -6263.5846452217875, -8550.726896611082, -9970.017966034171, -13763.667793711162, 0.004375, 0.235875, 0.949125, 192.0, 0.0, 0.0, 0.0, 0.0, 0.0, 0.0, 0.0, 0.0, 0.0, 1.644587377319501E9, 0.0, 2022-02-12 00:49:37.319
228.0, -8362.882836208682, -8092.002045154816, -7119.276478204308, -10096.640598373486, -8928.627840116958, -5546.875959262366, -8102.529716793266, -6063.380070135602, -7501.178383967685, -9802.737510530653, -7149.27251926333, -5452.819818594435, -6254.196912550558, -8554.92902456868, -9955.444628649311, -13692.410432387644, 0.004375, 0.235875, 0.949125, 192.0, 0.0, 0.0, 0.0, 0.0, 0.0, 0.0, 0.0, 0.0, 0.0, 1.64458737732749E9, 0.0, 2022-02-12 00:49:37.327
230.0, -8360.290033851867, -8077.540466492233, -7102.087986718177, -10094.651293116964, -8933.791093086134, -5542.718534793679, -8075.729975191352, -6053.455895597446, -7507.705093348634, -9784.163210888293, -7127.323106208219, -5426.936498515189, -6236.203758264036, -8558.237082748066, -9941.094808709004, -13709.71068259605, 0.004375, 0.235875, 0.949125, 192.0, 0.0, 0.0, 0.0, 0.0, 0.0, 0.0, 0.0, 0.0, 0.0, 1.644587377334655E9, 0.0, 2022-02-12 00:49:37.334
232.0, -8364.55921704283, -8070.2090943108915, -7105.843079786669, -10076.94871150836, -8926.504424393705, -5529.933336965244, -8078.747460692819, -6046.929186216496, -7493.355273408327, -9809.532440845065, -7123.970344539923, -5437.55357713146, -6244.4739037125, -8553.923196068192, -9932.310573138067, -13715.320970454333, 0.004375, 0.235875, 0.949125, 192.0, 0.0, 0.0, 0.0, 0.0, 0.0, 0.0, 0.0, 0.0, 0.0, 1.644587377342269E9, 0.0, 2022-02-12 00:49:37.342
234.0, -8340.396981286643, -8048.103219044593, -7086.7099865329255, -10060.56488282262, -8905.873764261456, -5504.765272708568, -8057.915634860473, -6019.056560880728, -7465.639110283746, -9764.35956530089, -7122.137501494587, -5407.065797694421, -6214.321400442291, -8545.74245759755, -9920.598259043487, -13643.951850408537, 0.0041875, 0.2379375, 0.9465625, 192.0, 0.0, 16.0, 3.5, 64.0, 14.5, 64.0, 0.0, 0.0, 0.0, 1.644587377350239E9, 0.0, 2022-02-12 00:49:37.350
236.0, -8335.971335884493, -8036.21209099437, -7080.183277151976, -10069.527932349198, -8904.532659594139, -5501.770138951557, -8057.915634860473, -6015.882613168074, -7467.561360306902, -9779.581103274955, -7092.2308674133865, -5403.914201726223, -6225.966659303505, -8522.720160808583, -9911.054064161071, -13701.440537147588, 0.0041875, 0.2379375, 0.9465625, 192.0, 0.0, 0.0, 0.0, 0.0, 0.0, 0.0, 0.0, 0.0, 0.0, 1.64458737735724E9, 0.0, 2022-02-12 00:49:37.357
238.0, -8334.719638194996, -8031.205300236381, -7074.014195682311, -10040.202443623835, -8875.028356913133, -5478.054938084476, -8050.204283023391, -6006.181956074472, -7443.734400717545, -9750.143855827315, -7097.170602938009, -5407.401073861251, -6204.352522415224, -8507.096291434324, -9898.760604710651, -13629.467920001498, 0.0041875, 0.2379375, 0.9465625, 192.0, 0.0, 0.0, 0.0, 0.0, 0.0, 0.0, 0.0, 0.0, 0.0, 1.644587377363922E9, 0.0, 2022-02-12 00:49:37.363
240.0, -8293.100690019213, -8008.607686592065, -7063.553579277227, -10052.160626907424, -8882.09150816101, -5473.249313026585, -8041.732971874831, -6010.741711943354, -7439.018182637476, -9736.866919620863, -7075.4447073274505, -5391.643094020259, -6198.965752001495, -8492.21002962709, -9883.740232436685, -13645.874100431694, 0.0041875, 0.2379375, 0.9465625, 192.0, 0.0, 0.0, 0.0, 0.0, 0.0, 0.0, 0.0, 0.0, 0.0, 1.644587377372407E9, 0.0, 2022-02-12 00:49:37.372
