%OpenBCI Raw EEG Data
%Number of channels = 16
%Sample Rate = 125 Hz
%Board = OpenBCI_GUI$BoardCytonSerialDaisy
Sample Index, EXG Channel 0, EXG Channel 1, EXG Channel 2, EXG Channel 3, EXG Channel 4, EXG Channel 5, EXG Channel 6, EXG Channel 7, EXG Channel 8, EXG Channel 9, EXG Channel 10, EXG Channel 11, EXG Channel 12, EXG Channel 13, EXG Channel 14, EXG Channel 15, Accel Channel 0, Accel Channel 1, Accel Channel 2, Other, Other, Other, Other, Other, Other, Other, Analog Channel 0, Analog Channel 1, Analog Channel 2, Timestamp, Other, Timestamp (Formatted)
36.0, -9238.199500822962, -8535.728876081572, -7341.45281809006, -9732.105998051882, -10305.540002052785, -7166.505714238372, -8550.413972188708, -6545.976584670137, -7891.551600879622, -9934.411637116866, -8647.487598358108, -7449.724668231567, -7110.1346147220875, -9892.166840096335, -10112.353874725566, -13953.210586692167, 0.0, 0.0, 0.0, 192.0, 0.0, 0.0, 0.0, 0.0, 0.0, 0.0, 0.0, 0.0, 0.0, 1.64458718993843E9, 0.0, 2022-02-12 00:46:29.938
38.0, -9218.999352335853, -8512.63952405924, -7352.069896706331, -9724.864032848363, -10296.867525204127, -7129.111245764643, -8606.092167626879, -6569.155343670291, -7911.064673789106, -9936.803273773585, -8637.608127308862, -7446.975403663565, -7095.091890703666, -9859.443886213767, -10117.695941650385, -13998.629331425349, 0.0, 0.0, 0.0, 192.0, 0.0, 0.0, 3.5, 24.0, 14.5, 64.0, 0.0, 0.0, 0.0, 1.644587189938435E9, 0.0, 2022-02-12 00:46:29.938
0.0, -6166.958053941496, -5810.3136194126155, -4133.15047420865, -6439.247004896046, -5807.832575778077, -4414.916564812251, -5475.685653172213, -4180.670282920633, -3957.9798529124087, -4983.455536777441, -4335.009078384528, -3728.203919911852, -3555.9390253948004, -4918.6801813459615, -5054.891712056603, -6982.036767248723, 0.004, 0.232, 0.9440000000000001, 192.0, 0.0, 16.0, 3.5, 32.0, 14.5, 64.0, 0.0, 0.0, 0.0, 1.644587190041362E9, 0.0, 2022-02-12 00:46:30.041
2.0, -12319.119253053577, -11622.504785359477, -8259.908349503083, -12871.386155055305, -11614.05582595537, -8837.522129717128, -10941.581242273003, -8367.509647310932, -10805.056787139987, -12412.102509987655, -11283.719394650388, -9969.213303233779, -8944.34111646904, -12599.678349456592, -13064.907558549352, -17701.329910913697, 0.004, 0.232, 0.9440000000000001, 192.0, 0.0, 0.0, 0.0, 0.0, 0.0, 0.0, 0.0, 0.0, 0.0, 1.644587190047711E9, 0.0, 2022-02-12 00:46:30.047
4.0, -12336.0618753507, -11619.643762069198, -8251.280576143334, -12888.284073863517, -11623.197689437591, -8831.12953080291, -10937.759093971144, -8357.026679161392, -10824.212232138185, -12414.494146644372, -11278.489086447846, -9956.137532727425, -8922.637572602936, -12577.885398612667, -13059.72195383572, -17744.33466724571, 0.004, 0.232, 0.9440000000000001, 192.0, 0.0, 0.0, 0.0, 0.0, 0.0, 0.0, 0.0, 0.0, 0.0, 1.644587190055328E9, 0.0, 2022-02-12 00:46:30.055
6.0, -12346.835416178157, -11640.609698368276, -8251.682907543529, -12878.896341192287, -11604.265761883946, -8829.65431566886, -10941.111855639441, -8358.61365301772, -10814.46687155567, -12421.669056614526, -11272.252949744816, -9953.880006537438, -8925.47624414876, -12577.8183433793, -13055.765695067132, -17719.188954733487, 0.003, 0.232, 0.9460000000000001, 192.0, 0.0, 8.0, 3.5, 32.0, 14.5, 80.0, 0.0, 0.0, 0.0, 1.644587190062637E9, 0.0, 2022-02-12 00:46:30.062
8.0, -12326.987067101845, -11620.11314870276, -8241.803436494283, -12881.958530182665, -11618.034436468415, -8827.642658667883, -10941.625945761913, -8364.425106576098, -10807.582534263436, -12429.134539262599, -11259.579510638656, -9948.91791926836, -8952.901834595423, -12564.317889728296, -13061.353631180958, -17727.45910018195, 0.003, 0.232, 0.9460000000000001, 192.0, 0.0, 0.0, 0.0, 0.0, 0.0, 0.0, 0.0, 0.0, 0.0, 1.644587190070517E9, 0.0, 2022-02-12 00:46:30.070
10.0, -12319.58863968714, -11612.334741632312, -8251.861721499172, -12882.852599960876, -11613.519384088444, -8824.222841766219, -10939.25666084965, -8366.123839154701, -10811.89642094331, -12444.64664991458, -11258.305461204704, -9951.242500691713, -8940.34015421154, -12576.946625345545, -13060.481913147201, -17751.643687682594, 0.003, 0.232, 0.9460000000000001, 192.0, 0.0, 0.0, 0.0, 0.0, 0.0, 0.0, 0.0, 0.0, 0.0, 1.644587190077754E9, 0.0, 2022-02-12 00:46:30.077
12.0, -12316.280581507754, -11597.426128080622, -8250.431209854032, -12876.21413185765, -11607.976151463528, -8820.579507420005, -10940.754227728155, -8364.223940876002, -10798.351263803395, -12414.69531234447, -11271.247121244327, -9957.16571297237, -8941.994183301233, -12572.230407265473, -13069.422610929325, -17713.802184319757, 0.003, 0.232, 0.9460000000000001, 192.0, 0.0, 0.0, 0.0, 0.0, 0.0, 0.0, 0.0, 0.0, 0.0, 1.644587190085148E9, 0.0, 2022-02-12 00:46:30.085
14.0, -12306.28935173623, -11611.373616620735, -8248.128980175135, -12886.942969196198, -11615.329875389323, -8834.37053374893, -10942.49766379567, -8368.627234533697, -10812.85754595489, -12417.846908312667, -11259.37834493856, -9949.364954157467, -8940.206043744809, -12585.73086091648, -13070.897826063374, -17760.584385464714, 0.003, 0.232, 0.9460000000000001, 192.0, 0.0, 0.0, 0.0, 0.0, 0.0, 0.0, 0.0, 0.0, 0.0, 1.644587190093178E9, 0.0, 2022-02-12 00:46:30.093
16.0, -12327.322343268675, -11633.859471542773, -8254.745096533907, -12879.7904109705, -11617.386235879212, -8835.488120971695, -10944.554024285559, -8371.018871190414, -10810.108281386887, -12427.592268895181, -11267.492028175835, -9943.821721532551, -8922.726979580759, -12604.551029747849, -13069.802590585065, -17737.22681250892, 0.0045000000000000005, 0.232, 0.9450000000000001, 192.0, 0.0, 24.0, 3.5, 32.0, 14.5, 64.0, 0.0, 0.0, 0.0, 1.644587190107414E9, 0.0, 2022-02-12 00:46:30.107
18.0, -12350.434047035462, -11640.676753601641, -8253.940433733516, -12890.809820986966, -11631.311372674869, -8842.595975708482, -10954.16527440134, -8375.064536936825, -10819.831290224945, -12430.006257296356, -11271.738859622343, -9949.946099513305, -8955.71815439679, -12591.251741796941, -13076.910445321852, -17740.0878357992, 0.0045000000000000005, 0.232, 0.9450000000000001, 192.0, 0.0, 0.0, 0.0, 0.0, 0.0, 0.0, 0.0, 0.0, 0.0, 1.644587190114754E9, 0.0, 2022-02-12 00:46:30.114
20.0, -12353.16095985901, -11640.274422201446, -8263.819904782762, -12899.325835624437, -11633.479491887032, -8843.937080375801, -10958.479161081215, -8374.170467158612, -10842.630069569359, -12456.314260520252, -11273.03526080075, -9954.192930959813, -8952.00776481721, -12589.307140029328, -13079.078564534017, -17765.769990178345, 0.0045000000000000005, 0.232, 0.9450000000000001, 192.0, 0.0, 0.0, 0.0, 0.0, 0.0, 0.0, 0.0, 0.0, 0.0, 1.64458719012282E9, 0.0, 2022-02-12 00:46:30.122
22.0, -12325.824776390169, -11614.301695144379, -8266.077430972748, -12885.490105806603, -11617.72151204604, -8831.710676158747, -10951.125437155419, -8367.42024033311, -10830.984810708143, -12422.138443248086, -11288.189743541448, -9964.899416553906, -8946.9115670814, -12599.723052945501, -13084.711204136755, -17723.726358857915, 0.0045000000000000005, 0.232, 0.9450000000000001, 192.0, 0.0, 0.0, 0.0, 0.0, 0.0, 0.0, 0.0, 0.0, 0.0, 1.644587190130782E9, 0.0, 2022-02-12 00:46:30.130
24.0, -12318.314590253185, -11614.569916077842, -8259.170741936057, -12902.365672870359, -11632.071331986348, -8835.622231438427, -10948.242062120684, -8366.41441183262, -10842.674773058268, -12443.171434780532, -11293.420051743991, -9969.235654978234, -8954.511160196205, -12577.751288145935, -13082.788954113597, -17762.86426339916, 0.0045000000000000005, 0.232, 0.9450000000000001, 192.0, 0.0, 0.0, 0.0, 0.0, 0.0, 0.0, 0.0, 0.0, 0.0, 1.644587190137429E9, 0.0, 2022-02-12 00:46:30.137
26.0, -12363.800390219736, -11643.358962936278, -8257.807285524284, -12884.037242417007, -11623.175337693136, -8830.861309869446, -10957.160408158352, -8369.32013861181, -10830.224851396662, -12442.858510358157, -11281.573627182679, -9954.014117004172, -8941.189520500842, -12566.418953707094, -13084.06300354755, -17736.26568749734, 0.00425, 0.231, 0.9445000000000001, 192.0, 0.0, 16.0, 3.5, 24.0, 14.5, 64.0, 0.0, 0.0, 0.0, 1.644587190145415E9, 0.0, 2022-02-12 00:46:30.145
28.0, -12347.64007897855, -11625.835195283318, -8249.96182322047, -12893.760251255066, -11620.247259169491, -8829.296687757575, -10939.010791660643, -8356.579644272286, -10835.745732277124, -12436.532966677305, -11278.04205155874, -9943.888776765916, -8964.927073112378, -12604.394567536661, -13082.699547135777, -17740.244298010384, 0.00425, 0.231, 0.9445000000000001, 192.0, 0.0, 0.0, 0.0, 0.0, 0.0, 0.0, 0.0, 0.0, 0.0, 1.644587190153422E9, 0.0, 2022-02-12 00:46:30.153
30.0, -12335.503081739316, -11627.73509356202, -8250.140637176113, -12894.095527421896, -11618.615581824253, -8817.942001574278, -10950.253719121662, -8359.731240240484, -10839.366714878883, -12436.331800977207, -11274.04108930124, -9951.622480347452, -8961.931939355367, -12583.629796937681, -13080.39731745688, -17760.89730988709, 0.00425, 0.231, 0.9445000000000001, 192.0, 0.0, 0.0, 0.0, 0.0, 0.0, 0.0, 0.0, 0.0, 0.0, 1.644587190159592E9, 0.0, 2022-02-12 00:46:30.159
32.0, -12328.864613636091, -11617.29682890139, -8247.212558652469, -12883.478448805625, -11608.222020652536, -8823.529937688105, -10943.749361485168, -8362.07817340829, -10818.087854157431, -12421.579649636704, -11280.478391704368, -9959.378535673444, -8948.520892682183, -12587.071965583798, -13080.39731745688, -17720.015969278335, 0.00425, 0.231, 0.9445000000000001, 192.0, 0.0, 0.0, 0.0, 0.0, 0.0, 0.0, 0.0, 0.0, 0.0, 1.644587190167046E9, 0.0, 2022-02-12 00:46:30.167
34.0, -12336.0618753507, -11629.322067418345, -8247.39137260811, -12896.442460589704, -11632.45131164209, -8830.0342953246, -10958.568568059036, -8379.266664894421, -10834.046999698521, -12438.209347511453, -11270.420106699481, -9942.815893032062, -8947.693878137336, -12593.621026709203, -13080.196151756783, -17764.250071555387, 0.00425, 0.231, 0.9445000000000001, 192.0, 0.0, 0.0, 0.0, 0.0, 0.0, 0.0, 0.0, 0.0, 0.0, 1.644587190175193E9, 0.0, 2022-02-12 00:46:30.175
36.0, -12349.763494701803, -11632.20544245308, -8266.01037573938, -12888.59699828589, -11619.956686491572, -8821.31711498703, -10951.617175533436, -8358.971280929003, -10843.43473236975, -12447.239452271397, -11282.534752194257, -9949.432009390834, -8928.71724709478, -12590.670596441103, -13081.91723607984, -17740.356056732664, 0.003125, 0.2335, 0.9452500000000001, 192.0, 0.0, 8.0, 3.5, 48.0, 14.5, 72.0, 0.0, 0.0, 0.0, 1.644587190183054E9, 0.0, 2022-02-12 00:46:30.183
38.0, -12342.63328822056, -11647.851663571795, -8254.543930833808, -12900.6445885473, -11606.67975028512, -8813.851632338958, -10944.621079518924, -8355.46205704952, -10848.150950449819, -12444.64664991458, -11285.619292929088, -9960.317308940568, -8948.72205838228, -12585.373233005195, -13085.672329148332, -17743.93233584551, 0.003125, 0.2335, 0.9452500000000001, 192.0, 0.0, 0.0, 0.0, 0.0, 0.0, 0.0, 0.0, 0.0, 0.0, 1.644587190189726E9, 0.0, 2022-02-12 00:46:30.189
40.0, -12360.090000640155, -11637.927489033638, -8259.707183802984, -12911.999274730597, -11636.049942499392, -8834.929327360313, -10959.395582603882, -8363.173408886601, -10858.879787788366, -12468.115981592653, -11283.160601039006, -9962.820704319562, -8969.06214583661, -12584.34505276025, -13081.961939568751, -17767.446371012495, 0.003125, 0.2335, 0.9452500000000001, 192.0, 0.0, 0.0, 0.0, 0.0, 0.0, 0.0, 0.0, 0.0, 0.0, 1.644587190197701E9, 0.0, 2022-02-12 00:46:30.197
42.0, -12355.194968604443, -11642.040210013416, -8256.667346557064, -12898.342358868404, -11637.033419255427, -8836.717466916736, -10969.185646675307, -8375.422164848109, -10845.535796348548, -12445.540719692794, -11293.509458721812, -9977.014062048682, -8973.599549961036, -12609.49076527247, -13087.885151849408, -17734.812824107747, 0.003125, 0.2335, 0.9452500000000001, 192.0, 0.0, 0.0, 0.0, 0.0, 0.0, 0.0, 0.0, 0.0, 0.0, 1.644587190205758E9, 0.0, 2022-02-12 00:46:30.205
44.0, -12356.916052927501, -11646.689372860119, -8252.644032555108, -12915.530850354535, -11651.025611284449, -8842.75243791967, -10983.669577082346, -8389.257894665945, -10864.57948262447, -12467.288967047807, -11285.462830717903, -9963.982995031238, -8968.950387114333, -12609.893096672666, -13090.343843739493, -17777.750525206393, 0.003125, 0.2335, 0.9452500000000001, 192.0, 0.0, 0.0, 0.0, 0.0, 0.0, 0.0, 0.0, 0.0, 0.0, 1.644587190213713E9, 0.0, 2022-02-12 00:46:30.213
46.0, -12369.880064711579, -11640.944974535105, -8254.342765133712, -12906.880725250332, -11625.879898772228, -8838.46090298425, -10967.241044907696, -8379.3784236167, -10860.645575600336, -12478.733060208924, -11292.838906388153, -9963.804181075595, -8937.948517554822, -12605.713320459525, -13089.561532683556, -17757.23162379642, 0.0035625, 0.23575000000000002, 0.9456250000000002, 192.0, 0.0, 16.0, 3.5, 56.0, 14.5, 72.0, 0.0, 0.0, 0.0, 1.644587190220362E9, 0.0, 2022-02-12 00:46:30.220
48.0, -12356.15609361602, -11645.571785637354, -8243.770390006352, -12907.46187060617, -11626.528099361432, -8839.712600673747, -10953.137094156396, -8370.124801412201, -10856.778723809568, -12457.565958209749, -11288.770888897287, -9970.085021267536, -8957.841570120045, -12602.606427980236, -13082.87836109142, -17752.7389231609, 0.0035625, 0.23575000000000002, 0.9456250000000002, 192.0, 0.0, 0.0, 0.0, 0.0, 0.0, 0.0, 0.0, 0.0, 0.0, 1.644587190235718E9, 0.0, 2022-02-12 00:46:30.235
50.0, -12366.63906176556, -11658.4016869547, -8249.626547053642, -12908.199478173194, -11630.014971496461, -8838.103275072966, -10952.466541822738, -8373.432859591587, -10868.647500115336, -12489.32778708074, -11281.506571949312, -9963.155980486392, -8950.823122361078, -12597.376119777695, -13079.905579078864, -17776.38706879462, 0.0035625, 0.23575000000000002, 0.9456250000000002, 192.0, 0.0, 0.0, 0.0, 0.0, 0.0, 0.0, 0.0, 0.0, 0.0, 1.644587190242647E9, 0.0, 2022-02-12 00:46:30.242
52.0, -12368.807180977725, -11655.16068400868, -8250.610023809675, -12897.917675723753, -11625.499919116488, -8828.670838912825, -10953.002983689665, -8371.443554335065, -10849.804979539513, -12466.774876925336, -11294.582342455667, -9970.263835223179, -8969.643291192448, -12613.759948463434, -13083.079526791516, -17733.65053339607, 0.0035625, 0.23575000000000002, 0.9456250000000002, 192.0, 0.0, 0.0, 0.0, 0.0, 0.0, 0.0, 0.0, 0.0, 0.0, 1.644587190249957E9, 0.0, 2022-02-12 00:46:30.249
54.0, -12362.168712874498, -11654.534835163931, -8254.275709900345, -12917.743673055611, -11642.174320480148, -8837.097446572478, -10964.290614639594, -8370.795353745862, -10869.899197804833, -12479.537723009316, -11293.196534299439, -9965.279396209646, -8961.328442255073, -12596.750270932946, -13081.246683746182, -17776.521179261348, 0.0035625, 0.23575000000000002, 0.9456250000000002, 192.0, 0.0, 0.0, 0.0, 0.0, 0.0, 0.0, 0.0, 0.0, 0.0, 1.644587190258105E9, 0.0, 2022-02-12 00:46:30.258
56.0, -12363.26394835281, -11645.97411703755, -8261.674137315053, -12912.088681708417, -11631.73605581952, -8836.561004705549, -10958.009774447653, -8372.672900280108, -10870.860322816412, -12471.960481638967, -11304.886496649564, -9977.639910893431, -8969.576235959083, -12620.06314039983, -13083.235989002704, -17757.65630694107, 0.00278125, 0.235875, 0.9448125, 192.0, 0.0, 8.0, 3.5, 48.0, 14.5, 64.0, 0.0, 0.0, 0.0, 1.644587190265154E9, 0.0, 2022-02-12 00:46:30.265
58.0, -12362.571044274693, -11658.558149165887, -8253.627509311142, -12912.088681708417, -11636.385218666222, -8835.219900038232, -10943.21291961824, -8367.487295566476, -10869.787439082556, -12461.365754767152, -11306.406415272524, -9977.863428337983, -8952.186578772853, -12593.710433687023, -13083.168933769339, -17754.437655739504, 0.00278125, 0.235875, 0.9448125, 192.0, 0.0, 0.0, 0.0, 0.0, 0.0, 0.0, 0.0, 0.0, 0.0, 1.644587190272792E9, 0.0, 2022-02-12 00:46:30.272
60.0, -12373.366936846607, -11659.340460221823, -8257.270843657356, -12912.334550897427, -11634.954707021083, -8819.685437641792, -10952.175969144819, -8361.809952474827, -10879.398689198339, -12498.179077885043, -11291.631912187566, -9961.457247907789, -8947.850340348523, -12613.916410674621, -13082.744250624688, -17773.74956294889, 0.00278125, 0.235875, 0.9448125, 192.0, 0.0, 0.0, 0.0, 0.0, 0.0, 0.0, 0.0, 0.0, 0.0, 1.644587190280536E9, 0.0, 2022-02-12 00:46:30.280
62.0, -12360.0676488957, -11653.059620029882, -8255.885035501127, -12902.611542059369, -11620.20255568058, -8832.135359303398, -10947.325640598017, -8370.974167701503, -10862.500770390126, -12466.126676336131, -11309.356845540626, -9974.868294580972, -8968.860980136513, -12597.890209900166, -13081.000814557174, -17731.862393839645, 0.00278125, 0.235875, 0.9448125, 192.0, 0.0, 0.0, 0.0, 0.0, 0.0, 0.0, 0.0, 0.0, 0.0, 1.644587190287717E9, 0.0, 2022-02-12 00:46:30.287
64.0, -12367.890759455056, -11668.683489404142, -8265.630396083641, -12912.491013108614, -11640.140311734714, -8832.381228492408, -10948.890262709889, -8355.640871005162, -10887.981759069176, -12488.61253125817, -11298.650359946532, -9958.752686828695, -8963.273044022686, -12597.264361055419, -13083.392451213891, -17771.536740247815, 0.00278125, 0.235875, 0.9448125, 192.0, 0.0, 0.0, 0.0, 0.0, 0.0, 0.0, 0.0, 0.0, 0.0, 1.644587190295676E9, 0.0, 2022-02-12 00:46:30.295
66.0, -12394.243466167864, -11662.313242234379, -8261.830599526238, -12907.55127758399, -11627.39981739519, -8828.626135423916, -10957.74155351419, -8363.151057142146, -10877.856418830923, -12501.062452919776, -11307.993389128851, -9969.302710211601, -8968.302186525128, -12590.089451085265, -13091.841410617997, -17750.012010337356, 0.005390625, 0.23593750000000002, 0.9484062500000001, 192.0, 0.0, 32.0, 3.5, 48.0, 14.5, 96.0, 0.0, 0.0, 0.0, 1.644587190302355E9, 0.0, 2022-02-12 00:46:30.302
68.0, -12368.673070510993, -11625.790491794407, -8248.888939486616, -12912.826289275443, -11630.037323240915, -8830.0342953246, -10953.964108701242, -8358.814818717816, -10877.208218241718, -12473.100420606188, -11305.400586772035, -9986.759422631196, -8972.258445293719, -12604.394567536661, -13085.247646003681, -17751.531928960318, 0.005390625, 0.23593750000000002, 0.9484062500000001, 192.0, 0.0, 0.0, 0.0, 0.0, 0.0, 0.0, 0.0, 0.0, 0.0, 1.644587190310254E9, 0.0, 2022-02-12 00:46:30.310
70.0, -12383.40287010704, -11663.631995157242, -8262.63526232663, -12922.638705091324, -11632.652477342186, -8842.685382686304, -10959.55204481507, -8364.89449320966, -10895.357834739427, -12491.09357489271, -11304.707682693921, -9980.903265583906, -8956.478113708272, -12618.654980499146, -13086.409936715358, -17779.985699651923, 0.005390625, 0.23593750000000002, 0.9484062500000001, 192.0, 0.0, 0.0, 0.0, 0.0, 0.0, 0.0, 0.0, 0.0, 0.0, 1.644587190318425E9, 0.0, 2022-02-12 00:46:30.318
72.0, -12393.774079534303, -11678.764126153485, -8250.20769240948, -12908.467699106659, -11623.935297004617, -8831.97889709221, -10955.104047668463, -8369.454249078542, -10877.811715342012, -12494.312226094275, -11305.33353153867, -9985.552428430608, -8958.757991642713, -12618.319704332318, -13092.869590862942, -17740.959553832956, 0.005390625, 0.23593750000000002, 0.9484062500000001, 192.0, 0.0, 0.0, 0.0, 0.0, 0.0, 0.0, 0.0, 0.0, 0.0, 1.644587190324894E9, 0.0, 2022-02-12 00:46:30.324
74.0, -12389.996634721356, -11684.955559367605, -8252.040535454815, -12921.722283568655, -11635.893480288207, -8833.565870948538, -10949.627870276914, -8355.238539604967, -10892.697977149246, -12512.752415269902, -11292.928313365974, -9968.989785789227, -8964.390631245451, -12599.700701201047, -13093.227218774227, -17776.029440883332, 0.005390625, 0.23593750000000002, 0.9484062500000001, 192.0, 0.0, 0.0, 0.0, 0.0, 0.0, 0.0, 0.0, 0.0, 0.0, 1.644587190333154E9, 0.0, 2022-02-12 00:46:30.333
76.0, -12385.21336140792, -11671.186884783136, -8259.43896286952, -12911.172260185751, -11629.456177885078, -8831.17423429182, -10953.606480789958, -8363.531036797885, -10893.323825993995, -12513.244153647918, -11303.970075126896, -9975.561198659087, -8982.62965472098, -12601.86882041321, -13095.171820541838, -17751.80014989378, 0.0056953125, 0.23496875, 0.950203125, 192.0, 0.0, 24.0, 3.5, 40.0, 14.5, 96.0, 0.0, 0.0, 0.0, 1.644587190340824E9, 0.0, 2022-02-12 00:46:30.340
78.0, -12357.318384327697, -11647.941070549616, -8260.690660559017, -12916.939010255219, -11642.956631536083, -8830.66014416935, -10965.40820186236, -8366.74968799945, -10888.942884080754, -12484.902141678589, -11313.581325242678, -9982.490239440232, -8972.727831927281, -12594.783317420879, -13098.301064765581, -17751.598984193683, 0.0056953125, 0.23496875, 0.950203125, 192.0, 0.0, 0.0, 0.0, 0.0, 0.0, 0.0, 0.0, 0.0, 0.0, 1.644587190354562E9, 0.0, 2022-02-12 00:46:30.354
80.0, -12384.54280907426, -11657.977003810049, -8265.295119916811, -12928.740731327622, -11635.714666332564, -8839.17615880682, -10956.60161454697, -8355.350298327243, -10892.228590515684, -12503.901124465601, -11314.631857232078, -9980.947969072815, -8974.20304706133, -12616.866840942723, -13095.484744964213, -17780.633900241126, 0.0056953125, 0.23496875, 0.950203125, 192.0, 0.0, 0.0, 0.0, 0.0, 0.0, 0.0, 0.0, 0.0, 0.0, 1.644587190362633E9, 0.0, 2022-02-12 00:46:30.362
82.0, -12392.947064989456, -11646.73407634903, -8260.914178003572, -12916.134347454828, -11619.084968457815, -8827.732065645703, -10955.819303491033, -8359.93240594058, -10881.186828754762, -12480.096516620699, -11307.345188539648, -9995.387195990945, -8949.616128160493, -12610.83186993979, -13092.288445507103, -17743.150024789575, 0.0056953125, 0.23496875, 0.950203125, 192.0, 0.0, 0.0, 0.0, 0.0, 0.0, 0.0, 0.0, 0.0, 0.0, 1.644587190370549E9, 0.0, 2022-02-12 00:46:30.370
84.0, -12383.872256740602, -11668.83995161533, -8256.399125623599, -12927.869013293865, -11628.696218573597, -8838.595013450982, -10952.60065228947, -8359.887702451671, -10892.899142849345, -12501.956522697988, -11300.974941369885, -9973.773059102663, -8960.076744565577, -12613.49172752997, -13093.07075656304, -17782.354984564183, 0.0056953125, 0.23496875, 0.950203125, 192.0, 0.0, 0.0, 0.0, 0.0, 0.0, 0.0, 0.0, 0.0, 0.0, 1.644587190377819E9, 0.0, 2022-02-12 00:46:30.377
86.0, -12405.396986651062, -11692.331635037855, -8266.25624492839, -12915.620257332357, -11628.96443950706, -8847.692173444293, -10966.928120485321, -8367.219074633012, -10894.329654494484, -12515.94871472701, -11303.590095471156, -9979.606864405498, -8986.20593383383, -12624.824061968811, -13095.954131597773, -17764.250071555387, 0.002, 0.234, 0.9480000000000001, 192.0, 0.0, 8.0, 3.5, 40.0, 14.5, 80.0, 0.0, 0.0, 0.0, 1.644587190385163E9, 0.0, 2022-02-12 00:46:30.385
88.0, -12392.052995211245, -11676.528951707955, -8256.555587834786, -12916.290809666016, -11636.653439599686, -8836.091618071989, -10970.45969610926, -8369.186028145079, -10902.510392965127, -12506.471575077961, -11301.891362892553, -9974.39890794741, -8972.928997627378, -12612.932933918588, -13104.872477635441, -17762.014897109853, 0.002, 0.234, 0.9480000000000001, 192.0, 0.0, 0.0, 0.0, 0.0, 0.0, 0.0, 0.0, 0.0, 0.0, 1.644587190394636E9, 0.0, 2022-02-12 00:46:30.394
90.0, -12382.59820730665, -11662.626166656753, -8263.931663505038, -12930.506519139592, -11632.496015130999, -8837.790350650592, -10961.36253611595, -8359.999461173948, -10908.366550012417, -12512.864173992179, -11299.432671002469, -9979.83038185005, -8969.285663281164, -12598.58311397828, -13098.479878721224, -17784.61251075417, 0.002, 0.234, 0.9480000000000001, 192.0, 0.0, 0.0, 0.0, 0.0, 0.0, 0.0, 0.0, 0.0, 0.0, 1.644587190400792E9, 0.0, 2022-02-12 00:46:30.400
92.0, -12375.423297336496, -11649.483340917033, -8266.032727483836, -12926.282039437538, -11616.53686958991, -8833.387056992897, -10956.31104186905, -8363.396926331154, -10891.759203882124, -12495.116888894665, -11323.237278847371, -9995.901286113416, -8974.717137183803, -12611.189497851074, -13100.379776999926, -17747.508614958362, 0.002, 0.234, 0.9480000000000001, 192.0, 0.0, 0.0, 0.0, 0.0, 0.0, 0.0, 0.0, 0.0, 0.0, 1.644587190406968E9, 0.0, 2022-02-12 00:46:30.406
94.0, -12389.683710298981, -11664.3025474909, -8265.11630596117, -12926.818481304465, -11632.272497686447, -8830.347219746975, -10963.93298672831, -8361.295862352355, -10904.767919155112, -12496.078013906243, -11312.776662442287, -9989.754556388207, -8960.322613754584, -12628.780320737402, -13096.82584963153, -17784.388993309618, 0.002, 0.234, 0.9480000000000001, 192.0, 0.0, 0.0, 0.0, 0.0, 0.0, 0.0, 0.0, 0.0, 0.0, 1.644587190414824E9, 0.0, 2022-02-12 00:46:30.414
96.0, -12404.614675595127, -11693.806850171906, -8265.608044339186, -12910.099376451895, -11628.807977295874, -8823.194661521276, -10977.053460723575, -8355.685574494073, -10901.258695275628, -12521.983685729943, -11303.05365360423, -9971.090849768025, -8957.05925906411, -12609.02137863891, -13095.618855430945, -17760.919661631546, 0.002, 0.23, 0.9480000000000001, 192.0, 0.0, 8.0, 3.5, 24.0, 14.5, 80.0, 0.0, 0.0, 0.0, 1.644587190423089E9, 0.0, 2022-02-12 00:46:30.423
98.0, -12400.926637760002, -11688.55419022491, -8258.567244835764, -12914.83794627642, -11622.080102214826, -8819.081940541499, -10955.774600002123, -8348.957699413026, -10899.627017930392, -12509.62317104616, -11304.037130360262, -9965.145285742914, -8981.065032609109, -12606.674445471102, -13099.083375821518, -17752.716571416448, 0.002, 0.23, 0.9480000000000001, 192.0, 0.0, 0.0, 0.0, 0.0, 0.0, 0.0, 0.0, 0.0, 0.0, 1.644587190429879E9, 0.0, 2022-02-12 00:46:30.429
100.0, -12382.061765439721, -11666.537721936433, -8260.623605325653, -12925.03034174804, -11624.851718527285, -8825.27337375562, -10954.344088356984, -8346.722524967496, -10906.757224411635, -12528.868023022178, -11298.359787268613, -9973.504838169198, -8978.405175018928, -12599.432480267584, -13095.194172286294, -17783.293757831307, 0.002, 0.23, 0.9480000000000001, 192.0, 0.0, 0.0, 0.0, 0.0, 0.0, 0.0, 0.0, 0.0, 0.0, 1.644587190438057E9, 0.0, 2022-02-12 00:46:30.438
102.0, -12393.952893489944, -11666.403611469701, -8258.790762280318, -12910.389949129814, -11618.123843446238, -8830.235461024698, -10959.59674830398, -8353.115123881713, -10882.43852644426, -12496.905028451089, -11307.814575173208, -9980.433878950344, -8966.603453946525, -12611.033035639888, -13098.032843832118, -17745.18403353501, 0.002, 0.23, 0.9480000000000001, 192.0, 0.0, 0.0, 0.0, 0.0, 0.0, 0.0, 0.0, 0.0, 0.0, 1.644587190445354E9, 0.0, 2022-02-12 00:46:30.445
104.0, -12399.384367392584, -11676.439544730132, -8254.454523855988, -12923.421016147258, -11632.607773853277, -8824.803987122057, -10959.909672726355, -8361.69819375255, -10912.121643080907, -12517.178060672053, -11307.032264117273, -9972.923692813361, -8978.62869246348, -12613.268210085418, -13101.698529922787, -17782.62320549765, 0.002, 0.23, 0.9480000000000001, 192.0, 0.0, 0.0, 0.0, 0.0, 0.0, 0.0, 0.0, 0.0, 0.0, 1.644587190453773E9, 0.0, 2022-02-12 00:46:30.453
106.0, -12403.698254072458, -11659.251053244001, -8264.289291416322, -12917.184879444228, -11614.212288166558, -8818.634905652394, -10958.12153316993, -8342.98978364346, -10909.372378512906, -12532.176081201564, -11308.462775762413, -9986.960588331292, -8954.10882879601, -12592.905770886633, -13096.334111253514, -17760.942013376, 0.004, 0.234, 0.9440000000000001, 192.0, 0.0, 16.0, 3.5, 40.0, 14.5, 64.0, 0.0, 0.0, 0.0, 1.644587190459998E9, 0.0, 2022-02-12 00:46:30.459
108.0, -12382.64291079556, -11659.943957322117, -8254.722744789451, -12916.715492810667, -11616.760387034463, -8821.31711498703, -10954.053515679065, -8343.682687721574, -10902.890372620866, -12504.258752376885, -11311.971999641895, -9982.222018506769, -8971.029099348676, -12595.364462776717, -13097.943436854297, -17755.711705173457, 0.004, 0.234, 0.9440000000000001, 192.0, 0.0, 0.0, 0.0, 0.0, 0.0, 0.0, 0.0, 0.0, 0.0, 1.644587190468081E9, 0.0, 2022-02-12 00:46:30.468
110.0, -12392.522381844805, -11667.230626014547, -8255.81798026776, -12926.103225481895, -11622.616544081753, -8821.205356264754, -10963.754172772668, -8347.817760445805, -10917.173137327807, -12529.985610244943, -11310.072101363196, -9975.985881803737, -8980.752108186736, -12594.515096487416, -13100.871515377941, -17789.015804411865, 0.004, 0.234, 0.9440000000000001, 192.0, 0.0, 0.0, 0.0, 0.0, 0.0, 0.0, 0.0, 0.0, 0.0, 1.644587190482181E9, 0.0, 2022-02-12 00:46:30.482
112.0, -12399.138498203576, -11668.12469579276, -8251.81701801026, -12914.41326313177, -11600.130689159714, -8825.340428988986, -10938.720218982724, -8339.41350453061, -10893.480288205183, -12506.940961711522, -11308.70864495142, -9979.897437083417, -8975.790020917657, -12614.765776963923, -13092.221390273739, -17743.12767304512, 0.004, 0.234, 0.9440000000000001, 192.0, 0.0, 0.0, 0.0, 0.0, 0.0, 0.0, 0.0, 0.0, 0.0, 1.644587190489856E9, 0.0, 2022-02-12 00:46:30.489
114.0, -12387.761460275826, -11678.428849986656, -8247.3466691192, -12929.008952261085, -11622.661247570664, -8823.284068499097, -10952.444190078282, -8350.544673269353, -10915.429701260293, -12516.596915316215, -11296.035205845263, -9971.001442790204, -8962.513084711205, -12594.515096487416, -13092.243742018192, -17779.739830462913, 0.004, 0.234, 0.9440000000000001, 192.0, 0.0, 0.0, 0.0, 0.0, 0.0, 0.0, 0.0, 0.0, 0.0, 1.644587190497743E9, 0.0, 2022-02-12 00:46:30.497
116.0, -12394.869315012613, -11677.758297652996, -8257.740230290918, -12909.674693307245, -11620.604887080775, -8811.50469917115, -10963.485951839204, -8357.786638472871, -10912.367512269917, -12530.298534667318, -11304.975903627384, -9977.014062048682, -8971.051451093132, -12625.271096857918, -13097.362291498459, -17762.41722851005, 0.008, 0.23800000000000002, 0.9460000000000001, 192.0, 0.0, 32.0, 3.5, 56.0, 14.5, 72.0, 0.0, 0.0, 0.0, 1.644587190505822E9, 0.0, 2022-02-12 00:46:30.505
118.0, -12389.147268432054, -11662.693221890118, -8250.230044153934, -12910.233486918627, -11613.340570132801, -8808.9789520477, -10955.864006979944, -8358.3230803398, -10904.29853252155, -12514.138223426131, -11315.414168288013, -9973.817762591572, -8947.336250226052, -12613.648189741158, -13099.977445599729, -17753.65534468357, 0.008, 0.23800000000000002, 0.9460000000000001, 192.0, 0.0, 0.0, 0.0, 0.0, 0.0, 0.0, 0.0, 0.0, 0.0, 1.644587190512394E9, 0.0, 2022-02-12 00:46:30.512
120.0, -12402.155983705043, -11661.799152111907, -8255.3485936342, -12920.671751579255, -11606.389177607201, -8806.006170035145, -10952.086562166996, -8339.905242908626, -10919.721236195712, -12530.365589900684, -11305.62410421659, -9972.87898932445, -8971.498485982238, -12606.696797215558, -13092.266093762648, -17782.243225841907, 0.008, 0.23800000000000002, 0.9460000000000001, 192.0, 0.0, 0.0, 0.0, 0.0, 0.0, 0.0, 0.0, 0.0, 0.0, 1.64458719052028E9, 0.0, 2022-02-12 00:46:30.520
122.0, -12408.235658196887, -11674.830219129351, -8255.929738990038, -12911.418129374759, -11611.038340453904, -8809.895373570369, -10959.328527370517, -8351.32698432529, -10907.316018023017, -12498.179077885043, -11303.612447215612, -9973.25896898019, -8968.25748303622, -12605.534506503882, -13099.083375821518, -17743.060617811756, 0.008, 0.23800000000000002, 0.9460000000000001, 192.0, 0.0, 0.0, 0.0, 0.0, 0.0, 0.0, 0.0, 0.0, 0.0, 1.644587190528369E9, 0.0, 2022-02-12 00:46:30.528
124.0, -12405.396986651062, -11688.353024524811, -8250.520616831853, -12929.210117961184, -11620.783701036418, -8818.83607135249, -10958.143884914385, -8349.941176169059, -10930.718294467724, -12532.511357368394, -11296.258723289815, -9964.653547364896, -8969.911512125911, -12603.54520124736, -13101.16208805586, -17784.18782760952, 0.008, 0.23800000000000002, 0.9460000000000001, 192.0, 0.0, 0.0, 0.0, 0.0, 0.0, 0.0, 0.0, 0.0, 0.0, 1.644587190535382E9, 0.0, 2022-02-12 00:46:30.535
126.0, -12387.448535853451, -11673.064431317382, -8260.623605325653, -12922.79516730251, -11606.612695051754, -8808.084882269488, -10964.871759995433, -8353.405696559632, -10918.514241995126, -12536.735837070446, -11308.90981065152, -9981.998501062215, -8973.800715661135, -12591.810535408324, -13099.68687292181, -17763.17718782153, 0.006, 0.23600000000000002, 0.9480000000000001, 192.0, 0.0, 24.0, 3.5, 48.0, 14.5, 80.0, 0.0, 0.0, 0.0, 1.644587190541947E9, 0.0, 2022-02-12 00:46:30.541
128.0, -12378.574893304694, -11651.740867107019, -8250.990003465415, -12929.120710983361, -11594.855677468262, -8800.105309498944, -10963.418896605837, -8359.395964073654, -10905.840802888966, -12513.512374581382, -11315.168299099005, -9982.713756884785, -8968.212779547308, -12583.942721360056, -13099.753928155176, -17754.16943480604, 0.006, 0.23600000000000002, 0.9480000000000001, 192.0, 0.0, 0.0, 0.0, 0.0, 0.0, 0.0, 0.0, 0.0, 0.0, 1.644587190550116E9, 0.0, 2022-02-12 00:46:30.550
130.0, -12428.151062506566, -11680.060527331892, -8258.92487274705, -12932.495824396114, -11624.449387127088, -8826.770940634126, -10966.592844318491, -8362.145228641657, -10933.869890435923, -12537.942831271033, -11307.725168195388, -9978.288111482634, -8964.412982989907, -12616.129233375697, -13099.753928155176, -17787.562941022272, 0.006, 0.23600000000000002, 0.9480000000000001, 192.0, 0.0, 0.0, 0.0, 0.0, 0.0, 0.0, 0.0, 0.0, 0.0, 1.644587190557938E9, 0.0, 2022-02-12 00:46:30.557
132.0, -12424.261858971342, -11693.493925749532, -8258.187265180024, -12921.23054519064, -11602.790546749897, -8828.492024957184, -10951.080733666508, -8360.290033851867, -10923.945715897766, -12534.38890390264, -11312.19551708645, -9980.344471972523, -8956.522817197183, -12623.997047423965, -13101.676178178333, -17754.102379572676, 0.006, 0.23600000000000002, 0.9480000000000001, 192.0, 0.0, 0.0, 0.0, 0.0, 0.0, 0.0, 0.0, 0.0, 0.0, 1.64458719056538E9, 0.0, 2022-02-12 00:46:30.565
134.0, -12402.133631960587, -11694.991492628038, -8255.035669211826, -12935.937993042231, -11619.643762069198, -8818.210222507741, -10966.637547807402, -8360.804123974338, -10934.11575962493, -12551.510340155404, -11309.088624607162, -9981.5067626842, -8972.794887160646, -12606.361521048728, -13098.5916374435, -17788.9487491785, 0.006, 0.23600000000000002, 0.9480000000000001, 192.0, 0.0, 0.0, 0.0, 0.0, 0.0, 0.0, 0.0, 0.0, 0.0, 1.644587190573329E9, 0.0, 2022-02-12 00:46:30.573
136.0, -12411.811937309736, -11692.286931548946, -8266.63622458413, -12930.506519139592, -11608.490241586, -8819.350161474964, -10956.355745357961, -8351.349336069743, -10931.768826457122, -12554.281956467863, -11316.732921210876, -9985.127745285958, -8981.310901798119, -12608.68610247208, -13099.530410710622, -17772.542568748304, 0.008, 0.23600000000000002, 0.9480000000000001, 192.0, 0.0, 32.0, 3.5, 48.0, 14.5, 80.0, 0.0, 0.0, 0.0, 1.644587190580668E9, 0.0, 2022-02-12 00:46:30.580
138.0, -12404.12293721711, -11688.55419022491, -8264.110477460681, -12931.802920318, -11612.312389887857, -8818.344332974475, -10952.511245311647, -8348.063629634813, -10938.384942815894, -12535.10415972521, -11324.310162581225, -9984.747765630218, -8959.29443350964, -12612.217678096018, -13102.078509578529, -17763.691277944003, 0.008, 0.23600000000000002, 0.9480000000000001, 192.0, 0.0, 0.0, 0.0, 0.0, 0.0, 0.0, 0.0, 0.0, 0.0, 1.644587190587796E9, 0.0, 2022-02-12 00:46:30.587
140.0, -12395.651626068548, -11685.022614600972, -8263.551683849297, -12939.022533777063, -11626.081064472326, -8815.662123639837, -10967.576321074524, -8358.188969873068, -10941.69300099528, -12553.611404134203, -11323.5725550142, -9982.043204551126, -8978.494581996749, -12627.461567814538, -13101.296198522592, -17793.173228880554, 0.008, 0.23600000000000002, 0.9480000000000001, 192.0, 0.0, 0.0, 0.0, 0.0, 0.0, 0.0, 0.0, 0.0, 0.0, 1.644587190602189E9, 0.0, 2022-02-12 00:46:30.602
142.0, -12423.41249268204, -11671.902140605705, -8260.668308814564, -12932.048789507007, -11605.986846207004, -8808.598972391961, -10951.840692977989, -8347.370725556699, -10921.934058896788, -12542.234366206452, -11329.518119039312, -10004.640818195441, -8975.454744750827, -12612.731768218491, -13101.519715967146, -17752.336591760708, 0.008, 0.23600000000000002, 0.9480000000000001, 192.0, 0.0, 0.0, 0.0, 0.0, 0.0, 0.0, 0.0, 0.0, 0.0, 1.644587190610466E9, 0.0, 2022-02-12 00:46:30.610
144.0, -12425.670018872026, -11692.711614693597, -8260.06481171427, -12936.027400020052, -11622.594192337297, -8805.961466546234, -10962.189550660796, -8342.542748754353, -10944.017582418632, -12539.48510163845, -11310.563839741211, -9987.78760287614, -8961.909587610911, -12578.421840479594, -13102.570247956544, -17788.836990456224, 0.008, 0.23600000000000002, 0.9480000000000001, 192.0, 0.0, 0.0, 0.0, 0.0, 0.0, 0.0, 0.0, 0.0, 0.0, 1.644587190617406E9, 0.0, 2022-02-12 00:46:30.617
146.0, -12429.156891007053, -11701.160574097703, -8263.059945471281, -12928.003123760596, -11615.4416341116, -8811.482347426694, -10966.07875419602, -8348.55536801283, -10944.732838241202, -12554.594880890238, -11318.945743911952, -9980.009195805693, -8986.183582089376, -12608.68610247208, -13103.620779945944, -17773.682507715526, 0.012, 0.234, 0.9580000000000001, 192.0, 0.0, 48.0, 3.5, 40.0, 14.5, 120.0, 0.0, 0.0, 0.0, 1.644587190624826E9, 0.0, 2022-02-12 00:46:30.624
148.0, -12411.700178587458, -11700.132393852758, -8257.315547146267, -12931.937030784731, -11618.190898679602, -8815.438606195285, -10959.105009925963, -8350.567025013808, -10946.051591164063, -12544.603651118714, -11335.575441786701, -9982.601998162509, -8975.186523817363, -12637.430445841605, -13109.58869571551, -17768.295737301796, 0.012, 0.234, 0.9580000000000001, 192.0, 0.0, 0.0, 0.0, 0.0, 0.0, 0.0, 0.0, 0.0, 0.0, 1.644587190633072E9, 0.0, 2022-02-12 00:46:30.633
150.0, -12418.428053668506, -11696.153783339714, -8257.986099479926, -12938.88842331033, -11616.872145756739, -8820.914783586835, -10964.22355940623, -8358.680708251084, -10958.859140736955, -12569.078811297275, -11316.330589810681, -9979.651567894409, -8972.660776693914, -12611.278904828896, -13102.033806089617, -17800.214028383976, 0.012, 0.234, 0.9580000000000001, 192.0, 0.0, 0.0, 0.0, 0.0, 0.0, 0.0, 0.0, 0.0, 0.0, 1.644587190640879E9, 0.0, 2022-02-12 00:46:30.640
152.0, -12414.40473966655, -11686.050794845914, -8258.768410535862, -12929.612449361379, -11603.952837461573, -8806.632018879893, -10962.323661127528, -8346.655469734129, -10940.798931217067, -12557.098276269231, -11321.76206371332, -9989.352224988012, -8964.077706823076, -12622.030093911899, -13103.486669479213, -17761.545510476295, 0.012, 0.234, 0.9580000000000001, 192.0, 0.0, 0.0, 0.0, 0.0, 0.0, 0.0, 0.0, 0.0, 0.0, 1.644587190647589E9, 0.0, 2022-02-12 00:46:30.647
154.0, -12420.283248458296, -11690.141164081237, -8255.30389014529, -12940.564804144478, -11609.786642764408, -8804.106271756444, -10952.131265655908, -8343.056838876824, -10947.325640598017, -12557.590014647249, -11315.458871776924, -9988.458155209799, -8970.067974337098, -12613.089396129775, -13102.480840978724, -17787.0488508998, 0.011, 0.234, 0.9520000000000001, 192.0, 0.0, 40.0, 3.5, 40.0, 14.5, 72.0, 0.0, 0.0, 0.0, 1.64458719065562E9, 0.0, 2022-02-12 00:46:30.655
156.0, -12416.908135045545, -11684.128544822759, -8265.362175150178, -12931.959382529187, -11597.560238547354, -8806.69907411326, -10954.858178479455, -8336.530129495875, -10944.442265563282, -12565.971918817988, -11316.978790399884, -9990.492163955232, -8963.027174833676, -12617.224468854007, -13102.100861322984, -17774.218949582453, 0.011, 0.234, 0.9520000000000001, 192.0, 0.0, 0.0, 0.0, 0.0, 0.0, 0.0, 0.0, 0.0, 0.0, 1.644587190662363E9, 0.0, 2022-02-12 00:46:30.662
158.0, -12406.849850040657, -11686.766050668484, -8254.320413389256, -12940.251879722106, -11600.510668815456, -8798.004245520146, -10947.21388187574, -8335.390190528655, -10937.915556182332, -12537.808720804302, -11324.556031770235, -9980.59034116153, -8948.409133959905, -12610.92127691761, -13104.984236357717, -17762.953670376977, 0.011, 0.234, 0.9520000000000001, 192.0, 0.0, 0.0, 0.0, 0.0, 0.0, 0.0, 0.0, 0.0, 0.0, 1.644587190670554E9, 0.0, 2022-02-12 00:46:30.670
160.0, -12429.536870662794, -11705.988550900049, -8259.774239036351, -12945.437484435735, -11614.234639911014, -8824.781635377603, -10960.155541915363, -8348.354202312732, -10951.661879022346, -12562.52975017187, -11308.596886229145, -9984.79246911913, -8966.245826035241, -12590.469430741005, -13099.01632058815, -17799.18584813903, 0.011, 0.234, 0.9520000000000001, 192.0, 0.0, 0.0, 0.0, 0.0, 0.0, 0.0, 0.0, 0.0, 0.0, 1.644587190677034E9, 0.0, 2022-02-12 00:46:30.677
162.0, -12430.118016018632, -11691.146992581725, -8264.311643160778, -12932.60758311839, -11602.455270583067, -8813.449300938762, -10949.851387721466, -8339.100580108236, -10943.145864384875, -12553.76786634539, -11321.516194524313, -9988.301692998612, -8973.264273794208, -12608.97667515, -13102.592599701, -17761.27728954283, 0.011, 0.234, 0.9520000000000001, 192.0, 0.0, 0.0, 0.0, 0.0, 0.0, 0.0, 0.0, 0.0, 0.0, 1.644587190685161E9, 0.0, 2022-02-12 00:46:30.685
164.0, -12408.012140752333, -11698.433661274155, -8258.947224491505, -12943.738751857132, -11613.787605021907, -8802.854574066947, -10950.588995288492, -8336.686591707063, -10959.50734132616, -12575.67257591159, -11324.511328281324, -9983.160791773891, -8967.408116746918, -12611.658884484636, -13099.93274211082, -17791.22862711294, 0.0085, 0.234, 0.9500000000000001, 192.0, 0.0, 24.0, 3.5, 40.0, 14.5, 80.0, 0.0, 0.0, 0.0, 1.64458719069324E9, 0.0, 2022-02-12 00:46:30.693
166.0, -12429.201594495964, -11683.368585511278, -8262.92583500455, -12933.076969751952, -11609.518421830944, -8802.094614755466, -10952.734762756201, -8337.826530674283, -10950.991326688687, -12576.812514878811, -11324.488976536868, -9985.64183540843, -8983.16609658791, -12618.431463054594, -13101.11738456695, -17774.643632727104, 0.0085, 0.234, 0.9500000000000001, 192.0, 0.0, 0.0, 0.0, 0.0, 0.0, 0.0, 0.0, 0.0, 0.0, 1.644587190701065E9, 0.0, 2022-02-12 00:46:30.701
168.0, -12414.784719322291, -11685.581408212354, -8252.398163366099, -12930.305353439493, -11599.303674614868, -8796.193754219265, -10942.11768413993, -8335.054914361825, -10943.749361485168, -12546.168273230585, -11321.605601502133, -9993.64375992343, -8958.266253264697, -12620.420768311116, -13104.35838751297, -17762.305469787774, 0.0085, 0.234, 0.9500000000000001, 192.0, 0.0, 0.0, 0.0, 0.0, 0.0, 0.0, 0.0, 0.0, 0.0, 1.644587190707989E9, 0.0, 2022-02-12 00:46:30.707
170.0, -12412.97422802141, -11704.64744623273, -8255.773276778851, -12933.36754242987, -11604.19870665058, -8795.098518740955, -10952.198320889274, -8325.622478201685, -10951.930099955809, -12570.554026431326, -11307.725168195388, -9967.559274144087, -8957.550997442127, -12595.856201154733, -13099.575114199533, -17790.08868814572, 0.0085, 0.234, 0.9500000000000001, 192.0, 0.0, 0.0, 0.0, 0.0, 0.0, 0.0, 0.0, 0.0, 0.0, 1.644587190715643E9, 0.0, 2022-02-12 00:46:30.715
172.0, -12431.772045108324, -11700.60178048632, -8255.594462823208, -12924.784472559033, -11594.498049556978, -8800.060606010033, -10941.111855639441, -8328.058818347314, -10938.541405027081, -12559.86989258169, -11316.911735166519, -9978.556332416098, -8959.763820143202, -12611.323608317805, -13101.5420677116, -17750.74961790438, 0.0085, 0.234, 0.9500000000000001, 192.0, 0.0, 0.0, 0.0, 0.0, 0.0, 0.0, 0.0, 0.0, 0.0, 1.644587190729383E9, 0.0, 2022-02-12 00:46:30.729
174.0, -12417.64574261257, -11695.572637983876, -8253.202826166491, -12947.382086203348, -11605.62921829572, -8811.080016026499, -10939.726047483213, -8336.194853329045, -10956.802780247066, -12565.279014739874, -11307.881630406575, -9985.64183540843, -8971.833762149068, -12621.44894855606, -13100.02214908864, -17792.390917824618, 0.00625, 0.23500000000000001, 0.9470000000000001, 192.0, 0.0, 16.0, 3.5, 48.0, 14.5, 64.0, 0.0, 0.0, 0.0, 1.644587190737379E9, 0.0, 2022-02-12 00:46:30.737
176.0, -12404.189992450476, -11686.922512879672, -8259.39425938061, -12930.350056928404, -11600.600075793276, -8801.133489743888, -10956.623966291425, -8338.877062663681, -10945.425742319316, -12561.255700737918, -11316.978790399884, -10000.371635004478, -8959.652061420926, -12612.709416474036, -13101.743233411698, -17784.925435176545, 0.00625, 0.23500000000000001, 0.9470000000000001, 192.0, 0.0, 0.0, 0.0, 0.0, 0.0, 0.0, 0.0, 0.0, 0.0, 1.64458719074541E9, 0.0, 2022-02-12 00:46:30.745
178.0, -12407.810975052236, -11695.4608792616, -8248.06192494177, -12927.734902827133, -11591.748784988975, -8796.014940263622, -10929.153672355851, -8316.838242630749, -10932.886413679887, -12548.9622412875, -11321.963229413419, -9979.159829516391, -8952.946538084334, -12598.650169211647, -13100.35742525547, -17764.60769946667, 0.00625, 0.23500000000000001, 0.9470000000000001, 192.0, 0.0, 0.0, 0.0, 0.0, 0.0, 0.0, 0.0, 0.0, 0.0, 1.644587190752558E9, 0.0, 2022-02-12 00:46:30.752
180.0, -12426.36292295014, -11678.182980797646, -8252.82284651075, -12933.725170341155, -11600.443613582089, -8796.417271663819, -10938.899032938365, -8329.93636488156, -10953.561777301047, -12581.484029469972, -11307.166374584005, -9977.818724849072, -8961.216683532797, -12608.708454216536, -13096.088242064507, -17795.0507754148, 0.00625, 0.23500000000000001, 0.9470000000000001, 192.0, 0.0, 0.0, 0.0, 0.0, 0.0, 0.0, 0.0, 0.0, 0.0, 1.644587190759937E9, 0.0, 2022-02-12 00:46:30.759
182.0, -12410.35907392014, -11676.059565074393, -8258.701355302495, -12925.41032140378, -11581.221113350524, -8797.847783308958, -10941.871814950922, -8327.634135202663, -10933.445207291272, -12561.948604816032, -11313.469566520402, -9981.059727795093, -8951.337212483551, -12608.708454216536, -13101.743233411698, -17756.85164414068, 0.00625, 0.23500000000000001, 0.9470000000000001, 192.0, 0.0, 0.0, 0.0, 0.0, 0.0, 0.0, 0.0, 0.0, 0.0, 1.644587190769646E9, 0.0, 2022-02-12 00:46:30.769
184.0, -12421.914925803534, -11689.448260003122, -8254.20865466698, -12939.89425181082, -11594.833325723806, -8805.402672934852, -10936.954431170754, -8324.348428767733, -10949.091428409985, -12564.004965305921, -11315.347113054648, -9980.188009761336, -8972.280797038175, -12613.514079274426, -13101.698529922787, -17792.56973178026, 0.005125, 0.2375, 0.9495, 192.0, 0.0, 16.0, 3.5, 64.0, 14.5, 96.0, 0.0, 0.0, 0.0, 1.644587190776052E9, 0.0, 2022-02-12 00:46:30.776
186.0, -12425.26768747183, -11699.797117685928, -8261.629433826141, -12935.535661642036, -11600.309503115357, -8799.680626354293, -10938.653163749357, -8321.062722332803, -10952.243024378184, -12585.239122538464, -11316.71056946642, -9984.524248185666, -8971.274968537686, -12634.278849873406, -13103.441965990301, -17785.327766576742, 0.005125, 0.2375, 0.9495, 192.0, 0.0, 0.0, 0.0, 0.0, 0.0, 0.0, 0.0, 0.0, 0.0, 1.644587190782272E9, 0.0, 2022-02-12 00:46:30.782
188.0, -12402.804184294246, -11687.92834138016, -8251.235872654423, -12930.819443561966, -11596.643817024687, -8784.481440124684, -10945.515149297136, -8328.259984047412, -10944.531672541103, -12561.456866438017, -11320.175089856994, -9989.843963366027, -8962.736602155757, -12609.468413528015, -13099.910390366364, -17766.93228089002, 0.005125, 0.2375, 0.9495, 192.0, 0.0, 0.0, 0.0, 0.0, 0.0, 0.0, 0.0, 0.0, 0.0, 1.644587190789597E9, 0.0, 2022-02-12 00:46:30.789
190.0, -12397.193896435965, -11679.814658142885, -8258.2990239023, -12939.08958901043, -11594.833325723806, -8786.716614570214, -10935.16629161433, -8321.487405477454, -10949.02437317662, -12577.885398612667, -11300.729072180877, -9975.516495170175, -8959.987337587754, -12568.944700830543, -13098.97161709924, -17798.962330694478, 0.005125, 0.2375, 0.9495, 192.0, 0.0, 0.0, 0.0, 0.0, 0.0, 0.0, 0.0, 0.0, 0.0, 1.644587190797768E9, 0.0, 2022-02-12 00:46:30.797
192.0, -12413.063634999233, -11678.719422664575, -8262.232930926435, -12919.822385289954, -11586.362014575245, -8791.45518439474, -10932.841710190978, -8317.397036242131, -10933.959297413743, -12542.659049351103, -11310.988522885862, -9976.79054460413, -8946.889215336945, -12602.718186702514, -13097.809326387565, -17755.264670284352, 0.005125, 0.2375, 0.9495, 192.0, 0.0, 0.0, 0.0, 0.0, 0.0, 0.0, 0.0, 0.0, 0.0, 1.644587190804701E9, 0.0, 2022-02-12 00:46:30.804
194.0, -12416.282286200796, -11684.530876222954, -8254.141599433613, -12928.18193771624, -11597.67199726963, -8792.237495450676, -10926.940849654777, -8312.256135017411, -10957.383925602904, -12572.029241565377, -11315.078892121184, -9976.432916692844, -8971.319672026595, -12617.8279659543, -13095.93177985332, -17785.05954564328, 0.004562500000000001, 0.23675000000000002, 0.9497500000000001, 192.0, 0.0, 16.0, 3.5, 48.0, 14.5, 88.0, 0.0, 0.0, 0.0, 1.644587190812451E9, 0.0, 2022-02-12 00:46:30.812
196.0, -12424.954763049456, -11691.638730959741, -8255.773276778851, -12924.158623714284, -11591.4358605666, -8792.639826850871, -10931.724122968213, -8310.557402438808, -10951.617175533436, -12580.545256202848, -11311.927296152986, -9976.857599837494, -8956.276948008173, -12623.795881723867, -13091.819058873542, -17773.816618182256, 0.004562500000000001, 0.23675000000000002, 0.9497500000000001, 192.0, 0.0, 0.0, 0.0, 0.0, 0.0, 0.0, 0.0, 0.0, 0.0, 1.644587190820245E9, 0.0, 2022-02-12 00:46:30.820
198.0, -12423.971286293423, -11697.092556606836, -8249.090105186713, -12919.531812612035, -11584.082136640804, -8787.186001203776, -10926.560869999037, -8309.037483815848, -10951.304251111062, -12564.67551763958, -11309.826232174186, -9974.242445736223, -8983.814297177112, -12624.779358479902, -13094.434212974813, -17759.75737091987, 0.004562500000000001, 0.23675000000000002, 0.9497500000000001, 192.0, 0.0, 0.0, 0.0, 0.0, 0.0, 0.0, 0.0, 0.0, 0.0, 1.644587190828508E9, 0.0, 2022-02-12 00:46:30.828
200.0, -12415.701140844958, -11683.189771555635, -8258.67900355804, -12927.600792360401, -11593.849848967773, -8788.772975060103, -10936.999134659665, -8311.071492561281, -10960.31200412655, -12588.904808629133, -11302.718377437399, -9965.659375865385, -8964.211817289808, -12614.944590919566, -13095.68591066431, -17795.989548681922, 0.004562500000000001, 0.23675000000000002, 0.9497500000000001, 192.0, 0.0, 0.0, 0.0, 0.0, 0.0, 0.0, 0.0, 0.0, 0.0, 1.644587190834926E9, 0.0, 2022-02-12 00:46:30.834
202.0, -12395.584570835183, -11683.949730867116, -8261.338861148222, -12920.18001320124, -11587.881933198207, -8779.228780177687, -10942.318849840029, -8310.803271627818, -10939.100198638464, -12564.787276361856, -11311.256743819325, -9976.231750992745, -8973.152515071932, -12611.59182925127, -13100.580942700022, -17754.437655739504, 0.004562500000000001, 0.23675000000000002, 0.9497500000000001, 192.0, 0.0, 0.0, 0.0, 0.0, 0.0, 0.0, 0.0, 0.0, 0.0, 1.64458719084995E9, 0.0, 2022-02-12 00:46:30.849
204.0, -12414.091815244177, -11701.339388053346, -8255.527407589841, -12943.42582743476, -11592.95577918956, -8783.49796336865, -10937.759093971144, -8313.485480962454, -10953.07003892303, -12574.376174733183, -11318.744578211854, -9973.348375958012, -8975.9688348733, -12597.487878499971, -13103.240800290205, -17787.004147410888, 0.00528125, 0.236375, 0.9508750000000001, 192.0, 0.0, 24.0, 3.5, 48.0, 14.5, 96.0, 0.0, 0.0, 0.0, 1.644587190858303E9, 0.0, 2022-02-12 00:46:30.858
206.0, -12439.08106554521, -11690.387033270245, -8262.501151859899, -12930.595926117412, -11587.971340176027, -8775.317224898008, -10937.490873037681, -8311.183251283557, -10959.775562259623, -12590.335320274273, -11315.99531364385, -9972.4543061798, -8956.120485796986, -12602.315855302317, -13098.301064765581, -17774.93420540502, 0.00528125, 0.236375, 0.9508750000000001, 192.0, 0.0, 0.0, 0.0, 0.0, 0.0, 0.0, 0.0, 0.0, 0.0, 1.644587190864498E9, 0.0, 2022-02-12 00:46:30.864
208.0, -12427.055827028254, -11692.018710615483, -8252.01818371036, -12927.578440615946, -11582.517514528932, -8781.195733689754, -10923.58808798648, -8298.018073799381, -10957.205111647263, -12569.01175606391, -11315.682389221476, -9980.07625103906, -8973.554846472127, -12611.21184959553, -13101.922047367341, -17758.975059863933, 0.00528125, 0.236375, 0.9508750000000001, 192.0, 0.0, 0.0, 0.0, 0.0, 0.0, 0.0, 0.0, 0.0, 0.0, 1.644587190872875E9, 0.0, 2022-02-12 00:46:30.872
210.0, -12420.640876369582, -11690.83406815935, -8258.63430006913, -12938.843719821421, -11596.77792749142, -8780.525181356095, -10932.215861346229, -8303.382492468654, -10964.178855917318, -12584.859142882722, -11316.95643865543, -9978.444573693821, -8984.753070444236, -12597.644340711158, -13098.301064765581, -17793.799077725304, 0.00528125, 0.236375, 0.9508750000000001, 192.0, 0.0, 0.0, 0.0, 0.0, 0.0, 0.0, 0.0, 0.0, 0.0, 1.644587190880554E9, 0.0, 2022-02-12 00:46:30.880
212.0, -12407.78862330778, -11699.21597233009, -8264.758678049884, -12923.532774869534, -11582.450459295567, -8776.434812120773, -10942.229442862206, -8308.255172759911, -10948.59969003197, -12569.861122353212, -11323.371389314103, -9985.507724941699, -8975.365337773006, -12624.444082313072, -13099.955093855275, -17756.985754607413, 0.00528125, 0.236375, 0.9508750000000001, 192.0, 0.0, 0.0, 0.0, 0.0, 0.0, 0.0, 0.0, 0.0, 0.0, 1.644587190887794E9, 0.0, 2022-02-12 00:46:30.887
214.0, -12430.162719507542, -11716.69503649414, -8252.845198255205, -12936.27326920906, -11593.179296634115, -8767.918797483302, -10942.140035884386, -8302.667236646084, -10969.185646675307, -12592.168163319608, -11320.71153172392, -9971.314367212579, -8976.661738951414, -12612.150622862653, -13098.099899065483, -17788.546417778303, 0.006640625000000001, 0.2361875, 0.9484375, 192.0, 0.0, 32.0, 3.5, 48.0, 14.5, 72.0, 0.0, 0.0, 0.0, 1.644587190895227E9, 0.0, 2022-02-12 00:46:30.895
216.0, -12439.885728345602, -11705.74268171104, -8260.176570436546, -12928.316048182971, -11580.483505783499, -8775.384280131375, -10943.190567873784, -8308.478690204465, -10968.112762941451, -12595.096241843254, -11306.182897827972, -9973.25896898019, -8968.995090603245, -12606.674445471102, -13097.854029876475, -17778.689298473513, 0.006640625000000001, 0.2361875, 0.9484375, 192.0, 0.0, 0.0, 0.0, 0.0, 0.0, 0.0, 0.0, 0.0, 0.0, 1.644587190902483E9, 0.0, 2022-02-12 00:46:30.902
218.0, -12421.266725214331, -11690.185867570146, -8255.661518056575, -12935.133330241839, -11583.590398262788, -8771.11509694041, -10934.898070680865, -8292.720710363474, -10955.059344179554, -12562.842674594245, -11314.229525831883, -9982.154963273402, -8948.051506048621, -12614.810480452834, -13098.949265354786, -17759.869129642146, 0.006640625000000001, 0.2361875, 0.9484375, 192.0, 0.0, 0.0, 0.0, 0.0, 0.0, 0.0, 0.0, 0.0, 0.0, 1.64458719091033E9, 0.0, 2022-02-12 00:46:30.910
220.0, -12434.186033509497, -11701.495850264531, -8258.500189602399, -12945.728057113654, -11599.326026359324, -8782.201562190243, -10954.098219167974, -8308.79161462684, -10970.683213553813, -12593.822192409301, -11319.10220612314, -9980.836210350539, -8990.028082135688, -12605.512154759426, -13102.145564811894, -17802.158630151585, 0.006640625000000001, 0.2361875, 0.9484375, 192.0, 0.0, 0.0, 0.0, 0.0, 0.0, 0.0, 0.0, 0.0, 0.0, 1.644587190916796E9, 0.0, 2022-02-12 00:46:30.916
222.0, -12430.185071251997, -11707.016731144993, -8262.277634415344, -12930.864147050876, -11588.016043664938, -8777.731213299181, -10940.106027138952, -8313.68664666255, -10967.26339665215, -12593.710433687023, -11325.651267248544, -9986.290035997634, -8984.976587888788, -12610.54129726187, -13107.152355569882, -17767.714591945958, 0.006640625000000001, 0.2361875, 0.9484375, 192.0, 0.0, 0.0, 0.0, 0.0, 0.0, 0.0, 0.0, 0.0, 0.0, 1.644587190924896E9, 0.0, 2022-02-12 00:46:30.924
224.0, -12425.670018872026, -11714.012827159504, -8264.021070482859, -12944.409304190793, -11603.237581639003, -8786.671911081305, -10946.476274308716, -8317.799367642328, -10976.785239790112, -12594.045709853854, -11330.859223706631, -9978.824553349561, -8986.764727445214, -12625.338152091284, -13109.253419548682, -17800.683415017535, 0.006640625000000001, 0.2361875, 0.9484375, 192.0, 0.0, 0.0, 3.5, 40.0, 14.5, 88.0, 0.0, 0.0, 0.0, 1.644587190932989E9, 0.0, 2022-02-12 00:46:30.932
226.0, -12455.822522142234, -11714.012827159504, -8271.68771883103, -12938.419036676769, -11599.236619381503, -8782.313320912519, -10954.500550568171, -8319.676914176574, -10975.064155467053, -12603.075814613798, -11318.43165378948, -10001.332760016056, -8987.122355356498, -12624.131157890697, -13111.220373060749, -17791.832124213233, 0.006640625000000001, 0.2361875, 0.9484375, 192.0, 0.0, 0.0, 0.0, 0.0, 0.0, 0.0, 0.0, 0.0, 0.0, 1.644587190939901E9, 0.0, 2022-02-12 00:46:30.939
228.0, -12432.241431741886, -11716.98560917206, -8270.570131608263, -12934.775702330555, -11591.480564055511, -8778.11119295492, -10940.038971905586, -8310.669161161084, -10973.007794977164, -12592.928122631089, -11321.33738056867, -9977.68461438234, -8970.135029570465, -12606.339169304272, -13114.12609983994, -17773.36958329315, 0.006640625000000001, 0.2361875, 0.9484375, 192.0, 0.0, 0.0, 0.0, 0.0, 0.0, 0.0, 0.0, 0.0, 0.0, 1.644587190947608E9, 0.0, 2022-02-12 00:46:30.947
230.0, -12422.31725720373, -11707.441414289644, -8273.140582220625, -12939.804844833, -11591.949950689072, -8779.564056344516, -10935.590974758981, -8305.282390747356, -10987.022338750641, -12605.623913481702, -11325.584212015177, -9974.30950096959, -8961.641366677448, -12611.88240192919, -13113.83552716202, -17808.86415348818, 0.006640625000000001, 0.2361875, 0.9484375, 192.0, 0.0, 0.0, 0.0, 0.0, 0.0, 0.0, 0.0, 0.0, 0.0, 1.644587190955533E9, 0.0, 2022-02-12 00:46:30.955
232.0, -12427.547565406272, -11675.612530185286, -8267.463239128976, -12932.27230695156, -11589.625369265721, -8762.509675325116, -10941.268317850629, -8302.667236646084, -10958.8367889925, -12578.645357924148, -11335.508386553334, -9987.318216242578, -8982.87552390999, -12600.035977367876, -13111.510945738668, -17765.367658778152, 0.006640625000000001, 0.2361875, 0.9484375, 192.0, 0.0, 0.0, 0.0, 0.0, 0.0, 0.0, 0.0, 0.0, 0.0, 1.644587190963612E9, 0.0, 2022-02-12 00:46:30.963
234.0, -12434.096626531677, -11691.772841426473, -8261.227102425946, -12944.364600701881, -11605.182183406614, -8784.570847102505, -10943.905823696354, -8323.052027589325, -10973.924216499832, -12587.608407450725, -11320.666828235011, -9981.842038851028, -8972.146686571443, -12600.281846556885, -13113.679064950833, -17799.9011039616, -0.004, 0.234, 0.9440000000000001, 192.0, 127.5, 112.0, 3.5, 40.0, 14.5, 64.0, 0.0, 0.0, 0.0, 1.644587190977124E9, 0.0, 2022-02-12 00:46:30.977
236.0, -12453.140312807598, -11739.359705371822, -8274.906370032593, -12935.245088964117, -11604.399872350677, -8788.16947795981, -10947.303288853562, -8312.97139083998, -10982.574341604035, -12604.863954170223, -11315.794147943754, -9978.891608582928, -8984.753070444236, -12620.197250866564, -13119.624628975944, -17796.838914971224, -0.004, 0.234, 0.9440000000000001, 192.0, 0.0, 0.0, 0.0, 0.0, 0.0, 0.0, 0.0, 0.0, 0.0, 1.644587190985061E9, 0.0, 2022-02-12 00:46:30.985
238.0, -12445.026629570322, -11722.238269119058, -8271.285387430833, -12932.585231373934, -11602.432918838611, -8773.774954530592, -10945.090466152486, -8308.746911137929, -10980.450925880781, -12597.577285477792, -11322.924354424997, -9974.845942836517, -8990.050433880144, -12620.443120055572, -13124.542012756112, -17778.42107754005, -0.004, 0.234, 0.9440000000000001, 192.0, 0.0, 0.0, 0.0, 0.0, 0.0, 0.0, 0.0, 0.0, 0.0, 1.64458719099313E9, 0.0, 2022-02-12 00:46:30.993
240.0, -12415.298809444763, -11712.649370747731, -8279.510829390387, -12942.755275101099, -11612.670017799142, -8774.601969075438, -10948.823207476522, -8306.489384947943, -10990.285693441117, -12615.659846742135, -11325.76302597082, -9970.420297434366, -8982.719061698803, -12590.022395851898, -13122.128024354939, -17812.641598301125, -0.004, 0.234, 0.9440000000000001, 192.0, 0.0, 0.0, 0.0, 0.0, 0.0, 0.0, 0.0, 0.0, 0.0, 1.644587190999672E9, 0.0, 2022-02-12 00:46:30.999
242.0, -12439.997487067878, -11713.40933005921, -8276.4039369111, -12928.69602783871, -11594.833325723806, -8774.870190008902, -10941.983573673198, -8309.149242538124, -10978.260454924162, -12602.293503557863, -11347.645383792566, -9994.895457612927, -8979.67922445288, -12610.11661411722, -13120.965733643263, -17765.09943784469, -0.004, 0.234, 0.9440000000000001, 192.0, 0.0, 0.0, 0.0, 0.0, 0.0, 0.0, 0.0, 0.0, 0.0, 1.64458719100776E9, 0.0, 2022-02-12 00:46:31.007
244.0, -12430.185071251997, -11697.941922896138, -8262.2999861598, -12944.588118146434, -11596.733224002508, -8780.301663911541, -10934.316925325027, -8312.79257688434, -10971.666690309847, -12607.613218738225, -11304.484165249369, -9984.703062141307, -8969.710346425814, -12586.937855117067, -13116.40597777438, -17799.878752217144, -0.004, 0.234, 0.9440000000000001, 192.0, 0.0, 0.0, 3.5, 40.0, 14.5, 48.0, 0.0, 0.0, 0.0, 1.644587191015715E9, 0.0, 2022-02-12 00:46:31.015
246.0, -12478.330728808729, -11728.98849594456, -8279.935512535038, -12941.28005996705, -11601.136517660203, -8789.890562282868, -10943.21291961824, -8302.331960479256, -10998.689949356312, -12626.433387569594, -11332.893232452063, -9994.582533190553, -8970.470305737294, -12633.02715218391, -13114.416672517858, -17796.123659148652, -0.004, 0.234, 0.9440000000000001, 192.0, 0.0, 0.0, 0.0, 0.0, 0.0, 0.0, 0.0, 0.0, 0.0, 1.644587191022377E9, 0.0, 2022-02-12 00:46:31.022
248.0, -12466.216083313953, -11714.817489959894, -8270.190151952524, -12940.877728566853, -11606.67975028512, -8781.575713345494, -10941.178910872808, -8304.388320969143, -10996.387719677416, -12606.629741982191, -11337.408284832036, -9992.749690145218, -8986.16123034492, -12611.97180890701, -13114.774300429142, -17776.43177228353, -0.004, 0.234, 0.9440000000000001, 192.0, 0.0, 0.0, 0.0, 0.0, 0.0, 0.0, 0.0, 0.0, 0.0, 1.64458719102986E9, 0.0, 2022-02-12 00:46:31.029
250.0, -12470.820542671747, -11734.956411714127, -8278.460297400987, -12957.552129930513, -11620.873108014239, -8778.424117377295, -10953.628832534414, -8311.65263791712, -11024.394455479915, -12625.40520732465, -11329.898098695052, -9986.670015653375, -8994.140803115464, -12604.238105325474, -13117.300047552591, -17812.798060512312, -0.004, 0.234, 0.9440000000000001, 192.0, 0.0, 0.0, 0.0, 0.0, 0.0, 0.0, 0.0, 0.0, 0.0, 1.644587191039015E9, 0.0, 2022-02-12 00:46:31.039
252.0, -12477.771935197346, -11739.873795494295, -8281.433079413544, -12934.105149996896, -11601.695311271586, -8776.278349909586, -10951.907748211355, -8315.631248430163, -11016.146661775907, -12604.9757128925, -11345.365505858124, -9996.951818102816, -8988.329349557085, -12609.960151906032, -13122.73152145523, -17773.861321671167, -0.004, 0.234, 0.9440000000000001, 192.0, 0.0, 0.0, 0.0, 0.0, 0.0, 0.0, 0.0, 0.0, 0.0, 1.644587191045518E9, 0.0, 2022-02-12 00:46:31.045
254.0, -12466.640766458604, -11744.500606596543, -8268.603178096197, -12939.447216921713, -11603.639913039198, -8778.178248188287, -10937.088541637486, -8297.16870751008, -11025.310877002583, -12612.038864140375, -11348.450046592958, -9987.094698798026, -8975.477096495282, -12615.659846742135, -13114.97546612924, -17794.648444014605, 0.004, 0.232, 0.9460000000000001, 192.0, 0.0, 16.0, 3.5, 32.0, 14.5, 72.0, 0.0, 0.0, 0.0, 1.644587191051915E9, 0.0, 2022-02-12 00:46:31.051
0.0, -12488.634883002625, -11744.053571707436, -8275.44281189952, -12934.216908719172, -11594.967436190538, -8775.272521409097, -10935.032181147597, -8290.463184173488, -11018.47124319926, -12610.83186993979, -11341.029267433796, -9984.323082485567, -8986.116526856009, -12595.699738943547, -13110.12513758244, -17787.920568933558, 0.004, 0.232, 0.9460000000000001, 192.0, 0.0, 0.0, 0.0, 0.0, 0.0, 0.0, 0.0, 0.0, 0.0, 1.644587191059955E9, 0.0, 2022-02-12 00:46:31.059
2.0, -12478.688356720015, -11728.049722677437, -8269.11726821867, -12932.205251718195, -11598.186087392103, -8761.459143335718, -10939.033143405099, -8296.900486576616, -11011.430443695837, -12605.959189648533, -11338.771741243809, -9974.778887603152, -8976.974663373789, -12584.434459738071, -13117.903544652885, -17767.960461134968, 0.004, 0.232, 0.9460000000000001, 192.0, 0.0, 0.0, 0.0, 0.0, 0.0, 0.0, 0.0, 0.0, 0.0, 1.6445871910679E9, 0.0, 2022-02-12 00:46:31.067
4.0, -12456.18015005352, -11719.131376639769, -8272.246512442412, -12941.503577411602, -11607.104433429771, -8771.740945785159, -10950.991326688687, -8301.236725000945, -11025.154414791396, -12629.8308527268, -11330.211023117427, -9977.818724849072, -8988.105832112531, -12584.032128337876, -13114.349617284492, -17806.47251683146, 0.004, 0.232, 0.9460000000000001, 192.0, 0.0, 0.0, 0.0, 0.0, 0.0, 0.0, 0.0, 0.0, 0.0, 1.64458719107611E9, 0.0, 2022-02-12 00:46:31.076
6.0, -12458.370621010139, -11728.563812799908, -8278.3038351898, -12924.89623128131, -11584.685633741097, -8772.16562892981, -10939.301364338562, -8296.140527265135, -11010.201097750796, -12609.848393183756, -11346.706610525443, -9979.07042253857, -8983.367262288006, -12621.426596811605, -13117.50121325269, -17766.99933612339, 0.004, 0.232, 0.9460000000000001, 192.0, 0.0, 0.0, 0.0, 0.0, 0.0, 0.0, 0.0, 0.0, 0.0, 1.644587191082649E9, 0.0, 2022-02-12 00:46:31.082
8.0, -12463.13154257912, -11723.221745875091, -8271.643015342119, -12942.08472276744, -11607.573820063331, -8771.048041707045, -10952.041858678087, -8308.12106229318, -11021.578135678546, -12606.182707093085, -11333.675543508, -9970.196779989814, -8977.935788385366, -12616.889192687178, -13116.964771385763, -17792.81560096927, 0.006, 0.23600000000000002, 0.9460000000000001, 192.0, 0.0, 24.0, 3.5, 48.0, 14.5, 72.0, 0.0, 0.0, 0.0, 1.644587191097584E9, 0.0, 2022-02-12 00:46:31.097
10.0, -12482.264635832864, -11729.435530833665, -8282.103631747203, -12944.23049023515, -11605.360997362257, -8774.669024308805, -10949.717277254735, -8295.380567953654, -11023.075702557053, -12630.300239360362, -11336.33540109818, -9986.088870297537, -8978.87456165249, -12605.735672203979, -13119.892849909407, -17792.05564165779, 0.006, 0.23600000000000002, 0.9460000000000001, 192.0, 0.0, 0.0, 0.0, 0.0, 0.0, 0.0, 0.0, 0.0, 0.0, 1.644587191104568E9, 0.0, 2022-02-12 00:46:31.104
12.0, -12461.902196634079, -11722.908821452716, -8270.234855441435, -12935.98269653114, -11592.396985578178, -8773.21616091921, -10948.756152243157, -8301.840222101238, -11014.716150130767, -12606.20505883754, -11336.938898198474, -9980.79150686163, -8988.374053045995, -12603.120518102709, -13125.5478412566, -17774.12954260463, 0.006, 0.23600000000000002, 0.9460000000000001, 192.0, 0.0, 0.0, 0.0, 0.0, 0.0, 0.0, 0.0, 0.0, 0.0, 1.644587191113591E9, 0.0, 2022-02-12 00:46:31.113
14.0, -12446.501844704371, -11727.803853488429, -8277.029785755847, -12946.37625770286, -11601.851773482773, -8771.651538807339, -10951.59482378898, -8310.289181505344, -11022.069874056564, -12622.611239267737, -11332.356790585136, -9978.802201605105, -8983.836648921568, -12594.246875553952, -13124.162033100372, -17817.201354170007, 0.006, 0.23600000000000002, 0.9460000000000001, 192.0, 0.0, 0.0, 0.0, 0.0, 0.0, 0.0, 0.0, 0.0, 0.0, 1.644587191120296E9, 0.0, 2022-02-12 00:46:31.120
16.0, -12471.08876360521, -11719.734873740063, -8271.68771883103, -12931.17707147325, -11592.598151278276, -8777.418288876806, -10948.040896420587, -8303.181326768557, -11007.250667482695, -12614.475204286004, -11345.81254074723, -9978.22105624927, -8993.470250781806, -12606.048596626353, -13123.312666811069, -17778.80105719579, 0.006, 0.23600000000000002, 0.9460000000000001, 192.0, 0.0, 0.0, 0.0, 0.0, 0.0, 0.0, 0.0, 0.0, 0.0, 1.644587191128297E9, 0.0, 2022-02-12 00:46:31.128
18.0, -12475.983795640923, -11732.005981446026, -8268.379660651644, -12951.204234505205, -11603.796375250386, -8792.259847195131, -10946.140998141886, -8306.891716348138, -11034.676257929357, -12625.606373024748, -11337.184767387482, -9976.030585292649, -8993.045567637155, -12613.871707185712, -13123.938515655818, -17805.690205775525, 0.004, 0.23800000000000002, 0.9500000000000001, 192.0, 0.0, 16.0, 3.5, 56.0, 14.5, 88.0, 0.0, 0.0, 0.0, 1.644587191134908E9, 0.0, 2022-02-12 00:46:31.134
20.0, -12483.404574800084, -11748.590975831865, -8277.454468900498, -12946.957403058697, -11601.717663016041, -8786.202524447743, -10954.858178479455, -8323.163786311601, -11030.384722993938, -12646.058219201353, -11337.832967976687, -9983.674881896362, -8991.503297269737, -12619.68316074409, -13121.83745167702, -17805.399633097608, 0.004, 0.23800000000000002, 0.9500000000000001, 192.0, 0.0, 0.0, 0.0, 0.0, 0.0, 0.0, 0.0, 0.0, 0.0, 1.644587191142889E9, 0.0, 2022-02-12 00:46:31.142
22.0, -12462.975080367933, -11735.582260558875, -8272.4029746536, -12946.935051314242, -11599.124860659225, -8783.408556390828, -10944.732838241202, -8311.250306516922, -11015.878440842444, -12622.991218923476, -11341.610412789632, -9984.2560272522, -8969.799753403635, -12599.164259334118, -13126.106634867983, -17785.730097976935, 0.004, 0.23800000000000002, 0.9500000000000001, 192.0, 0.0, 0.0, 0.0, 0.0, 0.0, 0.0, 0.0, 0.0, 0.0, 1.644587191149874E9, 0.0, 2022-02-12 00:46:31.149
24.0, -12460.114057077653, -11722.819414474896, -8275.621625855163, -12958.602661919913, -11609.272552641934, -8786.068413981011, -10956.042820935587, -8321.330943266266, -11034.162167806884, -12637.653963286159, -11340.135197655583, -9982.937274329339, -8996.286570583174, -12626.858070714245, -13127.872422679953, -17822.454014117004, 0.004, 0.23800000000000002, 0.9500000000000001, 192.0, 0.0, 0.0, 0.0, 0.0, 0.0, 0.0, 0.0, 0.0, 0.0, 1.644587191157075E9, 0.0, 2022-02-12 00:46:31.157
26.0, -12484.276292833842, -11728.384998844267, -8275.487515388431, -12954.199368262216, -11599.01310193695, -8785.800193047548, -10950.54429179958, -8313.820757129282, -11026.18259503634, -12636.335210363295, -11347.488921581378, -10002.718568172284, -8994.476079282294, -12613.223506596507, -13128.878251180442, -17783.60668225368, 0.004, 0.23800000000000002, 0.9500000000000001, 192.0, 0.0, 0.0, 0.0, 0.0, 0.0, 0.0, 0.0, 0.0, 0.0, 1.64458719116474E9, 0.0, 2022-02-12 00:46:31.164
28.0, -12482.04111838831, -11759.99036550407, -8269.49724787441, -12958.960289831197, -11605.003369450971, -8791.41048090583, -10951.17014064433, -8310.73621639445, -11042.18644406634, -12639.486806331493, -11345.521968069312, -9993.576704690064, -8992.8220501926, -12624.578192779803, -13128.587678502523, -17806.271351131363, 0.004, 0.23600000000000002, 0.9480000000000001, 192.0, 0.0, 16.0, 3.5, 48.0, 14.5, 80.0, 0.0, 0.0, 0.0, 1.644587191172729E9, 0.0, 2022-02-12 00:46:31.172
30.0, -12477.213141585964, -11756.592900346865, -8279.577884623754, -12951.070124038473, -11609.25020089748, -8793.35508267344, -10960.580225060014, -8314.3124955073, -11037.89490913092, -12662.151475209175, -11345.410209347036, -9985.843001108527, -8983.657834965925, -12622.83475671229, -13127.581850002034, -17802.449202829506, 0.004, 0.23600000000000002, 0.9480000000000001, 192.0, 0.0, 0.0, 0.0, 0.0, 0.0, 0.0, 0.0, 0.0, 0.0, 1.644587191180578E9, 0.0, 2022-02-12 00:46:31.180
32.0, -12463.243301301396, -11726.060417420915, -8268.379660651644, -12949.773722860065, -11597.873162969729, -8786.761318059125, -10941.804759717555, -8303.918934335583, -11024.573269435557, -12633.988277195487, -11352.361601872635, -9987.407623220399, -8996.39832930545, -12626.768663736424, -13127.69360872431, -17777.348193806196, 0.004, 0.23600000000000002, 0.9480000000000001, 192.0, 0.0, 0.0, 0.0, 0.0, 0.0, 0.0, 0.0, 0.0, 0.0, 1.644587191187163E9, 0.0, 2022-02-12 00:46:31.187
34.0, -12449.251109272374, -11727.692094766153, -8274.571093865765, -12955.18284501825, -11611.552430576377, -8786.336634914474, -10955.126399412919, -8312.591411184241, -11031.010571838686, -12635.64230628518, -11331.686238251477, -9982.82551560706, -8986.340044300561, -12614.83283219729, -13124.720826711755, -17817.357816381194, 0.004, 0.23600000000000002, 0.9480000000000001, 192.0, 0.0, 0.0, 0.0, 0.0, 0.0, 0.0, 0.0, 0.0, 0.0, 1.644587191195199E9, 0.0, 2022-02-12 00:46:31.195
36.0, -12464.584405968715, -11728.675571522186, -8273.766431065373, -12937.212042476183, -11587.256084353457, -8772.612663818916, -10937.155596870853, -8301.795518612327, -11016.951324576297, -12626.612201525237, -11342.325668612202, -9985.015986563682, -8972.861942394013, -12612.508250773937, -13126.464262779267, -17774.822446682745, 0.004, 0.23600000000000002, 0.9480000000000001, 192.0, 0.0, 0.0, 0.0, 0.0, 0.0, 0.0, 0.0, 0.0, 0.0, 1.644587191203096E9, 0.0, 2022-02-12 00:46:31.203
38.0, -12460.158760566565, -11733.011809946514, -8257.449657612999, -12944.923394313264, -11600.220096137537, -8769.103439939432, -10935.725085225713, -8294.821774342272, -11029.222432282262, -12629.920259704622, -11323.594906758655, -9964.944120042815, -8983.367262288006, -12598.359596533728, -13121.815099932564, -17796.056603915287, 0.002, 0.242, 0.9500000000000001, 192.0, 0.0, 8.0, 3.5, 72.0, 14.5, 88.0, 0.0, 0.0, 0.0, 1.644587191210355E9, 0.0, 2022-02-12 00:46:31.210
40.0, -12470.440563016005, -11732.117740168303, -8267.396183895611, -12947.270327481072, -11598.119032158736, -8783.408556390828, -10940.664820750335, -8302.443719201532, -11026.227298525251, -12648.181634924607, -11315.48122352138, -9961.613710118974, -8987.30116931214, -12585.194419049552, -13123.044445877606, -17797.464763815973, 0.002, 0.242, 0.9500000000000001, 192.0, 0.0, 0.0, 0.0, 0.0, 0.0, 0.0, 0.0, 0.0, 0.0, 1.644587191224689E9, 0.0, 2022-02-12 00:46:31.224
42.0, -12461.097533833687, -11714.281048092967, -8263.64109082712, -12943.626993134856, -11591.81584022234, -8776.725384798692, -10935.322753825516, -8292.966579552482, -11018.605353665991, -12624.511137546437, -11326.724150982398, -9972.96839630227, -8975.119468583998, -12618.051483398853, -13125.659599978877, -17779.248092084898, 0.002, 0.242, 0.9500000000000001, 192.0, 0.0, 0.0, 0.0, 0.0, 0.0, 0.0, 0.0, 0.0, 0.0, 1.644587191232923E9, 0.0, 2022-02-12 00:46:31.232
44.0, -12447.865301116146, -11703.529859009965, -8270.078393230247, -12959.273214253571, -11602.902305472173, -8774.557265586527, -10951.997155189176, -8313.93251585156, -11030.94351660532, -12626.098111402764, -11322.723188724898, -9967.425163677355, -8967.743392913746, -12609.40135829465, -13124.206736589282, -17819.257714659896, 0.002, 0.242, 0.9500000000000001, 192.0, 0.0, 0.0, 0.0, 0.0, 0.0, 0.0, 0.0, 0.0, 0.0, 1.644587191242823E9, 0.0, 2022-02-12 00:46:31.242
46.0, -12454.995507597388, -11729.70375176713, -8275.934550277538, -12947.002106547608, -11597.873162969729, -8768.388184116862, -10951.483065066705, -8293.92770456406, -11016.70545538729, -12639.30799237585, -11346.393686103069, -9988.122879042969, -8980.796811675646, -12607.009721637933, -13129.817024447564, -17783.964310164967, 0.002, 0.24, 0.9470000000000001, 192.0, 0.0, 8.0, 3.5, 56.0, 14.5, 64.0, 0.0, 0.0, 0.0, 1.644587191248936E9, 0.0, 2022-02-12 00:46:31.248
48.0, -12475.715574707458, -11756.36938290231, -8270.21250369698, -12955.51812118508, -11609.563125319853, -8783.520315113106, -10944.822245219022, -8293.4583179305, -11027.434292725837, -12645.387666867695, -11337.028305176294, -9970.73322185674, -8973.48779123876, -12598.806631422834, -13132.678047737843, -17809.46765058847, 0.002, 0.24, 0.9470000000000001, 192.0, 0.0, 0.0, 0.0, 0.0, 0.0, 0.0, 0.0, 0.0, 0.0, 1.644587191255622E9, 0.0, 2022-02-12 00:46:31.255
50.0, -12480.252978831886, -11751.608461333331, -8278.68381484554, -12956.076914796462, -11604.10929967276, -8785.062585480522, -10950.432533077304, -8293.435966186044, -11033.692781173324, -12664.006669998966, -11327.99820041635, -9974.510666669687, -8984.596608233049, -12614.005817652444, -13126.777187201642, -17807.746566265414, 0.002, 0.24, 0.9470000000000001, 192.0, 0.0, 0.0, 0.0, 0.0, 0.0, 0.0, 0.0, 0.0, 0.0, 1.644587191262752E9, 0.0, 2022-02-12 00:46:31.262
52.0, -12465.143199580098, -11739.113836182814, -8273.654672343097, -12955.585176418446, -11599.504840314967, -8781.888637767868, -10949.605518532459, -8296.475803431966, -11025.780263636145, -12635.239974884984, -11331.775645229298, -9985.619483663975, -8983.233151821274, -12610.138965861675, -13132.007495404185, -17789.060507900776, 0.002, 0.24, 0.9470000000000001, 192.0, 0.0, 0.0, 0.0, 0.0, 0.0, 0.0, 0.0, 0.0, 0.0, 1.644587191270116E9, 0.0, 2022-02-12 00:46:31.270
54.0, -12464.360888524163, -11739.538519327465, -8276.314529933277, -12958.625013664367, -11598.700177514575, -8772.366794629908, -10943.078809151508, -8303.158975024102, -11040.577118465557, -12667.27002468944, -11325.941839926463, -9972.11903001297, -8979.925093641888, -12607.099128615753, -13126.441911034814, -17831.506470621403, 0.002, 0.24, 0.9470000000000001, 192.0, 0.0, 0.0, 0.0, 0.0, 0.0, 0.0, 0.0, 0.0, 0.0, 1.644587191277275E9, 0.0, 2022-02-12 00:46:31.277
56.0, -12462.550397223282, -11714.996303915537, -8275.956902021993, -12939.201347732705, -11588.999520420972, -8769.326957383986, -10946.655088264357, -8294.374739453166, -11028.797749137611, -12654.440123372093, -11341.185729644982, -9977.774021360163, -8974.091288339054, -12612.999989151955, -13126.576021501545, -17788.70287998949, 0.004, 0.237, 0.9455, 192.0, 0.0, 24.0, 3.5, 40.0, 14.5, 64.0, 0.0, 0.0, 0.0, 1.644587191285084E9, 0.0, 2022-02-12 00:46:31.285
58.0, -12453.497940718884, -11706.301475322423, -8265.853913528194, -12948.522025170569, -11590.586494277299, -8766.756506771626, -10940.731875983702, -8298.509812177397, -11030.742350905222, -12644.515948833938, -11329.629877761588, -9975.561198659087, -8976.840552907057, -12593.464564498016, -13128.811195947075, -17810.89816223361, 0.004, 0.237, 0.9455, 192.0, 0.0, 0.0, 0.0, 0.0, 0.0, 0.0, 0.0, 0.0, 0.0, 1.644587191292409E9, 0.0, 2022-02-12 00:46:31.292
60.0, -12450.122827306132, -11726.08276916537, -8273.408803154089, -12940.22952797765, -11594.81097397935, -8765.50480908213, -10943.25762310715, -8290.999626040415, -11030.742350905222, -12658.999879240977, -11333.206156874438, -9977.952835315804, -8965.530570212672, -12611.390663551172, -13123.335018555525, -17807.545400565316, 0.004, 0.237, 0.9455, 192.0, 0.0, 0.0, 0.0, 0.0, 0.0, 0.0, 0.0, 0.0, 0.0, 1.644587191299704E9, 0.0, 2022-02-12 00:46:31.299
62.0, -12462.304528034274, -11749.619156076807, -8266.122134461659, -12947.538548414535, -11597.895514714184, -8775.473687109195, -10944.375210329916, -8293.301855719312, -11023.366275234972, -12639.531509820405, -11336.938898198474, -9975.181219003347, -8986.742375700758, -12626.075759658308, -13126.151338356894, -17784.768972965358, 0.004, 0.237, 0.9455, 192.0, 0.0, 0.0, 0.0, 0.0, 0.0, 0.0, 0.0, 0.0, 0.0, 1.64458719130775E9, 0.0, 2022-02-12 00:46:31.307
64.0, -12479.560074753772, -11752.726048556096, -8261.54002684832, -12965.039964323041, -11608.602000308276, -8776.747736543148, -10947.8844342094, -8294.553553408809, -11046.701496446312, -12668.432315401116, -11325.450101548446, -9973.080155024547, -8997.53826827267, -12602.852297169246, -13123.960867400274, -17830.47829037646, 0.004, 0.237, 0.9455, 192.0, 0.0, 0.0, 0.0, 0.0, 0.0, 0.0, 0.0, 0.0, 0.0, 1.644587191316023E9, 0.0, 2022-02-12 00:46:31.316
66.0, -12465.32201353574, -11733.257679135524, -8264.78102979434, -12947.315030969981, -11591.189991377592, -8768.857570750424, -10942.072980651019, -8291.558419651798, -11030.89881311641, -12651.377934381717, -11329.562822528223, -9985.865352852983, -8988.06112862362, -12584.456811482527, -13124.45260577829, -17790.245150356906, 0.003, 0.23349999999999999, 0.94475, 192.0, 0.0, 8.0, 3.5, 24.0, 14.5, 64.0, 0.0, 0.0, 0.0, 1.644587191322882E9, 0.0, 2022-02-12 00:46:31.322
68.0, -12442.947917335978, -11717.902030694728, -8259.796590780807, -12948.589080403934, -11598.81193623685, -8772.478553352184, -10944.218748118728, -8289.770280095372, -11028.149548548407, -12648.941594236088, -11324.645438748055, -9986.535905186642, -8972.414907504906, -12618.722035732513, -13121.680989465833, -17808.05949068779, 0.003, 0.23349999999999999, 0.94475, 192.0, 0.0, 0.0, 0.0, 0.0, 0.0, 0.0, 0.0, 0.0, 0.0, 1.644587191330472E9, 0.0, 2022-02-12 00:46:31.330
70.0, -12484.835086445224, -11736.141054170259, -8272.134753720136, -12948.030286792551, -11601.449442082578, -8777.194771432254, -10952.488893567193, -8310.333884994256, -11033.446911984314, -12668.275853189929, -11324.71249398142, -9970.979091045749, -8976.907608140422, -12620.890154944678, -13125.994876145707, -17811.836935500734, 0.003, 0.23349999999999999, 0.94475, 192.0, 0.0, 0.0, 0.0, 0.0, 0.0, 0.0, 0.0, 0.0, 0.0, 1.644587191345434E9, 0.0, 2022-02-12 00:46:31.345
72.0, -12464.003260612877, -11735.202280903135, -8270.905407775093, -12948.745542615121, -11595.72739550202, -8776.434812120773, -10944.151692885363, -8314.133681551657, -11039.101903331508, -12654.417771627639, -11334.39079933057, -9976.857599837494, -8977.466401751804, -12620.241954355473, -13127.313629068569, -17793.530856791836, 0.003, 0.23349999999999999, 0.94475, 192.0, 0.0, 0.0, 0.0, 0.0, 0.0, 0.0, 0.0, 0.0, 0.0, 1.644587191353433E9, 0.0, 2022-02-12 00:46:31.353
74.0, -12456.22485354243, -11751.027315977493, -8278.415593912077, -12964.548225945024, -11603.103471172271, -8780.078146466989, -10940.530710283603, -8286.842201571728, -11056.782133195655, -12676.233074216017, -11340.716343011421, -9979.495105683221, -8960.00968933221, -12592.659901697625, -13123.603239488988, -17829.941848509534, 0.003, 0.23349999999999999, 0.94475, 192.0, 0.0, 0.0, 0.0, 0.0, 0.0, 0.0, 0.0, 0.0, 0.0, 1.644587191360682E9, 0.0, 2022-02-12 00:46:31.360
76.0, -12493.686377249525, -11745.864063008317, -8276.046308999814, -12948.544376915024, -11596.397947835678, -8788.437698893273, -10957.562739558547, -8303.226030257467, -11048.936670891842, -12668.275853189929, -11337.631802276588, -9993.755518645707, -9009.719969000813, -12642.660754044147, -13128.431216291336, -17796.19071438202, 0.006500000000000001, 0.23575000000000002, 0.946375, 192.0, 0.0, 40.0, 3.5, 56.0, 14.5, 80.0, 0.0, 0.0, 0.0, 1.644587191368078E9, 0.0, 2022-02-12 00:46:31.368
78.0, -12481.862304432667, -11751.988440989071, -8274.615797354674, -12963.005955577608, -11611.328913131823, -8787.007187248133, -10951.55012030007, -8295.671140631574, -11059.419639041382, -12674.46728640405, -11332.714418496422, -9982.110259784491, -8983.791945432657, -12637.341038863784, -13133.058027393583, -17820.285894904842, 0.006500000000000001, 0.23575000000000002, 0.946375, 192.0, 0.0, 0.0, 0.0, 0.0, 0.0, 0.0, 0.0, 0.0, 0.0, 1.644587191375277E9, 0.0, 2022-02-12 00:46:31.375
80.0, -12465.009089113366, -11731.402484345734, -8280.78487882434, -12960.860188109898, -11600.667131026643, -8795.567905374517, -10962.480123338715, -8299.02390229987, -11054.502255261214, -12686.112545265263, -11333.876709208096, -9988.2569895097, -8990.16219260242, -12625.896945702667, -13130.88990818142, -17825.04681647382, 0.006500000000000001, 0.23575000000000002, 0.946375, 192.0, 0.0, 0.0, 0.0, 0.0, 0.0, 0.0, 0.0, 0.0, 0.0, 1.644587191382717E9, 0.0, 2022-02-12 00:46:31.382
82.0, -12473.793324684302, -11742.667763551208, -8273.341747920722, -12952.478283939157, -11580.684671483597, -8783.050928479544, -10947.16917838683, -8299.806213355805, -11034.56449920708, -12660.162169952651, -11336.983601687385, -9988.748727887718, -8985.289512311163, -12636.335210363295, -13131.649867492899, -17799.074089416754, 0.006500000000000001, 0.23575000000000002, 0.946375, 192.0, 0.0, 0.0, 0.0, 0.0, 0.0, 0.0, 0.0, 0.0, 0.0, 1.644587191390548E9, 0.0, 2022-02-12 00:46:31.390
84.0, -12470.865246160656, -11758.112818969825, -8278.01326251188, -12963.318879999983, -11604.645741539687, -8782.782707546081, -10963.061268694553, -8304.813004113794, -11063.62176699898, -12685.799620842889, -11324.24310734786, -9975.583550403542, -8962.848360878035, -12615.436329297583, -13135.60612626149, -17837.87671779117, 0.006500000000000001, 0.23575000000000002, 0.946375, 192.0, 0.0, 0.0, 0.0, 0.0, 0.0, 0.0, 0.0, 0.0, 0.0, 1.644587191397832E9, 0.0, 2022-02-12 00:46:31.397
86.0, -12464.204426312976, -11758.358688158833, -8282.595370125218, -12953.014725806086, -11592.285226855902, -8782.715652312714, -10954.589957545992, -8308.098710548724, -11048.109656346996, -12670.823952057834, -11335.463683064423, -9983.920751085372, -8995.794832205156, -12624.667599757624, -13138.869480951964, -17802.404499340595, 0.00725, 0.238875, 0.9481875, 192.0, 0.0, 32.0, 3.5, 72.0, 14.5, 88.0, 0.0, 0.0, 0.0, 1.64458719140417E9, 0.0, 2022-02-12 00:46:31.404
88.0, -12476.207313085475, -11747.987478731571, -8277.320358433766, -12963.274176511071, -11609.741939275496, -8789.26471343812, -10951.863044722444, -8309.842146616238, -11061.744220464734, -12683.922074308644, -11333.876709208096, -9986.781774375651, -9002.96974217531, -12631.618992283225, -13144.636231021434, -17821.76111003889, 0.00725, 0.238875, 0.9481875, 192.0, 0.0, 0.0, 0.0, 0.0, 0.0, 0.0, 0.0, 0.0, 0.0, 1.644587191412264E9, 0.0, 2022-02-12 00:46:31.412
90.0, -12483.158705611075, -11751.116722955314, -8283.265922458879, -12965.37524048987, -11598.141383903192, -8790.471707638706, -10951.371306344427, -8303.561306424297, -11068.42739205687, -12702.138746039718, -11331.216851617915, -9996.974169847272, -8994.185506604375, -12619.772567721911, -13140.724675741754, -17824.599781584715, 0.00725, 0.238875, 0.9481875, 192.0, 0.0, 0.0, 0.0, 0.0, 0.0, 0.0, 0.0, 0.0, 0.0, 1.644587191420366E9, 0.0, 2022-02-12 00:46:31.420
92.0, -12465.590234469204, -11713.23051610357, -8273.185285709535, -12957.28390899705, -11587.971340176027, -8778.938207499768, -10948.577338287514, -8302.778995368362, -11051.171845337372, -12664.185483954607, -11329.607526017133, -9995.387195990945, -8986.943541400855, -12640.090303431787, -13144.926803699353, -17793.553208536294, 0.00725, 0.238875, 0.9481875, 192.0, 0.0, 0.0, 0.0, 0.0, 0.0, 0.0, 0.0, 0.0, 0.0, 1.644587191427442E9, 0.0, 2022-02-12 00:46:31.427
94.0, -12500.414252330573, -11768.260510952534, -8277.20859971149, -12973.555978960512, -11603.192878150092, -8790.203486705243, -10954.724068012723, -8308.679855904562, -11068.71796473479, -12692.32633022384, -11323.080816636184, -9978.064594038082, -8984.976587888788, -12614.11757637472, -13140.45645480829, -17836.736778823946, 0.00725, 0.238875, 0.9481875, 192.0, 0.0, 0.0, 0.0, 0.0, 0.0, 0.0, 0.0, 0.0, 0.0, 1.644587191434759E9, 0.0, 2022-02-12 00:46:31.434
96.0, -12482.979891655434, -11742.935984484671, -8276.78391656684, -12958.155627030806, -11588.4854302985, -8775.630149320383, -10957.272166880628, -8305.148280280624, -11073.05420315912, -12693.309806979873, -11345.097284924661, -10001.042187338137, -8972.414907504906, -12635.798768496368, -13139.472978052258, -17799.118792905665, 0.005625, 0.23643750000000002, 0.9470937500000001, 192.0, 0.0, 16.0, 3.5, 40.0, 14.5, 72.0, 0.0, 0.0, 0.0, 1.644587191443101E9, 0.0, 2022-02-12 00:46:31.443
98.0, -12464.316185035252, -11748.635679320774, -8259.371907636156, -12967.051621324019, -11597.314369358346, -8782.35802440143, -10950.45488482176, -8310.847975116727, -11066.773362967178, -12677.596530627792, -11333.586136530177, -9983.585474918542, -8997.493564783761, -12622.432425312094, -13143.78686473213, -17818.47540360396, 0.005625, 0.23643750000000002, 0.9470937500000001, 192.0, 0.0, 0.0, 0.0, 0.0, 0.0, 0.0, 0.0, 0.0, 0.0, 1.644587191449838E9, 0.0, 2022-02-12 00:46:31.449
100.0, -12482.510505021872, -11764.70658358414, -8269.050212985303, -12971.164342303795, -11590.117107643737, -8786.336634914474, -10942.274146351117, -8291.826640585261, -11068.874426945977, -12708.151365298196, -11324.131348625582, -9983.473716196266, -8995.63836999397, -12603.992236136466, -13135.114387883472, -17823.392787384128, 0.005625, 0.23643750000000002, 0.9470937500000001, 192.0, 0.0, 0.0, 0.0, 0.0, 0.0, 0.0, 0.0, 0.0, 0.0, 1.644587191457589E9, 0.0, 2022-02-12 00:46:31.457
102.0, -12449.519330205838, -11722.417083074699, -8261.897654759605, -12959.51908344258, -11583.545694773877, -8785.084937224978, -10939.368419571927, -8293.2571522304, -11054.748124450223, -12677.685937605613, -11337.430636576491, -10003.679693183863, -8994.699596726847, -12624.332323590796, -13136.656658250888, -17793.530856791836, 0.005625, 0.23643750000000002, 0.9470937500000001, 192.0, 0.0, 0.0, 0.0, 0.0, 0.0, 0.0, 0.0, 0.0, 0.0, 1.644587191472812E9, 0.0, 2022-02-12 00:46:31.472
104.0, -12464.405592013072, -11754.51418811252, -8272.693547331519, -12972.013708593096, -11599.4377850816, -8782.112155212422, -10957.898015725377, -8303.784823868851, -11063.7111739768, -12686.98426329902, -11330.926278939996, -9991.810916878096, -8986.854134423034, -12628.445044570572, -13133.259193093681, -17832.802871799813, 0.005625, 0.23643750000000002, 0.9470937500000001, 192.0, 0.0, 0.0, 0.0, 0.0, 0.0, 0.0, 0.0, 0.0, 0.0, 1.644587191479639E9, 0.0, 2022-02-12 00:46:31.479
106.0, -12494.491040049916, -11759.118647470314, -8272.11240197568, -12953.394705461826, -11578.002462148961, -8777.038309221067, -10953.382963345404, -8308.612800671197, -11059.330232063561, -12705.782080385934, -11332.356790585136, -9989.754556388207, -8984.06016636612, -12655.892986761688, -13136.768416973164, -17800.705766761992, 0.0018124999999999999, 0.23721875000000003, 0.9445468750000001, 192.0, 127.5, 120.0, 3.5, 56.0, 14.5, 56.0, 0.0, 0.0, 0.0, 1.644587191487296E9, 0.0, 2022-02-12 00:46:31.487
108.0, -12465.32201353574, -11732.363609357311, -8262.188227437524, -12970.7620109036, -11590.541790788388, -8772.59031207446, -10954.366440101438, -8301.840222101238, -11072.80833397011, -12684.7937923424, -11327.059427149228, -9990.246294766224, -8984.261332066219, -12633.876518473211, -13137.21545186227, -17823.169269939575, 0.0018124999999999999, 0.23721875000000003, 0.9445468750000001, 192.0, 0.0, 0.0, 0.0, 0.0, 0.0, 0.0, 0.0, 0.0, 0.0, 1.644587191495028E9, 0.0, 2022-02-12 00:46:31.495
110.0, -12475.84968517419, -11753.553063100942, -8270.72659381945, -12971.209045792706, -11585.311482585847, -8779.765222044614, -10953.40531508986, -8299.180364511058, -11069.410868812904, -12692.549847668392, -11329.38400857258, -9988.793431376629, -8993.179678103887, -12629.652038771157, -13128.431216291336, -17833.227554944464, 0.0018124999999999999, 0.23721875000000003, 0.9445468750000001, 192.0, 0.0, 0.0, 0.0, 0.0, 0.0, 0.0, 0.0, 0.0, 0.0, 1.644587191503328E9, 0.0, 2022-02-12 00:46:31.503
112.0, -12487.249074846397, -11746.199339175146, -8269.050212985303, -12963.430638722259, -11587.837229709296, -8782.134506956876, -10956.26633838014, -8299.605047655708, -11069.94731067983, -12698.718929138056, -11329.451063805946, -9993.621408178975, -8981.646177964947, -12626.254573613951, -13133.907393682885, -17802.829182485246, 0.0018124999999999999, 0.23721875000000003, 0.9445468750000001, 192.0, 0.0, 0.0, 0.0, 0.0, 0.0, 0.0, 0.0, 0.0, 0.0, 1.644587191509928E9, 0.0, 2022-02-12 00:46:31.509
114.0, -12466.685469947513, -11745.171158930203, -8268.424364140554, -12973.913606871798, -11594.654511768165, -8781.061623223022, -10954.992288946187, -8302.577829668264, -11085.928807965376, -12710.274781021451, -11321.560898013222, -9995.230733779757, -8994.49843102675, -12624.175861379608, -13133.683876238332, -17844.00109577192, 0.0018124999999999999, 0.23721875000000003, 0.9445468750000001, 192.0, 0.0, 0.0, 0.0, 0.0, 0.0, 0.0, 0.0, 0.0, 0.0, 1.644587191518018E9, 0.0, 2022-02-12 00:46:31.518
116.0, -12483.024595144343, -11749.574452587898, -8271.710070575486, -12956.389839218837, -11586.362014575245, -8778.491172610662, -10953.137094156396, -8302.778995368362, -11065.074630388573, -12699.165964027163, -11333.452026063445, -9989.21811452128, -8987.904666412434, -12613.089396129775, -13136.567251273067, -17806.897199976112, 0.00190625, 0.235609375, 0.9452734375, 192.0, 0.0, 8.0, 3.5, 40.0, 14.5, 72.0, 0.0, 0.0, 0.0, 1.644587191524742E9, 0.0, 2022-02-12 00:46:31.524
118.0, -12471.066411860755, -11741.125493183792, -8268.245550184913, -12967.163380046295, -11591.502915799967, -8776.703033054237, -10956.579262802514, -8308.322227993278, -11078.150400894929, -12688.481830177527, -11324.578383514689, -9983.11608828498, -8990.631579235982, -12617.06800664282, -13141.037600164129, -17825.315037407283, 0.00190625, 0.235609375, 0.9452734375, 192.0, 0.0, 0.0, 0.0, 0.0, 0.0, 0.0, 0.0, 0.0, 0.0, 1.644587191532895E9, 0.0, 2022-02-12 00:46:31.532
120.0, -12471.044060116299, -11750.669688066208, -8275.509867132887, -12968.728002158166, -11596.24148562449, -8791.432832650284, -10957.585091303003, -8305.97529482547, -11081.86079047451, -12717.18147005814, -11325.271287592805, -9988.92754184336, -9003.707349742335, -12645.655887801158, -13140.277640852648, -17833.987514255943, 0.00190625, 0.235609375, 0.9452734375, 192.0, 0.0, 0.0, 0.0, 0.0, 0.0, 0.0, 0.0, 0.0, 0.0, 1.644587191539689E9, 0.0, 2022-02-12 00:46:31.539
122.0, -12468.920644393045, -11741.70663853963, -8270.748945563906, -12962.715382899689, -11591.122936144226, -8788.907085526835, -10950.812512733044, -8304.500079691421, -11067.868598445488, -12698.450708204593, -11330.993334173363, -9995.49895471322, -8991.771518203203, -12646.92993723511, -13139.249460607703, -17806.0031301979, 0.00190625, 0.235609375, 0.9452734375, 192.0, 0.0, 0.0, 0.0, 0.0, 0.0, 0.0, 0.0, 0.0, 0.0, 1.64458719154747E9, 0.0, 2022-02-12 00:46:31.547
124.0, -12462.215121056453, -11755.631775335285, -8273.11823047617, -12984.888313399353, -11600.309503115357, -8794.74089082967, -10955.26050987965, -8303.248382001922, -11088.096927177541, -12714.588667701324, -11323.52785152529, -9990.559219188597, -8981.623826220492, -12636.715190019035, -13135.203794861292, -17850.43839817505, 0.00190625, 0.235609375, 0.9452734375, 192.0, 0.0, 0.0, 0.0, 0.0, 0.0, 0.0, 0.0, 0.0, 0.0, 1.644587191555767E9, 0.0, 2022-02-12 00:46:31.555
126.0, -12474.03919387331, -11747.56279558692, -8276.515695633376, -12975.589987705946, -11599.638950781698, -8789.063547738022, -10973.655995566369, -8319.676914176574, -11082.687805019355, -12709.425414732148, -11337.430636576491, -9999.477565226265, -8981.512067498215, -12618.297352587862, -13141.529338542145, -17818.72127279297, 0.01, 0.23800000000000002, 0.9520000000000001, 192.0, 0.0, 40.0, 3.5, 56.0, 14.5, 96.0, 0.0, 0.0, 0.0, 1.644587191562512E9, 0.0, 2022-02-12 00:46:31.562
128.0, -12487.494944035405, -11762.180836460691, -8275.241646199423, -12978.562769718501, -11603.662264783654, -8795.59025711897, -10969.632681564413, -8312.770225139884, -11098.155212182428, -12711.459423477581, -11329.33930508367, -10000.528097215665, -8992.151497858942, -12637.095169674776, -13148.592489790022, -17838.0108282579, 0.01, 0.23800000000000002, 0.9520000000000001, 192.0, 0.0, 0.0, 0.0, 0.0, 0.0, 0.0, 0.0, 0.0, 0.0, 1.644587191570127E9, 0.0, 2022-02-12 00:46:31.570
130.0, -12482.063470132765, -11747.56279558692, -8282.97534978096, -12979.859170896909, -11604.4892793285, -8789.152954715842, -10963.463600094748, -8314.40190248512, -11097.596418571045, -12730.346647542316, -11330.434540561979, -9999.745786159729, -9002.098024141553, -12638.413922597638, -13140.12117864146, -17842.682342849057, 0.01, 0.23800000000000002, 0.9520000000000001, 192.0, 0.0, 0.0, 0.0, 0.0, 0.0, 0.0, 0.0, 0.0, 0.0, 1.644587191578072E9, 0.0, 2022-02-12 00:46:31.578
132.0, -12466.529007736328, -11739.784388516473, -8277.387413667133, -12977.065202839996, -11600.264799626446, -8788.884733782379, -10958.948547714775, -8307.271696003878, -11078.552732295124, -12696.84138260381, -11348.852377993153, -10013.223888066279, -9002.276838097196, -12649.545091336382, -13144.256251365692, -17814.206220412998, 0.01, 0.23800000000000002, 0.9520000000000001, 192.0, 0.0, 0.0, 0.0, 0.0, 0.0, 0.0, 0.0, 0.0, 0.0, 1.644587191593939E9, 0.0, 2022-02-12 00:46:31.593
134.0, -12462.170417567542, -11753.061324722925, -8272.335919420233, -12986.072955855485, -11600.600075793276, -8788.370643659908, -10958.568568059036, -8313.060797817803, -11096.09885169254, -12714.901592123699, -11335.016648175317, -9997.60001869202, -9007.529498044194, -12644.203024411563, -13142.669277509365, -17853.120607509685, 0.01, 0.23800000000000002, 0.9520000000000001, 192.0, 0.0, 0.0, 0.0, 0.0, 0.0, 0.0, 0.0, 0.0, 0.0, 1.644587191600197E9, 0.0, 2022-02-12 00:46:31.600
136.0, -12485.080955634232, -11757.531673613987, -8281.790707324828, -12976.349947017427, -11596.107375157759, -8790.516411127617, -10959.574396559525, -8312.189079784046, -11087.918113221898, -12724.08815909483, -11329.875746950596, -9997.622370436475, -8991.838573436567, -12622.320666589818, -13140.523510041656, -17822.319903650274, 0.006, 0.23600000000000002, 0.9460000000000001, 192.0, 0.0, 24.0, 3.5, 48.0, 14.5, 72.0, 0.0, 0.0, 0.0, 1.644587191607727E9, 0.0, 2022-02-12 00:46:31.607
138.0, -12494.669854005559, -11778.497609913065, -8281.567189880276, -12984.754202932621, -11615.016950966949, -8794.383262918385, -10969.36446063095, -8302.711940134996, -11102.402043628937, -12724.222269561562, -11342.593889545667, -10000.12576581547, -9002.366245075018, -12649.276870402917, -13150.827664235552, -17838.591973613737, 0.006, 0.23600000000000002, 0.9460000000000001, 192.0, 0.0, 0.0, 0.0, 0.0, 0.0, 0.0, 0.0, 0.0, 0.0, 1.644587191614966E9, 0.0, 2022-02-12 00:46:31.614
140.0, -12490.937112681522, -11767.99229001907, -8286.059890515791, -12978.495714485136, -11605.96449446255, -8788.16947795981, -10966.16816117384, -8305.572963425275, -11107.587648342569, -12741.14254011423, -11333.429674318992, -9998.427033236865, -8990.989207147266, -12614.519907774915, -13145.642059521922, -17844.58224112776, 0.006, 0.23600000000000002, 0.9460000000000001, 192.0, 0.0, 0.0, 0.0, 0.0, 0.0, 0.0, 0.0, 0.0, 0.0, 1.644587191622489E9, 0.0, 2022-02-12 00:46:31.622
142.0, -12475.84968517419, -11742.690115295663, -8284.137640492636, -12966.671641668278, -11600.175392648625, -8784.973178502702, -10962.770696016634, -8299.850916844716, -11088.43220334437, -12700.484716950026, -11342.862110479131, -9990.983902333248, -9004.199088120353, -12642.325477877317, -13150.023001435162, -17810.54053432233, 0.006, 0.23600000000000002, 0.9460000000000001, 192.0, 0.0, 0.0, 0.0, 0.0, 0.0, 0.0, 0.0, 0.0, 0.0, 1.644587191630667E9, 0.0, 2022-02-12 00:46:31.630
144.0, -12486.422060301551, -11749.194472932157, -8283.958826536993, -12981.200275564228, -11618.123843446238, -8788.683568082282, -10969.610329819958, -8302.868402346183, -11108.43701463187, -12721.227135804551, -11341.118674411617, -10000.259876282202, -9008.691788755868, -12643.018381955431, -13150.134760157438, -17851.801854586825, 0.006, 0.23600000000000002, 0.9460000000000001, 192.0, 0.0, 0.0, 0.0, 0.0, 0.0, 0.0, 0.0, 0.0, 0.0, 1.644587191638273E9, 0.0, 2022-02-12 00:46:31.638
146.0, -12478.934225909023, -11759.073943981402, -8282.081280002747, -12963.676507911267, -11588.932465187605, -8790.27054193861, -10959.373230859426, -8305.438852958543, -11096.836459259566, -12721.920039882665, -11338.749389499353, -9997.22003903628, -9000.287532840674, -12641.766684265935, -13147.117274655971, -17814.899124491112, 0.008, 0.234, 0.9420000000000001, 192.0, 0.0, 32.0, 3.5, 40.0, 14.5, 56.0, 0.0, 0.0, 0.0, 1.644587191644414E9, 0.0, 2022-02-12 00:46:31.644
148.0, -12475.581464240726, -11757.241100936068, -8271.240683941924, -12974.382993505358, -11598.521363558933, -8792.773937317603, -10958.88149248141, -8290.910219062593, -11090.91324697891, -12720.958914871087, -11334.055523163739, -9994.247257023724, -9004.064977653621, -12625.427559069105, -13143.004553676195, -17832.53465086635, 0.008, 0.234, 0.9420000000000001, 192.0, 0.0, 0.0, 0.0, 0.0, 0.0, 0.0, 0.0, 0.0, 0.0, 1.644587191652032E9, 0.0, 2022-02-12 00:46:31.652
150.0, -12489.953635925489, -11753.575414845398, -8277.968559022971, -12977.75810691811, -11585.713813986042, -8796.663140852826, -10957.83096049201, -8296.74402436543, -11092.902552235431, -12736.739246456535, -11331.261555106827, -9998.784661148151, -8999.21464910682, -12629.40616958215, -13141.12700714195, -17839.57545036977, 0.008, 0.234, 0.9420000000000001, 192.0, 0.0, 0.0, 0.0, 0.0, 0.0, 0.0, 0.0, 0.0, 0.0, 1.644587191660105E9, 0.0, 2022-02-12 00:46:31.660
152.0, -12481.079993376732, -11739.002077460538, -8272.514733375876, -12974.539455716545, -11588.641892509688, -8789.778803560592, -10958.568568059036, -8295.045291786826, -11094.847154003044, -12709.626580432247, -11341.677468023, -10005.244315295735, -8980.640349464458, -12619.437291555083, -13142.378704831446, -17809.221781399465, 0.008, 0.234, 0.9420000000000001, 192.0, 0.0, 0.0, 0.0, 0.0, 0.0, 0.0, 0.0, 0.0, 0.0, 1.644587191668071E9, 0.0, 2022-02-12 00:46:31.668
154.0, -12480.454144531983, -11752.56958634491, -8270.950111264005, -12980.775592419577, -11608.713759030552, -8801.379358932896, -10964.447076850782, -8297.660445888096, -11116.751863569245, -12716.734435169034, -11331.015685917817, -10004.976094362271, -9001.53923053017, -12629.629687026703, -13144.166844387872, -17851.19835748653, 0.008, 0.234, 0.9420000000000001, 192.0, 0.0, 0.0, 0.0, 0.0, 0.0, 0.0, 0.0, 0.0, 0.0, 1.644587191674571E9, 0.0, 2022-02-12 00:46:31.674
156.0, -12493.082880149232, -11769.959243531137, -8272.380622909144, -12966.179903290262, -11594.29688385688, -8796.037292008077, -10961.675460538323, -8307.271696003878, -11096.81410751511, -12726.345685284816, -11338.01178193233, -9984.725413885762, -9002.410948563927, -12657.055277473364, -13147.631364778445, -17818.587162326236, 0.014, 0.234, 0.9480000000000001, 192.0, 0.0, 56.0, 3.5, 40.0, 14.5, 80.0, 0.0, 0.0, 0.0, 1.644587191682642E9, 0.0, 2022-02-12 00:46:31.682
158.0, -12477.32490030824, -11768.349917930356, -8266.569169350763, -12974.673566183277, -11597.403776336167, -8789.756451816136, -10955.416972090838, -8299.06860578878, -11101.262104661717, -12721.294191037918, -11333.072046407706, -9984.50189644121, -9006.769538732713, -12631.104902160752, -13143.205719376294, -17834.76982531188, 0.014, 0.234, 0.9480000000000001, 192.0, 0.0, 0.0, 0.0, 0.0, 0.0, 0.0, 0.0, 0.0, 0.0, 1.644587191690817E9, 0.0, 2022-02-12 00:46:31.690
160.0, -12479.113039864666, -11757.732839314085, -8270.950111264005, -12972.594853948935, -11588.016043664938, -8789.354120415941, -10952.35478310046, -8290.329073706755, -11102.33498839557, -12740.42728429166, -11324.354866070136, -9988.368748231978, -9002.790928219669, -12634.211794640041, -13139.182405374338, -17842.749398082426, 0.014, 0.234, 0.9480000000000001, 192.0, 0.0, 0.0, 0.0, 0.0, 0.0, 0.0, 0.0, 0.0, 0.0, 1.644587191697165E9, 0.0, 2022-02-12 00:46:31.697
162.0, -12461.61162395616, -11745.059400207925, -8272.894713031616, -12968.839760880443, -11586.406718064156, -8782.536838357073, -10950.901919710866, -8295.380567953654, -11082.821915486087, -12706.385577486228, -11326.701799237944, -9997.845887881027, -8989.312826313118, -12634.79293999588, -13139.249460607703, -17809.065319188277, 0.014, 0.234, 0.9480000000000001, 192.0, 0.0, 0.0, 0.0, 0.0, 0.0, 0.0, 0.0, 0.0, 0.0, 1.644587191705261E9, 0.0, 2022-02-12 00:46:31.705
164.0, -12486.75733646838, -11740.812568761417, -8270.503076374898, -12976.595816206434, -11593.782793734408, -8784.839068035968, -10939.54723352757, -8288.2056579835, -11101.53032559518, -12731.732455698546, -11328.6240492611, -9994.962512846294, -8996.286570583174, -12635.351733607262, -13140.612917019478, -17850.483101663962, 0.014, 0.234, 0.9480000000000001, 192.0, 0.0, 0.0, 0.0, 0.0, 0.0, 0.0, 0.0, 0.0, 0.0, 1.644587191720236E9, 0.0, 2022-02-12 00:46:31.720
166.0, -12492.121755137654, -11752.65899332273, -8270.123096719159, -12964.6599846673, -11586.093793641781, -8777.440640621262, -10946.230405119706, -8286.775146338361, -11091.67320629039, -12729.22906031955, -11325.450101548446, -9990.246294766224, -8968.101020825032, -12634.681181273601, -13138.735370485232, -17813.513316334884, 0.006, 0.23800000000000002, 0.9440000000000001, 192.0, 0.0, 24.0, 3.5, 56.0, 14.5, 64.0, 0.0, 0.0, 0.0, 1.644587191726835E9, 0.0, 2022-02-12 00:46:31.726
168.0, -12473.41334502856, -11741.08078969488, -8263.484628615932, -12976.439353995247, -11601.091814171294, -8785.196695947254, -10955.21580639074, -8294.799422597816, -11098.401081371438, -12725.406912017694, -11324.265459092316, -9991.252123266713, -8996.375977560994, -12626.276925358407, -13141.149358886405, -17831.28295317685, 0.006, 0.23800000000000002, 0.9440000000000001, 192.0, 0.0, 0.0, 0.0, 0.0, 0.0, 0.0, 0.0, 0.0, 0.0, 1.64458719173495E9, 0.0, 2022-02-12 00:46:31.734
170.0, -12468.294795548296, -11759.006888748037, -8272.000643253403, -12976.953444117718, -11603.684616528108, -8791.633998350382, -10966.525789085126, -8305.796480869827, -11099.451613360836, -12739.488511024538, -11330.970982428908, -9986.73707088674, -9005.16021313193, -12608.999026894455, -13141.663449008876, -17844.850462061222, 0.006, 0.23800000000000002, 0.9440000000000001, 192.0, 0.0, 0.0, 0.0, 0.0, 0.0, 0.0, 0.0, 0.0, 0.0, 1.644587191742975E9, 0.0, 2022-02-12 00:46:31.742
172.0, -12468.9429961375, -11761.197359704658, -8268.334957162733, -12973.399516749325, -11594.989787934994, -8797.780728075591, -10960.244948893183, -8294.866477831183, -11091.516744079203, -12726.65860970719, -11342.750351756853, -9995.320140757578, -9000.466346796316, -12650.081533203309, -13148.279565367648, -17816.083766947242, 0.006, 0.23800000000000002, 0.9440000000000001, 192.0, 0.0, 0.0, 0.0, 0.0, 0.0, 0.0, 0.0, 0.0, 0.0, 1.644587191750905E9, 0.0, 2022-02-12 00:46:31.750
174.0, -12490.266560347864, -11763.521941128009, -8269.005509496392, -12991.6161884804, -11590.787659977397, -8806.922591557812, -10945.336335341493, -8299.02390229987, -11113.890840278966, -12740.226118591561, -11325.494805037357, -9990.670977910875, -8999.795794462658, -12645.8347017568, -13144.12214089896, -17859.513206423904, 0.006, 0.23800000000000002, 0.9440000000000001, 192.0, 0.0, 0.0, 0.0, 0.0, 0.0, 0.0, 0.0, 0.0, 0.0, 1.644587191757606E9, 0.0, 2022-02-12 00:46:31.757
176.0, -12478.330728808729, -11748.680382809685, -8275.755736321895, -12978.652176696323, -11580.304691827858, -8801.155841488344, -10950.87956796641, -8297.839259843739, -11100.748014539244, -12748.8091884624, -11338.302354610249, -10005.870164140482, -9004.757881731735, -12650.729733792512, -13144.882100210441, -17827.170232197077, -0.002, 0.23600000000000002, 0.9400000000000001, 192.0, 127.5, 120.0, 3.5, 48.0, 14.5, 48.0, 0.0, 0.0, 0.0, 1.644587191765545E9, 0.0, 2022-02-12 00:46:31.765
178.0, -12502.068281420265, -11759.94566201516, -8266.055079228292, -12989.04573786804, -11599.4377850816, -8794.830297807492, -10955.506379068658, -8300.722634878473, -11098.132860437974, -12741.433112792149, -11330.523947539801, -10002.360940261, -8989.558695502126, -12634.278849873406, -13146.536129300133, -17840.044837003334, -0.002, 0.23600000000000002, 0.9400000000000001, 192.0, 0.0, 0.0, 0.0, 0.0, 0.0, 0.0, 0.0, 0.0, 0.0, 1.644587191772831E9, 0.0, 2022-02-12 00:46:31.772
180.0, -12494.356929583184, -11759.073943981402, -8273.54291362082, -12987.145839589339, -11606.500936329478, -8797.02076876411, -10968.425687363826, -8309.529222193863, -11118.696465336856, -12763.270767124983, -11328.266421349816, -10003.657341439408, -9015.106739414543, -12646.617012812736, -13150.22416713526, -17857.367438956197, -0.002, 0.23600000000000002, 0.9400000000000001, 192.0, 0.0, 0.0, 0.0, 0.0, 0.0, 0.0, 0.0, 0.0, 0.0, 1.644587191779644E9, 0.0, 2022-02-12 00:46:31.779
182.0, -12492.457031304482, -11772.95437728815, -8274.839314799228, -12979.434487752258, -11592.218171622537, -8788.527105871095, -10947.772675487122, -8298.77803311086, -11106.201840186339, -12742.37188605927, -11331.753293484842, -10002.204478049813, -9004.936695687378, -12649.50038784747, -13151.274699124659, -17823.0575112173, -0.002, 0.23600000000000002, 0.9400000000000001, 192.0, 0.0, 0.0, 0.0, 0.0, 0.0, 0.0, 0.0, 0.0, 0.0, 1.644587191787251E9, 0.0, 2022-02-12 00:46:31.787
184.0, -12492.993473171411, -11780.442211680676, -8279.06379450128, -12998.411118794815, -11607.417357852144, -8787.677739581794, -10953.695887767779, -8298.085129032746, -11127.257183463238, -12772.256168396018, -11331.127444640095, -9995.945989602327, -9007.082463155088, -12647.60048956877, -13151.498216569213, -17862.888319836657, -0.002, 0.23600000000000002, 0.9400000000000001, 192.0, 0.0, 0.0, 0.0, 0.0, 0.0, 0.0, 0.0, 0.0, 0.0, 1.644587191795352E9, 0.0, 2022-02-12 00:46:31.795
186.0, -12491.630016759636, -11758.805723047939, -8283.869419559172, -12992.398499536337, -11598.051976925371, -8796.1266989859, -10955.998117446676, -8297.526335421364, -11116.81891880261, -12762.62256653578, -11354.015630962329, -10016.55429799012, -9010.658742267937, -12642.8842714887, -13154.783923004143, -17830.500642120915, 0.008, 0.23, 0.9400000000000001, 192.0, 0.0, 32.0, 3.5, 24.0, 14.5, 48.0, 0.0, 0.0, 0.0, 1.644587191802358E9, 0.0, 2022-02-12 00:46:31.802
188.0, -12473.860379917667, -11766.450019651655, -8273.744079320917, -12997.829973438977, -11610.97128522054, -8799.233591465187, -10964.69294603979, -8306.914068092594, -11113.756729812232, -12747.021048905975, -11347.555976814745, -10015.392007278444, -9002.746224730758, -12656.921167006632, -13157.80140850561, -17848.62790687417, 0.008, 0.23, 0.9400000000000001, 192.0, 0.0, 0.0, 0.0, 0.0, 0.0, 0.0, 0.0, 0.0, 0.0, 1.644587191809664E9, 0.0, 2022-02-12 00:46:31.809
190.0, -12499.810755230279, -11772.842618565872, -8281.611893369185, -12997.13706936086, -11597.58259029181, -8802.943981044767, -10960.759039015657, -8312.367893739689, -11119.590535115069, -12771.831485251367, -11337.922374954507, -10013.536812488654, -9020.314695872628, -12628.73561724849, -13151.878196224952, -17862.843616347745, 0.008, 0.23, 0.9400000000000001, 192.0, 0.0, 0.0, 0.0, 0.0, 0.0, 0.0, 0.0, 0.0, 0.0, 1.644587191817865E9, 0.0, 2022-02-12 00:46:31.817
192.0, -12503.699958765503, -11768.238159208078, -8280.941341035526, -12982.943711631742, -11589.91594194364, -8795.143222229866, -10958.613271547947, -8295.939361565037, -11109.576953599091, -12741.56722325888, -11338.592927288168, -10012.799204921628, -8979.388651774962, -12660.229225186018, -13153.666335781376, -17826.47732811896, 0.008, 0.23, 0.9400000000000001, 192.0, 0.0, 0.0, 0.0, 0.0, 0.0, 0.0, 0.0, 0.0, 0.0, 1.644587191825736E9, 0.0, 2022-02-12 00:46:31.825
194.0, -12495.630979017136, -11777.916464557227, -8277.186247967034, -12997.338235060959, -11607.082081685316, -8797.803079820047, -10963.664765794847, -8295.671140631574, -11123.81501481712, -12772.770258518489, -11333.29556385226, -10000.528097215665, -9003.260314853229, -12647.30991689085, -13149.061876423584, -17862.30717448082, 0.008, 0.233, 0.9440000000000001, 192.0, 0.0, 32.0, 3.5, 48.0, 14.5, 80.0, 0.0, 0.0, 0.0, 1.644587191839417E9, 0.0, 2022-02-12 00:46:31.839
196.0, -12494.848667961201, -11764.594824861864, -8277.856800300695, -12991.57148499149, -11597.604942036265, -8796.998417019657, -10967.039879207598, -8300.655579645107, -11111.119223966507, -12766.62352879328, -11345.29845062476, -10017.403664279422, -9021.253469139752, -12648.606318069258, -13152.481693325246, -17834.747473567426, 0.008, 0.233, 0.9440000000000001, 192.0, 0.0, 0.0, 0.0, 0.0, 0.0, 0.0, 0.0, 0.0, 0.0, 1.644587191847563E9, 0.0, 2022-02-12 00:46:31.847
198.0, -12482.309339321773, -11771.166237731724, -8269.027861240847, -12998.992264150653, -11601.315331615846, -8797.780728075591, -10963.26243439465, -8300.320303478278, -11117.377712413992, -12752.206653619607, -11340.112845911128, -10018.454196268822, -9008.848250967056, -12646.549957579371, -13153.08519042554, -17848.940831296546, 0.008, 0.233, 0.9440000000000001, 192.0, 0.0, 0.0, 0.0, 0.0, 0.0, 0.0, 0.0, 0.0, 0.0, 1.644587191855904E9, 0.0, 2022-02-12 00:46:31.855
200.0, -12480.431792787527, -11781.716261114629, -8274.34757642121, -13000.33336881797, -11599.77306124843, -8796.238457708176, -10966.12345768493, -8304.522431435875, -11126.765445085222, -12781.487438856058, -11344.113808168628, -10001.511573971698, -9016.045512681665, -12649.925070992122, -13157.287318383136, -17868.07392455029, 0.008, 0.233, 0.9440000000000001, 192.0, 0.0, 0.0, 0.0, 0.0, 0.0, 0.0, 0.0, 0.0, 0.0, 1.644587191862217E9, 0.0, 2022-02-12 00:46:31.862
202.0, -12479.649481731592, -11759.90095852625, -8267.77616355135, -12982.13904883135, -11583.456287796056, -8781.866286023413, -10951.326602855517, -8299.649751144618, -11103.564334340614, -12740.673153480668, -11338.347058099158, -10000.014007093192, -9003.416777064416, -12645.07474244532, -13156.057972438095, -17829.785386298347, 0.008, 0.233, 0.9440000000000001, 192.0, 0.0, 0.0, 0.0, 0.0, 0.0, 0.0, 0.0, 0.0, 0.0, 1.644587191870057E9, 0.0, 2022-02-12 00:46:31.870
204.0, -12510.293723379818, -11789.315854229433, -8272.022994997858, -12998.656987983823, -11592.754613489464, -8793.958579773735, -10967.196341418785, -8295.648788887118, -11115.34370366856, -12757.235796122051, -11319.705703223432, -9990.380405232956, -8975.87942789548, -12637.631611541703, -13150.514739813178, -17870.219692017996, 0.008, 0.233, 0.9440000000000001, 192.0, 0.0, 0.0, 3.5, 40.0, 14.5, 56.0, 0.0, 0.0, 0.0, 1.644587191877937E9, 0.0, 2022-02-12 00:46:31.877
206.0, -12516.932191483045, -11780.911598314238, -8281.075451502258, -12991.95146464723, -11595.034491423905, -8792.371605917408, -10964.871759995433, -8298.621570899675, -11124.977305528797, -12782.180342934173, -11343.934994212985, -10014.229716566768, -9016.179623148397, -12645.342963378784, -13154.98508870424, -17842.59293587124, 0.008, 0.233, 0.9440000000000001, 192.0, 0.0, 0.0, 0.0, 0.0, 0.0, 0.0, 0.0, 0.0, 0.0, 1.644587191885078E9, 0.0, 2022-02-12 00:46:31.885
208.0, -12485.23741784542, -11782.699737870662, -8268.44671588501, -13005.608380509422, -11608.11026193026, -8799.479460654195, -10966.861065251955, -8303.717768635484, -11129.335895697583, -12768.38931660525, -11348.964136715429, -10016.196670078834, -9019.26416388323, -12659.379858896717, -13159.991879462228, -17858.350915712228, 0.008, 0.233, 0.9440000000000001, 192.0, 0.0, 0.0, 0.0, 0.0, 0.0, 0.0, 0.0, 0.0, 0.0, 1.644587191891798E9, 0.0, 2022-02-12 00:46:31.891
210.0, -12505.421043088561, -11791.819249608428, -8278.750870078906, -13005.541325276057, -11606.322122373835, -8798.607742620437, -10965.966995473742, -8309.462166960499, -11135.057942278141, -12795.211409951617, -11343.555014557245, -10018.07421661308, -9015.9784574483, -12629.584983537792, -13151.855844480497, -17870.73378214047, 0.008, 0.233, 0.9440000000000001, 192.0, 0.0, 0.0, 0.0, 0.0, 0.0, 0.0, 0.0, 0.0, 0.0, 1.644587191899739E9, 0.0, 2022-02-12 00:46:31.899
212.0, -12495.206295872485, -11777.111801756835, -8281.746003835917, -12993.85136292593, -11588.664244254142, -8793.98093151819, -10962.234254149706, -8314.133681551657, -11117.802395558643, -12768.791648005445, -11351.020497205318, -10020.778777692172, -8998.834669451078, -12675.115486993252, -13158.069629439073, -17837.161461968597, 0.008, 0.233, 0.9440000000000001, 192.0, 0.0, 0.0, 0.0, 0.0, 0.0, 0.0, 0.0, 0.0, 0.0, 1.644587191907755E9, 0.0, 2022-02-12 00:46:31.907
214.0, -12479.224798586942, -11780.553970402952, -8276.962730522482, -13015.264334114116, -11601.315331615846, -8795.031463507588, -10957.160408158352, -8296.766376109885, -11124.798491573154, -12761.214406635096, -11347.824197748208, -10019.705893958318, -9011.21753587932, -12639.017419697931, -13149.195986890316, -17874.64533742015, 0.005, 0.2335, 0.9450000000000001, 192.0, 0.0, 8.0, 3.5, 40.0, 14.5, 72.0, 0.0, 0.0, 0.0, 1.644587191914871E9, 0.0, 2022-02-12 00:46:31.914
216.0, -12502.71648200947, -11792.75802287555, -8283.668253859074, -12989.962159390709, -11596.822630980329, -8801.044082766066, -10965.207036162263, -8299.895620333627, -11123.7256078393, -12777.262959154006, -11342.638593034577, -10005.914867629393, -9000.64516075196, -12652.920204749133, -13157.354373616503, -17843.285839949353, 0.005, 0.2335, 0.9450000000000001, 192.0, 0.0, 0.0, 0.0, 0.0, 0.0, 0.0, 0.0, 0.0, 0.0, 1.644587191922322E9, 0.0, 2022-02-12 00:46:31.922
218.0, -12503.990531443422, -11789.04763329597, -8276.11336423318, -12995.95242690473, -11599.594247292787, -8799.054777509544, -10958.568568059036, -8301.97433256797, -11129.760578842233, -12776.502999842525, -11332.446197562957, -9998.941123359338, -9004.891992198467, -12663.425524643128, -13159.813065506587, -17851.95831679801, 0.005, 0.2335, 0.9450000000000001, 192.0, 0.0, 0.0, 0.0, 0.0, 0.0, 0.0, 0.0, 0.0, 0.0, 1.644587191931833E9, 0.0, 2022-02-12 00:46:31.931
220.0, -12505.242229132919, -11796.200191521668, -8282.550666636309, -13000.512182773613, -11602.902305472173, -8799.300646698553, -10966.235216407207, -8309.17159428258, -11140.847044092065, -12806.811965323921, -11337.631802276588, -10008.664132197397, -9005.808413721135, -12658.731658307512, -13159.589548062033, -17870.95729958502, 0.005, 0.2335, 0.9450000000000001, 192.0, 0.0, 0.0, 0.0, 0.0, 0.0, 0.0, 0.0, 0.0, 0.0, 1.644587191937946E9, 0.0, 2022-02-12 00:46:31.937
222.0, -12504.817545988268, -11804.962075348149, -8276.82862005575, -12997.025310638584, -11596.755575746964, -8800.1276612434, -10963.843579750488, -8311.876155361671, -11127.681866607889, -12776.43594460916, -11346.930127969996, -10015.146138089436, -9010.323466101107, -12660.162169952651, -13159.544844573122, -17837.183813713054, 0.005, 0.2335, 0.9450000000000001, 192.0, 0.0, 0.0, 0.0, 0.0, 0.0, 0.0, 0.0, 0.0, 0.0, 1.644587191944964E9, 0.0, 2022-02-12 00:46:31.944
224.0, -12483.382223055629, -11782.14094425928, -8274.794611310317, -13010.346950333947, -11606.791509007397, -8809.560097403539, -10962.681289038812, -8310.915030350094, -11139.10360802455, -12792.730366317079, -11336.223642375904, -10009.491146742243, -9010.949314945856, -12643.286602888895, -13157.287318383136, -17880.501494467437, 0.0075, 0.23275, 0.9455, 192.0, 0.0, 40.0, 3.5, 32.0, 14.5, 72.0, 0.0, 0.0, 0.0, 1.64458719195285E9, 0.0, 2022-02-12 00:46:31.952
226.0, -12482.37639455514, -11751.764923544517, -8279.644939857119, -12999.506354273124, -11582.986901162494, -8791.522239628106, -10954.969937201731, -8306.93641983705, -11115.857793791032, -12773.53021782997, -11348.919433226518, -10018.275382313179, -9010.837556223578, -12648.002820968964, -13160.505969584701, -17849.119645252187, 0.0075, 0.23275, 0.9455, 192.0, 0.0, 0.0, 0.0, 0.0, 0.0, 0.0, 0.0, 0.0, 0.0, 1.644587191967037E9, 0.0, 2022-02-12 00:46:31.967
228.0, -12499.162554641076, -11791.416918208233, -8273.453506642998, -12999.52870601758, -11594.3862908347, -8800.93232404379, -10955.729896513212, -8312.770225139884, -11119.210555459327, -12746.864586694788, -11332.893232452063, -10020.488205014253, -8995.437204293872, -12653.031963471409, -13162.182350418849, -17858.99911630143, 0.0075, 0.23275, 0.9455, 192.0, 0.0, 0.0, 0.0, 0.0, 0.0, 0.0, 0.0, 0.0, 0.0, 1.64458719197448E9, 0.0, 2022-02-12 00:46:31.974
230.0, -12524.91176425359, -11826.2409360696, -8284.316454448277, -13000.936865918264, -11607.14913691868, -8814.812757350535, -10972.605463576969, -8321.487405477454, -11152.82757912011, -12799.502944887035, -11333.496729552357, -9990.782736633151, -9013.8773934695, -12674.534341637414, -13164.238710908738, -17881.082639823275, 0.0075, 0.23275, 0.9455, 192.0, 0.0, 0.0, 0.0, 0.0, 0.0, 0.0, 0.0, 0.0, 0.0, 1.644587191982607E9, 0.0, 2022-02-12 00:46:31.982
232.0, -12510.405482102095, -11810.795880650983, -8280.986044524438, -12994.81248793751, -11598.119032158736, -8803.547478145061, -10970.50439959817, -8313.306667006811, -11139.997677802763, -12790.249322682539, -11345.924299469507, -10005.98192286276, -9006.456614310338, -12662.643213587191, -13164.305766142103, -17842.212956215495, 0.0075, 0.23275, 0.9455, 192.0, 0.0, 0.0, 0.0, 0.0, 0.0, 0.0, 0.0, 0.0, 0.0, 1.644587191990654E9, 0.0, 2022-02-12 00:46:31.990
234.0, -12492.300569093297, -11797.742461889084, -8280.628416613152, -13008.961142177719, -11609.004331708471, -8806.252039224153, -10971.487876354204, -8314.267792018389, -11148.312526740137, -12798.474764642093, -11338.302354610249, -10004.17143156188, -9026.662591297936, -12641.096131932276, -13164.641042308933, -17879.428610733583, 0.00575, 0.233375, 0.94475, 192.0, 0.0, 16.0, 3.5, 40.0, 14.5, 64.0, 0.0, 0.0, 0.0, 1.644587191997246E9, 0.0, 2022-02-12 00:46:31.997
236.0, -12486.80203995729, -11790.835772852395, -8289.032672528348, -13002.85911594142, -11597.806107736364, -8815.12568177291, -10973.588940333002, -8320.749797910428, -11136.354343456549, -12789.824639537888, -11358.374221131113, -10011.212231065301, -9016.917230715422, -12655.133027450209, -13166.31742314308, -17852.539462153847, 0.00575, 0.233375, 0.94475, 192.0, 0.0, 0.0, 0.0, 0.0, 0.0, 0.0, 0.0, 0.0, 0.0, 1.644587192005205E9, 0.0, 2022-02-12 00:46:32.005
238.0, -12497.419118573562, -11773.110839499335, -8282.237742213934, -13013.565601535513, -11597.023796680427, -8807.883716569391, -10971.666690309847, -8312.814928628793, -11145.272689494215, -12786.58363659187, -11358.262462408837, -10023.773911449183, -9015.821995237113, -12667.471190389537, -13168.351431888514, -17863.737686125958, 0.00575, 0.233375, 0.94475, 192.0, 0.0, 0.0, 0.0, 0.0, 0.0, 0.0, 0.0, 0.0, 0.0, 1.644587192013268E9, 0.0, 2022-02-12 00:46:32.013
