%OpenBCI Raw EEG Data
%Number of channels = 16
%Sample Rate = 125 Hz
%Board = OpenBCI_GUI$BoardCytonSerialDaisy
Sample Index, EXG Channel 0, EXG Channel 1, EXG Channel 2, EXG Channel 3, EXG Channel 4, EXG Channel 5, EXG Channel 6, EXG Channel 7, EXG Channel 8, EXG Channel 9, EXG Channel 10, EXG Channel 11, EXG Channel 12, EXG Channel 13, EXG Channel 14, EXG Channel 15, Accel Channel 0, Accel Channel 1, Accel Channel 2, Other, Other, Other, Other, Other, Other, Other, Analog Channel 0, Analog Channel 1, Analog Channel 2, Timestamp, Other, Timestamp (Formatted)
0.0, -10231.30985871671, -9712.928201309229, -6996.654808122494, -12598.292541300361, -9340.190510772529, -6061.43546836799, -9119.556441254192, -6924.950411909868, 0.0, 0.0, 0.0, 0.0, 0.0, 0.0, 0.0, 0.0, 0.0, 0.0, 0.0, 192.0, 0.0, 0.0, 0.0, 0.0, 0.0, 0.0, 0.0, 0.0, 0.0, 1.64458740009055E9, 0.0, 2022-02-12 00:50:00.090
190.0, -10261.909396876026, -9736.844567876407, -7000.611066891082, -12573.213884021508, -9329.104045522696, -6070.15264870556, -9111.889792906022, -6920.547118252172, -9781.726870742665, -11894.950198525215, -8056.865102871073, -6266.602130723254, -6400.623190477275, -9366.207941318506, -12002.059757955047, -16690.67343362253, 0.0, 0.0, 0.0, 192.0, 0.0, 0.0, 0.0, 0.0, 0.0, 0.0, 0.0, 0.0, 0.0, 1.644587400090558E9, 0.0, 2022-02-12 00:50:00.090
0.0, -5108.9829336384455, -4890.315817632177, -3606.9010027529007, -6333.143273966703, -4960.07561207719, -3214.1585009287005, -4777.037176732681, -3622.770741316169, -4899.480032858853, -5949.073248991162, -4014.216841961961, -3122.203424239567, -3187.7610907269827, -4677.124879017458, -6001.868069394597, -8368.26960662241, 0.01, 0.232, 0.9460000000000001, 192.0, 0.0, 40.0, 3.5, 32.0, 14.5, 72.0, 0.0, 0.0, 0.0, 1.644587400180241E9, 0.0, 2022-02-12 00:50:00.180
2.0, -10220.35750393361, -9765.991242646127, -7226.318982400773, -12655.26713791694, -9916.798462486084, -6419.622173264286, -9557.22594943356, -7222.653296310103, -9978.265759738179, -12072.043069844613, -8060.709602917386, -6184.191248916537, -6674.7673362216165, -9430.491558371968, -12240.731685248815, -16796.285426173858, 0.01, 0.232, 0.9460000000000001, 192.0, 0.0, 0.0, 0.0, 0.0, 0.0, 0.0, 0.0, 0.0, 0.0, 1.644587400187308E9, 0.0, 2022-02-12 00:50:00.187
4.0, -10211.237992195844, -9738.4985969661, -7224.5978980777145, -12649.612146569747, -9926.096788179491, -6423.958411688615, -9542.943184726619, -7211.231554893441, -9976.835248093039, -12057.894415604404, -8069.695004188419, -6190.159164686104, -6672.778030965094, -9446.428352168603, -12244.129150406021, -16782.85202775622, 0.01, 0.232, 0.9460000000000001, 192.0, 0.0, 0.0, 0.0, 0.0, 0.0, 0.0, 0.0, 0.0, 0.0, 1.644587400194914E9, 0.0, 2022-02-12 00:50:00.194
6.0, -10225.341942947143, -9786.599551033922, -7228.420046379572, -12656.98822224, -9940.357201141978, -6428.451112324133, -9554.029649976452, -7225.894299256122, -9989.799259877118, -12075.373479768454, -8064.129419819048, -6184.593580316732, -6690.301798618055, -9438.694648587067, -12242.09514166059, -16827.644923644653, 0.01, 0.232, 0.9460000000000001, 192.0, 0.0, 0.0, 0.0, 0.0, 0.0, 0.0, 0.0, 0.0, 0.0, 1.644587400203364E9, 0.0, 2022-02-12 00:50:00.203
8.0, -10212.333227674155, -9790.689920269242, -7223.815587021779, -12642.370181366228, -9915.323247352035, -6415.0847691398585, -9534.181300900138, -7208.549345558804, -9972.029623035149, -12054.407543469375, -8065.224655297358, -6174.669405778576, -6665.26784482811, -9444.684916101089, -12237.021295669234, -16764.568300791776, 0.004, 0.232, 0.9520000000000001, 192.0, 0.0, 16.0, 3.5, 32.0, 14.5, 96.0, 0.0, 0.0, 0.0, 1.644587400210751E9, 0.0, 2022-02-12 00:50:00.210
10.0, -10194.831811765649, -9766.17005660177, -7219.032313708343, -12658.977527496521, -9930.477730092733, -6424.22663262208, -9544.552510327401, -7227.637735323637, -9977.818724849072, -12065.53871220812, -8061.894245373517, -6170.7802022433525, -6681.539914791574, -9443.232052711493, -12236.015467168745, -16818.927743307086, 0.004, 0.232, 0.9520000000000001, 192.0, 0.0, 0.0, 0.0, 0.0, 0.0, 0.0, 0.0, 0.0, 0.0, 1.644587400217658E9, 0.0, 2022-02-12 00:50:00.217
12.0, -10215.954210275915, -9757.229358819648, -7226.676610312058, -12638.637440042192, -9930.075398692537, -6421.119740142792, -9559.125847712261, -7218.272354396863, -9952.91888152586, -12061.694212161805, -8059.659070927986, -6163.068850406272, -6675.639054255374, -9437.666468342122, -12236.820129969137, -16797.268902929893, 0.004, 0.232, 0.9520000000000001, 192.0, 0.0, 0.0, 0.0, 0.0, 0.0, 0.0, 0.0, 0.0, 0.0, 1.644587400224822E9, 0.0, 2022-02-12 00:50:00.224
14.0, -10207.862878783093, -9754.994184374116, -7216.774787518358, -12645.566480823336, -9928.421369602844, -6418.348123830334, -9542.518501581968, -7217.892374741123, -9961.457247907789, -12039.230708984222, -8053.668803413964, -6165.9075219520955, -6674.163839121323, -9439.76753232092, -12231.589821766594, -16778.158161420604, 0.004, 0.232, 0.9520000000000001, 192.0, 0.0, 0.0, 0.0, 0.0, 0.0, 0.0, 0.0, 0.0, 0.0, 1.644587400232651E9, 0.0, 2022-02-12 00:50:00.232
16.0, -10209.651018339518, -9751.842588405918, -7226.833072523245, -12654.037791971898, -9936.356238884478, -6427.266469868001, -9551.548606341912, -7227.257755667896, -9971.873160823961, -12079.016814114668, -8053.266472013769, -6176.971635457473, -6678.2765601011, -9437.062971241829, -12230.092254888088, -16825.588563154764, 0.004, 0.233, 0.9510000000000001, 192.0, 0.0, 16.0, 3.5, 40.0, 14.5, 88.0, 0.0, 0.0, 0.0, 1.644587400240617E9, 0.0, 2022-02-12 00:50:00.240
18.0, -10204.286599670244, -9767.466457780178, -7227.302459156806, -12632.960096950543, -9928.4437213473, -6419.89039419775, -9547.815865017876, -7221.446302109516, -9957.411582161378, -12050.563043423062, -8062.385983751534, -6167.539199297333, -6670.676966986295, -9438.717000331522, -12227.432397297907, -16758.578033277754, 0.004, 0.233, 0.9510000000000001, 192.0, 0.0, 0.0, 0.0, 0.0, 0.0, 0.0, 0.0, 0.0, 0.0, 1.644587400247049E9, 0.0, 2022-02-12 00:50:00.247
20.0, -10186.584018061641, -9757.184655330737, -7226.7660172898795, -12646.639364557192, -9954.148227470903, -6423.354914588323, -9545.22306266106, -7226.788369034335, -9970.800277090106, -12055.458075458775, -8051.679498157442, -6149.948376411006, -6656.617719723907, -9430.849186283254, -12232.059208400156, -16812.512792648413, 0.004, 0.233, 0.9510000000000001, 192.0, 0.0, 0.0, 0.0, 0.0, 0.0, 0.0, 0.0, 0.0, 0.0, 1.644587400255127E9, 0.0, 2022-02-12 00:50:00.255
22.0, -10206.454718882409, -9751.127332583348, -7230.43170338055, -12632.535413805892, -9938.054971463082, -6417.02937090747, -9552.465027864579, -7228.308287657295, -9954.707021082286, -12056.620366170451, -8057.714469160375, -6157.816190459274, -6692.715787019228, -9432.793788050865, -12229.511109532252, -16785.735402790953, 0.004, 0.233, 0.9510000000000001, 192.0, 0.0, 0.0, 0.0, 0.0, 0.0, 0.0, 0.0, 0.0, 0.0, 1.644587400263249E9, 0.0, 2022-02-12 00:50:00.263
24.0, -10187.768660517771, -9735.25759402008, -7217.311229385285, -12633.74240800648, -9940.133683697424, -6421.857347709817, -9543.680792293644, -7212.460900838483, -9955.288166438124, -12047.076171288034, -8043.744628875808, -6154.396373557613, -6678.500077545653, -9437.91233753113, -12224.504318774263, -16774.000736951915, 0.004, 0.233, 0.9510000000000001, 192.0, 0.0, 0.0, 0.0, 0.0, 0.0, 0.0, 0.0, 0.0, 0.0, 1.644587400269631E9, 0.0, 2022-02-12 00:50:00.269
26.0, -10204.912448514993, -9739.906756866785, -7226.900127756611, -12638.346867364273, -9942.055933720581, -6420.113911642303, -9546.787684772931, -7218.09354044122, -9959.691460095819, -12047.992592810702, -8035.3403729606125, -6153.167027612571, -6664.530237261086, -9426.803520536843, -12219.095196616077, -16816.04436827235, 0.004, 0.233, 0.9510000000000001, 192.0, 0.0, 0.0, 3.5, 56.0, 14.5, 96.0, 0.0, 0.0, 0.0, 1.644587400284705E9, 0.0, 2022-02-12 00:50:00.284
28.0, -10172.591826032618, -9749.629765704844, -7220.708694542492, -12621.8289282118, -9919.972410198738, -6417.74462673004, -9546.474760350557, -7223.435607366038, -9943.620555832453, -12046.115046276456, -8041.755323619285, -6156.832713703241, -6666.787763451071, -9414.599468064245, -12212.501432001762, -16746.619849994167, 0.004, 0.233, 0.9510000000000001, 192.0, 0.0, 0.0, 0.0, 0.0, 0.0, 0.0, 0.0, 0.0, 0.0, 1.64458740029425E9, 0.0, 2022-02-12 00:50:00.294
30.0, -10190.182648918944, -9747.68516393723, -7220.28401139784, -12630.724922505013, -9935.529224339632, -6424.405446577722, -9553.739077298533, -7215.880717740145, -9944.246404677202, -12051.568871923551, -8038.380210206535, -6142.92992865204, -6649.889844642859, -9408.631552294679, -12213.529612246706, -16801.672196587588, 0.004, 0.233, 0.9510000000000001, 192.0, 0.0, 0.0, 0.0, 0.0, 0.0, 0.0, 0.0, 0.0, 0.0, 1.644587400300318E9, 0.0, 2022-02-12 00:50:00.300
32.0, -10198.16222168949, -9753.206044817693, -7223.927345744056, -12618.654980499146, -9932.601145815986, -6420.7174087425965, -9561.919815769174, -7231.3481249032175, -9944.313459910567, -12053.871101602448, -8045.689230643419, -6151.110667122683, -6671.168705364312, -9435.386590407681, -12213.350798291063, -16774.85010324122, 0.004, 0.233, 0.9510000000000001, 192.0, 0.0, 0.0, 0.0, 0.0, 0.0, 0.0, 0.0, 0.0, 0.0, 1.644587400308252E9, 0.0, 2022-02-12 00:50:00.308
34.0, -10182.53835231523, -9728.797939872496, -7216.797139262812, -12627.193346881075, -9934.210471416769, -6415.576507517875, -9547.681754551144, -7223.435607366038, -9941.027753475637, -12030.982915280214, -8040.101294529592, -6144.181626341538, -6665.580769250485, -9430.91624151662, -12212.412025023941, -16766.848178726217, 0.004, 0.233, 0.9510000000000001, 192.0, 0.0, 0.0, 0.0, 0.0, 0.0, 0.0, 0.0, 0.0, 0.0, 1.644587400314599E9, 0.0, 2022-02-12 00:50:00.314
36.0, -10173.68706151093, -9723.098245036394, -7224.732008544446, -12632.35659985025, -9952.605957103486, -6417.766978474496, -9567.150123971716, -7228.710619057491, -9948.15795995688, -12039.767150851148, -8028.321925201646, -6133.899823892096, -6669.447621041253, -9412.945438974553, -12211.674417456916, -16810.7693565809, 0.005, 0.23550000000000001, 0.9515, 192.0, 0.0, 24.0, 3.5, 56.0, 14.5, 96.0, 0.0, 0.0, 0.0, 1.644587400322881E9, 0.0, 2022-02-12 00:50:00.322
38.0, -10179.520866813764, -9720.25957349057, -7217.445339852016, -12618.83379445479, -9936.467997606755, -6412.894298183239, -9551.07921970835, -7214.830185750746, -9932.936421982817, -12016.431929639808, -8033.68634387092, -6154.4634287909785, -6674.387356565876, -9424.970677491508, -12215.094234358578, -16746.619849994167, 0.005, 0.23550000000000001, 0.9515, 192.0, 0.0, 0.0, 0.0, 0.0, 0.0, 0.0, 0.0, 0.0, 0.0, 1.644587400330651E9, 0.0, 2022-02-12 00:50:00.330
40.0, -10196.619951322074, -9753.764838429075, -7220.887508498134, -12630.45670157155, -9950.057858235581, -6409.027446392471, -9556.153065699706, -7233.046857481821, -9947.710925067775, -12034.916822304347, -8016.341390173601, -6129.3400680232135, -6656.058926112524, -9409.704436028533, -12213.79783318017, -16796.821868040784, 0.005, 0.23550000000000001, 0.9515, 192.0, 0.0, 0.0, 0.0, 0.0, 0.0, 0.0, 0.0, 0.0, 0.0, 1.644587400337028E9, 0.0, 2022-02-12 00:50:00.337
42.0, -10180.370233103065, -9752.267271550569, -7232.063380725787, -12619.951381677554, -9931.997648715693, -6415.531804028965, -9561.495132624523, -7245.966165776988, -9958.126837983948, -12048.774903866639, -8048.617309167065, -6147.176760098549, -6681.003472924647, -9415.515889586914, -12215.474214014319, -16776.37002186418, 0.005, 0.23550000000000001, 0.9515, 192.0, 0.0, 0.0, 0.0, 0.0, 0.0, 0.0, 0.0, 0.0, 0.0, 1.644587400344315E9, 0.0, 2022-02-12 00:50:00.344
44.0, -10182.001910448304, -9729.222623017147, -7217.780616018846, -12619.839622955278, -9943.173520943346, -6398.544478242931, -9558.812923289886, -7205.643618779614, -9935.886852250916, -12013.32503716052, -8030.959431047372, -6131.6870011910205, -6672.778030965094, -9404.697645270544, -12215.630676225504, -16759.919137945075, 0.005, 0.23550000000000001, 0.9515, 192.0, 0.0, 0.0, 0.0, 0.0, 0.0, 0.0, 0.0, 0.0, 0.0, 1.644587400352483E9, 0.0, 2022-02-12 00:50:00.352
46.0, -10215.618934109085, -9743.438332490723, -7215.903069484601, -12618.967904921521, -9949.163788457368, -6398.209202076102, -9554.588443587834, -7208.638752536625, -9960.719640340763, -12035.252098471177, -8023.583355377121, -6121.271088274848, -6679.058871157035, -9412.476052340991, -12208.098138344067, -16795.033728484363, 0.0045000000000000005, 0.23775000000000002, 0.9517500000000001, 192.0, 0.0, 16.0, 3.5, 64.0, 14.5, 96.0, 0.0, 0.0, 0.0, 1.644587400360287E9, 0.0, 2022-02-12 00:50:00.360
48.0, -10189.534448329741, -9726.853338104886, -7209.376360103651, -12604.416919281117, -9928.555480069575, -6385.31224552539, -9548.486417351534, -7205.107176912687, -9937.92086099635, -12006.731272546205, -8018.576564619132, -6136.447922760001, -6652.84027491096, -9398.036825422863, -12197.212838794332, -16728.649047452098, 0.0045000000000000005, 0.23775000000000002, 0.9517500000000001, 192.0, 0.0, 0.0, 0.0, 0.0, 0.0, 0.0, 0.0, 0.0, 0.0, 1.644587400367159E9, 0.0, 2022-02-12 00:50:00.367
50.0, -10182.739518015327, -9743.013649346072, -7204.190755390019, -12618.006779909943, -9948.11325646797, -6396.689283453141, -9555.147237199217, -7214.897240984112, -9951.644832091908, -12029.686514101806, -8009.881736026018, -6114.565564938255, -6674.2979495880545, -9400.674331268589, -12199.760937662237, -16780.79566726633, 0.0045000000000000005, 0.23775000000000002, 0.9517500000000001, 192.0, 0.0, 0.0, 0.0, 0.0, 0.0, 0.0, 0.0, 0.0, 0.0, 1.644587400374932E9, 0.0, 2022-02-12 00:50:00.374
52.0, -10180.414936591977, -9749.540358727021, -7212.662066538581, -12606.20505883754, -9931.885889993417, -6396.2422485640345, -9551.593309830823, -7211.186851404531, -9937.272660407145, -12024.456205899263, -8013.994457005794, -6118.745341151398, -6667.726536718194, -9409.659732539623, -12199.716234173327, -16760.567338534278, 0.0045000000000000005, 0.23775000000000002, 0.9517500000000001, 192.0, 0.0, 0.0, 0.0, 0.0, 0.0, 0.0, 0.0, 0.0, 0.0, 1.644587400383076E9, 0.0, 2022-02-12 00:50:00.383
54.0, -10167.763849230272, -9727.792111372008, -7198.066377409265, -12605.69096871507, -9927.482596335722, -6385.535762969943, -9556.689507566633, -7207.767034502868, -9932.712904538263, -12003.691435300283, -8013.458015138867, -6110.676361403032, -6665.424307039298, -9386.838601450754, -12198.218667294821, -16745.323448815758, 0.0045000000000000005, 0.23775000000000002, 0.9517500000000001, 192.0, 0.0, 0.0, 0.0, 0.0, 0.0, 0.0, 0.0, 0.0, 0.0, 1.644587400390152E9, 0.0, 2022-02-12 00:50:00.390
56.0, -10195.100032699112, -9712.97290479814, -7208.057607180787, -12611.54712576236, -9927.370837613445, -6392.844783406828, -9548.352306884803, -7204.056644923287, -9939.68664880832, -12016.655447084362, -8006.327808657624, -6114.7220271494425, -6661.2668825706105, -9389.118479385195, -12199.671530684416, -16791.055117971315, 0.00425, 0.238875, 0.9508750000000001, 192.0, 0.0, 16.0, 3.5, 64.0, 14.5, 88.0, 0.0, 0.0, 0.0, 1.644587400397724E9, 0.0, 2022-02-12 00:50:00.397
58.0, -10176.637491779029, -9704.92627679423, -7206.4035780910945, -12602.315855302317, -9922.699323022285, -6384.753451914007, -9558.030612233952, -7205.978894946444, -9926.655581790876, -11990.749775260661, -8008.004189491772, -6124.288573776314, -6661.155123848334, -9391.800688719832, -12194.441222481873, -16727.68792244052, 0.00425, 0.238875, 0.9508750000000001, 192.0, 0.0, 0.0, 0.0, 0.0, 0.0, 0.0, 0.0, 0.0, 0.0, 1.64458740041269E9, 0.0, 2022-02-12 00:50:00.412
60.0, -10165.43926780692, -9733.871785863852, -7197.485232053427, -12607.657922227136, -9941.228919175735, -6389.827297905362, -9558.27648142296, -7215.880717740145, -9937.518529596155, -12007.290066157588, -7995.666026552442, -6102.361512465658, -6658.249397069144, -9385.18457236106, -12198.196315550365, -16780.303928888312, 0.00425, 0.238875, 0.9508750000000001, 192.0, 0.0, 0.0, 0.0, 0.0, 0.0, 0.0, 0.0, 0.0, 0.0, 1.644587400419915E9, 0.0, 2022-02-12 00:50:00.419
62.0, -10173.128267899547, -9725.802806115486, -7210.672761282059, -12594.984483120978, -9936.87032900695, -6397.426891020166, -9568.759449572499, -7223.994400977422, -9930.656544048376, -12022.131624475913, -7998.236477164803, -6099.165213008549, -6641.507940472119, -9394.23702886546, -12198.062205083634, -16758.958012933494, 0.00425, 0.238875, 0.9508750000000001, 192.0, 0.0, 0.0, 0.0, 0.0, 0.0, 0.0, 0.0, 0.0, 0.0, 1.644587400427369E9, 0.0, 2022-02-12 00:50:00.427
64.0, -10141.411142517465, -9700.254762203069, -7196.859383208679, -12600.080680856787, -9930.589488815009, -6393.090652595837, -9551.123923197261, -7221.915688743078, -9922.453453833277, -11997.142374174879, -8001.790404533197, -6107.100082290182, -6662.898559915849, -9393.924104443086, -12197.235190538788, -16743.200033092504, 0.00425, 0.238875, 0.9508750000000001, 192.0, 0.0, 0.0, 0.0, 0.0, 0.0, 0.0, 0.0, 0.0, 0.0, 1.644587400436648E9, 0.0, 2022-02-12 00:50:00.436
66.0, -10157.77261945875, -9720.192518257203, -7203.453147822995, -12609.691930972569, -9931.707076037774, -6394.118832840781, -9556.778914544453, -7227.727142301458, -9931.751779526685, -12006.41834812383, -7999.4881748543, -6103.97083806644, -6677.158972878334, -9382.770583959888, -12194.59768469306, -16789.021109225883, 0.006125, 0.2394375, 0.9524375, 192.0, 0.0, 32.0, 3.5, 64.0, 14.5, 104.0, 0.0, 0.0, 0.0, 1.644587400443126E9, 0.0, 2022-02-12 00:50:00.443
68.0, -10155.224520590846, -9710.335398952413, -7199.452185565494, -12598.896038400655, -9928.711942280763, -6387.390957759733, -9567.530103627456, -7219.166424175075, -9916.977276441727, -11996.248304396666, -7996.560096330655, -6105.378997967124, -6656.528312746086, -9381.652996737123, -12195.759975404737, -16725.25158229489, 0.006125, 0.2394375, 0.9524375, 192.0, 0.0, 0.0, 0.0, 0.0, 0.0, 0.0, 0.0, 0.0, 0.0, 1.644587400450182E9, 0.0, 2022-02-12 00:50:00.450
70.0, -10161.080677638136, -9686.888419018796, -7188.343368571207, -12617.336227576283, -9935.68568655082, -6384.6193414472755, -9556.533045355445, -7209.219897892463, -9924.576869556531, -11991.286217127588, -7988.938151471395, -6094.203125739471, -6660.708088959228, -9361.983461616452, -12195.692920171372, -16769.66449852759, 0.006125, 0.2394375, 0.9524375, 192.0, 0.0, 0.0, 0.0, 0.0, 0.0, 0.0, 0.0, 0.0, 0.0, 1.644587400457859E9, 0.0, 2022-02-12 00:50:00.457
72.0, -10164.366384073066, -9704.903925049774, -7198.915743698567, -12601.622951224203, -9937.429122618332, -6390.319036283378, -9569.36294667279, -7220.28401139784, -9921.022942188138, -12001.858592254948, -7987.10530842606, -6099.276971730826, -6661.378641292888, -9387.419746806592, -12193.234228281288, -16748.922079673062, 0.006125, 0.2394375, 0.9524375, 192.0, 0.0, 0.0, 0.0, 0.0, 0.0, 0.0, 0.0, 0.0, 0.0, 1.644587400464846E9, 0.0, 2022-02-12 00:50:00.464
74.0, -10151.827055433638, -9703.361654682358, -7193.640732007115, -12604.327512303294, -9938.881986007927, -6389.31320778289, -9549.31343189638, -7204.794252490313, -9918.765415998152, -11981.2279321227, -7993.609666062554, -6094.896029817585, -6646.917062630304, -9383.865819438199, -12195.84938238256, -16734.46050101048, 0.006125, 0.2394375, 0.9524375, 192.0, 0.0, 0.0, 0.0, 0.0, 0.0, 0.0, 0.0, 0.0, 0.0, 1.644587400473191E9, 0.0, 2022-02-12 00:50:00.473
76.0, -10154.263395579266, -9727.143910782805, -7198.133432642631, -12608.753157705445, -9942.145340698402, -6405.428815535166, -9557.963557000585, -7230.945793503022, -9927.147320168891, -12019.002380252168, -7992.357968373057, -6098.449957185979, -6663.770277949605, -9379.32841531377, -12191.379033491497, -16781.779144022363, 0.0020625, 0.23871875, 0.9522187500000001, 192.0, 127.5, 120.0, 3.5, 56.0, 14.5, 96.0, 0.0, 0.0, 0.0, 1.644587400479458E9, 0.0, 2022-02-12 00:50:00.479
78.0, -10158.979613659336, -9706.915582050751, -7199.049854165299, -12590.201209807541, -9929.382494614423, -6394.8340886633505, -9558.835275034342, -7212.572659560759, -9909.981180427216, -11991.643845038872, -7995.531916085711, -6091.5879716382, -6647.632318452874, -9375.126287356174, -12189.859114868535, -16720.445957237, 0.0020625, 0.23871875, 0.9522187500000001, 192.0, 0.0, 0.0, 0.0, 0.0, 0.0, 0.0, 0.0, 0.0, 0.0, 1.644587400487765E9, 0.0, 2022-02-12 00:50:00.487
80.0, -10145.143883841502, -9698.712491835653, -7188.566886015759, -12604.372215792206, -9948.984974501727, -6390.922533383672, -9563.238568692037, -7200.055682665788, -9915.770282241141, -11993.90137122886, -7979.997453689272, -6080.9708930219285, -6662.742097704661, -9377.048537379329, -12187.690995656372, -16763.987155435938, 0.0020625, 0.23871875, 0.9522187500000001, 192.0, 0.0, 0.0, 0.0, 0.0, 0.0, 0.0, 0.0, 0.0, 0.0, 1.644587400495609E9, 0.0, 2022-02-12 00:50:00.495
82.0, -10134.638563947507, -9673.209151412148, -7198.222839620453, -12592.168163319608, -9934.881023750428, -6389.0226351049705, -9550.408667374692, -7205.062473423776, -9910.450567060778, -11991.532086316596, -7982.791421746186, -6101.020407798339, -6668.374737307398, -9370.007737875907, -12182.50539094274, -16744.094102870717, 0.0020625, 0.23871875, 0.9522187500000001, 192.0, 0.0, 0.0, 0.0, 0.0, 0.0, 0.0, 0.0, 0.0, 0.0, 1.644587400502301E9, 0.0, 2022-02-12 00:50:00.502
84.0, -10139.377133772032, -9684.29561666198, -7185.6164557476595, -12591.765831919412, -9927.43789284681, -6378.673777422164, -9547.502940595501, -7204.436624579028, -9906.091976891992, -11976.198789620255, -7983.305511868658, -6091.520916404834, -6656.79653367955, -9362.51990348338, -12182.125411287, -16725.922134628552, 0.0020625, 0.23871875, 0.9522187500000001, 192.0, 0.0, 0.0, 0.0, 0.0, 0.0, 0.0, 0.0, 0.0, 0.0, 1.644587400510657E9, 0.0, 2022-02-12 00:50:00.510
86.0, -10147.088485609112, -9709.418977429745, -7190.6679499945585, -12593.263398797919, -9936.669163306853, -6395.057606107904, -9561.964519258085, -7215.858365995689, -9911.434043816811, -11988.179324648301, -7971.682604751898, -6070.197352194471, -6640.032725338069, -9368.107839597207, -12182.952425831847, -16773.285481129347, 0.006, 0.23800000000000002, 0.9520000000000001, 192.0, 0.0, 24.0, 3.5, 56.0, 14.5, 96.0, 0.0, 0.0, 0.0, 1.644587400518213E9, 0.0, 2022-02-12 00:50:00.518
88.0, -10147.624927476041, -9690.978788254117, -7184.074185380243, -12580.858180625222, -9923.749855011685, -6382.898257124217, -9560.46695237958, -7201.70971175548, -9898.96177041075, -11980.602083277952, -7969.29096809518, -6070.063241727739, -6651.208597565723, -9365.04565060683, -12183.466515954318, -16714.455689722978, 0.006, 0.23800000000000002, 0.9520000000000001, 192.0, 0.0, 0.0, 0.0, 0.0, 0.0, 0.0, 0.0, 0.0, 0.0, 1.644587400532052E9, 0.0, 2022-02-12 00:50:00.532
90.0, -10135.286764536711, -9679.489991604089, -7180.654368478581, -12593.15164007564, -9930.00834345917, -6387.547419970921, -9538.472835835557, -7190.399729061095, -9901.465165789743, -11986.033557180592, -7960.596139502066, -6064.117677702628, -6630.9802688336695, -9342.403333473603, -12177.36448971802, -16755.247623353913, 0.006, 0.23800000000000002, 0.9520000000000001, 192.0, 0.0, 0.0, 0.0, 0.0, 0.0, 0.0, 0.0, 0.0, 0.0, 1.644587400539741E9, 0.0, 2022-02-12 00:50:00.539
92.0, -10144.741552441306, -9677.858314258852, -7195.071243652254, -12583.518038215405, -9925.225070145736, -6388.59795196032, -9549.022859218461, -7198.960447187477, -9894.938456408794, -11988.51460081513, -7961.400802302457, -6084.994207023884, -6656.595367979452, -9363.190455817039, -12176.93980657337, -16741.858928425187, 0.006, 0.23800000000000002, 0.9520000000000001, 192.0, 0.0, 0.0, 0.0, 0.0, 0.0, 0.0, 0.0, 0.0, 0.0, 1.6445874005478E9, 0.0, 2022-02-12 00:50:00.547
94.0, -10133.655087191473, -9695.002102256072, -7186.018787147855, -12581.8193056368, -9925.515642823655, -6382.004187346004, -9546.854740006298, -7194.154822129586, -9896.123098864926, -11977.830466965494, -7964.865322693029, -6077.349910420169, -6650.4039347653315, -9372.086450110251, -12176.60453040654, -16718.054320580282, 0.006, 0.23800000000000002, 0.9520000000000001, 192.0, 0.0, 0.0, 0.0, 0.0, 0.0, 0.0, 0.0, 0.0, 0.0, 1.644587400554994E9, 0.0, 2022-02-12 00:50:00.554
96.0, -10124.043837075691, -9679.400584626268, -7189.215086604963, -12595.073890098798, -9936.356238884478, -6392.554210728909, -9553.515559853979, -7202.022636177855, -9909.891773449395, -11992.783784006095, -7958.3833168009905, -6086.804698324764, -6648.347574275444, -9354.361516757193, -12173.430582693885, -16767.272861870868, 0.01, 0.234, 0.9520000000000001, 192.0, 0.0, 40.0, 3.5, 40.0, 14.5, 96.0, 0.0, 0.0, 0.0, 1.644587400562408E9, 0.0, 2022-02-12 00:50:00.562
98.0, -10149.793046688204, -9699.003064513572, -7188.410423804573, -12581.662843425614, -9916.507889808165, -6386.139260070237, -9536.662344534678, -7213.131453172142, -9892.837392429996, -11977.159914631835, -7974.901255953462, -6072.5219336178225, -6637.842254381449, -9362.341089527737, -12165.02632677869, -16708.085442553216, 0.01, 0.234, 0.9520000000000001, 192.0, 0.0, 0.0, 0.0, 0.0, 0.0, 0.0, 0.0, 0.0, 0.0, 1.644587400570359E9, 0.0, 2022-02-12 00:50:00.570
100.0, -10133.453921491377, -9691.761099310053, -7180.22968533393, -12593.44221275356, -9935.663334806364, -6387.972103115571, -9552.643841820221, -7200.480365810438, -9903.141546623892, -11982.725499001206, -7959.567959257121, -6059.110886944639, -6643.720763173194, -9364.978595373464, -12164.154608744933, -16752.11837913017, 0.01, 0.234, 0.9520000000000001, 192.0, 0.0, 0.0, 0.0, 0.0, 0.0, 0.0, 0.0, 0.0, 0.0, 1.644587400577517E9, 0.0, 2022-02-12 00:50:00.577
102.0, -10141.902880895483, -9670.683404288699, -7185.080013880732, -12582.333395759273, -9925.001552701182, -6389.827297905362, -9557.963557000585, -7216.595973562715, -9906.159032125359, -11989.520429315618, -7965.111191882038, -6077.01463425334, -6651.856798154927, -9358.004851103407, -12164.422829678397, -16736.53921324482, 0.01, 0.234, 0.9520000000000001, 192.0, 0.0, 0.0, 0.0, 0.0, 0.0, 0.0, 0.0, 0.0, 0.0, 1.64458740058425E9, 0.0, 2022-02-12 00:50:00.584
104.0, -10132.850424391083, -9673.924407234717, -7172.495981752394, -12578.421840479594, -9929.382494614423, -6389.73789092754, -9551.973289486563, -7217.422988107561, -9898.805308199562, -11967.168684860311, -7959.456200534845, -6080.993244766384, -6638.4904549706525, -9364.956243629009, -12159.393687175952, -16717.853154880184, 0.01, 0.234, 0.9520000000000001, 192.0, 0.0, 0.0, 0.0, 0.0, 0.0, 0.0, 0.0, 0.0, 0.0, 1.644587400592043E9, 0.0, 2022-02-12 00:50:00.592
106.0, -10130.570546456642, -9678.707680548154, -7175.8934469096, -12584.993253349454, -9935.216299917258, -6392.174231073169, -9555.840141277331, -7223.972049232966, -9903.633285001908, -11994.728385773706, -7954.494113265767, -6067.269273670826, -6637.819902636994, -9362.072868594274, -12161.40534417693, -16768.74807700492, 0.012, 0.232, 0.9560000000000001, 192.0, 0.0, 48.0, 3.5, 32.0, 14.5, 112.0, 0.0, 0.0, 0.0, 1.644587400600223E9, 0.0, 2022-02-12 00:50:00.600
108.0, -10136.314944781656, -9686.329625407414, -7175.826391676234, -12573.258587510418, -9925.694456779296, -6379.858419878295, -9547.100609195306, -7202.492022811416, -9887.070642360526, -11976.288196598078, -7955.81286618863, -6074.891218530085, -6646.067696341002, -9355.747324913422, -12160.175998231889, -16708.286608253315, 0.012, 0.232, 0.9560000000000001, 192.0, 0.0, 0.0, 0.0, 0.0, 0.0, 0.0, 0.0, 0.0, 0.0, 1.644587400607248E9, 0.0, 2022-02-12 00:50:00.607
110.0, -10122.501566708275, -9687.91659926374, -7173.054775363777, -12583.808610893324, -9931.416503359855, -6378.293797766423, -9543.971364971563, -7205.397749590606, -9908.01422691515, -11980.870304211416, -7953.018898131717, -6052.360660119136, -6635.763542147106, -9350.8075893888, -12161.874730810492, -16752.855986697195, 0.012, 0.232, 0.9560000000000001, 192.0, 0.0, 0.0, 0.0, 0.0, 0.0, 0.0, 0.0, 0.0, 0.0, 1.644587400614645E9, 0.0, 2022-02-12 00:50:00.614
112.0, -10142.551081484686, -9687.000177741073, -7177.927455655034, -12573.660918910613, -9925.627401545931, -6379.590198944831, -9550.229853419049, -7207.85644148069, -9903.163898368348, -11990.168629904823, -7962.339575569579, -6060.4296398675015, -6634.400085735332, -9341.665725906578, -12158.141989486456, -16733.857003910187, 0.012, 0.232, 0.9560000000000001, 192.0, 0.0, 0.0, 0.0, 0.0, 0.0, 0.0, 0.0, 0.0, 0.0, 1.644587400622817E9, 0.0, 2022-02-12 00:50:00.622
114.0, -10128.469482477842, -9686.486087618601, -7164.516408981849, -12571.179875276075, -9917.692532264296, -6374.158725042192, -9545.535987083435, -7208.102310669698, -9890.736328451196, -11978.098687898957, -7952.080124864594, -6057.7250787884095, -6638.64691718184, -9359.457714493003, -12153.805751062126, -16715.97560834594, 0.012, 0.232, 0.9560000000000001, 192.0, 0.0, 0.0, 0.0, 0.0, 0.0, 0.0, 0.0, 0.0, 0.0, 1.644587400630629E9, 0.0, 2022-02-12 00:50:00.630
116.0, -10132.313982524156, -9677.545389836478, -7171.557208485271, -12584.568570204803, -9923.638096289409, -6376.997396588015, -9551.190978430626, -7212.036217693832, -9895.921933164827, -11996.270656141121, -7939.183168313882, -6049.969023462418, -6643.564300962008, -9335.787217114832, -12153.962213273313, -16765.93175720355, 0.006, 0.23800000000000002, 0.9500000000000001, 192.0, 0.0, 24.0, 3.5, 56.0, 14.5, 88.0, 0.0, 0.0, 0.0, 1.644587400637208E9, 0.0, 2022-02-12 00:50:00.637
118.0, -10133.588031958108, -9672.449192100668, -7169.567903228749, -12569.034107808366, -9915.971447941238, -6374.5834081868425, -9546.31829813937, -7206.604743791193, -9888.05411911656, -11964.106495869935, -7953.24241557627, -6066.464610870435, -6615.110530270402, -9359.837694148742, -12149.894195782446, -16708.040739064305, 0.006, 0.23800000000000002, 0.9500000000000001, 192.0, 0.0, 0.0, 0.0, 0.0, 0.0, 0.0, 0.0, 0.0, 0.0, 1.644587400645292E9, 0.0, 2022-02-12 00:50:00.645
120.0, -10105.38013045551, -9658.300537860458, -7160.3813362576175, -12581.931064359078, -9932.020000460148, -6368.324919739356, -9548.151141184706, -7193.305455840285, -9879.024014356615, -11976.243493109167, -7943.295889293658, -6062.128372446105, -6630.0414955665465, -9342.805664873798, -12149.938899271358, -16747.871547683662, 0.006, 0.23800000000000002, 0.9500000000000001, 192.0, 0.0, 0.0, 0.0, 0.0, 0.0, 0.0, 0.0, 0.0, 0.0, 1.644587400659597E9, 0.0, 2022-02-12 00:50:00.659
122.0, -10125.76492139875, -9672.069212444927, -7179.067394622254, -12571.24693050944, -9926.454416090777, -6373.979911086549, -9544.664269049677, -7215.456034595494, -9900.48168903371, -11982.837257723482, -7953.018898131717, -6056.652195054555, -6619.312658227999, -9344.727914896956, -12153.448123150842, -16736.338047544723, 0.006, 0.23800000000000002, 0.9500000000000001, 192.0, 0.0, 0.0, 0.0, 0.0, 0.0, 0.0, 0.0, 0.0, 0.0, 1.644587400666912E9, 0.0, 2022-02-12 00:50:00.666
124.0, -10130.302325523178, -9657.987613438085, -7163.309414781263, -12574.53263694437, -9925.001552701182, -6364.905102837694, -9538.02580094645, -7200.949752444, -9900.258171589157, -11961.2231208352, -7955.4775900218, -6052.047735696761, -6635.987059591658, -9338.424722960559, -12153.112846984011, -16713.382805989124, 0.006, 0.23800000000000002, 0.9500000000000001, 192.0, 0.0, 0.0, 0.0, 0.0, 0.0, 0.0, 0.0, 0.0, 0.0, 1.644587400675045E9, 0.0, 2022-02-12 00:50:00.675
126.0, -10150.575357744141, -9689.660035331253, -7171.80307767428, -12585.73086091648, -9933.472863849744, -6380.55132395641, -9550.833350519342, -7210.672761282059, -9909.131814137914, -11992.22499039471, -7942.513578237722, -6056.741602032376, -6643.0725625839905, -9336.033086303842, -12153.246957450743, -16762.534292046344, 0.008, 0.242, 0.9460000000000001, 192.0, 0.0, 32.0, 3.5, 72.0, 14.5, 72.0, 0.0, 0.0, 0.0, 1.644587400682891E9, 0.0, 2022-02-12 00:50:00.682
128.0, -10146.082657108624, -9685.077927717915, -7174.284121308819, -12568.967052574999, -9918.430139831322, -6368.660195906186, -9546.228891161549, -7185.392938303106, -9903.230953601713, -11972.756620974138, -7956.639880733476, -6073.416003396035, -6633.88599561286, -9355.322641768771, -12149.871844037993, -16705.000901818385, 0.008, 0.242, 0.9460000000000001, 192.0, 0.0, 0.0, 0.0, 0.0, 0.0, 0.0, 0.0, 0.0, 0.0, 1.644587400689475E9, 0.0, 2022-02-12 00:50:00.689
130.0, -10123.172119041934, -9671.845695000375, -7167.8915223946005, -12577.259549767918, -9934.657506305875, -6361.440582447122, -9550.051039463406, -7188.745699971402, -9903.3874158129, -11979.126868143901, -7947.140389339971, -6044.828122237697, -6635.271803769088, -9338.268260749372, -12152.397591161442, -16743.289440070326, 0.008, 0.242, 0.9460000000000001, 192.0, 0.0, 0.0, 0.0, 0.0, 0.0, 0.0, 0.0, 0.0, 0.0, 1.64458740069754E9, 0.0, 2022-02-12 00:50:00.697
132.0, -10125.228479531823, -9645.492988287568, -7176.094612609699, -12571.87277935419, -9920.620610787942, -6357.9090068231835, -9546.27359465046, -7193.6630837515695, -9894.96080815325, -11981.47380131171, -7958.517427267722, -6058.283872399792, -6626.554623431519, -9332.032124046342, -12149.134236470967, -16726.324466028746, 0.008, 0.242, 0.9460000000000001, 192.0, 0.0, 0.0, 0.0, 0.0, 0.0, 0.0, 0.0, 0.0, 0.0, 1.644587400705547E9, 0.0, 2022-02-12 00:50:00.705
134.0, -10108.95640956836, -9658.546407049467, -7164.874036893134, -12575.225541022486, -9917.96075319776, -6353.416306187667, -9535.36594335627, -7191.874944195145, -9880.007491112648, -11949.801379418539, -7946.872168406507, -6057.568616577222, -6610.886050568349, -9316.050626760796, -12143.479245123774, -16701.871657594642, 0.008, 0.242, 0.9460000000000001, 192.0, 0.0, 0.0, 0.0, 0.0, 0.0, 0.0, 0.0, 0.0, 0.0, 1.644587400712697E9, 0.0, 2022-02-12 00:50:00.712
136.0, -10114.879621849015, -9667.15182866476, -7166.259845049363, -12580.63466318067, -9924.688628278807, -6367.252036005501, -9546.206539417093, -7200.122737899153, -9900.369930311434, -11970.968481417714, -7947.229796317792, -6043.889348970574, -6645.419495751798, -9338.335315982738, -12144.954460257824, -16757.527501288354, 0.008, 0.23600000000000002, 0.9460000000000001, 192.0, 0.0, 32.0, 3.5, 48.0, 14.5, 72.0, 0.0, 0.0, 0.0, 1.644587400719714E9, 0.0, 2022-02-12 00:50:00.719
138.0, -10131.464616234853, -9671.264549644537, -7162.817676403246, -12564.384944961661, -9908.997703671183, -6363.228722003547, -9543.747847527009, -7194.847726207701, -9879.538104479088, -11965.894635426359, -7953.711802209831, -6048.4491048394575, -6640.479760227176, -9338.402371216103, -12140.081779966567, -16702.564561672756, 0.008, 0.23600000000000002, 0.9460000000000001, 192.0, 0.0, 0.0, 0.0, 0.0, 0.0, 0.0, 0.0, 0.0, 0.0, 1.644587400727089E9, 0.0, 2022-02-12 00:50:00.727
140.0, -10138.661877949462, -9658.591110538377, -7154.234606532408, -12580.478200969483, -9916.15026189688, -6366.939111583128, -9542.69731553761, -7198.222839620453, -9896.547782009577, -11975.237664608678, -7932.075313577094, -6038.524930301301, -6628.45452171022, -9339.028220060853, -12139.92531775538, -16745.770483704866, 0.008, 0.23600000000000002, 0.9460000000000001, 192.0, 0.0, 0.0, 0.0, 0.0, 0.0, 0.0, 0.0, 0.0, 0.0, 1.644587400735214E9, 0.0, 2022-02-12 00:50:00.735
142.0, -10128.715351666851, -9659.015793683027, -7167.198618316486, -12571.448096209539, -9912.417520572844, -6362.133486525237, -9552.21915867557, -7191.047929650299, -9888.456450516755, -11988.425193837309, -7931.5612234546215, -6044.515197815323, -6614.149405258823, -9335.317830481272, -12141.668753822894, -16734.46050101048, 0.008, 0.23600000000000002, 0.9460000000000001, 192.0, 0.0, 0.0, 0.0, 0.0, 0.0, 0.0, 0.0, 0.0, 0.0, 1.644587400742301E9, 0.0, 2022-02-12 00:50:00.742
144.0, -10128.357723755566, -9674.170276423727, -7160.604853702171, -12570.129343286675, -9912.953962439771, -6355.11503876627, -9540.640955047722, -7193.4842697959275, -9884.679005703809, -11974.231836108189, -7946.089857350571, -6044.314032115225, -6616.563393659997, -9331.629792646145, -12144.462721879807, -16708.6442361646, 0.008, 0.23600000000000002, 0.9460000000000001, 192.0, 0.0, 0.0, 0.0, 0.0, 0.0, 0.0, 0.0, 0.0, 0.0, 1.644587400749783E9, 0.0, 2022-02-12 00:50:00.749
146.0, -10124.110892309058, -9657.987613438085, -7163.42117350354, -12581.796953892346, -9923.34752361149, -6357.327861467345, -9548.397010373714, -7210.516299070871, -9896.234857587202, -11988.313435115033, -7934.0869705780715, -6035.4180378220135, -6629.616812421896, -9319.828071573744, -12140.72998055577, -16759.293289100326, 0.008, 0.234, 0.9480000000000001, 192.0, 0.0, 32.0, 3.5, 40.0, 14.5, 80.0, 0.0, 0.0, 0.0, 1.644587400757952E9, 0.0, 2022-02-12 00:50:00.757
148.0, -10115.080787549114, -9647.750514477553, -7164.158781070564, -12565.413125206605, -9910.942305438793, -6345.30262295039, -9557.382411644747, -7199.2957233543075, -9879.091069589982, -11948.817902662506, -7942.625336959999, -6046.683317027488, -6622.911289085304, -9334.75903686989, -12142.83104453457, -16698.630654648623, 0.008, 0.234, 0.9480000000000001, 192.0, 0.0, 0.0, 0.0, 0.0, 0.0, 0.0, 0.0, 0.0, 0.0, 1.644587400764912E9, 0.0, 2022-02-12 00:50:00.764
150.0, -10129.564717956153, -9650.05274415645, -7157.430905989517, -12575.605520678226, -9918.117215408947, -6355.718535866563, -9547.949975484607, -7197.909915198078, -9883.67317720332, -11965.31349007052, -7933.416418244412, -6040.134255902083, -6632.746056645639, -9324.611344887178, -12146.049695736134, -16739.511995257377, 0.008, 0.234, 0.9480000000000001, 192.0, 0.0, 0.0, 0.0, 0.0, 0.0, 0.0, 0.0, 0.0, 0.0, 1.644587400779451E9, 0.0, 2022-02-12 00:50:00.779
152.0, -10131.174043556935, -9663.754363507553, -7157.229740289419, -12573.571511932792, -9911.09876764998, -6357.7972481009065, -9539.277498635949, -7195.294761096807, -9889.238761572691, -11985.027728680103, -7924.945107095851, -6038.726096001398, -6624.654725152818, -9326.488891421424, -12138.651268321428, -16731.085387597726, 0.008, 0.234, 0.9480000000000001, 192.0, 0.0, 0.0, 0.0, 0.0, 0.0, 0.0, 0.0, 0.0, 0.0, 1.644587400787446E9, 0.0, 2022-02-12 00:50:00.787
154.0, -10110.208107257857, -9643.10135163085, -7151.1053623086655, -12571.336337487262, -9905.130851880414, -6353.0363265319265, -9537.198786401605, -7188.857458693678, -9876.364156766434, -11966.341670315465, -7932.14236881046, -6040.134255902083, -6608.382655189354, -9314.374245926649, -12134.717361297293, -16702.095175039194, 0.008, 0.234, 0.9480000000000001, 192.0, 0.0, 0.0, 0.0, 0.0, 0.0, 0.0, 0.0, 0.0, 0.0, 1.644587400794578E9, 0.0, 2022-02-12 00:50:00.794
156.0, -10111.146880524979, -9644.151883620249, -7154.771048399335, -12578.354785246229, -9916.507889808165, -6352.678698620642, -9542.473798093057, -7198.04402566481, -9891.742156951685, -11987.888751970382, -7929.28134552018, -6040.089552413172, -6626.129940286868, -9322.286763463828, -12136.125521197979, -16752.766579719377, 0.008, 0.23800000000000002, 0.9460000000000001, 192.0, 0.0, 32.0, 3.5, 56.0, 14.5, 72.0, 0.0, 0.0, 0.0, 1.644587400801996E9, 0.0, 2022-02-12 00:50:00.801
158.0, -10114.298476493177, -9646.811741210431, -7155.687469922003, -12560.004003048422, -9900.90637217836, -6338.999431013994, -9542.719667282065, -7189.907990683078, -9876.67708118881, -11963.79357144756, -7934.355191511535, -6038.7037442569435, -6612.540079658042, -9325.751283854399, -12135.387913630953, -16697.44601219249, 0.008, 0.23800000000000002, 0.9460000000000001, 192.0, 0.0, 0.0, 0.0, 0.0, 0.0, 0.0, 0.0, 0.0, 0.0, 1.644587400810054E9, 0.0, 2022-02-12 00:50:00.810
160.0, -10101.736796109295, -9634.227709082093, -7138.610737158148, -12568.654128152624, -9908.505965293165, -6332.830349544329, -9538.606946302289, -7193.4842697959275, -9878.398165511868, -11946.113341583412, -7921.860566361019, -6035.19452037746, -6616.943373315737, -9309.658027846579, -12134.247974663733, -16731.286553297825, 0.008, 0.23800000000000002, 0.9460000000000001, 192.0, 0.0, 0.0, 0.0, 0.0, 0.0, 0.0, 0.0, 0.0, 0.0, 1.644587400818032E9, 0.0, 2022-02-12 00:50:00.818
162.0, -10141.43349426192, -9670.661052544243, -7150.233644274908, -12555.712468113003, -9898.090052376992, -6335.467855390055, -9540.88682423673, -7186.287008081318, -9876.610025955442, -11962.74303945816, -7920.787682627164, -6029.04779065225, -6613.054169780514, -9318.710484350979, -12132.30337289612, -16724.78219566133, 0.008, 0.23800000000000002, 0.9460000000000001, 192.0, 0.0, 0.0, 0.0, 0.0, 0.0, 0.0, 0.0, 0.0, 0.0, 1.644587400824911E9, 0.0, 2022-02-12 00:50:00.824
164.0, -10113.67262764843, -9651.416200568223, -7141.494112192883, -12550.951546544022, -9894.96080815325, -6322.794416283896, -9533.957783455586, -7189.952694171989, -9875.045403843571, -11967.101629626946, -7915.915002335907, -6012.216927077405, -6594.435166649243, -9314.754225582388, -12130.269364150688, -16695.121430769137, 0.007, 0.23500000000000001, 0.9480000000000001, 192.0, 0.0, 24.0, 3.5, 32.0, 14.5, 88.0, 0.0, 0.0, 0.0, 1.64458740083188E9, 0.0, 2022-02-12 00:50:00.831
166.0, -10091.65615935995, -9640.016810896017, -7144.980984327911, -12564.273186239385, -9906.382549569911, -6326.616564585754, -9545.178359172149, -7184.029481891333, -9876.028880599604, -11973.762449474627, -7915.0656360466055, -6012.440444521957, -6617.211594249201, -9305.902934778087, -12131.990448473745, -16745.97164940496, 0.007, 0.23500000000000001, 0.9480000000000001, 192.0, 0.0, 0.0, 0.0, 0.0, 0.0, 0.0, 0.0, 0.0, 0.0, 1.644587400841509E9, 0.0, 2022-02-12 00:50:00.841
168.0, -10100.99918854227, -9604.589295934355, -7147.216158773442, -12555.600709390726, -9891.250418573669, -6316.066541202848, -9535.254184633994, -7175.5805224872265, -9863.601310682454, -11949.98019337418, -7926.174453040893, -6039.217834379415, -6597.273838195067, -9307.378149912138, -12129.196480416833, -16685.241959719893, 0.007, 0.23500000000000001, 0.9480000000000001, 192.0, 0.0, 0.0, 0.0, 0.0, 0.0, 0.0, 0.0, 0.0, 0.0, 1.644587400848465E9, 0.0, 2022-02-12 00:50:00.848
170.0, -10083.698938333862, -9632.417217781212, -7138.946013324978, -12569.928177586578, -9902.381587312411, -6317.675866803631, -9530.292097364914, -7183.51539176886, -9880.007491112648, -11950.024896863091, -7921.3464762385465, -6031.551186031245, -6616.496338426631, -9295.93405675102, -12130.269364150688, -16727.598515462698, 0.007, 0.23500000000000001, 0.9480000000000001, 192.0, 0.0, 0.0, 0.0, 0.0, 0.0, 0.0, 0.0, 0.0, 0.0, 1.644587400854439E9, 0.0, 2022-02-12 00:50:00.854
172.0, -10152.38584904502, -9678.372404381324, -7157.095629822687, -12561.322755971285, -9892.211543585247, -6326.124826207737, -9533.846024733308, -7182.554266757282, -9877.839371900483, -11966.118152870913, -7919.08895004856, -6032.4899592983675, -6618.507995427608, -9312.206126714484, -12128.011837960701, -16725.27393403935, 0.007, 0.23500000000000001, 0.9480000000000001, 192.0, 0.0, 0.0, 0.0, 0.0, 0.0, 0.0, 0.0, 0.0, 0.0, 1.644587400862383E9, 0.0, 2022-02-12 00:50:00.862
174.0, -10123.820319631139, -9655.417162825725, -7142.432885460006, -12557.880587325168, -9890.445755773277, -6320.514538349455, -9533.443693333113, -7182.37545280164, -9880.990967868682, -11953.55647248703, -7912.875165089985, -6015.972020145896, -6591.01534974758, -9309.322751679749, -12125.083759437057, -16692.238055734404, 0.0055, 0.2335, 0.9470000000000001, 192.0, 0.0, 16.0, 3.5, 32.0, 14.5, 72.0, 0.0, 0.0, 0.0, 1.644587400870321E9, 0.0, 2022-02-12 00:50:00.870
176.0, -10109.694017135384, -9642.520206275012, -7145.964461083944, -12570.129343286675, -9902.225125101224, -6321.542718594399, -9535.500053823002, -7180.274388822841, -9888.657616216853, -11964.12884761439, -7906.348455709035, -6013.222755577893, -6584.510992111086, -9313.524879637347, -12119.674637278871, -16740.718989457964, 0.0055, 0.2335, 0.9470000000000001, 192.0, 0.0, 0.0, 0.0, 0.0, 0.0, 0.0, 0.0, 0.0, 0.0, 1.644587400876968E9, 0.0, 2022-02-12 00:50:00.876
178.0, -10074.333557407088, -9587.601970148322, -7141.114132537143, -12557.634718136158, -9884.164915581336, -6312.669076045642, -9525.531175795935, -7176.094612609699, -9866.28352001709, -11951.522463741598, -7925.034514073672, -6042.190616391971, -6618.642105894341, -9315.13420523813, -12120.725169268271, -16684.034965519306, 0.0055, 0.2335, 0.9470000000000001, 192.0, 0.0, 0.0, 0.0, 0.0, 0.0, 0.0, 0.0, 0.0, 0.0, 1.644587400885049E9, 0.0, 2022-02-12 00:50:00.885
180.0, -10109.805775857662, -9645.694153987664, -7141.069429048232, -12567.357726974216, -9897.397148298878, -6308.735169021508, -9525.754693240488, -7164.985795615411, -9877.057060844549, -11951.857739908426, -7926.062694318616, -6037.317936100714, -6598.681998095751, -9308.160460968073, -12117.528869811162, -16720.848288637197, 0.0055, 0.2335, 0.9470000000000001, 192.0, 0.0, 0.0, 0.0, 0.0, 0.0, 0.0, 0.0, 0.0, 0.0, 1.644587400893019E9, 0.0, 2022-02-12 00:50:00.893
182.0, -10148.317831554155, -9673.142096178783, -7152.155894298065, -12559.512264670404, -9901.86749718994, -6315.284230146913, -9541.244452148016, -7179.872057422645, -9890.646921473375, -11972.622510507406, -7911.7799296116755, -6013.71449395591, -6620.005562306114, -9308.361626668171, -12126.424864104374, -16719.998922347895, 0.0055, 0.2335, 0.9470000000000001, 192.0, 0.0, 0.0, 0.0, 0.0, 0.0, 0.0, 0.0, 0.0, 0.0, 1.644587400907012E9, 0.0, 2022-02-12 00:50:00.907
184.0, -10119.797005629183, -9646.901148188252, -7140.622394159126, -12554.81839833479, -9897.218334343235, -6308.064616687849, -9535.924736967652, -7178.150973099587, -9877.280578289101, -11960.150237101345, -7909.455348188323, -6015.167357345505, -6614.0152947920915, -9308.428681901536, -12130.045846706134, -16692.081593523217, 0.00475, 0.23675000000000002, 0.9495, 192.0, 0.0, 16.0, 3.5, 64.0, 14.5, 96.0, 0.0, 0.0, 0.0, 1.644587400914788E9, 0.0, 2022-02-12 00:50:00.914
186.0, -10089.823316314616, -9645.381229565292, -7146.836179117701, -12571.358689231718, -9898.425328543823, -6314.233698157514, -9537.288193379425, -7184.5659237582595, -9884.679005703809, -11972.957786674237, -7910.707045877821, -6017.916621913508, -6592.669378837273, -9296.671664318046, -12127.408340860407, -16747.02218139436, 0.00475, 0.23675000000000002, 0.9495, 192.0, 0.0, 0.0, 0.0, 0.0, 0.0, 0.0, 0.0, 0.0, 0.0, 1.644587400922951E9, 0.0, 2022-02-12 00:50:00.922
188.0, -10120.601668429574, -9621.107235086827, -7150.725382652925, -12563.222654249985, -9883.024976614115, -6318.435826115111, -9536.148254412205, -7188.209258104474, -9878.129944578403, -11954.048210865047, -7929.080179820083, -6038.234357623382, -6599.68782659624, -9317.391731428115, -12129.576460072572, -16693.467401679445, 0.00475, 0.23675000000000002, 0.9495, 192.0, 0.0, 0.0, 0.0, 0.0, 0.0, 0.0, 0.0, 0.0, 0.0, 1.644587400929921E9, 0.0, 2022-02-12 00:50:00.929
190.0, -10123.485043464309, -9644.934194676185, -7141.114132537143, -12575.471410211494, -9897.732424465708, -6318.8158057708515, -9539.165739913671, -7175.401708531584, -9891.608046484953, -11962.474818524697, -7911.332894722569, -6041.609471036133, -6623.671248396784, -9303.824222543744, -12130.515233339696, -16733.432320765536, 0.00475, 0.23675000000000002, 0.9495, 192.0, 0.0, 0.0, 0.0, 0.0, 0.0, 0.0, 0.0, 0.0, 0.0, 1.644587400937836E9, 0.0, 2022-02-12 00:50:00.937
192.0, -10126.770749899239, -9660.647471028265, -7157.162685056053, -12566.374250218183, -9889.663444717342, -6317.944087737094, -9541.512673081479, -7181.190810345508, -9888.545857494577, -11978.053984410046, -7915.177394768882, -6029.517177285812, -6618.552698916519, -9319.693961107012, -12128.749445527726, -16728.827861407743, 0.00475, 0.23675000000000002, 0.9495, 192.0, 0.0, 0.0, 0.0, 0.0, 0.0, 0.0, 0.0, 0.0, 0.0, 1.644587400945466E9, 0.0, 2022-02-12 00:50:00.945
194.0, -10119.282915506712, -9641.357915563336, -7144.980984327911, -12565.234311250962, -9883.606121969953, -6295.167660137136, -9533.622507288756, -7169.679661951025, -9885.640130715386, -11955.322260298999, -7924.721589651298, -6019.011857391818, -6606.527460399564, -9312.65316160359, -12129.822329261582, -16694.517933668845, 0.0063750000000000005, 0.237375, 0.94875, 192.0, 0.0, 32.0, 3.5, 56.0, 14.5, 80.0, 0.0, 0.0, 0.0, 1.644587400953315E9, 0.0, 2022-02-12 00:50:00.953
196.0, -10092.527877393708, -9644.174235364704, -7151.910025109056, -12573.124477043686, -9897.44185178779, -6309.8974597331835, -9539.612774802777, -7176.251074820885, -9901.264000089646, -11974.947091930759, -7923.313429750613, -6016.910793413019, -6621.100797784424, -9292.335425893716, -12128.995314716734, -16749.614983751177, 0.0063750000000000005, 0.237375, 0.94875, 192.0, 0.0, 0.0, 0.0, 0.0, 0.0, 0.0, 0.0, 0.0, 0.0, 1.64458740095945E9, 0.0, 2022-02-12 00:50:00.959
198.0, -10130.548194712186, -9624.370589777302, -7152.245301275886, -12560.652203637625, -9886.936531893794, -6305.605924797765, -9544.41839986067, -7180.296740567296, -9881.90738939135, -11963.257129580634, -7932.187072299371, -6036.490921555868, -6602.280628953055, -9307.378149912138, -12129.35294262802, -16692.908608068064, 0.0063750000000000005, 0.237375, 0.94875, 192.0, 0.0, 0.0, 0.0, 0.0, 0.0, 0.0, 0.0, 0.0, 0.0, 1.644587400967216E9, 0.0, 2022-02-12 00:50:00.967
200.0, -10121.741607396794, -9646.074133643406, -7140.644745903582, -12570.576378175781, -9887.227104571713, -6296.821689226829, -9531.387332843226, -7166.528065982827, -9887.584732482997, -11959.390277789866, -7907.846022587541, -6022.588136504667, -6614.887012825849, -9308.74160632391, -12130.604640317517, -16727.173832318047, 0.0063750000000000005, 0.237375, 0.94875, 192.0, 0.0, 0.0, 0.0, 0.0, 0.0, 0.0, 0.0, 0.0, 0.0, 1.644587400975034E9, 0.0, 2022-02-12 00:50:00.975
202.0, -10122.72508415283, -9650.119799389817, -7145.875054106124, -12564.317889728296, -9889.149354594869, -6301.224982884524, -9539.098684680306, -7179.626188233637, -9883.71788069223, -11961.960728402226, -7901.676941117877, -6012.194575332949, -6609.455538923209, -9292.022501471341, -12122.893288480436, -16722.770538660352, 0.0063750000000000005, 0.237375, 0.94875, 192.0, 0.0, 0.0, 0.0, 0.0, 0.0, 0.0, 0.0, 0.0, 0.0, 1.644587400982222E9, 0.0, 2022-02-12 00:50:00.982
204.0, -10113.694979392885, -9640.95558416314, -7138.051943546766, -12563.379116461172, -9880.454526001755, -6296.329950848813, -9535.209481145082, -7173.7029759529805, -9882.980273125206, -11941.55358571453, -7913.545717423644, -6024.9127179280185, -6610.886050568349, -9311.22264995845, -12122.558012313606, -16693.60151214618, 0.0061875, 0.2376875, 0.9473750000000001, 192.0, 0.0, 24.0, 3.5, 56.0, 14.5, 72.0, 0.0, 0.0, 0.0, 1.644587400989605E9, 0.0, 2022-02-12 00:50:00.989
206.0, -10121.272220763234, -9633.959488148628, -7145.696240150481, -12580.902884114133, -9889.752851695162, -6304.488337575, -9545.156007427693, -7178.016862632855, -9901.62162800093, -11971.504923284641, -7908.4942231767445, -6034.971002932907, -6614.574088403474, -9314.016618015363, -12124.077930936568, -16749.54792851781, 0.0061875, 0.2376875, 0.9473750000000001, 192.0, 0.0, 0.0, 0.0, 0.0, 0.0, 0.0, 0.0, 0.0, 0.0, 1.64458740099783E9, 0.0, 2022-02-12 00:50:00.997
208.0, -10119.774653884728, -9633.691267215165, -7144.668059905536, -12565.033145550866, -9868.585749695987, -6307.10349167627, -9530.157986898183, -7177.70393821048, -9881.393299268879, -11970.052059895046, -7923.313429750613, -6036.66973551151, -6610.282553468055, -9310.306228435782, -12123.92146872538, -16699.055337793274, 0.0061875, 0.2376875, 0.9473750000000001, 192.0, 0.0, 0.0, 0.0, 0.0, 0.0, 0.0, 0.0, 0.0, 0.0, 1.644587401006296E9, 0.0, 2022-02-12 00:50:01.006
210.0, -10104.217839743835, -9616.793348406953, -7134.766237111836, -12570.48697119796, -9880.543932979577, -6296.754633993463, -9529.800358986899, -7180.184981845019, -9883.784935925596, -11955.590481232462, -7912.919868578896, -6023.7951307052535, -6598.234963206645, -9302.974856254443, -12124.457910592308, -16732.27003005386, 0.0061875, 0.2376875, 0.9473750000000001, 192.0, 0.0, 0.0, 0.0, 0.0, 0.0, 0.0, 0.0, 0.0, 0.0, 1.644587401012446E9, 0.0, 2022-02-12 00:50:01.012
212.0, -10112.800909614672, -9647.281127843991, -7141.091780792687, -12562.52975017187, -9863.08722055998, -6294.497107803477, -9536.215309645571, -7158.660251934559, -9880.76745042413, -11964.08414412548, -7916.540851180655, -6013.870956167097, -6614.372922703376, -9296.6940160625, -12123.630896047462, -16727.196184062504, 0.0061875, 0.2376875, 0.9473750000000001, 192.0, 0.0, 0.0, 0.0, 0.0, 0.0, 0.0, 0.0, 0.0, 0.0, 1.644587401027414E9, 0.0, 2022-02-12 00:50:01.027
214.0, -10114.186717770901, -9643.39192430877, -7130.050019031766, -12560.29457572634, -9861.120267047914, -6289.445613556578, -9535.120074167262, -7169.545551484293, -9876.4312119998, -11946.336859027966, -7913.053979045628, -6010.80876717672, -6595.038663749536, -9300.471460875448, -12120.814576246094, -16693.422698190534, 0.00409375, 0.23784375000000002, 0.9476875, 192.0, 0.0, 8.0, 3.5, 56.0, 14.5, 80.0, 0.0, 0.0, 0.0, 1.644587401035235E9, 0.0, 2022-02-12 00:50:01.035
216.0, -10119.685246906907, -9642.944889419663, -7136.353210968163, -12575.24789276694, -9873.078450331504, -6296.352302593267, -9529.085103164329, -7176.206371331975, -9883.494363247677, -11959.926719656793, -7901.051092273127, -6019.7494649588425, -6613.12122501388, -9289.250885158883, -12122.088625680046, -16753.79475996432, 0.00409375, 0.23784375000000002, 0.9476875, 192.0, 0.0, 0.0, 0.0, 0.0, 0.0, 0.0, 0.0, 0.0, 0.0, 1.644587401042103E9, 0.0, 2022-02-12 00:50:01.042
218.0, -10132.872776135539, -9626.181081078183, -7140.622394159126, -12557.880587325168, -9856.202883267748, -6281.980130908505, -9523.430111817135, -7161.096592080187, -9891.518639507132, -11960.776085946094, -7916.6526099029315, -6030.4335988084795, -6608.628524378362, -9296.246981173395, -12120.971038457279, -16695.25554123587, 0.00409375, 0.23784375000000002, 0.9476875, 192.0, 0.0, 0.0, 0.0, 0.0, 0.0, 0.0, 0.0, 0.0, 0.0, 1.644587401049935E9, 0.0, 2022-02-12 00:50:01.049
220.0, -10094.964217539336, -9612.770034404997, -7129.826501587213, -12564.429648450572, -9861.433191470289, -6279.946122163073, -9517.417492558658, -7159.50961822386, -9885.215447570736, -11944.79458866055, -7901.609885884511, -6003.47739499538, -6578.9677594861705, -9289.69792004799, -12119.384064600954, -16724.558678216777, 0.00409375, 0.23784375000000002, 0.9476875, 192.0, 0.0, 0.0, 0.0, 0.0, 0.0, 0.0, 0.0, 0.0, 0.0, 1.644587401058083E9, 0.0, 2022-02-12 00:50:01.058
222.0, -10120.758130640761, -9649.024563911506, -7139.884786592101, -12565.860160095712, -9864.51773220512, -6286.33872107729, -9537.93639396863, -7173.457106763972, -9904.035616402105, -11950.360173029921, -7913.478662190279, -6013.915659656008, -6613.501204669619, -9276.242169885894, -12117.484166322252, -16723.7987189053, 0.00409375, 0.23784375000000002, 0.9476875, 192.0, 0.0, 0.0, 0.0, 0.0, 0.0, 0.0, 0.0, 0.0, 0.0, 1.644587401064649E9, 0.0, 2022-02-12 00:50:01.064
224.0, -10110.453976446865, -9617.57565946289, -7131.055847532255, -12553.901976812122, -9846.189301751769, -6267.9208836461175, -9520.144405382205, -7150.121885552631, -9893.95497965276, -11929.237774519655, -7917.390217469957, -6004.103243840128, -6599.933695785248, -9282.657120544567, -12122.267439635687, -16693.847381335185, 0.006046875, 0.236921875, 0.9498437500000001, 192.0, 0.0, 32.0, 3.5, 48.0, 14.5, 96.0, 0.0, 0.0, 0.0, 1.644587401072627E9, 0.0, 2022-02-12 00:50:01.072
226.0, -10104.553115910663, -9616.055740839927, -7138.141350524587, -12569.34703223074, -9850.078505286992, -6263.785810921885, -9512.678922734132, -7142.812865115746, -9903.275657090624, -11942.380600259376, -7908.650685387932, -6005.6008107186335, -6590.92594276976, -9273.448201828982, -12110.666884263383, -16738.573221990257, 0.006046875, 0.236921875, 0.9498437500000001, 192.0, 0.0, 0.0, 0.0, 0.0, 0.0, 0.0, 0.0, 0.0, 0.0, 1.644587401079549E9, 0.0, 2022-02-12 00:50:01.079
228.0, -10134.347991269588, -9606.198621535137, -7138.454274946961, -12541.742627828435, -9839.886109815372, -6263.115258588226, -9520.770254226954, -7154.592234443693, -9878.912255634339, -11935.250393778133, -7910.595287155544, -6016.66492422401, -6582.365224643377, -9281.003091454875, -12109.258724362699, -16684.817276575242, 0.006046875, 0.236921875, 0.9498437500000001, 192.0, 0.0, 0.0, 0.0, 0.0, 0.0, 0.0, 0.0, 0.0, 0.0, 1.64458740108795E9, 0.0, 2022-02-12 00:50:01.087
230.0, -10098.875772819016, -9602.443528466645, -7131.659344632548, -12561.546273415837, -9855.107647789437, -6262.891741143673, -9527.229908374538, -7157.833237389713, -9905.24261060269, -11927.494338452141, -7894.837307314552, -6007.388950275058, -6587.372015401365, -9280.399594354581, -12118.221773889278, -16724.69278868351, 0.006046875, 0.236921875, 0.9498437500000001, 192.0, 0.0, 0.0, 0.0, 0.0, 0.0, 0.0, 0.0, 0.0, 0.0, 1.644587401094109E9, 0.0, 2022-02-12 00:50:01.094
232.0, -10114.499642193276, -9639.972107407106, -7139.057772047255, -12558.372325703183, -9854.928833833794, -6270.044299369371, -9540.260975391982, -7161.364813013651, -9900.302875078069, -11929.997733831136, -7902.861583574007, -5995.073139080184, -6598.436128906743, -9274.006995440364, -12120.881631479459, -16725.519803228355, 0.006046875, 0.236921875, 0.9498437500000001, 192.0, 0.0, 0.0, 0.0, 0.0, 0.0, 0.0, 0.0, 0.0, 0.0, 1.644587401102361E9, 0.0, 2022-02-12 00:50:01.102
234.0, -10104.664874632941, -9621.800139164941, -7124.126806751109, -12561.032183293366, -9837.159196991826, -6263.919921388617, -9511.31546632236, -7160.515446724349, -9885.215447570736, -11928.45546346372, -7909.9023830774295, -5999.252915293327, -6599.732530085151, -9266.273291858828, -12117.64062853344, -16690.651081878077, 0.016, 0.234, 0.9440000000000001, 192.0, 0.0, 64.0, 3.5, 40.0, 14.5, 64.0, 0.0, 0.0, 0.0, 1.644587401110271E9, 0.0, 2022-02-12 00:50:01.110
236.0, -10138.840691905105, -9623.297706043448, -7131.636992888092, -12563.021488549888, -9839.640240626364, -6264.322252788813, -9514.98115241303, -7160.448391490983, -9904.19207861329, -11957.266862066612, -7897.9889032827505, -5998.47060423739, -6593.675207337762, -9277.203294897472, -12111.270381363676, -16743.088274370228, 0.016, 0.234, 0.9440000000000001, 192.0, 0.0, 0.0, 0.0, 0.0, 0.0, 0.0, 0.0, 0.0, 0.0, 1.644587401117119E9, 0.0, 2022-02-12 00:50:01.117
238.0, -10120.378150985021, -9622.00130486504, -7131.726399865914, -12547.643488364636, -9825.17866196378, -6255.7168311735195, -9513.036550645418, -7149.6972024079805, -9891.295122062578, -11933.618716432897, -7904.761481852709, -6005.846679907641, -6575.726756540151, -9276.912722219555, -12108.476413306764, -16687.186561487506, 0.016, 0.234, 0.9440000000000001, 192.0, 0.0, 0.0, 0.0, 0.0, 0.0, 0.0, 0.0, 0.0, 0.0, 1.644587401124653E9, 0.0, 2022-02-12 00:50:01.124
240.0, -10097.489964662787, -9595.000397563028, -7125.177338740509, -12555.891282068646, -9834.14171149036, -6252.252310782947, -9513.371826812247, -7155.776876899824, -9904.057968146559, -11928.209594274711, -7903.80035684113, -6001.801014161231, -6569.714137281673, -9272.621187284134, -12106.956494683802, -16717.562582202267, 0.016, 0.234, 0.9440000000000001, 192.0, 0.0, 0.0, 0.0, 0.0, 0.0, 0.0, 0.0, 0.0, 0.0, 1.644587401132639E9, 0.0, 2022-02-12 00:50:01.132
242.0, -10093.153726238457, -9609.372569247791, -7127.747789352869, -12550.146883743631, -9831.32539168899, -6245.390325235167, -9517.305733836381, -7156.805057144768, -9889.037595872593, -11932.679943165773, -7891.886877046451, -5997.777700159276, -6589.942466013726, -9258.226663854917, -12107.358826083997, -16719.93186711453, 0.016, 0.234, 0.9440000000000001, 192.0, 0.0, 0.0, 0.0, 0.0, 0.0, 0.0, 0.0, 0.0, 0.0, 1.644587401140681E9, 0.0, 2022-02-12 00:50:01.140
244.0, -10092.013787271237, -9612.010075093518, -7114.895536291067, -12544.693058096536, -9814.94156300325, -6236.8743105976955, -9505.45930927507, -7137.224929001919, -9880.678043446309, -11918.039550547546, -7899.642932372443, -5998.80588040422, -6586.634407834341, -9256.594986509679, -12103.87195394897, -16678.5364363833, 0.004, 0.24, 0.9500000000000001, 192.0, 0.0, 16.0, 3.5, 64.0, 14.5, 88.0, 0.0, 0.0, 0.0, 1.644587401154352E9, 0.0, 2022-02-12 00:50:01.154
246.0, -10119.551136440175, -9605.438662223658, -7112.54860312326, -12559.62402339268, -9820.909478772817, -6241.210549022026, -9505.325198808338, -7150.680679164015, -9894.111441863948, -11927.807262874516, -7892.825650313574, -5981.751499384821, -6576.307901895989, -9249.777704450811, -12095.802974200604, -16733.097044598704, 0.004, 0.24, 0.9500000000000001, 192.0, 0.0, 0.0, 0.0, 0.0, 0.0, 0.0, 0.0, 0.0, 0.0, 1.64458740116227E9, 0.0, 2022-02-12 00:50:01.162
248.0, -10113.516165437242, -9587.75843235951, -7118.337704937185, -12531.840805034733, -9814.472176369689, -6231.196967506047, -9508.700312221088, -7150.859493119657, -9880.320415535023, -11912.026931289069, -7895.597266626033, -5983.316121496692, -6573.737451283629, -9259.277195844317, -12097.658168990394, -16680.68220385101, 0.004, 0.24, 0.9500000000000001, 192.0, 0.0, 0.0, 0.0, 0.0, 0.0, 0.0, 0.0, 0.0, 0.0, 1.644587401170378E9, 0.0, 2022-02-12 00:50:01.170
250.0, -10102.832031587604, -9603.918743600696, -7113.4203211570175, -12544.603651118714, -9822.831728795974, -6236.449627453045, -9497.725605693533, -7151.5747489422265, -9889.685796461798, -11923.582783172464, -7883.616731597988, -5982.556162185212, -6557.375974342343, -9259.478361544414, -12101.72618648126, -16713.047529822295, 0.004, 0.24, 0.9500000000000001, 192.0, 0.0, 0.0, 0.0, 0.0, 0.0, 0.0, 0.0, 0.0, 0.0, 1.644587401176893E9, 0.0, 2022-02-12 00:50:01.176
252.0, -10115.371360227033, -9614.938153617162, -7127.300754463763, -12550.48215991046, -9826.5197666311, -6241.255252510936, -9513.93062042363, -7150.054830319265, -9896.503078520665, -11932.814053632505, -7888.154135722415, -5988.792298888243, -6569.088288436925, -9260.394783067082, -12106.01772141668, -16719.08250082523, 0.004, 0.24, 0.9500000000000001, 192.0, 0.0, 0.0, 0.0, 0.0, 0.0, 0.0, 0.0, 0.0, 0.0, 1.644587401184973E9, 0.0, 2022-02-12 00:50:01.184
254.0, -10098.831069330105, -9614.37936000578, -7113.912059535034, -12548.694020354036, -9818.964877005206, -6225.944307559051, -9490.438937001103, -7142.902272093567, -9893.083261619004, -11924.678018650773, -7900.000560283728, -5988.032339576762, -6587.751995057106, -9259.657175500057, -12109.459890062797, -16683.833799819207, 0.002, 0.24, 0.9540000000000001, 192.0, 0.0, 8.0, 3.5, 64.0, 14.5, 104.0, 0.0, 0.0, 0.0, 1.644587401192935E9, 0.0, 2022-02-12 00:50:01.192
0.0, -10087.47638314681, -9602.935266844663, -7114.493204890872, -12566.262491495907, -9816.975571748682, -6228.514758171411, -9501.21247782856, -7141.628222659615, -9895.564305253543, -11944.83929214946, -7901.118147506493, -5987.4064907320135, -6583.125183954858, -9247.989564894386, -12100.34037832503, -16741.07661736925, 0.002, 0.24, 0.9540000000000001, 192.0, 0.0, 0.0, 0.0, 0.0, 0.0, 0.0, 0.0, 0.0, 0.0, 1.644587401199573E9, 0.0, 2022-02-12 00:50:01.199
2.0, -10100.976836797814, -9593.122851028784, -7109.642876344071, -12545.743590085935, -9795.942580216239, -6225.497272669944, -9509.147347110194, -7135.660306890048, -9876.095935832971, -11926.2649925071, -7913.746883123742, -5998.80588040422, -6567.903645980793, -9243.765085192334, -12097.59111375703, -16686.046622520284, 0.002, 0.24, 0.9540000000000001, 192.0, 0.0, 0.0, 0.0, 0.0, 0.0, 0.0, 0.0, 0.0, 0.0, 1.644587401206512E9, 0.0, 2022-02-12 00:50:01.206
4.0, -10115.728988138317, -9593.212258006604, -7100.545716350761, -12557.254738480418, -9798.334216872958, -6221.9656970460055, -9497.233867315515, -7134.095684778176, -9892.189191840791, -11911.132861510858, -7878.2076094398035, -5974.8448103481305, -6558.96294819867, -9245.329707304205, -12094.216000344277, -16716.40029149059, 0.002, 0.24, 0.9540000000000001, 192.0, 0.0, 0.0, 0.0, 0.0, 0.0, 0.0, 0.0, 0.0, 0.0, 1.644587401214588E9, 0.0, 2022-02-12 00:50:01.214
6.0, -10113.180889270412, -9607.942057602651, -7113.956763023944, -12551.018601777389, -9805.375016376378, -6223.932650558073, -9496.205687070571, -7139.549510425271, -9898.201811099269, -11931.495300709641, -7883.907304275907, -5984.500763952824, -6546.490674792609, -9239.339439790183, -12095.1547736114, -16720.244791536905, 0.002, 0.24, 0.9540000000000001, 192.0, 0.0, 0.0, 0.0, 0.0, 0.0, 0.0, 0.0, 0.0, 0.0, 1.644587401222595E9, 0.0, 2022-02-12 00:50:01.222
8.0, -10074.758240551739, -9583.355138701814, -7099.718701805914, -12539.48510163845, -9795.60730404941, -6209.783996317863, -9492.696463191089, -7131.7934550992795, -9891.67510171832, -11908.674169620774, -7900.84992657303, -5990.2228105333825, -6553.576177784941, -9247.296660816271, -12096.115898622978, -16677.664718349544, 0.01, 0.24, 0.9540000000000001, 192.0, 0.0, 40.0, 3.5, 64.0, 14.5, 104.0, 0.0, 0.0, 0.0, 1.644587401229882E9, 0.0, 2022-02-12 00:50:01.229
10.0, -10098.361682696544, -9597.95082783113, -7099.942219250467, -12551.935023300055, -9804.682112298264, -6216.556574887822, -9493.523477735935, -7134.3192022227295, -9892.658578474353, -11919.201841259222, -7889.048205500628, -5979.13634528355, -6570.407041359787, -9247.58723349419, -12097.993445157224, -16734.996942877406, 0.01, 0.24, 0.9540000000000001, 192.0, 0.0, 0.0, 0.0, 0.0, 0.0, 0.0, 0.0, 0.0, 0.0, 1.644587401237216E9, 0.0, 2022-02-12 00:50:01.237
12.0, -10118.299438750677, -9600.074243554383, -7106.468928631417, -12534.746531813924, -9789.41587083529, -6205.090129982249, -9489.29899803388, -7127.8595480751455, -9876.721784677718, -11923.113396538902, -7893.51855439169, -5975.895342337531, -6564.439125590221, -9234.198538565463, -12095.87002943397, -16677.15062822707, 0.01, 0.24, 0.9540000000000001, 192.0, 0.0, 0.0, 0.0, 0.0, 0.0, 0.0, 0.0, 0.0, 0.0, 1.644587401245388E9, 0.0, 2022-02-12 00:50:01.245
14.0, -10104.016674043736, -9606.980932591074, -7098.243486671864, -12543.977802273967, -9796.07669068297, -6200.731539813464, -9484.06868983134, -7123.411550928539, -9892.323302307523, -11927.047303563037, -7878.855810029007, -5972.6096359026005, -6558.828837731939, -9230.152872819051, -12097.457003290298, -16707.236076263915, 0.01, 0.24, 0.9540000000000001, 192.0, 0.0, 0.0, 0.0, 0.0, 0.0, 0.0, 0.0, 0.0, 0.0, 1.644587401252487E9, 0.0, 2022-02-12 00:50:01.252
16.0, -10095.053624517159, -9591.737042872554, -7102.199745440454, -12542.837863306746, -9789.214705135191, -6200.8880020246515, -9491.310655034858, -7136.353210968163, -9895.743119209184, -11932.054094321025, -7882.096812975027, -5972.699042880421, -6550.0893056499135, -9216.33949474567, -12091.399680542909, -16713.87454436714, 0.01, 0.24, 0.9540000000000001, 192.0, 0.0, 0.0, 0.0, 0.0, 0.0, 0.0, 0.0, 0.0, 0.0, 1.644587401259978E9, 0.0, 2022-02-12 00:50:01.259
18.0, -10076.345214408066, -9582.975159046073, -7099.696350061459, -12541.407351661606, -9784.319673099479, -6188.952170485517, -9473.853942615264, -7101.350379151151, -9892.47976451871, -11900.538134639042, -7899.508821905712, -5981.907961596008, -6554.134971396324, -9237.506596744848, -12089.075099119556, -16671.294471179783, 0.008, 0.24, 0.9520000000000001, 192.0, 0.0, 32.0, 3.5, 64.0, 14.5, 96.0, 0.0, 0.0, 0.0, 1.644587401274851E9, 0.0, 2022-02-12 00:50:01.274
20.0, -10090.717386092829, -9585.009167791506, -7100.903344262046, -12560.428686193072, -9790.578161546966, -6186.716996039987, -9485.901532876675, -7112.12391997861, -9910.361160082955, -11905.2096492302, -7887.617693855488, -5983.539638941245, -6553.777343485039, -9227.8282913957, -12086.616407229472, -16729.11843408566, 0.008, 0.24, 0.9520000000000001, 192.0, 0.0, 0.0, 0.0, 0.0, 0.0, 0.0, 0.0, 0.0, 0.0, 1.644587401282266E9, 0.0, 2022-02-12 00:50:01.282
22.0, -10116.041912560691, -9612.345351260346, -7099.651646572548, -12540.982668516956, -9767.198236846714, -6186.381719873157, -9481.073556074329, -7124.082103262199, -9884.47784000371, -11920.006504059615, -7889.249371200725, -5983.249066263326, -6557.82300923145, -9219.938125602976, -12084.24712231721, -16678.044698005284, 0.008, 0.24, 0.9520000000000001, 192.0, 0.0, 0.0, 0.0, 0.0, 0.0, 0.0, 0.0, 0.0, 0.0, 1.644587401289465E9, 0.0, 2022-02-12 00:50:01.289
24.0, -10081.262598188234, -9598.017883064495, -7091.381501124085, -12547.15174998662, -9780.005786419606, -6187.186382673548, -9483.107564819762, -7114.224983957409, -9890.803383684563, -11925.236812262156, -7881.783888552653, -5970.866199835086, -6550.134009138824, -9227.716532673423, -12083.978901383747, -16709.471250709445, 0.008, 0.24, 0.9520000000000001, 192.0, 0.0, 0.0, 0.0, 0.0, 0.0, 0.0, 0.0, 0.0, 0.0, 1.644587401297637E9, 0.0, 2022-02-12 00:50:01.297
26.0, -10106.207145000357, -9603.89639185624, -7104.256105930342, -12541.943793528533, -9782.017443420584, -6189.980350730461, -9488.06965208884, -7111.766292067325, -9897.665369232342, -11932.791701888049, -7889.070557245083, -5973.5484091697235, -6548.77055272705, -9217.792358135266, -12085.58822698453, -16716.757919401876, 0.008, 0.24, 0.9520000000000001, 192.0, 0.0, 0.0, 0.0, 0.0, 0.0, 0.0, 0.0, 0.0, 0.0, 1.644587401304699E9, 0.0, 2022-02-12 00:50:01.304
28.0, -10103.502583921265, -9600.364816232302, -7099.562239594727, -12544.983630774455, -9770.41688804828, -6181.017301203883, -9467.662509401145, -7110.112262977632, -9897.643017487886, -11919.60417265942, -7898.860621316508, -5973.749574869821, -6533.191386841701, -9235.897271144066, -12089.388023541931, -16679.5869683727, 0.002, 0.234, 0.9460000000000001, 192.0, 0.0, 8.0, 3.5, 40.0, 14.5, 72.0, 0.0, 0.0, 0.0, 1.644587401312311E9, 0.0, 2022-02-12 00:50:01.312
30.0, -10097.221743729324, -9594.061624295906, -7100.053977972744, -12563.423819950083, -9778.016481163082, -6188.5051355964115, -9480.850038629775, -7110.492242633372, -9906.606067014465, -11936.926774612282, -7887.79650781113, -5970.41916494598, -6544.948404425193, -9221.636858181579, -12088.449250274809, -16738.059131867783, 0.002, 0.234, 0.9460000000000001, 192.0, 0.0, 0.0, 0.0, 0.0, 0.0, 0.0, 0.0, 0.0, 0.0, 1.644587401320142E9, 0.0, 2022-02-12 00:50:01.320
32.0, -10085.755298823751, -9600.454223210123, -7100.970399495412, -12544.693058096536, -9765.387745545835, -6180.190286659037, -9480.537114207402, -7114.336742679685, -9896.570133754032, -11911.848117333428, -7892.646836357932, -5992.905019868019, -6551.564520783963, -9227.425959995504, -12085.990558384725, -16685.085497508706, 0.002, 0.234, 0.9460000000000001, 192.0, 0.0, 0.0, 0.0, 0.0, 0.0, 0.0, 0.0, 0.0, 0.0, 1.644587401328822E9, 0.0, 2022-02-12 00:50:01.328
34.0, -10096.215915228835, -9596.60972316381, -7094.980131981389, -12554.48312216796, -9781.592760275933, -6181.4643360929895, -9485.610960198755, -7122.249260216864, -9895.430194786812, -11915.022065046081, -7893.5632578806, -5967.84871433362, -6537.684087477218, -9224.743750660868, -12090.997349142714, -16713.271047266848, 0.002, 0.234, 0.9460000000000001, 192.0, 0.0, 0.0, 0.0, 0.0, 0.0, 0.0, 0.0, 0.0, 0.0, 1.644587401334892E9, 0.0, 2022-02-12 00:50:01.334
36.0, -10105.313075222144, -9596.296798741436, -7104.099643719154, -12562.976785060977, -9770.372184559368, -6176.055213934805, -9476.536151949902, -7115.387274669084, -9893.731462208207, -11927.673152407784, -7890.635179356955, -5971.201476001916, -6551.452762061687, -9211.802090621244, -12091.10910786499, -16726.235059050927, 0.002, 0.234, 0.9460000000000001, 192.0, 0.0, 0.0, 0.0, 0.0, 0.0, 0.0, 0.0, 0.0, 0.0, 1.64458740134249E9, 0.0, 2022-02-12 00:50:01.342
38.0, -10124.557927198164, -9589.568923660388, -7096.589457582171, -12556.58418614676, -9771.288606082035, -6165.304024851803, -9472.557541436856, -7110.201669955453, -9904.057968146559, -11920.386483715354, -7898.815917827597, -5998.068272837195, -6554.336137096422, -9221.122768059107, -12090.662072975883, -16680.05635500626, 0.004, 0.232, 0.9380000000000001, 192.0, 0.0, 16.0, 3.5, 32.0, 14.5, 40.0, 0.0, 0.0, 0.0, 1.644587401349799E9, 0.0, 2022-02-12 00:50:01.349
40.0, -10121.495738207786, -9619.5202612305, -7098.2211349274085, -12557.701773369525, -9781.056318409004, -6170.467277820979, -9476.044413571884, -7110.089911233176, -9927.527299824633, -11940.167777558301, -7888.84703980053, -5966.641720133033, -6546.8035992149835, -9224.766102405323, -12092.740785210228, -16740.294306313313, 0.004, 0.232, 0.9380000000000001, 192.0, 0.0, 0.0, 0.0, 0.0, 0.0, 0.0, 0.0, 0.0, 0.0, 1.644587401358011E9, 0.0, 2022-02-12 00:50:01.358
42.0, -10113.85144160407, -9597.548496430934, -7103.093815218665, -12548.738723842946, -9763.26432982258, -6162.21948411697, -9475.910303105153, -7098.578762838693, -9909.176517626825, -11930.042437320048, -7897.363054438002, -5989.082871566162, -6534.53249150902, -9221.145119803563, -12087.890456663425, -16689.153514999573, 0.004, 0.232, 0.9380000000000001, 192.0, 0.0, 0.0, 0.0, 0.0, 0.0, 0.0, 0.0, 0.0, 0.0, 1.644587401364396E9, 0.0, 2022-02-12 00:50:01.364
44.0, -10099.769842597228, -9608.880830869773, -7090.196858667953, -12558.618194892191, -9767.824085691464, -6164.40995507359, -9488.717852678044, -7107.40770189854, -9911.478747305722, -11922.733416883162, -7892.691539846843, -5980.388042973047, -6545.529549781031, -9209.432805708982, -12090.639721231428, -16714.58980018971, 0.004, 0.232, 0.9380000000000001, 192.0, 0.0, 0.0, 0.0, 0.0, 0.0, 0.0, 0.0, 0.0, 0.0, 1.644587401372711E9, 0.0, 2022-02-12 00:50:01.372
46.0, -10112.689150892396, -9611.495984971045, -7098.623466327605, -12551.823264577779, -9752.915472139774, -6165.326376596257, -9472.401079225669, -7107.944143765467, -9915.792633985595, -11943.051152593036, -7889.361129923002, -5973.190781258439, -6546.021288159048, -9207.242334752362, -12085.610578728983, -16725.63156195063, 0.004, 0.234, 0.9420000000000001, 192.0, 0.0, 16.0, 3.5, 48.0, 14.5, 72.0, 0.0, 0.0, 0.0, 1.644587401380477E9, 0.0, 2022-02-12 00:50:01.380
48.0, -10111.437453202898, -9602.488231955556, -7092.364977880118, -12542.457883651005, -9747.50634998159, -6150.373059555657, -9462.745125620977, -7093.3484546361515, -9905.62259025843, -11927.69550415224, -7893.451499158324, -5975.51536268179, -6524.094226848391, -9187.975131031888, -12084.023604872657, -16679.184636972506, 0.004, 0.234, 0.9420000000000001, 192.0, 0.0, 0.0, 0.0, 0.0, 0.0, 0.0, 0.0, 0.0, 0.0, 1.644587401387278E9, 0.0, 2022-02-12 00:50:01.387
50.0, -10126.994267343793, -9619.028522852484, -7095.270704659308, -12556.986517546955, -9757.78815243103, -6154.686946235532, -9467.193122767583, -7095.427166870495, -9922.565212555553, -11939.385466502365, -7887.349472922025, -5970.843848090631, -6539.5839857559195, -9200.62621839359, -12080.268511804166, -16733.07469285425, 0.004, 0.234, 0.9420000000000001, 192.0, 0.0, 0.0, 0.0, 0.0, 0.0, 0.0, 0.0, 0.0, 0.0, 1.644587401402305E9, 0.0, 2022-02-12 00:50:01.402
52.0, -10152.184683344924, -9624.772921177499, -7101.350379151151, -12542.279069695363, -9741.717248167664, -6143.734591452431, -9454.318517961327, -7086.754690021836, -9911.076415905525, -11930.735341398162, -7905.744958608742, -5990.155755300017, -6531.939689152204, -9207.622314408101, -12083.017776372168, -16684.68316610851, 0.004, 0.234, 0.9420000000000001, 192.0, 0.0, 0.0, 0.0, 0.0, 0.0, 0.0, 0.0, 0.0, 0.0, 1.644587401410074E9, 0.0, 2022-02-12 00:50:01.410
54.0, -10159.270186337255, -9655.685383759188, -7093.862544758624, -12554.81839833479, -9749.138027326826, -6143.6004809856995, -9455.01142203944, -7091.5826668241825, -9930.544785326098, -11935.138635055857, -7900.827574828574, -5985.8195168756865, -6523.356619281366, -9201.900267827543, -12082.883665905436, -16712.600494933187, 0.004, 0.234, 0.9420000000000001, 192.0, 0.0, 0.0, 0.0, 0.0, 0.0, 0.0, 0.0, 0.0, 0.0, 1.644587401416891E9, 0.0, 2022-02-12 00:50:01.416
56.0, -10188.662730295984, -9661.519189062023, -7106.088948975676, -12558.864064081201, -9746.209948803182, -6142.147617596104, -9449.624651625712, -7081.122050419099, -9944.380515143934, -11951.231891063679, -7913.009275556717, -6005.511403740812, -6539.606337500374, -9209.63397140908, -12081.721375193762, -16722.904649127086, 0.003, 0.234, 0.9410000000000001, 192.0, 0.0, 8.0, 3.5, 40.0, 14.5, 48.0, 0.0, 0.0, 0.0, 1.644587401424578E9, 0.0, 2022-02-12 00:50:01.424
58.0, -10184.326491871654, -9672.985633967595, -7098.824632027702, -12558.752305358925, -9737.179844043238, -6132.379905269135, -9449.088209758784, -7084.5418673207605, -9940.558366842077, -11952.237719564167, -7934.981040356284, -6035.1274651440945, -6541.193311356701, -9196.893477069554, -12081.989596127225, -16678.514084638846, 0.003, 0.234, 0.9410000000000001, 192.0, 0.0, 0.0, 0.0, 0.0, 0.0, 0.0, 0.0, 0.0, 0.0, 1.644587401432857E9, 0.0, 2022-02-12 00:50:01.432
60.0, -10220.156338233512, -9713.844622831897, -7102.7361873073805, -12572.92331134359, -9741.918413867763, -6135.956184381984, -9447.34477369127, -7077.277550372786, -9951.06368673607, -11966.56518776002, -7930.242470531759, -6027.7290377293875, -6537.8852531773155, -9202.928448072487, -12080.044994359612, -16737.477986511945, 0.003, 0.234, 0.9410000000000001, 192.0, 0.0, 0.0, 0.0, 0.0, 0.0, 0.0, 0.0, 0.0, 0.0, 1.644587401441483E9, 0.0, 2022-02-12 00:50:01.441
62.0, -10270.134838835578, -9750.680297694242, -7102.244448929364, -12546.794122075335, -9720.416035701757, -6126.859024388675, -9439.409904409637, -7074.394175338051, -9941.251270920191, -11954.31643179851, -7922.4640634613115, -6010.6523049655325, -6528.38576178381, -9207.175279518995, -12076.736936180227, -16685.666642864544, 0.003, 0.234, 0.9410000000000001, 192.0, 0.0, 0.0, 0.0, 0.0, 0.0, 0.0, 0.0, 0.0, 0.0, 1.644587401447668E9, 0.0, 2022-02-12 00:50:01.447
64.0, -10240.205853009922, -9729.043809061504, -7089.9733412234, -12559.400505948128, -9722.360637469368, -6116.130187050127, -9436.593584608268, -7071.846076470146, -9949.92374776885, -11974.678870997295, -7921.726455894287, -6004.505575240323, -6514.952363366171, -9193.853639823632, -12075.284072790631, -16703.570390173245, 0.003, 0.234, 0.9410000000000001, 192.0, 0.0, 0.0, 0.0, 0.0, 0.0, 0.0, 0.0, 0.0, 0.0, 1.644587401454252E9, 0.0, 2022-02-12 00:50:01.454
66.0, -10237.210719252911, -9705.082739005416, -7100.411605884029, -12563.490875183448, -9722.450044447189, -6123.841538887208, -9442.24857595546, -7083.625445798093, -9944.604032588486, -11977.405783820843, -7917.479624447778, -6016.396703290547, -6505.072892316925, -9188.891552554554, -12074.68057569034, -16719.194259547505, 0.0035, 0.23500000000000001, 0.9475, 192.0, 0.0, 16.0, 3.5, 48.0, 14.5, 104.0, 0.0, 0.0, 0.0, 1.644587401462405E9, 0.0, 2022-02-12 00:50:01.462
68.0, -10250.241786270355, -9740.174977800249, -7093.795489525258, -12554.72899135697, -9717.152681011281, -6120.153501052082, -9421.5732123343, -7060.625500753582, -9945.498102366699, -11952.193016075256, -7922.598173928043, -6029.070142396706, -6525.323572793433, -9206.840003352167, -12073.406526256387, -16673.976680514417, 0.0035, 0.23500000000000001, 0.9475, 192.0, 0.0, 0.0, 0.0, 0.0, 0.0, 0.0, 0.0, 0.0, 0.0, 1.64458740146949E9, 0.0, 2022-02-12 00:50:01.469
70.0, -10232.114521517102, -9741.046695834006, -7092.767309280313, -12562.82032284979, -9722.11476828036, -6121.852233630685, -9433.240822939972, -7061.184294364964, -9953.96941351526, -11990.459202582742, -7909.410644699413, -5994.491993724346, -6519.3333052794105, -9189.048014765742, -12073.96531986777, -16731.733588186933, 0.0035, 0.23500000000000001, 0.9475, 192.0, 0.0, 0.0, 0.0, 0.0, 0.0, 0.0, 0.0, 0.0, 0.0, 1.644587401477093E9, 0.0, 2022-02-12 00:50:01.477
72.0, -10215.373064920077, -9698.53367788001, -7096.053015715243, -12548.604613376214, -9703.026378515528, -6113.157405037571, -9432.883195028686, -7063.754744977325, -9938.546709841099, -11973.203655863244, -7916.384388969468, -6010.741711943354, -6511.867822631339, -9197.899305570043, -12071.1490000664, -16676.658889849055, 0.0035, 0.23500000000000001, 0.9475, 192.0, 0.0, 0.0, 0.0, 0.0, 0.0, 0.0, 0.0, 0.0, 0.0, 1.644587401484988E9, 0.0, 2022-02-12 00:50:01.484
74.0, -10179.722032513862, -9672.091564189383, -7088.45342260044, -12558.506436169915, -9709.374273940835, -6107.144785779094, -9426.892927514664, -7063.218303110398, -9929.471901592244, -11947.767370673106, -7906.303752220125, -5999.856412393619, -6502.547145193475, -9192.020796778297, -12070.880779132936, -16695.791983102798, 0.0035, 0.23500000000000001, 0.9475, 192.0, 0.0, 0.0, 0.0, 0.0, 0.0, 0.0, 0.0, 0.0, 0.0, 1.644587401493025E9, 0.0, 2022-02-12 00:50:01.493
76.0, -10206.030035737758, -9677.612445069844, -7097.729396549392, -12554.885453568157, -9712.838794331408, -6113.693846904498, -9434.023133995906, -7067.152210134532, -9937.093846451504, -11971.013184906626, -7910.8411563445525, -6004.527926984779, -6489.0466915424695, -9188.53392464327, -12072.91478787837, -16709.895933854095, 0.00675, 0.2335, 0.9497500000000001, 192.0, 0.0, 40.0, 3.5, 32.0, 14.5, 96.0, 0.0, 0.0, 0.0, 1.644587401499527E9, 0.0, 2022-02-12 00:50:01.499
78.0, -10192.194305919922, -9672.560950822945, -7084.273646387297, -12547.755247086912, -9689.257703931058, -6099.92517232003, -9423.517814101913, -7064.179428121976, -9921.604087543976, -11942.067675837003, -7905.9684760532955, -6015.14500560105, -6505.162299294746, -9183.124802485085, -12073.428878000841, -16667.740543811386, 0.00675, 0.2335, 0.9497500000000001, 192.0, 0.0, 0.0, 0.0, 0.0, 0.0, 0.0, 0.0, 0.0, 0.0, 1.64458740150758E9, 0.0, 2022-02-12 00:50:01.507
80.0, -10171.518942298764, -9667.19653215367, -7084.810088254224, -12556.718296613491, -9708.569611140443, -6109.469367202445, -9439.834587554287, -7078.30573061773, -9932.511738838166, -11948.415571262309, -7893.585609625055, -5981.1256505400725, -6508.71622666314, -9185.20351471943, -12071.037241344124, -16729.856041652685, 0.00675, 0.2335, 0.9497500000000001, 192.0, 0.0, 0.0, 0.0, 0.0, 0.0, 0.0, 0.0, 0.0, 0.0, 1.644587401521786E9, 0.0, 2022-02-12 00:50:01.521
82.0, -10152.922290911949, -9637.155787605738, -7087.626408055593, -12533.76305505789, -9686.419032385234, -6094.963085050951, -9415.650000053645, -7051.997727393834, -9925.873270734939, -11945.08516133847, -7903.330970207569, -5993.441461734947, -6500.535488192498, -9198.234581736873, -12068.802066898594, -16678.424677661023, 0.00675, 0.2335, 0.9497500000000001, 192.0, 0.0, 0.0, 0.0, 0.0, 0.0, 0.0, 0.0, 0.0, 0.0, 1.644587401529591E9, 0.0, 2022-02-12 00:50:01.529
84.0, -10147.803741431682, -9628.796235179452, -7076.584646294671, -12548.358744187206, -9688.318930663936, -6091.096233260183, -9410.062063939818, -7051.774209949281, -9918.787767742608, -11936.010353089614, -7894.591438125544, -5990.178107044471, -6486.18566825219, -9177.760383815812, -12064.354069751987, -16692.483924923414, 0.00675, 0.2335, 0.9497500000000001, 192.0, 0.0, 0.0, 0.0, 0.0, 0.0, 0.0, 0.0, 0.0, 0.0, 1.644587401537334E9, 0.0, 2022-02-12 00:50:01.537
86.0, -10161.505360782787, -9649.404543567247, -7087.268780144308, -12554.10314251222, -9687.648378330276, -6085.687111101998, -9415.62764830919, -7064.425297310984, -9929.24838414769, -11942.000620603636, -7888.13178397796, -5980.790374373242, -6482.318816461422, -9165.601034832125, -12064.555235452084, -16712.712253655463, 0.0063750000000000005, 0.23375, 0.9508750000000001, 192.0, 0.0, 24.0, 3.5, 40.0, 14.5, 96.0, 0.0, 0.0, 0.0, 1.644587401545205E9, 0.0, 2022-02-12 00:50:01.545
88.0, -10148.943680398903, -9632.059589869928, -7084.564219065216, -12541.742627828435, -9688.162468452749, -6084.278951201314, -9427.876404270697, -7059.8878931865565, -9906.539011781098, -11925.348570984432, -7898.950028294329, -5995.453118735924, -6478.027281526003, -9175.256988436817, -12072.735973922727, -16670.78038105731, 0.0063750000000000005, 0.23375, 0.9508750000000001, 192.0, 0.0, 0.0, 0.0, 0.0, 0.0, 0.0, 0.0, 0.0, 0.0, 1.644587401551839E9, 0.0, 2022-02-12 00:50:01.551
90.0, -10148.697811209895, -9629.958525891128, -7085.994730710356, -12552.985555289455, -9695.24797144508, -6091.744433849387, -9422.19906117905, -7052.333003560663, -9923.973372456237, -11941.128902569879, -7884.242580442737, -5980.253932506315, -6493.070005544425, -9163.209398175406, -12074.904093134892, -16728.55964047428, 0.0063750000000000005, 0.23375, 0.9508750000000001, 192.0, 0.0, 0.0, 0.0, 0.0, 0.0, 0.0, 0.0, 0.0, 0.0, 1.644587401561253E9, 0.0, 2022-02-12 00:50:01.561
92.0, -10130.928174367926, -9599.113118542806, -7090.085099945677, -12542.569642373282, -9680.741689293587, -6087.63171286961, -9420.299162900348, -7057.295090829742, -9917.513718308654, -11928.768387886095, -7896.580743382066, -5987.451194220924, -6499.686121903196, -9171.501895368327, -12071.752497166694, -16681.352756184668, 0.0063750000000000005, 0.23375, 0.9508750000000001, 192.0, 0.0, 0.0, 0.0, 0.0, 0.0, 0.0, 0.0, 0.0, 0.0, 1.644587401567837E9, 0.0, 2022-02-12 00:50:01.567
94.0, -10130.324677267632, -9621.531918231478, -7077.299902117241, -12546.704715097514, -9679.24412241508, -6078.668663343033, -9412.67721804109, -7050.723677959881, -9914.004494429171, -11919.26889649259, -7875.32423440507, -5969.614502145589, -6488.353787464355, -9153.173464914975, -12067.05863083108, -16701.849305850184, 0.0063750000000000005, 0.23375, 0.9508750000000001, 192.0, 0.0, 0.0, 0.0, 0.0, 0.0, 0.0, 0.0, 0.0, 0.0, 1.644587401575628E9, 0.0, 2022-02-12 00:50:01.575
96.0, -10123.797967886683, -9616.256906540026, -7082.977245208889, -12543.82134006278, -9681.948683494173, -6081.932018033507, -9424.14366294666, -7059.820837953191, -9918.63130553142, -11932.054094321025, -7875.927731505362, -5955.801124072209, -6491.23716249909, -9165.064592965198, -12062.878854617937, -16716.6461606796, 0.0061875, 0.233875, 0.9504375, 192.0, 0.0, 24.0, 3.5, 40.0, 14.5, 88.0, 0.0, 0.0, 0.0, 1.644587401581533E9, 0.0, 2022-02-12 00:50:01.581
98.0, -10115.170194526934, -9590.6641591387, -7080.987939952367, -12533.651296335614, -9669.275244388014, -6078.065166242739, -9416.320552387304, -7050.030773881766, -9902.716863479242, -11916.541983669042, -7878.676996073365, -5964.920635809975, -6479.837772826883, -9169.177313944974, -12064.398773240897, -16671.987375257897, 0.0061875, 0.233875, 0.9504375, 192.0, 0.0, 0.0, 0.0, 0.0, 0.0, 0.0, 0.0, 0.0, 0.0, 1.644587401589919E9, 0.0, 2022-02-12 00:50:01.589
100.0, -10088.795136069672, -9581.6117026343, -7082.060823686222, -12553.410238434106, -9691.112898720849, -6081.328520933213, -9427.831700781788, -7047.840302925147, -9917.848994475484, -11930.98121058717, -7879.392251895935, -5970.776792857265, -6472.975787279104, -9160.728354540868, -12069.29380527661, -16732.292381798314, 0.0061875, 0.233875, 0.9504375, 192.0, 0.0, 0.0, 0.0, 0.0, 0.0, 0.0, 0.0, 0.0, 0.0, 1.644587401597631E9, 0.0, 2022-02-12 00:50:01.597
102.0, -10116.019560816236, -9585.143278258238, -7083.826611498191, -12543.62017436268, -9678.662977059243, -6083.161363978549, -9427.563479848324, -7061.9666054209, -9908.505965293165, -11924.476852950675, -7894.010292769706, -5984.299598252725, -6502.725959149117, -9168.082078466663, -12076.759287924682, -16688.46061092146, 0.0061875, 0.233875, 0.9504375, 192.0, 0.0, 0.0, 0.0, 0.0, 0.0, 0.0, 0.0, 0.0, 0.0, 1.644587401604776E9, 0.0, 2022-02-12 00:50:01.604
104.0, -10126.52488071023, -9622.694208943154, -7077.992806195356, -12554.10314251222, -9697.10316623487, -6093.107890261161, -9436.146549719162, -7063.665337999504, -9920.330038110023, -11920.922925582281, -7878.989920495739, -5967.021699788774, -6494.187592767191, -9176.821610548688, -12077.2510263027, -16716.377939746137, 0.0061875, 0.233875, 0.9504375, 192.0, 0.0, 0.0, 0.0, 0.0, 0.0, 0.0, 0.0, 0.0, 0.0, 1.64458740161235E9, 0.0, 2022-02-12 00:50:01.612
106.0, -10123.999133586782, -9611.607743693321, -7085.1900679099645, -12560.451037937528, -9686.77666029652, -6096.8182798407415, -9426.803520536843, -7065.878160700579, -9924.95684921227, -11931.092969309446, -7875.123068704971, -5971.804973102209, -6489.3819677093, -9170.049031978731, -12078.748593181204, -16734.88518415513, 0.00809375, 0.23493750000000002, 0.9502187500000001, 192.0, 0.0, 40.0, 3.5, 48.0, 14.5, 88.0, 0.0, 0.0, 0.0, 1.644587401620387E9, 0.0, 2022-02-12 00:50:01.620
108.0, -10119.797005629183, -9601.214182521604, -7074.237713126864, -12549.319869198784, -9677.925369492217, -6081.037948255294, -9419.270982655404, -7054.568178006194, -9914.473881062733, -11922.956934327714, -7887.908266533407, -5975.649473148522, -6491.2148107546345, -9171.390136646049, -12074.121782078957, -16684.97373878643, 0.00809375, 0.23493750000000002, 0.9502187500000001, 192.0, 0.0, 0.0, 0.0, 0.0, 0.0, 0.0, 0.0, 0.0, 0.0, 1.64458740162739E9, 0.0, 2022-02-12 00:50:01.627
110.0, -10111.951543325371, -9591.111194027806, -7074.438878826962, -12571.224578764984, -9689.838849286896, -6090.224515226426, -9423.987200735475, -7072.628387526082, -9927.795520758096, -11953.087085853469, -7880.062804229594, -5982.936141840952, -6479.23427572659, -9158.873159751078, -12072.62421520045, -16743.043570881317, 0.00809375, 0.23493750000000002, 0.9502187500000001, 192.0, 0.0, 0.0, 0.0, 0.0, 0.0, 0.0, 0.0, 0.0, 0.0, 1.64458740163501E9, 0.0, 2022-02-12 00:50:01.635
112.0, -10134.571508714142, -9601.258886010515, -7078.171620150998, -12552.918500056088, -9684.20620968416, -6090.738605348898, -9438.091151486773, -7073.164829393009, -9913.669218262341, -11944.74988517164, -7886.813031055097, -5985.014854075295, -6494.880496845305, -9176.732203570868, -12077.854523402993, -16705.06795705175, 0.00809375, 0.23493750000000002, 0.9502187500000001, 192.0, 0.0, 0.0, 0.0, 0.0, 0.0, 0.0, 0.0, 0.0, 0.0, 1.644587401649685E9, 0.0, 2022-02-12 00:50:01.649
114.0, -10116.131319538514, -9580.248246222525, -7072.136649148065, -12559.445209437039, -9689.213000442149, -6073.214837695938, -9425.685933314078, -7055.529303017772, -9930.455378348277, -11934.043399577547, -7893.8761823029745, -5983.070252307684, -6484.464583929132, -9171.636005835058, -12079.508552492685, -16716.869678124152, 0.00809375, 0.23493750000000002, 0.9502187500000001, 192.0, 0.0, 0.0, 0.0, 0.0, 0.0, 0.0, 0.0, 0.0, 0.0, 1.644587401657227E9, 0.0, 2022-02-12 00:50:01.657
116.0, -10099.635732130497, -9590.261827738505, -7079.512724818316, -12555.466598923995, -9682.82040152793, -6074.019500496328, -9412.163127918617, -7040.978317377368, -9908.081282148514, -11942.112379325912, -7888.2435427002365, -5974.621292903578, -6493.897020089272, -9145.57387180017, -12077.899226891903, -16727.665570696066, 0.008, 0.23800000000000002, 0.9540000000000001, 192.0, 0.0, 32.0, 3.5, 56.0, 14.5, 104.0, 0.0, 0.0, 0.0, 1.644587401664403E9, 0.0, 2022-02-12 00:50:01.664
118.0, -10119.595839929085, -9595.425080707679, -7064.49235254435, -12551.711505855503, -9672.426840356213, -6073.885390029596, -9410.263229639915, -7048.935538403456, -9904.750872224675, -11908.473003920675, -7883.3708624089795, -5975.3141969816925, -6471.209999467135, -9168.350299400128, -12072.601863455995, -16684.05731726376, 0.008, 0.23800000000000002, 0.9540000000000001, 192.0, 0.0, 0.0, 0.0, 0.0, 0.0, 0.0, 0.0, 0.0, 0.0, 1.644587401672587E9, 0.0, 2022-02-12 00:50:01.672
120.0, -10141.72406693984, -9602.354121488825, -7073.656567771026, -12570.554026431326, -9690.10707022036, -6086.447070413479, -9425.261250169428, -7055.372840806585, -9933.048180705093, -11938.089065323957, -7869.669243057877, -5964.875932321064, -6479.927179804705, -9164.751668542824, -12074.546465223608, -16747.6033267502, 0.008, 0.23800000000000002, 0.9540000000000001, 192.0, 0.0, 0.0, 0.0, 0.0, 0.0, 0.0, 0.0, 0.0, 0.0, 1.644587401680402E9, 0.0, 2022-02-12 00:50:01.680
122.0, -10125.00496208727, -9600.655388910222, -7085.324178376696, -12563.200302505531, -9672.538599078489, -6079.518029632334, -9421.729674545488, -7061.743087976348, -9926.342657368501, -11955.165798087812, -7888.735281078253, -5981.907961596008, -6478.071985014914, -9177.134534971063, -12078.212151314277, -16707.21372451946, 0.008, 0.23800000000000002, 0.9540000000000001, 192.0, 0.0, 0.0, 0.0, 0.0, 0.0, 0.0, 0.0, 0.0, 0.0, 1.644587401687235E9, 0.0, 2022-02-12 00:50:01.687
124.0, -10110.073996791125, -9585.791478847443, -7078.931579462479, -12569.592901419748, -9683.714471306143, -6077.193448208982, -9415.71705528701, -7049.784904692759, -9936.020962717648, -11940.972440358692, -7895.127879992471, -5978.063461549695, -6492.131232277302, -9162.650604564024, -12081.319043793565, -16722.323503771247, 0.008, 0.23800000000000002, 0.9540000000000001, 192.0, 0.0, 0.0, 0.0, 0.0, 0.0, 0.0, 0.0, 0.0, 0.0, 1.644587401694979E9, 0.0, 2022-02-12 00:50:01.694
126.0, -10099.14399375248, -9587.691377126142, -7088.319312133707, -12571.693965398546, -9673.34326187888, -6079.763898821342, -9419.382741377682, -7057.3621460631075, -9930.567137070553, -11952.528292242087, -7891.886877046451, -5976.834115604654, -6481.357691449844, -9167.232712177361, -12080.849657160004, -16741.21072783598, 0.008, 0.23800000000000002, 0.9540000000000001, 192.0, 0.0, 0.0, 3.5, 56.0, 14.5, 72.0, 0.0, 0.0, 0.0, 1.64458740170236E9, 0.0, 2022-02-12 00:50:01.702
128.0, -10129.944697611892, -9585.635016636255, -7079.736242262869, -12572.72214564349, -9672.382136867302, -6083.049605256272, -9408.184517405572, -7046.767419191292, -9922.833433489017, -11921.615829660395, -7904.113281263505, -5981.237409262349, -6479.323682704411, -9178.676805338479, -12079.776773426149, -16694.20500924647, 0.008, 0.23800000000000002, 0.9540000000000001, 192.0, 0.0, 0.0, 0.0, 0.0, 0.0, 0.0, 0.0, 0.0, 0.0, 1.644587401710129E9, 0.0, 2022-02-12 00:50:01.710
130.0, -10147.468465264854, -9615.519298973, -7083.468983586906, -12577.8183433793, -9685.122631206827, -6095.186602495504, -9418.153395432639, -7058.3009193302305, -9941.988878487216, -11955.590481232462, -7890.5904758680435, -5985.171316286483, -6480.821249582917, -9172.48537212436, -12079.10622109249, -16755.51584428738, 0.008, 0.23800000000000002, 0.9540000000000001, 192.0, 0.0, 0.0, 0.0, 0.0, 0.0, 0.0, 0.0, 0.0, 0.0, 1.644587401716834E9, 0.0, 2022-02-12 00:50:01.716
132.0, -10143.467503007354, -9615.89927862874, -7091.113280190621, -12562.999136805432, -9674.617311312832, -6080.546209877278, -9421.841433267766, -7047.72854420287, -9939.306669152578, -11959.770257445605, -7903.487432418756, -5986.80299363172, -6483.145831006269, -9173.737069813857, -12081.587264727028, -16708.554829186778, 0.008, 0.23800000000000002, 0.9540000000000001, 192.0, 0.0, 0.0, 0.0, 0.0, 0.0, 0.0, 0.0, 0.0, 0.0, 1.644587401724708E9, 0.0, 2022-02-12 00:50:01.724
134.0, -10124.356761498066, -9602.957618589118, -7078.4398410844615, -12573.10212529923, -9674.684366546198, -6070.018538238828, -9416.879345998686, -7047.572081991682, -9943.888776765916, -11949.287289296066, -7894.144403236438, -5976.94587432693, -6475.903865802749, -9163.72348829788, -12081.2519885602, -16723.195221805003, 0.008, 0.23800000000000002, 0.9540000000000001, 192.0, 0.0, 0.0, 0.0, 0.0, 0.0, 0.0, 0.0, 0.0, 0.0, 1.644587401732844E9, 0.0, 2022-02-12 00:50:01.732
136.0, -10127.486005721808, -9605.639827923755, -7084.295998131753, -12578.220674779497, -9673.34326187888, -6076.053509241761, -9423.763683290921, -7056.82570419618, -9938.233785418724, -11958.451504522742, -7895.306693948114, -5979.225752261371, -6492.287694488489, -9164.282281909262, -12082.593093227517, -16747.737437216932, 0.002, 0.234, 0.9500000000000001, 192.0, 0.0, 8.0, 3.5, 40.0, 14.5, 88.0, 0.0, 0.0, 0.0, 1.644587401739282E9, 0.0, 2022-02-12 00:50:01.739
138.0, -10132.716313924351, -9595.402728963225, -7082.507858575328, -12565.994270562443, -9664.939005963684, -6068.252750426859, -9409.458566839525, -7041.090076099644, -9933.808140016574, -11937.396161245842, -7898.771214338686, -5983.89726685253, -6481.111822260836, -9162.203569674917, -12077.809819914082, -16700.239980249404, 0.002, 0.234, 0.9500000000000001, 192.0, 0.0, 0.0, 0.0, 0.0, 0.0, 0.0, 0.0, 0.0, 0.0, 1.64458740174751E9, 0.0, 2022-02-12 00:50:01.747
140.0, -10115.483118949309, -9587.154935259216, -7078.797468995746, -12584.836791138267, -9678.752384037065, -6067.515142859834, -9418.8239477663, -7056.691593729448, -9950.77311405815, -11954.405838776333, -7892.959760780306, -5972.27435973577, -6468.974825021604, -9169.62434883408, -12081.542561238119, -16759.963841433982, 0.002, 0.234, 0.9500000000000001, 192.0, 0.0, 0.0, 0.0, 0.0, 0.0, 0.0, 0.0, 0.0, 0.0, 1.644587401756067E9, 0.0, 2022-02-12 00:50:01.756
142.0, -10091.499697148765, -9562.143333213728, -7080.764422507814, -12580.254683524929, -9658.255834371548, -6059.5802735782, -9407.71513077201, -7050.902491915524, -9928.421369602844, -11940.145425813846, -7906.370807453491, -6004.036188606762, -6482.721147861618, -9168.842037778144, -12083.263645561177, -16717.339064757714, 0.002, 0.234, 0.9500000000000001, 192.0, 0.0, 0.0, 0.0, 0.0, 0.0, 0.0, 0.0, 0.0, 0.0, 1.644587401768964E9, 0.0, 2022-02-12 00:50:01.768
144.0, -10122.09923530808, -9605.639827923755, -7070.057936913721, -12581.372270747695, -9662.457962329145, -6060.183770678494, -9398.729729500978, -7046.186273835454, -9922.073474177538, -11917.458405191708, -7896.357225937513, -5990.647493678033, -6445.259624154523, -9154.38045911556, -12082.190761827322, -16731.17479457555, 0.002, 0.234, 0.9500000000000001, 192.0, 0.0, 0.0, 0.0, 0.0, 0.0, 0.0, 0.0, 0.0, 0.0, 1.644587401776993E9, 0.0, 2022-02-12 00:50:01.776
146.0, -10171.384831832032, -9636.172310849704, -7083.580742309183, -12581.551084703337, -9673.72324153462, -6065.8834655145965, -9418.689837299567, -7049.807256437213, -9951.421314647356, -11959.166760345312, -7890.076385745572, -5967.245217233327, -6485.090432773881, -9169.467886622893, -12083.062479861079, -16751.380771563145, 0.006, 0.23600000000000002, 0.9520000000000001, 192.0, 0.0, 24.0, 3.5, 48.0, 14.5, 96.0, 0.0, 0.0, 0.0, 1.64458740178498E9, 0.0, 2022-02-12 00:50:01.784
148.0, -10129.698828422885, -9601.6165139218, -7078.350434106641, -12572.655090410124, -9647.325831332902, -6048.583215306189, -9388.224409606983, -7017.911317099491, -9943.955831999283, -11940.950088614236, -7904.627371385976, -5981.99736857383, -6479.055461770948, -9164.975185987376, -12088.561008997085, -16699.25650349337, 0.006, 0.23600000000000002, 0.9520000000000001, 192.0, 0.0, 0.0, 0.0, 0.0, 0.0, 0.0, 0.0, 0.0, 0.0, 1.644587401792315E9, 0.0, 2022-02-12 00:50:01.792
150.0, -10131.53167146822, -9623.230650810081, -7076.517591061305, -12594.358634276228, -9664.491971074578, -6063.357718391147, -9401.52369755789, -7038.899605143024, -9957.411582161378, -11960.396106290355, -7911.735226122764, -5979.359862728103, -6468.348976176855, -9153.732258526357, -12079.285035048133, -16757.773370477364, 0.006, 0.23600000000000002, 0.9520000000000001, 192.0, 0.0, 0.0, 0.0, 0.0, 0.0, 0.0, 0.0, 0.0, 0.0, 1.644587401799491E9, 0.0, 2022-02-12 00:50:01.799
152.0, -10148.228424576333, -9592.228781250571, -7077.92575096199, -12579.472372468994, -9644.733028976087, -6054.86405549813, -9406.843412738253, -7039.547805732228, -9953.008288503683, -11952.528292242087, -7912.942220323351, -6002.4939182393455, -6466.7396505760735, -9165.153999943019, -12084.001253128203, -16717.920210113552, 0.006, 0.23600000000000002, 0.9520000000000001, 192.0, 0.0, 0.0, 0.0, 0.0, 0.0, 0.0, 0.0, 0.0, 0.0, 1.644587401807964E9, 0.0, 2022-02-12 00:50:01.807
154.0, -10122.859194619561, -9589.479516682568, -7064.179428121976, -12583.49568647095, -9655.953604692651, -6056.875712499108, -9405.077624926285, -7038.944308631934, -9942.927651754339, -11925.102701795424, -7899.754691094719, -5993.821441390686, -6451.428705624188, -9160.214264418395, -12083.621273472461, -16729.252544552393, 0.006, 0.23600000000000002, 0.9520000000000001, 192.0, 0.0, 0.0, 0.0, 0.0, 0.0, 0.0, 0.0, 0.0, 0.0, 1.644587401815526E9, 0.0, 2022-02-12 00:50:01.815
156.0, -10128.648296433485, -9623.811796165919, -7076.472887572395, -12587.474296983994, -9654.634851769788, -6055.109924687139, -9404.027092936885, -7038.318459787186, -9936.847977262494, -11944.973402616191, -7907.42133944289, -5987.339435498648, -6444.097333442847, -9150.312441624696, -12084.560046739585, -16751.201957607504, 0.006, 0.23600000000000002, 0.9460000000000001, 192.0, 0.0, 24.0, 3.5, 48.0, 14.5, 72.0, 0.0, 0.0, 0.0, 1.644587401821693E9, 0.0, 2022-02-12 00:50:01.821
158.0, -10141.925232639936, -9603.672874411688, -7067.867465957102, -12579.852352124733, -9643.034296397484, -6051.712459529932, -9394.259380609916, -7046.163922090998, -9936.222128417747, -11927.829614618971, -7901.676941117877, -5990.155755300017, -6468.036051754481, -9163.52232259778, -12084.425936272854, -16704.173887273537, 0.006, 0.23600000000000002, 0.9460000000000001, 192.0, 0.0, 0.0, 0.0, 0.0, 0.0, 0.0, 0.0, 0.0, 0.0, 1.644587401829379E9, 0.0, 2022-02-12 00:50:01.829
160.0, -10140.517072739252, -9628.885642157275, -7072.382518337074, -12600.192439579063, -9657.406468082247, -6056.965119476929, -9394.840525965754, -7039.525453987772, -9959.423239162355, -11938.714914168706, -7900.179374239371, -5989.5746099441785, -6465.8008773089505, -9163.678784808968, -12085.364709539976, -16764.545949047322, 0.006, 0.23600000000000002, 0.9460000000000001, 192.0, 0.0, 0.0, 0.0, 0.0, 0.0, 0.0, 0.0, 0.0, 0.0, 1.644587401837321E9, 0.0, 2022-02-12 00:50:01.837
162.0, -10140.606479717075, -9613.507641972023, -7078.506896317827, -12579.58413119127, -9642.654316741744, -6051.667756041022, -9398.081528911773, -7040.955965632912, -9945.341640155511, -11958.697373711751, -7913.478662190279, -5991.005121589318, -6460.078830728392, -9152.078229436664, -12081.408450771387, -16717.83080313573, 0.006, 0.23600000000000002, 0.9460000000000001, 192.0, 0.0, 0.0, 0.0, 0.0, 0.0, 0.0, 0.0, 0.0, 0.0, 1.644587401844578E9, 0.0, 2022-02-12 00:50:01.844
164.0, -10114.991380571293, -9607.606781435821, -7067.755707234825, -12589.284788284873, -9656.154770392748, -6052.29360488577, -9398.550915545335, -7039.547805732228, -9951.466018136265, -11953.310603298021, -7916.272630247192, -5994.112014068605, -6452.7698102915065, -9142.958717698899, -12089.812706686582, -16734.236983565926, 0.006, 0.23600000000000002, 0.9460000000000001, 192.0, 0.0, 0.0, 0.0, 0.0, 0.0, 0.0, 0.0, 0.0, 0.0, 1.644587401852022E9, 0.0, 2022-02-12 00:50:01.852
166.0, -10137.991325615803, -9615.541650717456, -7077.3222538616965, -12594.716262187512, -9646.521168532512, -6056.383974121091, -9407.022226693896, -7059.35145131963, -9954.662317593375, -11954.629356220885, -7909.924734821884, -5992.972075101385, -6454.8261707813945, -9162.248273163828, -12089.67859621985, -16762.42253332407, 0.006, 0.234, 0.9420000000000001, 192.0, 0.0, 24.0, 3.5, 40.0, 14.5, 56.0, 0.0, 0.0, 0.0, 1.644587401860083E9, 0.0, 2022-02-12 00:50:01.860
168.0, -10134.079770336124, -9608.098519813839, -7073.902436960035, -12587.273131283895, -9639.547424262455, -6044.045811181762, -9403.021264436396, -7046.499198257828, -9934.098712694493, -11929.55069894203, -7917.367865725502, -5995.162546058005, -6449.975842234593, -9164.036412720254, -12092.941950910325, -16716.802622890787, 0.006, 0.234, 0.9420000000000001, 192.0, 0.0, 0.0, 0.0, 0.0, 0.0, 0.0, 0.0, 0.0, 0.0, 1.64458740186788E9, 0.0, 2022-02-12 00:50:01.867
170.0, -10145.076828608135, -9610.423101237191, -7070.2814543582745, -12600.661826212625, -9659.5298838055, -6048.002069950351, -9406.463433082514, -7049.002593636822, -9956.293994938613, -11950.65074570784, -7903.688598118854, -5979.024586561273, -6465.398545908755, -9153.598148059626, -12092.785488699137, -16769.977422949964, 0.006, 0.234, 0.9420000000000001, 192.0, 0.0, 0.0, 0.0, 0.0, 0.0, 0.0, 0.0, 0.0, 0.0, 1.644587401874585E9, 0.0, 2022-02-12 00:50:01.874
172.0, -10127.754226655272, -9601.437699966156, -7080.898532974546, -12587.54135221736, -9653.71843024712, -6043.799941992753, -9402.23895338046, -7039.72661968787, -9956.271643194157, -11946.046286350047, -7913.635124401466, -5998.872935637586, -6459.542388861464, -9151.228863147362, -12095.512401522685, -16730.571297475257, 0.006, 0.234, 0.9420000000000001, 192.0, 0.0, 0.0, 0.0, 0.0, 0.0, 0.0, 0.0, 0.0, 0.0, 1.644587401882449E9, 0.0, 2022-02-12 00:50:01.882
174.0, -10130.995229601293, -9627.633944467778, -7075.958797449923, -12598.560762233827, -9660.826284983908, -6045.431619337991, -9397.723901000489, -7030.607107950104, -9951.466018136265, -11936.256222278622, -7913.925697079385, -6002.896249639542, -6458.402449894244, -9164.729316798368, -12096.898209678915, -16740.942506902516, 0.006, 0.234, 0.9420000000000001, 192.0, 0.0, 0.0, 0.0, 0.0, 0.0, 0.0, 0.0, 0.0, 0.0, 1.644587401897485E9, 0.0, 2022-02-12 00:50:01.897
176.0, -10136.2925930372, -9626.784578178474, -7085.726509776892, -12604.819250681312, -9665.631910041799, -6051.466590340923, -9420.43327336708, -7051.774209949281, -9959.467942651265, -11978.612778021428, -7913.61277265701, -6000.28109553827, -6457.530731860487, -9155.47569459387, -12102.82142195957, -16771.87732122866, 0.014, 0.232, 0.9440000000000001, 192.0, 0.0, 56.0, 3.5, 32.0, 14.5, 64.0, 0.0, 0.0, 0.0, 1.644587401904031E9, 0.0, 2022-02-12 00:50:01.904
178.0, -10138.080732593624, -9616.882755384775, -7085.525344076794, -12593.77748892039, -9657.920558204718, -6047.063296683228, -9401.970732446996, -7048.801427936724, -9951.48836988072, -11948.683792195772, -7919.893612848951, -5996.123671069583, -6457.687194071674, -9161.510665596803, -12109.705759251805, -16724.335160772225, 0.014, 0.232, 0.9440000000000001, 192.0, 0.0, 0.0, 0.0, 0.0, 0.0, 0.0, 0.0, 0.0, 0.0, 1.644587401912168E9, 0.0, 2022-02-12 00:50:01.912
180.0, -10144.965069885859, -9634.361819548825, -7087.06761444421, -12618.677332243602, -9674.349090379368, -6054.640538053577, -9402.57422954729, -7043.213491822898, -9969.325061956057, -11973.449525052254, -7921.033551816172, -5997.867107137097, -6466.292615686967, -9164.818723776189, -12110.711587752294, -16782.762620778398, 0.014, 0.232, 0.9440000000000001, 192.0, 0.0, 0.0, 0.0, 0.0, 0.0, 0.0, 0.0, 0.0, 0.0, 1.644587401920068E9, 0.0, 2022-02-12 00:50:01.920
182.0, -10164.858122451082, -9629.936174146673, -7092.007349968833, -12601.712358202025, -9663.284976873992, -6045.878654227096, -9409.369159861704, -7041.425352266473, -9962.485428152731, -11965.492304026164, -7930.845967632052, -5999.409377504513, -6472.193476223169, -9143.47280782137, -12108.856392962503, -16743.781178448342, 0.014, 0.232, 0.9440000000000001, 192.0, 0.0, 0.0, 0.0, 0.0, 0.0, 0.0, 0.0, 0.0, 0.0, 1.644587401927226E9, 0.0, 2022-02-12 00:50:01.927
184.0, -10142.998116373792, -9613.977028605585, -7082.4855068308725, -12612.105919373742, -9665.318985619424, -6048.762029261831, -9404.183555148073, -7051.237768082353, -9974.555370158598, -11953.064734109013, -7924.654534417932, -5996.637761192055, -6463.163371463224, -9169.043203478243, -12109.370483084975, -16750.93373667404, 0.014, 0.232, 0.9440000000000001, 192.0, 0.0, 0.0, 0.0, 0.0, 0.0, 0.0, 0.0, 0.0, 0.0, 1.644587401934701E9, 0.0, 2022-02-12 00:50:01.934
186.0, -10151.2459100778, -9620.19081356416, -7090.934466234979, -12616.866840942723, -9673.142096178783, -6051.846569996664, -9411.224354651495, -7039.503102243317, -9970.554407901098, -11969.917949428314, -7933.684639177876, -6006.159604330016, -6461.107010973336, -9163.991709231343, -12109.236372618243, -16776.057097441804, 0.008, 0.232, 0.9520000000000001, 192.0, 0.0, 32.0, 3.5, 32.0, 14.5, 96.0, 0.0, 0.0, 0.0, 1.644587401942708E9, 0.0, 2022-02-12 00:50:01.942
188.0, -10157.77261945875, -9639.279203328992, -7085.435937098973, -12600.68417795708, -9665.76602050853, -6047.286814127781, -9393.499421298435, -7025.823834636669, -9962.77600083065, -11932.635239676863, -7937.551490968644, -6030.947688930952, -6446.824246266395, -9173.67001458049, -12106.554163283607, -16723.061111338273, 0.008, 0.232, 0.9520000000000001, 192.0, 0.0, 0.0, 0.0, 0.0, 0.0, 0.0, 0.0, 0.0, 0.0, 1.644587401949933E9, 0.0, 2022-02-12 00:50:01.949
190.0, -10164.075811395147, -9649.471598800612, -7087.335835377674, -12609.848393183756, -9678.461811359146, -6049.499636828857, -9402.48482256947, -7038.877253398568, -9973.191913746825, -11976.377603575898, -7921.748807638742, -5990.491031466846, -6469.623025610808, -9162.874122008578, -12113.282038364654, -16779.70043178802, 0.008, 0.232, 0.9520000000000001, 192.0, 0.0, 0.0, 0.0, 0.0, 0.0, 0.0, 0.0, 0.0, 0.0, 1.644587401956375E9, 0.0, 2022-02-12 00:50:01.956
192.0, -10158.554930514685, -9635.814682938419, -7091.78383252428, -12599.454832012038, -9668.87291298782, -6046.348040860658, -9407.536316816368, -7033.982221362856, -9966.933425299338, -11979.193923377266, -7939.205520058337, -6001.689255438955, -6455.362612648322, -9162.471790608382, -12114.399625587419, -16741.07661736925, 0.008, 0.232, 0.9520000000000001, 192.0, 0.0, 0.0, 0.0, 0.0, 0.0, 0.0, 0.0, 0.0, 0.0, 1.644587401964404E9, 0.0, 2022-02-12 00:50:01.964
194.0, -10163.807590461684, -9629.422084024201, -7088.319312133707, -12613.916410674621, -9680.428764871212, -6043.531721059289, -9397.321569600294, -7027.589622448639, -9975.494143425722, -11964.486475525675, -7944.033496860683, -5996.6154094476, -6461.799915051451, -9151.38532535855, -12110.912753452392, -16748.609155250688, 0.009000000000000001, 0.233, 0.9470000000000001, 192.0, 0.0, 40.0, 3.5, 40.0, 14.5, 56.0, 0.0, 0.0, 0.0, 1.644587401972439E9, 0.0, 2022-02-12 00:50:01.972
196.0, -10181.756041259294, -9648.845749955863, -7101.55154485125, -12629.719094004524, -9696.67848309022, -6066.643424826077, -9423.607221079734, -7052.221244838387, -9995.297789013122, -11982.233760623189, -7943.117075338016, -6003.4326915064685, -6482.654092628252, -9167.8138575332, -12113.930238953859, -16782.449696356023, 0.009000000000000001, 0.233, 0.9470000000000001, 192.0, 0.0, 0.0, 0.0, 0.0, 0.0, 0.0, 0.0, 0.0, 0.0, 1.644587401979597E9, 0.0, 2022-02-12 00:50:01.979
198.0, -10179.856142980594, -9637.491063772568, -7101.305675662241, -12618.789090965878, -9681.524000349522, -6055.869883998619, -9413.504232585936, -7038.63138420956, -9984.07721329656, -11965.760524959627, -7949.599081230054, -6026.767912717809, -6464.079792985892, -9178.073308238187, -12122.960343713803, -16738.863794668174, 0.009000000000000001, 0.233, 0.9470000000000001, 192.0, 0.0, 0.0, 0.0, 0.0, 0.0, 0.0, 0.0, 0.0, 0.0, 1.644587401987026E9, 0.0, 2022-02-12 00:50:01.987
200.0, -10180.750212758805, -9670.325776377413, -7099.606943083638, -12633.250669628462, -9704.434538416212, -6063.424773624512, -9425.507119358435, -7041.447704010929, -10004.998446106727, -11991.576789805507, -7942.647688704454, -6009.981752631874, -6482.743499606073, -9167.657395322012, -12125.955477470814, -16789.35638539271, 0.009000000000000001, 0.233, 0.9470000000000001, 192.0, 0.0, 0.0, 0.0, 0.0, 0.0, 0.0, 0.0, 0.0, 0.0, 1.644587401995241E9, 0.0, 2022-02-12 00:50:01.995
202.0, -10192.35076813111, -9652.377325579802, -7109.3746554106065, -12621.225431111507, -9695.560895867455, -6067.537494604289, -9418.175747177094, -7038.586680720649, -9989.64279766593, -11981.049118167057, -7956.8633981780295, -6020.330610314681, -6491.6841973881965, -9158.046145206232, -12123.630896047462, -16753.995925664418, 0.009000000000000001, 0.233, 0.9470000000000001, 192.0, 0.0, 0.0, 0.0, 0.0, 0.0, 0.0, 0.0, 0.0, 0.0, 1.644587402003308E9, 0.0, 2022-02-12 00:50:02.003
204.0, -10164.34403232861, -9652.131456390793, -7100.255143672842, -12626.835718969789, -9703.965151782651, -6068.073936471216, -9417.438139610069, -7034.831587652157, -9995.968341346783, -11986.32412985851, -7965.3123575821355, -6011.8816509105745, -6487.660883386241, -9183.996520518842, -12126.894250737936, -16765.84235022573, 0.0085, 0.2335, 0.9495, 192.0, 0.0, 32.0, 3.5, 40.0, 14.5, 96.0, 0.0, 0.0, 0.0, 1.644587402016649E9, 0.0, 2022-02-12 00:50:02.016
206.0, -10213.674332341472, -9677.67950030321, -7110.559297866738, -12632.825986483811, -9711.83296583092, -6068.833895782697, -9426.28943041437, -7050.902491915524, -10002.74091991674, -12009.972275492226, -7966.608758760543, -6020.6211829926, -6475.814458824928, -9178.319177427195, -12127.698913538326, -16792.79855403883, 0.0085, 0.2335, 0.9495, 192.0, 0.0, 0.0, 0.0, 0.0, 0.0, 0.0, 0.0, 0.0, 0.0, 1.644587402024891E9, 0.0, 2022-02-12 00:50:02.024
208.0, -10224.917259802492, -9673.566779323433, -7107.497108876361, -12616.866840942723, -9706.356788439369, -6059.110886944639, -9423.473110613002, -7044.241672067842, -10009.938181631349, -11992.582618305996, -7968.285139594691, -6017.00020039084, -6482.81055483944, -9181.806049562223, -12132.63864906295, -16742.373018547656, 0.0085, 0.2335, 0.9495, 192.0, 0.0, 0.0, 0.0, 0.0, 0.0, 0.0, 0.0, 0.0, 0.0, 1.644587402032683E9, 0.0, 2022-02-12 00:50:02.032
210.0, -10195.837640266138, -9650.410372067736, -7108.324123421207, -12634.301201617862, -9724.014666559062, -6063.223607924415, -9429.552785104846, -7044.152265090021, -10021.60579223702, -11992.649673539361, -7957.779819700697, -6013.178052088982, -6507.464528973643, -9181.582532117669, -12135.745541542237, -16796.620702340686, 0.0085, 0.2335, 0.9495, 192.0, 0.0, 0.0, 0.0, 0.0, 0.0, 0.0, 0.0, 0.0, 0.0, 1.644587402039257E9, 0.0, 2022-02-12 00:50:02.039
212.0, -10216.133024231556, -9682.44042187219, -7115.253164202352, -12623.550012534859, -9730.183748028725, -6057.233340410393, -9432.972602006508, -7032.842282395635, -9998.784661148151, -12003.37851087791, -7973.336633841591, -6023.236337093871, -6507.7103981626515, -9179.727337327879, -12136.30433515362, -16755.873472198662, 0.0085, 0.2335, 0.9495, 192.0, 0.0, 0.0, 0.0, 0.0, 0.0, 0.0, 0.0, 0.0, 0.0, 1.64458740204787E9, 0.0, 2022-02-12 00:50:02.047
214.0, -10210.120404973079, -9679.668805559731, -7106.513632120327, -12625.74048349148, -9745.919376125263, -6066.263445170337, -9431.028000238895, -7042.1629598334985, -10013.156832832914, -11985.586522291485, -7969.827409962108, -6024.175110360994, -6506.257534773056, -9164.617558076092, -12142.49576836774, -16759.94148968953, 0.00725, 0.23475000000000001, 0.95075, 192.0, 0.0, 24.0, 3.5, 48.0, 14.5, 96.0, 0.0, 0.0, 0.0, 1.644587402055483E9, 0.0, 2022-02-12 00:50:02.055
216.0, -10225.051370269224, -9694.935047022707, -7126.473739918917, -12625.002875924454, -9760.4033065323, -6079.674491843521, -9450.742238848477, -7061.16194262051, -10027.305487073123, -12012.296856915576, -7983.663139779943, -6017.827214935686, -6519.1544913237685, -9181.62723560658, -12147.726076570283, -16795.12313546218, 0.00725, 0.23475000000000001, 0.95075, 192.0, 0.0, 0.0, 0.0, 0.0, 0.0, 0.0, 0.0, 0.0, 0.0, 1.64458740206186E9, 0.0, 2022-02-12 00:50:02.061
218.0, -10224.805501080216, -9686.933122507706, -7127.256050974853, -12618.677332243602, -9744.511216224577, -6075.785288308298, -9430.491558371968, -7046.476846513373, -10021.941068403848, -12001.076281199013, -8008.697093569886, -6026.209119106426, -6507.553935951464, -9186.030529264275, -12150.83296904957, -16741.702466214, 0.00725, 0.23475000000000001, 0.95075, 192.0, 0.0, 0.0, 0.0, 0.0, 0.0, 0.0, 0.0, 0.0, 0.0, 1.644587402069077E9, 0.0, 2022-02-12 00:50:02.069
220.0, -10219.619896366585, -9666.950662964662, -7124.663248618037, -12633.563594050836, -9754.949480885207, -6077.931055776007, -9429.262212426927, -7039.190177820943, -10035.016838910204, -12019.851746541472, -8001.1198521995375, -6023.482206282879, -6507.039845828992, -9184.28709319676, -12143.12161721249, -16791.099821460226, 0.00725, 0.23475000000000001, 0.95075, 192.0, 0.0, 0.0, 0.0, 0.0, 0.0, 0.0, 0.0, 0.0, 0.0, 1.644587402076958E9, 0.0, 2022-02-12 00:50:02.076
222.0, -10250.621765926095, -9706.043864016994, -7128.88772832009, -12619.571402021815, -9768.628748491854, -6075.897047030574, -9447.59064288028, -7044.44283776794, -10033.385161564966, -12013.257981927156, -8005.746663301786, -6033.853415710141, -6544.434314302721, -9192.736052600867, -12150.40828590492, -16754.64412625362, 0.00725, 0.23475000000000001, 0.95075, 192.0, 0.0, 0.0, 0.0, 0.0, 0.0, 0.0, 0.0, 0.0, 0.0, 1.644587402084996E9, 0.0, 2022-02-12 00:50:02.084
224.0, -10254.17569329449, -9714.604582143376, -7124.953821295956, -12629.40616958215, -9785.973702189172, -6082.647273856077, -9452.083343515795, -7053.53999776125, -10035.061542399115, -12009.413481880842, -8005.67960806842, -6011.926354399486, -6544.881349191827, -9195.172392746495, -12164.221663978298, -16764.188321136036, 0.007625, 0.236375, 0.950375, 192.0, 0.0, 32.0, 3.5, 56.0, 14.5, 88.0, 0.0, 0.0, 0.0, 1.644587402091678E9, 0.0, 2022-02-12 00:50:02.091
226.0, -10266.133876578078, -9726.02632356004, -7145.115094794643, -12640.582041809803, -9794.780289504562, -6085.485945401901, -9459.30295697486, -7045.292204057241, -10059.000260710747, -12038.38134269492, -8020.454111153378, -6030.85828195313, -6550.357526583377, -9196.491145669359, -12167.619129135506, -16792.999719738928, 0.007625, 0.236375, 0.950375, 192.0, 0.0, 0.0, 0.0, 0.0, 0.0, 0.0, 0.0, 0.0, 0.0, 1.644587402099824E9, 0.0, 2022-02-12 00:50:02.099
228.0, -10277.868542417114, -9716.30331472198, -7147.931414596012, -12633.273021372917, -9786.823068478474, -6088.414023925546, -9446.853035313254, -7046.946233146934, -10050.081914673081, -12009.90522025886, -8036.346201461101, -6048.180883905993, -6544.590776513908, -9177.559218115714, -12170.435448936874, -16740.607230735688, 0.007625, 0.236375, 0.950375, 192.0, 0.0, 0.0, 0.0, 0.0, 0.0, 0.0, 0.0, 0.0, 0.0, 1.644587402107749E9, 0.0, 2022-02-12 00:50:02.107
230.0, -10263.541074221263, -9732.933012596728, -7155.106324566165, -12644.113617433743, -9821.267106684101, -6104.015541555351, -9466.030832055907, -7057.004518151823, -10072.724231806307, -12025.976124522225, -8049.220806267358, -6043.710535014932, -6554.649061518796, -9216.227736023395, -12178.526780429696, -16799.168801208594, 0.007625, 0.236375, 0.950375, 192.0, 0.0, 0.0, 0.0, 0.0, 0.0, 0.0, 0.0, 0.0, 0.0, 1.644587402115138E9, 0.0, 2022-02-12 00:50:02.115
232.0, -10279.388461040076, -9757.944614642218, -7162.236531047408, -12629.942611449076, -9823.479929385177, -6109.223498013437, -9471.64111991419, -7069.745012491348, -10070.332595149588, -12048.819607355548, -8063.749440163308, -6045.833950738186, -6592.602323603907, -9224.386122749582, -12187.065146811623, -16764.2553763694, 0.007625, 0.236375, 0.950375, 192.0, 0.0, 0.0, 0.0, 0.0, 0.0, 0.0, 0.0, 0.0, 0.0, 1.644587402122312E9, 0.0, 2022-02-12 00:50:02.122
234.0, -10288.731490222393, -9745.070009835961, -7154.994565843888, -12635.843471985278, -9832.398275422845, -6110.654009658577, -9465.226169255517, -7051.908320416012, -10067.829199770595, -12027.496043145185, -8072.2654548007795, -6040.737753002376, -6577.358433885388, -9213.05378831074, -12190.104984057545, -16765.909405459097, 0.0068125, 0.2371875, 0.9501875, 192.0, 0.0, 24.0, 3.5, 56.0, 14.5, 88.0, 0.0, 0.0, 0.0, 1.644587402130222E9, 0.0, 2022-02-12 00:50:02.130
236.0, -10306.948161953469, -9737.872748121352, -7166.416307260551, -12639.30799237585, -9838.3214877035, -6116.443111472501, -9467.617805912234, -7057.004518151823, -10080.413231898932, -12049.646621900394, -8063.950605863405, -6054.372317120114, -6593.854021293405, -9226.621297195114, -12190.753184646748, -16795.033728484363, 0.0068125, 0.2371875, 0.9501875, 192.0, 0.0, 0.0, 0.0, 0.0, 0.0, 0.0, 0.0, 0.0, 0.0, 1.64458740214434E9, 0.0, 2022-02-12 00:50:02.144
238.0, -10286.630426243595, -9741.873710378852, -7167.690356694503, -12627.372160836716, -9844.647031384353, -6106.407178212068, -9471.104678047262, -7049.650794226026, -10075.831124285594, -12039.81185434006, -8085.251818329313, -6056.24986365436, -6596.558582372497, -9222.955611104442, -12196.251713782754, -16741.970687147463, 0.0068125, 0.2371875, 0.9501875, 192.0, 0.0, 0.0, 0.0, 0.0, 0.0, 0.0, 0.0, 0.0, 0.0, 1.644587402152043E9, 0.0, 2022-02-12 00:50:02.152
240.0, -10308.333970109697, -9772.920283427273, -7169.880827651123, -12640.090303431787, -9874.464258487733, -6124.534442965322, -9489.768384667443, -7064.604111266627, -10093.08667100509, -12058.743781893705, -8094.17016436698, -6046.593910049666, -6604.426396420765, -9212.763215632822, -12204.588914464584, -16800.778126809375, 0.0068125, 0.2371875, 0.9501875, 192.0, 0.0, 0.0, 0.0, 0.0, 0.0, 0.0, 0.0, 0.0, 0.0, 1.644587402159823E9, 0.0, 2022-02-12 00:50:02.159
242.0, -10344.253223449377, -9785.973702189172, -7186.2646563368635, -12626.388684080683, -9873.14550556487, -6135.330335537235, -9505.235791830515, -7074.282416615774, -10093.734871594295, -12052.395886468397, -8097.433519057456, -6061.748392790365, -6609.232021478656, -9231.046942597264, -12211.964990134835, -16768.345745604725, 0.0068125, 0.2371875, 0.9501875, 192.0, 0.0, 0.0, 0.0, 0.0, 0.0, 0.0, 0.0, 0.0, 0.0, 1.644587402168029E9, 0.0, 2022-02-12 00:50:02.168
244.0, -10337.011258245857, -9785.236094622147, -7187.695167982003, -12642.861919744244, -9892.278598818613, -6133.363382025169, -9497.300922548882, -7065.609939767116, -10109.71636887984, -12058.05087781559, -8108.855260474117, -6064.095325958172, -6637.506978214619, -9245.64263172658, -12214.46838551383, -16772.592577051233, 0.0064062500000000005, 0.24059375, 0.94809375, 192.0, 0.0, 24.0, 3.5, 80.0, 14.5, 72.0, 0.0, 0.0, 0.0, 1.64458740217444E9, 0.0, 2022-02-12 00:50:02.174
