%OpenBCI Raw EEG Data
%Number of channels = 16
%Sample Rate = 125 Hz
%Board = OpenBCI_GUI$BoardCytonSerialDaisy
Sample Index, EXG Channel 0, EXG Channel 1, EXG Channel 2, EXG Channel 3, EXG Channel 4, EXG Channel 5, EXG Channel 6, EXG Channel 7, EXG Channel 8, EXG Channel 9, EXG Channel 10, EXG Channel 11, EXG Channel 12, EXG Channel 13, EXG Channel 14, EXG Channel 15, Accel Channel 0, Accel Channel 1, Accel Channel 2, Other, Other, Other, Other, Other, Other, Other, Analog Channel 0, Analog Channel 1, Analog Channel 2, Timestamp, Other, Timestamp (Formatted)
0.0, -6278.180334351103, -5057.976252791435, -6047.644442039066, -11368.477209624913, -2689.227782395814, -810.0942742936938, -4487.202106380714, -3819.622554734058, 0.0, 0.0, 0.0, 0.0, 0.0, 0.0, 0.0, 0.0, 0.0, 0.0, 0.0, 192.0, 0.0, 0.0, 0.0, 0.0, 0.0, 0.0, 0.0, 0.0, 0.0, 1.6444917866460743E9, 0.0, 2022-02-10 22:16:26.646
170.0, -6299.749767750474, -5079.568037935262, -6068.140991704583, -11388.6384831236, -2703.6893610583975, -826.9698413574507, -4495.98634195165, -3830.1278746280523, -15684.286139522332, -6778.0770990940455, -4997.693597995472, -4584.767470928129, -751.5997590541552, -2970.0103962433814, -5449.601167392871, -6733.150092738878, 0.0, 0.0, 0.0, 192.0, 0.0, 0.0, 0.0, 0.0, 0.0, 0.0, 0.0, 0.0, 0.0, 1.6444917866460848E9, 0.0, 2022-02-10 22:16:26.646
172.0, -6278.984997151494, -5061.753697604382, -6050.617224051622, -11372.791096304787, -2683.1481079039704, -807.5238236813335, -4478.21670510968, -3818.3038018111947, -15687.147162812611, -6785.229657319744, -4994.765519471827, -4591.0259593756155, -763.3344248931915, -2971.9549980109928, -5454.563254661948, -6735.295860206588, 0.0, 0.0, 0.0, 192.0, 0.0, 0.0, 1.0, 24.0, 15.0, 80.0, 0.0, 0.0, 0.0, 1.6444917866460927E9, 0.0, 2022-02-10 22:16:26.646
174.0, -6288.618599011731, -5061.217255737455, -6053.9699857199175, -11376.121506228626, -2692.3346748751014, -812.575317928233, -4487.738548247641, -3834.128836885552, -15671.031555060335, -6767.638834433417, -4978.9628361419245, -4572.4740114777105, -744.6930700174654, -2951.3913931121106, -5438.022963765021, -6719.157900709856, 0.0, 0.0, 0.0, 192.0, 0.0, 0.0, 0.0, 0.0, 0.0, 0.0, 0.0, 0.0, 0.0, 1.6444917866460996E9, 0.0, 2022-02-10 22:16:26.646
176.0, -6286.897514688673, -5063.184209249522, -6061.837799768186, -11383.564637132244, -2695.195698165381, -811.4353789610122, -4497.685074530253, -3834.9558514303985, -15683.1014970662, -6779.3064450390875, -4997.023045661813, -4583.359311027445, -760.1381254360825, -2953.87243674665, -5458.653623897269, -6734.938232295302, 0.0, 0.0, 0.0, 192.0, 0.0, 0.0, 0.0, 0.0, 0.0, 0.0, 0.0, 0.0, 0.0, 1.6444917866461067E9, 0.0, 2022-02-10 22:16:26.646
178.0, -6269.261988313436, -5038.597290348684, -6043.129389659094, -11364.655061323056, -2671.838125209585, -793.1293002521159, -4480.74245223313, -3810.2571738072843, -15670.226892259943, -6759.011061073668, -4976.928827396492, -4563.71212765123, -739.127485648094, -2954.185361169024, -5439.207606221153, -6719.2026041987665, 0.0, 0.0, 0.0, 192.0, 0.0, 0.0, 0.0, 0.0, 0.0, 0.0, 0.0, 0.0, 0.0, 1.644491786646114E9, 0.0, 2022-02-10 22:16:26.646
180.0, -6286.472831544022, -5051.069563754745, -6063.8271050247085, -11377.842590551685, -2689.4065963514563, -803.0311230458168, -4494.55583030651, -3806.7703016722567, -15673.222026016954, -6755.211264516266, -4980.46040302043, -4566.796668386062, -739.4627618149235, -2949.826771000239, -5443.610899878848, -6719.0237902431245, 0.002, 0.037, 0.489, 192.0, 0.0, 16.0, 1.0, 40.0, 15.0, 72.0, 0.0, 0.0, 0.0, 1.6444917866461208E9, 0.0, 2022-02-10 22:16:26.646
182.0, -6270.021947624916, -5035.892729269592, -6046.660965283033, -11362.77751478881, -2667.1666106184257, -781.126413479616, -4472.36054806239, -3795.03563583322, -15680.218122031465, -6761.805029130582, -4986.517725767819, -4571.669348677319, -742.6814130164878, -2950.6761372895407, -5448.2600627255515, -6720.320191421532, 0.002, 0.037, 0.489, 192.0, 0.0, 0.0, 0.0, 0.0, 0.0, 0.0, 0.0, 0.0, 0.0, 1.644491786646128E9, 0.0, 2022-02-10 22:16:26.646
184.0, -6274.581703493799, -5037.636165337106, -6044.381087348591, -11363.760991544843, -2658.0694506251157, -783.9203815365292, -4461.318786301468, -3798.589563201614, -15660.570938655252, -6743.074267277035, -4963.987167356869, -4549.80934260003, -719.8602819276192, -2930.380753324122, -5429.21637644963, -6707.512641848642, 0.002, 0.037, 0.489, 192.0, 0.0, 0.0, 0.0, 0.0, 0.0, 0.0, 0.0, 0.0, 0.0, 1.644491786646135E9, 0.0, 2022-02-10 22:16:26.646
186.0, -6277.509782017444, -5045.9957177633905, -6054.171151420016, -11370.57827360371, -2661.6904332268755, -782.1545937245601, -4468.784268949541, -3796.8908306230105, -15672.685584150027, -6759.726316896238, -4982.2261908324, -4560.962863083228, -728.5774622651891, -2945.6469947870964, -5441.018097522032, -6722.421255400331, 0.002, 0.037, 0.489, 192.0, 0.0, 0.0, 0.0, 0.0, 0.0, 0.0, 0.0, 0.0, 0.0, 1.6444917866461425E9, 0.0, 2022-02-10 22:16:26.646
188.0, -6259.717793431019, -5028.159025688055, -6036.803845978242, -11355.088514696183, -2642.512636484222, -759.3111108912362, -4446.4995797276, -3767.632397131014, -15663.141389267612, -6747.924595823836, -4971.854981405138, -4554.369098468912, -720.9108139170187, -2923.630526498619, -5422.890832768779, -6701.857650501448, 0.002, 0.037, 0.489, 192.0, 0.0, 0.0, 0.0, 0.0, 0.0, 0.0, 0.0, 0.0, 0.0, 1.6444917866461496E9, 0.0, 2022-02-10 22:16:26.646
190.0, -6273.821744182318, -5033.009354234857, -6057.546264832767, -11371.829971293208, -2656.7730494467082, -770.3975761410685, -4462.346966546413, -3777.0201298022425, -15672.015031816369, -6752.730220881727, -4979.991016386869, -4562.661595661831, -728.8233314541974, -2918.8025496962728, -5425.260117681041, -6700.270676645122, -0.001, 0.053500000000000006, 0.7324999999999999, 192.0, 127.5, 112.0, 1.0, 24.0, 15.0, 64.0, 0.0, 0.0, 0.0, 1.6444917866461568E9, 0.0, 2022-02-10 22:16:26.646
192.0, -6256.633252696187, -5018.391313361087, -6040.67069776901, -11355.379087374102, -2638.5563777156326, -755.6007213116552, -4444.0408878375165, -3777.9365513249104, -15675.367793484664, -6752.886683092915, -4976.191219829467, -4559.778220627096, -730.7679332218091, -2925.217500354946, -5430.289260183485, -6704.361045880443, -0.001, 0.053500000000000006, 0.7324999999999999, 192.0, 0.0, 0.0, 0.0, 0.0, 0.0, 0.0, 0.0, 0.0, 0.0, 1.6444917866461637E9, 0.0, 2022-02-10 22:16:26.646
194.0, -6265.149267333659, -5018.011333705346, -6037.9437849454625, -11354.932052484995, -2636.097685825549, -755.7571835228424, -4449.897044884807, -3777.5789234136255, -15657.687563620517, -6732.792464827593, -4956.633443431073, -4538.029973272082, -710.0031626228289, -2912.7228752044293, -5416.162957687731, -6691.844068985471, -0.001, 0.053500000000000006, 0.7324999999999999, 192.0, 0.0, 0.0, 0.0, 0.0, 0.0, 0.0, 0.0, 0.0, 0.0, 1.6444917866461706E9, 0.0, 2022-02-10 22:16:26.646
196.0, -6268.434973768589, -5026.728514042916, -6044.582253048689, -11362.397535133068, -2634.3318980135796, -757.545323079267, -4448.377126261846, -3761.843295317089, -15674.138447539623, -6744.862406833459, -4974.783059928783, -4559.219427015713, -724.4200377965019, -2928.9725934234375, -5428.970507260622, -6708.026731971113, -0.001, 0.053500000000000006, 0.7324999999999999, 192.0, 0.0, 0.0, 0.0, 0.0, 0.0, 0.0, 0.0, 0.0, 0.0, 1.6444917866461775E9, 0.0, 2022-02-10 22:16:26.646
198.0, -6246.776133391397, -5013.093949925179, -6024.465683038912, -11347.332459370191, -2617.5904414165548, -742.7261165053984, -4450.254672796092, -3761.887998806, -15660.883863077624, -6733.708886350261, -4962.131972567078, -4546.791857098563, -708.416188766502, -2912.2311368264127, -5414.441873364673, -6695.643865542873, -0.001, 0.053500000000000006, 0.7324999999999999, 192.0, 0.0, 0.0, 0.0, 0.0, 0.0, 0.0, 0.0, 0.0, 0.0, 1.6444917866461844E9, 0.0, 2022-02-10 22:16:26.646
200.0, -6266.8703516567175, -5024.359229130653, -6044.939880959974, -11363.112790955638, -2629.0568863221274, -758.9534829799513, -4449.695879184709, -3770.9628070548547, -15659.408647943575, -6733.060685761057, -4964.210684801422, -4547.194188498758, -703.5658602197004, -2913.236965326901, -5420.812120534435, -6701.097691189968, -0.001, 0.053500000000000006, 0.7324999999999999, 192.0, 0.0, 0.0, 1.0, 48.0, 15.0, 96.0, 0.0, 0.0, 0.0, 1.6444917866461976E9, 0.0, 2022-02-10 22:16:26.646
202.0, -6250.218302037514, -5011.149348157567, -6031.5735377757, -11353.322726884215, -2610.70610412432, -744.2013316394487, -4432.350925487391, -3747.0687922321313, -15665.644784646605, -6737.1063515074675, -4969.061013348224, -4550.94928156725, -706.4268835099797, -2920.5012822748763, -5422.287335668485, -6706.37270288142, -0.001, 0.053500000000000006, 0.7324999999999999, 192.0, 0.0, 0.0, 0.0, 0.0, 0.0, 0.0, 0.0, 0.0, 0.0, 1.6444917866462045E9, 0.0, 2022-02-10 22:16:26.646
204.0, -6257.974357363505, -5009.405912090053, -6032.6017180206445, -11358.195407175472, -2614.7517698707306, -744.4248490840017, -4430.987469075617, -3751.9414725233883, -15649.663287361062, -6720.4319501438085, -4952.811295129215, -4537.337069193968, -689.4395577239463, -2902.2399070548904, -5406.328190127396, -6693.006359697147, -0.001, 0.053500000000000006, 0.7324999999999999, 192.0, 0.0, 0.0, 0.0, 0.0, 0.0, 0.0, 0.0, 0.0, 0.0, 1.6444917866462116E9, 0.0, 2022-02-10 22:16:26.646
206.0, -6272.055956370349, -5020.917060484536, -6040.67069776901, -11367.739602057887, -2620.5408716846555, -748.2022938969486, -4448.377126261846, -3763.653786617969, -15673.602005672696, -6746.941119067803, -4967.921074381003, -4559.197075271258, -709.0196858667954, -2915.248622327879, -5423.8966612692675, -6710.038388972091, -0.001, 0.053500000000000006, 0.7324999999999999, 192.0, 0.0, 0.0, 0.0, 0.0, 0.0, 0.0, 0.0, 0.0, 0.0, 1.6444917866462188E9, 0.0, 2022-02-10 22:16:26.646
208.0, -6252.229959038492, -5004.376769587609, -6022.364619060114, -11346.505444825345, -2593.2493917047254, -722.6318982400774, -4434.1837685327255, -3737.301079905162, -15657.061714775768, -6728.210357214255, -4949.972623583391, -4544.824903586496, -693.8204996371866, -2909.1018926026695, -5411.580850074393, -6697.856688243948, -0.001, 0.053500000000000006, 0.7324999999999999, 192.0, 0.0, 0.0, 0.0, 0.0, 0.0, 0.0, 0.0, 0.0, 0.0, 1.6444917866462257E9, 0.0, 2022-02-10 22:16:26.646
210.0, -6264.456363255545, -5014.211537147944, -6038.4131715790245, -11364.565654345233, -2606.32516221108, -737.2946426027588, -4430.205158019681, -3752.9696527683323, -15662.224967744944, -6730.713752593249, -4958.913321365514, -4547.5294646655875, -694.8039763932201, -2908.923078647027, -5412.609030319337, -6696.090900431979, 5.0E-4, 0.061750000000000006, 0.85625, 192.0, 0.0, 8.0, 1.0, 24.0, 15.0, 80.0, 0.0, 0.0, 0.0, 1.6444917866462326E9, 0.0, 2022-02-10 22:16:26.646
212.0, -6252.341717760768, -4999.057054407246, -6023.52690977179, -11352.607471061645, -2591.8859352929517, -719.0332673827729, -4414.246012478592, -3729.4779693458045, -15664.52719742384, -6732.2336712162105, -4959.405059743531, -4552.4244967013, -698.0226275947842, -2910.1077211031584, -5416.922916999211, -6699.309551633543, 5.0E-4, 0.061750000000000006, 0.85625, 192.0, 0.0, 0.0, 0.0, 0.0, 0.0, 0.0, 0.0, 0.0, 0.0, 1.6444917866462398E9, 0.0, 2022-02-10 22:16:26.646
214.0, -6261.975319621006, -4997.090100895179, -6021.738770215366, -11350.662869294032, -2586.7450340682312, -717.0216103817953, -4422.046771293494, -3742.0396497296874, -15651.116150750657, -6713.637019829395, -4944.5635014252075, -4531.547967380044, -678.9789413188627, -2890.3040755157563, -5402.7072075256365, -6683.149240392357, 5.0E-4, 0.061750000000000006, 0.85625, 192.0, 0.0, 0.0, 0.0, 0.0, 0.0, 0.0, 0.0, 0.0, 0.0, 1.6444917866462471E9, 0.0, 2022-02-10 22:16:26.646
216.0, -6258.555502719343, -5003.505051553851, -6030.947688930952, -11356.72019204142, -2588.9578567693065, -715.6805057144768, -4423.879614338829, -3726.1028559330534, -15655.631203130628, -6720.923688521825, -4959.472114976897, -4545.85308383144, -687.0032175783178, -2895.5567354627533, -5420.83447227889, -6696.917914976825, 5.0E-4, 0.061750000000000006, 0.85625, 192.0, 0.0, 0.0, 0.0, 0.0, 0.0, 0.0, 0.0, 0.0, 0.0, 1.644491786646254E9, 0.0, 2022-02-10 22:16:26.646
218.0, -6238.058953053827, -4980.505106509341, -6008.104206097628, -11339.86697672212, -2565.9579117247954, -699.4754909843792, -4427.2547277515805, -3721.1854721528857, -15643.158929724566, -6705.590391825484, -4941.12133277909, -4532.732609836175, -668.160697002494, -2875.797793364262, -5404.227126148597, -6684.467993315219, 5.0E-4, 0.061750000000000006, 0.85625, 192.0, 0.0, 0.0, 0.0, 0.0, 0.0, 0.0, 0.0, 0.0, 0.0, 1.6444917866462607E9, 0.0, 2022-02-10 22:16:26.646
220.0, -6253.168732305615, -4989.736376969383, -6028.712514485421, -11361.235244421392, -2580.5088973652005, -716.3063545592254, -4427.187672518215, -3740.005640984254, -15640.76729306785, -6695.286237631588, -4939.668469389495, -4528.195205711747, -665.679653367955, -2871.0368717952815, -5408.339847128374, -6689.161859650834, 0.0022500000000000003, 0.064875, 0.919125, 192.0, 0.0, 16.0, 1.0, 16.0, 15.0, 88.0, 0.0, 0.0, 0.0, 1.644491786646268E9, 0.0, 2022-02-10 22:16:26.646
222.0, -6239.243595509958, -4975.69948145145, -6015.279116067782, -11349.05354369325, -2561.3311006225467, -703.9234881309853, -4398.532736126511, -3716.6480680284585, -15650.065618761257, -6707.8702697599265, -4951.224321272889, -4537.0241447715935, -676.4308424509576, -2879.1505550325583, -5405.54587907146, -6697.722577777216, 0.0022500000000000003, 0.064875, 0.919125, 192.0, 0.0, 0.0, 0.0, 0.0, 0.0, 0.0, 0.0, 0.0, 0.0, 1.6444917866462748E9, 0.0, 2022-02-10 22:16:26.646
224.0, -6240.294127499357, -4978.94048439747, -6015.569688745701, -11346.416037847524, -2564.5944553130216, -708.8185201666976, -4414.4024746897785, -3709.5178615472155, -15634.62056334264, -6689.0277491841025, -4927.129140750068, -4519.902708518828, -658.549446886712, -2873.2720462408124, -5389.810250974924, -6680.668196757817, 0.0022500000000000003, 0.064875, 0.919125, 192.0, 0.0, 0.0, 0.0, 0.0, 0.0, 0.0, 0.0, 0.0, 0.0, 1.6444917866462817E9, 0.0, 2022-02-10 22:16:26.646
226.0, -6259.896607386662, -4994.027911904802, -6031.752351731343, -11359.022421720318, -2574.205705428804, -709.3549620336249, -4417.151739257782, -3727.7792367672014, -15653.328973451731, -6707.624400570918, -4948.4974084493415, -4540.399258184345, -670.1723540034717, -2894.8191278957283, -5412.139643685776, -6698.996627211169, 0.0022500000000000003, 0.064875, 0.919125, 192.0, 0.0, 0.0, 0.0, 0.0, 0.0, 0.0, 0.0, 0.0, 0.0, 1.6444917866462882E9, 0.0, 2022-02-10 22:16:26.646
228.0, -6254.934520117584, -4975.878295407092, -6010.719360198898, -11346.125465169605, -2551.2504638732034, -684.9915605773402, -4382.1712591852265, -3700.7112742318245, -15646.71285709296, -6699.287199889088, -4939.2661379893, -4529.581013867976, -663.645644622522, -2872.959121818438, -5396.336960355873, -6685.60793228244, 0.0022500000000000003, 0.064875, 0.919125, 192.0, 0.0, 0.0, 0.0, 0.0, 0.0, 0.0, 0.0, 0.0, 0.0, 1.6444917866462953E9, 0.0, 2022-02-10 22:16:26.646
230.0, -6271.184238336592, -4989.736376969383, -6029.472473796902, -11364.140971200582, -2568.8859902484405, -705.0857788426613, -4427.768817874053, -3734.3282978926063, -15654.67007811905, -6702.774072024116, -4943.244748502344, -4539.952223295239, -668.0042347913069, -2865.5159909148206, -5401.343751113863, -6688.2677898726215, 0.002125, 0.06443750000000001, 0.9505625, 192.0, 0.0, 8.0, 1.0, 0.0, 15.0, 88.0, 0.0, 0.0, 0.0, 1.6444917866463017E9, 0.0, 2022-02-10 22:16:26.646
232.0, -6251.246482282458, -4973.307844794732, -6020.151796359039, -11350.953441971951, -2551.809257484586, -692.8370228811531, -4432.999126076595, -3721.2525273862516, -15656.592328142206, -6700.091862689479, -4948.586815427162, -4536.308888949024, -669.4123946919913, -2877.1388980315805, -5413.458396608638, -6696.113252176435, 0.002125, 0.06443750000000001, 0.9505625, 192.0, 0.0, 0.0, 0.0, 0.0, 0.0, 0.0, 0.0, 0.0, 0.0, 1.64449178664631E9, 0.0, 2022-02-10 22:16:26.646
234.0, -6267.496200501466, -4977.018234374313, -6023.772778960798, -11352.160436172539, -2553.060955174083, -689.9983513353291, -4402.332532683913, -3708.8473092135564, -15651.250261217388, -6685.473821815708, -4938.282661233266, -4526.295307433046, -654.1461532290165, -2866.7453368598626, -5400.092053424365, -6680.84701071346, 0.002125, 0.06443750000000001, 0.9505625, 192.0, 0.0, 0.0, 0.0, 0.0, 0.0, 0.0, 0.0, 0.0, 0.0, 1.6444917866463168E9, 0.0, 2022-02-10 22:16:26.646
236.0, -6275.6769389721085, -4977.666434963517, -6031.506482542334, -11355.848474007664, -2553.105658662994, -688.3443222456362, -4396.1410994697935, -3714.949335449855, -15670.964499826969, -6700.225973156211, -4958.890969621059, -4538.61111862792, -669.1888772474382, -2882.257447511846, -5408.920992484212, -6693.095766674968, 0.002125, 0.06443750000000001, 0.9505625, 192.0, 0.0, 0.0, 0.0, 0.0, 0.0, 0.0, 0.0, 0.0, 0.0, 1.6444917866463237E9, 0.0, 2022-02-10 22:16:26.646
238.0, -6255.493313728966, -4959.516818465808, -6008.171261330994, -11335.86601446462, -2531.178597352338, -670.5076301703012, -4391.938971512195, -3702.7229312328022, -15645.930546037025, -6679.438850812776, -4934.236995486855, -4521.780255053074, -643.4620193793797, -2855.211836720924, -5397.11927141181, -6678.924760690304, 0.002125, 0.06443750000000001, 0.9505625, 192.0, 0.0, 0.0, 0.0, 0.0, 0.0, 0.0, 0.0, 0.0, 0.0, 1.6444917866463304E9, 0.0, 2022-02-10 22:16:26.646
240.0, -6258.890778886173, -4965.060051090723, -6021.783473704276, -11348.807674504242, -2544.3884783254243, -682.6893308984436, -4412.8155008334525, -3730.59555656857, -15645.327048936731, -6677.695414745262, -4931.64419313004, -4524.708333576719, -635.1695221864608, -2853.0660692532147, -5399.980294702089, -6683.842144470471, 0.002125, 0.06443750000000001, 0.9505625, 192.0, 0.0, 0.0, 1.0, 8.0, 15.0, 104.0, 0.0, 0.0, 0.0, 1.6444917866463373E9, 0.0, 2022-02-10 22:16:26.646
242.0, -6247.580796191788, -4956.5440364532515, -6009.288848553759, -11341.923337212007, -2527.6023182394883, -664.4279556784577, -4386.507497609556, -3699.4819282867825, -15649.216252471955, -6680.064699657524, -4938.305012977721, -4521.981420753172, -647.3959264035137, -2856.3517756881447, -5408.563364572927, -6694.213353897733, 0.002125, 0.06443750000000001, 0.9505625, 192.0, 0.0, 0.0, 0.0, 0.0, 0.0, 0.0, 0.0, 0.0, 0.0, 1.644491786646344E9, 0.0, 2022-02-10 22:16:26.646
244.0, -6243.065743811816, -4945.435219458964, -6009.266496809304, -11343.018572690318, -2524.718943204754, -669.9935400478292, -4398.510384382055, -3709.137881891475, -15634.039417986802, -6663.390298293865, -4919.507195890808, -4511.520804348088, -628.419295360958, -2833.5529963437316, -5390.190230630664, -6676.89075194487, 0.002125, 0.06443750000000001, 0.9505625, 192.0, 0.0, 0.0, 0.0, 0.0, 0.0, 0.0, 0.0, 0.0, 0.0, 1.6444917866463509E9, 0.0, 2022-02-10 22:16:26.646
246.0, -6259.807200408841, -4950.062030561213, -6020.576479503689, -11348.986488459885, -2536.3194985770583, -671.6028656486113, -4421.2644602375585, -3698.4313962973833, -15646.757560581871, -6671.1240018754015, -4931.800655341227, -4521.623792841887, -640.3327751556367, -2861.067993768215, -5411.893774496767, -6693.1404701638785, 0.002125, 0.06443750000000001, 0.9505625, 192.0, 0.0, 0.0, 0.0, 0.0, 0.0, 0.0, 0.0, 0.0, 0.0, 1.6444917866463575E9, 0.0, 2022-02-10 22:16:26.646
248.0, -6229.162958760615, -4916.176785966967, -5996.99538910334, -11329.629877761588, -2512.1796145653266, -654.1461532290165, -4382.260666163047, -3680.147669332942, -15621.187164925, -6652.974385377692, -4903.324532905166, -4500.926077476272, -614.9188417099526, -2838.3362696571676, -5398.3039138679405, -6678.164801378823, 0.002125, 0.06443750000000001, 0.9505625, 192.0, 0.0, 0.0, 0.0, 0.0, 0.0, 0.0, 0.0, 0.0, 0.0, 1.6444917866463642E9, 0.0, 2022-02-10 22:16:26.646
250.0, -6270.603092980754, -4956.611091686617, -6020.062389381217, -11349.567633815723, -2533.0337921421283, -669.3900429475359, -4397.616314603843, -3706.790948723668, -15644.81295881426, -6651.119190587901, -4920.937707535948, -4505.932868234261, -625.0888854371174, -2839.6550225800306, -5399.712073768625, -6681.696377002761, 0.004, 0.07, 0.98, 192.0, 0.0, 16.0, 1.0, 24.0, 15.0, 80.0, 0.0, 0.0, 0.0, 1.644491786646371E9, 0.0, 2022-02-10 22:16:26.646
252.0, -6261.215360309525, -4943.937652580458, -6008.104206097628, -11337.408284832036, -2506.9716581072403, -651.2851299387372, -4375.689253293187, -3697.760843963724, -15659.632165388128, -6665.245493083656, -4937.45564668842, -4517.734589306663, -630.8779872510419, -2843.454819137433, -5403.73538777058, -6689.318321862022, 0.004, 0.07, 0.98, 192.0, 0.0, 0.0, 0.0, 0.0, 0.0, 0.0, 0.0, 0.0, 0.0, 1.644491786646378E9, 0.0, 2022-02-10 22:16:26.646
254.0, -6269.23963656898, -4934.728733864872, -6002.963304872907, -11330.166319628515, -2499.8638033704524, -637.1141239540725, -4377.633855060799, -3685.757957191224, -15642.555432624273, -6636.367039247399, -4922.792902325738, -4491.717158760686, -605.5981642720895, -2816.096283924137, -5386.569248028904, -6672.219237353711, 0.004, 0.07, 0.98, 192.0, 0.0, 0.0, 0.0, 0.0, 0.0, 0.0, 0.0, 0.0, 0.0, 1.6444917866463847E9, 0.0, 2022-02-10 22:16:26.646
0.0, -6274.380537793701, -4947.8492078601375, -6012.462796266413, -11338.503520310345, -2508.6703906858434, -641.9868042453295, -4390.933143011706, -3688.9766083927884, -15660.258014232877, -6650.515693487608, -4931.130103007567, -4510.962010736705, -620.3056121236816, -2828.210929418913, -5401.857841236334, -6682.366929336421, 0.004, 0.07, 0.98, 192.0, 0.0, 0.0, 0.0, 0.0, 0.0, 0.0, 0.0, 0.0, 0.0, 1.644491786646392E9, 0.0, 2022-02-10 22:16:26.646
2.0, -6234.437970452067, -4919.998934268825, -5988.054691321217, -11318.923392167497, -2486.6762741418215, -620.5067778237793, -4370.034261945994, -3664.3896894919503, -15635.738150565405, -6632.07550431198, -4908.06310272969, -4487.649141269821, -593.3717600550366, -2806.060350663704, -5387.128041640287, -6668.531199518586, 0.004, 0.07, 0.98, 192.0, 0.0, 0.0, 0.0, 0.0, 0.0, 0.0, 0.0, 0.0, 0.0, 1.6444917866463988E9, 0.0, 2022-02-10 22:16:26.646
4.0, -6273.352357548757, -4937.768571110794, -6002.404511261525, -11339.732866255388, -2501.9648673492516, -638.6116908325781, -4381.500706851567, -3682.4275472673835, -15636.408702899063, -6631.002620578125, -4909.314800419188, -4492.343007605435, -601.1501671254834, -2805.9485919414274, -5384.8034602169355, -6670.408746052832, 0.002, 0.07200000000000001, 0.982, 192.0, 0.0, 8.0, 1.0, 32.0, 15.0, 88.0, 0.0, 0.0, 0.0, 1.644491786646406E9, 0.0, 2022-02-10 22:16:26.646
6.0, -6265.506895244944, -4924.446931415431, -5995.989560602851, -11330.166319628515, -2487.0786055420167, -621.6690685354554, -4376.873895749319, -3676.861962898012, -15648.702162349484, -6635.584728191463, -4922.502329647819, -4495.159327406804, -610.0908649076063, -2803.8475279626286, -5394.504117310538, -6678.880057201392, 0.002, 0.07200000000000001, 0.982, 192.0, 0.0, 0.0, 0.0, 0.0, 0.0, 0.0, 0.0, 0.0, 0.0, 1.6444917866464128E9, 0.0, 2022-02-10 22:16:26.646
8.0, -6256.208569551536, -4919.462492401897, -5991.474508222879, -11329.026380661295, -2477.2885414705925, -623.2336906473269, -4362.255854875548, -3678.2924745431515, -15631.357208652165, -6620.497300684131, -4905.1797276949565, -4480.831859210952, -589.5049082642685, -2802.417016317489, -5375.952169412633, -6665.044327383558, 0.002, 0.07200000000000001, 0.982, 192.0, 0.0, 0.0, 0.0, 0.0, 0.0, 0.0, 0.0, 0.0, 0.0, 1.6444917866464217E9, 0.0, 2022-02-10 22:16:26.646
10.0, -6254.263967783924, -4929.207852984411, -5997.956514114919, -11337.520043554312, -2486.92214333083, -628.4416471054134, -4387.334512154403, -3689.155422348431, -15649.015086771857, -6636.679963669773, -4913.941611521436, -4495.807527996008, -599.9878764138075, -2816.6103740466087, -5393.9229719547, -6680.690548502273, 0.002, 0.07200000000000001, 0.982, 192.0, 0.0, 0.0, 0.0, 0.0, 0.0, 0.0, 0.0, 0.0, 0.0, 1.6444917866464288E9, 0.0, 2022-02-10 22:16:26.646
12.0, -6257.549674218854, -4908.979524252359, -5977.392909216036, -11324.108996881128, -2466.0009105206623, -610.7390654968102, -4358.143133895771, -3670.692881428347, -15630.820766785237, -6623.246565252133, -4897.378968880054, -4486.1292226468595, -579.3348645371037, -2795.353865069612, -5379.8190212034015, -6672.040423398069, 0.002, 0.07200000000000001, 0.982, 192.0, 0.0, 0.0, 0.0, 0.0, 0.0, 0.0, 0.0, 0.0, 0.0, 1.6444917866464355E9, 0.0, 2022-02-10 22:16:26.646
14.0, -6282.024834397416, -4921.094169747134, -5998.202383303927, -11342.571537801212, -2479.2554949826595, -624.418333103458, -4361.875875219807, -3677.845439654045, -15640.253202945378, -6626.912251342804, -4909.337152163644, -4491.784213994052, -586.1968500848831, -2800.472414549877, -5377.717957224602, -6674.610874010429, 0.002, 0.07200000000000001, 0.982, 192.0, 0.0, 0.0, 1.0, 24.0, 15.0, 96.0, 0.0, 0.0, 0.0, 1.6444917866464431E9, 0.0, 2022-02-10 22:16:26.646
16.0, -6255.850941640251, -4913.181652209956, -5987.786470387754, -11331.328610340192, -2460.792954062576, -605.2181846163494, -4360.95945369714, -3648.832875351057, -15646.891671048603, -6630.242661266645, -4913.762797565794, -4489.102004659415, -584.4757657618244, -2804.160452385003, -5385.585771272871, -6682.813964225526, 0.002, 0.07200000000000001, 0.982, 192.0, 0.0, 0.0, 0.0, 0.0, 0.0, 0.0, 0.0, 0.0, 0.0, 1.6444917866464517E9, 0.0, 2022-02-10 22:16:26.646
18.0, -6255.649775940154, -4911.773492309272, -5982.645569163033, -11332.803825474242, -2447.225445178204, -601.2842775922153, -4348.375421568802, -3661.9309976018667, -15631.938354008003, -6612.4283209357645, -4898.518907847275, -4479.0884231434375, -573.9257423789195, -2771.7504229248075, -5370.8336199323685, -6665.3125483170215, 0.002, 0.07200000000000001, 0.982, 192.0, 0.0, 0.0, 0.0, 0.0, 0.0, 0.0, 0.0, 0.0, 0.0, 1.644491786646459E9, 0.0, 2022-02-10 22:16:26.646
20.0, -6262.154133576648, -4917.048504000724, -5991.295694267237, -11339.777569744298, -2459.228331950704, -612.7060190088772, -4364.781601998997, -3669.977625605777, -15641.773121568338, -6629.058018810513, -4912.600506854118, -4496.299266374024, -585.3027803066708, -2803.1769756289696, -5381.338939826363, -6686.569057294018, 0.002, 0.07200000000000001, 0.982, 192.0, 0.0, 0.0, 0.0, 0.0, 0.0, 0.0, 0.0, 0.0, 0.0, 1.6444917866464665E9, 0.0, 2022-02-10 22:16:26.646
22.0, -6245.613842679721, -4892.550992077708, -5971.536752168746, -11322.589078258166, -2438.374154373903, -594.6681612334444, -4358.545465295967, -3649.145799773431, -15630.217269684945, -6618.530347172064, -4893.199192666912, -4480.36247257739, -566.102631819562, -2784.937952153439, -5373.202904844631, -6680.2211618687115, 0.002, 0.07200000000000001, 0.982, 192.0, 0.0, 0.0, 0.0, 0.0, 0.0, 0.0, 0.0, 0.0, 0.0, 1.6444917866464753E9, 0.0, 2022-02-10 22:16:26.646
24.0, -6260.164828320126, -4899.703550303406, -5989.351092499625, -11340.224604633404, -2457.954282516752, -615.7235045103437, -4365.966244455129, -3670.2011430503303, -15634.799377298283, -6613.88118432536, -4894.272076400766, -4471.153553861804, -563.845105629576, -2783.7309579528523, -5376.846239190846, -6682.635150269884, 0.002, 0.068, 0.982, 192.0, 0.0, 8.0, 1.0, 16.0, 15.0, 88.0, 0.0, 0.0, 0.0, 1.644491786646482E9, 0.0, 2022-02-10 22:16:26.646
26.0, -6253.5263602169, -4893.892096745026, -5982.176182529472, -11334.793130730764, -2449.885302768386, -603.5865072711119, -4374.392852114779, -3672.5480762181373, -15639.694409333993, -6623.73830363015, -4903.793919538727, -4478.283760343046, -572.3164167781373, -2790.794109200729, -5389.072643407899, -6693.676912030806, 0.002, 0.068, 0.982, 192.0, 0.0, 0.0, 0.0, 0.0, 0.0, 0.0, 0.0, 0.0, 0.0, 1.6444917866464891E9, 0.0, 2022-02-10 22:16:26.646
28.0, -6253.347546261257, -4895.277904901255, -5979.695138894933, -11335.95542144244, -2435.691945039266, -597.9985711572851, -4346.631985501288, -3659.4499539673275, -15626.886859761104, -6606.415701677287, -4885.510192574286, -4462.615187479876, -556.2902160036822, -2773.158582825492, -5375.281617078975, -6677.650711256351, 0.002, 0.068, 0.982, 192.0, 0.0, 0.0, 0.0, 0.0, 0.0, 0.0, 0.0, 0.0, 0.0, 1.6444917866464963E9, 0.0, 2022-02-10 22:16:26.646
30.0, -6255.940348618073, -4899.569439836674, -5990.267514022293, -11345.924299469507, -2441.011660219629, -600.8595944475644, -4352.1752181262045, -3666.244884281741, -15640.163795967555, -6621.54783267353, -4907.079625973657, -4488.230286625658, -565.9461696083748, -2781.540486996232, -5382.367120071307, -6686.770222994116, 0.002, 0.068, 0.982, 192.0, 0.0, 0.0, 0.0, 0.0, 0.0, 0.0, 0.0, 0.0, 0.0, 1.6444917866465034E9, 0.0, 2022-02-10 22:16:26.646
32.0, -6240.025906565894, -4869.729860988839, -5969.681557378955, -11326.455930048935, -2430.0593054365286, -577.5914284695898, -4353.225750115604, -3644.6530991379145, -15627.646819072585, -6607.823861577972, -4885.331378618644, -4468.4042892938005, -544.8237710981097, -2763.100297820604, -5373.269960077997, -6676.913103689326, 0.002, 0.068, 0.982, 192.0, 0.0, 0.0, 0.0, 0.0, 0.0, 0.0, 0.0, 0.0, 0.0, 1.6444917866465108E9, 0.0, 2022-02-10 22:16:26.646
34.0, -6261.282415542891, -4884.973750707359, -5987.562952943201, -11336.201290631449, -2441.8386747644754, -593.1482426104835, -4347.637814001777, -3649.9504625738223, -15629.636124329107, -6596.156250972302, -4888.72884377585, -4463.21868458017, -548.8247333556096, -2774.0526526037042, -5376.913294424212, -6673.113307131924, 0.004, 0.07200000000000001, 0.982, 192.0, 0.0, 16.0, 1.0, 32.0, 15.0, 88.0, 0.0, 0.0, 0.0, 1.6444917866465187E9, 0.0, 2022-02-10 22:16:26.646
0.0, -3200.68039902215, -2176.568171568891, -3029.466036494498, -5881.079242358118, -761.6580440590435, 60.32735828487376, -1670.658787567471, -1457.512552441663, -7816.762663932164, -3298.6704467142163, -2445.6831748107884, -2230.860558850832, -274.9935120336428, -1387.3280748519987, -2687.260828883747, -3339.6411943007943, 0.004, 0.07200000000000001, 0.98, 192.0, 0.0, 16.0, 1.0, 32.0, 15.0, 80.0, 0.0, 0.0, 0.0, 1.64449178722661E9, 0.0, 2022-02-10 22:16:27.226
2.0, -6403.618324234286, -4345.3132325784245, -6055.914587487529, -11759.56568235942, -1522.734942762249, 125.16976894971955, -3336.9142814772467, -2913.1699100935352, -15075.31286183749, -6489.493726431576, -4661.277492198646, -4117.347790878748, 515.3865236504703, -1760.691614233448, -5437.620632364826, -6951.839560489602, 0.004, 0.07200000000000001, 0.98, 192.0, 0.0, 0.0, 0.0, 0.0, 0.0, 0.0, 0.0, 0.0, 0.0, 1.64449178722679E9, 0.0, 2022-02-10 22:16:27.226
4.0, -6390.676664194663, -4336.551348751945, -6036.893252956063, -11745.931118241682, -1504.1382913754335, 133.46226614263847, -3336.6684122882384, -2909.593630980686, -15059.130198851848, -6474.339243690878, -4635.081247697026, -4101.7686249933995, 523.3660964210148, -1745.760648937303, -5423.270812424518, -6940.395467328485, 0.004, 0.07200000000000001, 0.98, 192.0, 0.0, 0.0, 0.0, 0.0, 0.0, 0.0, 0.0, 0.0, 0.0, 1.6444917872268035E9, 0.0, 2022-02-10 22:16:27.226
6.0, -6411.441434793644, -4353.069287904416, -6056.696898543465, -11761.733801571585, -1525.931242219358, 117.50312060154923, -3370.8665813048583, -2924.0328578988147, -15070.708402479697, -6482.832906583894, -4649.319308915056, -4107.7588925074215, 507.3398956465597, -1755.6177682420932, -5435.921899786223, -6951.057249433667, 0.004, 0.07300000000000001, 0.98, 192.0, 0.0, 16.0, 1.0, 40.0, 15.0, 80.0, 0.0, 0.0, 0.0, 1.6444917872268107E9, 0.0, 2022-02-10 22:16:27.226
8.0, -6396.465766008588, -4341.558139509933, -6042.257671625337, -11751.519054355509, -1516.2529368702099, 135.54097837698203, -3332.7345052641044, -2913.9075176605606, -15070.663698990787, -6485.313950218434, -4654.996652006705, -4103.266191871905, 504.56827933410165, -1744.8665791590906, -5439.386420176795, -6951.571339556139, 0.004, 0.07300000000000001, 0.98, 192.0, 0.0, 0.0, 0.0, 0.0, 0.0, 0.0, 0.0, 0.0, 0.0, 1.6444917872268174E9, 0.0, 2022-02-10 22:16:27.226
10.0, -6402.210164333602, -4346.922558179207, -6048.762029261831, -11753.79893228995, -1527.1829399088551, 120.40884738073915, -3341.384630368308, -2912.0299711263146, -15063.488789020634, -6477.468487914621, -4650.772172304652, -4095.1748603790834, 509.70918055882225, -1756.6459484870375, -5429.708114827647, -6944.0388016747, 0.004, 0.07300000000000001, 0.98, 192.0, 0.0, 0.0, 0.0, 0.0, 0.0, 0.0, 0.0, 0.0, 0.0, 1.6444917872268243E9, 0.0, 2022-02-10 22:16:27.226
12.0, -6390.274332794468, -4332.706848705631, -6046.973889705407, -11749.3732868878, -1522.019686939679, 125.70621081664692, -3345.0503164589786, -2933.889977203605, -15070.395478057324, -6484.553990906953, -4654.169637461858, -4094.325494089782, 496.94633447484193, -1767.1512683810317, -5440.2134347216415, -6954.007679701767, 0.004, 0.07300000000000001, 0.98, 192.0, 0.0, 0.0, 0.0, 0.0, 0.0, 0.0, 0.0, 0.0, 0.0, 1.644491787226832E9, 0.0, 2022-02-10 22:16:27.226
14.0, -6391.973065373071, -4328.839996914863, -6036.133293644583, -11741.304307139435, -1513.5036723022072, 135.1162952323312, -3321.3798190808084, -2892.76276740584, -15054.12340809386, -6471.299406444956, -4635.05889595257, -4085.9212381745865, 508.99392473625244, -1751.7732681957805, -5423.047294979965, -6938.3838103275075, 0.004, 0.07300000000000001, 0.98, 192.0, 0.0, 0.0, 0.0, 0.0, 0.0, 0.0, 0.0, 0.0, 0.0, 1.6444917872268393E9, 0.0, 2022-02-10 22:16:27.226
16.0, -6405.115891112792, -4346.453171545645, -6054.4393723534795, -11760.124475970802, -1535.2072161683102, 111.78107402099062, -3343.5303978360175, -2913.192261837991, -15071.066030390983, -6484.978674051604, -4655.130762473436, -4105.613125039712, 488.47502332628056, -1771.822782972191, -5430.959812517144, -6945.268147619742, 0.003, 0.07150000000000001, 0.98, 192.0, 0.0, 8.0, 1.0, 24.0, 15.0, 80.0, 0.0, 0.0, 0.0, 1.6444917872268467E9, 0.0, 2022-02-10 22:16:27.226
18.0, -6390.9001816392165, -4338.898281919752, -6042.861168725631, -11748.233347920579, -1531.6756405443718, 128.05314398445415, -3332.1086564193556, -2899.378883764611, -15062.572367497965, -6486.14096476328, -4654.147285717402, -4100.226354625983, 485.94927620283084, -1771.3086928497187, -5435.497216641572, -6949.045592432689, 0.003, 0.07150000000000001, 0.98, 192.0, 0.0, 0.0, 0.0, 0.0, 0.0, 0.0, 0.0, 0.0, 0.0, 1.644491787226854E9, 0.0, 2022-02-10 22:16:27.226
20.0, -6414.883603439761, -4347.324889579402, -6046.862130983131, -11755.922348013204, -1538.3588121365085, 114.39622812226155, -3350.481790361618, -2911.2923635592897, -15062.594719242421, -6479.144868748769, -4648.067611225559, -4095.554840034824, 485.27872386917164, -1756.4447827869396, -5425.975373503611, -6938.696734749882, 0.003, 0.07150000000000001, 0.98, 192.0, 0.0, 0.0, 0.0, 0.0, 0.0, 0.0, 0.0, 0.0, 0.0, 1.6444917872268608E9, 0.0, 2022-02-10 22:16:27.226
22.0, -6421.1867953761575, -4352.868122204319, -6047.935014716985, -11760.750324815552, -1545.7348878067598, 110.7752455205018, -3348.4030781272745, -2917.5508520067756, -15077.4586293052, -6494.0311305560035, -4667.983015535237, -4108.496500074447, 465.34096781503774, -1771.621617272093, -5438.9840887765995, -6953.381830857019, 0.003, 0.07150000000000001, 0.98, 192.0, 0.0, 0.0, 0.0, 0.0, 0.0, 0.0, 0.0, 0.0, 0.0, 1.6444917872268689E9, 0.0, 2022-02-10 22:16:27.226
24.0, -6411.553193515921, -4345.581453511889, -6030.5453575307565, -11754.402429390244, -1529.1945969098326, 115.62557406730343, -3330.6334412853053, -2908.0737123577255, -15064.114637865381, -6483.257589728545, -4655.868370040461, -4095.219563867994, 483.3341221015599, -1752.2203030848866, -5417.012323977033, -6939.300231850176, 0.003, 0.07150000000000001, 0.98, 192.0, 0.0, 0.0, 0.0, 0.0, 0.0, 0.0, 0.0, 0.0, 0.0, 1.6444917872268755E9, 0.0, 2022-02-10 22:16:27.226
26.0, -6417.409350563211, -4362.077040919905, -6049.231415895393, -11769.199284219658, -1555.279082689176, 95.2407831240634, -3353.8792555188247, -2932.5712242807417, -15068.763800712086, -6495.327531734411, -4666.843076568017, -4105.9931046954525, 466.41385154889247, -1779.8694109761013, -5422.823777535413, -6950.409048844463, 0.0025, 0.07175000000000001, 0.98, 192.0, 0.0, 8.0, 1.0, 32.0, 15.0, 80.0, 0.0, 0.0, 0.0, 1.6444917872268825E9, 0.0, 2022-02-10 22:16:27.226
28.0, -6406.658161480208, -4349.5377122804775, -6042.168264647516, -11753.061324722925, -1553.826219299581, 112.0045914655437, -3348.850113016381, -2908.1407675910914, -15071.60247225791, -6496.71333989064, -4669.838210325028, -4104.406130839126, 449.3147670405826, -1782.2833993772745, -5431.585661361893, -6949.872606977536, 0.0025, 0.07175000000000001, 0.98, 192.0, 0.0, 0.0, 0.0, 0.0, 0.0, 0.0, 0.0, 0.0, 0.0, 1.6444917872268891E9, 0.0, 2022-02-10 22:16:27.226
30.0, -6420.024504664481, -4361.272378119514, -6052.807695008242, -11762.270243438512, -1571.573504397095, 101.29810587145161, -3365.390403913308, -2925.664535244052, -15064.159341354292, -6484.017549040026, -4672.185143492835, -4098.57232553629, 448.57715947355746, -1770.4369748159618, -5424.097826969365, -6942.89886270748, 0.0025, 0.07175000000000001, 0.98, 192.0, 0.0, 0.0, 0.0, 0.0, 0.0, 0.0, 0.0, 0.0, 0.0, 1.6444917872269084E9, 0.0, 2022-02-10 22:16:27.226
32.0, -6430.328658858378, -4363.753421754053, -6054.595834564667, -11765.04185975097, -1580.0895190345668, 102.81802449441248, -3348.3360228939086, -2917.2826310733117, -15079.805562473008, -6505.1846510392015, -4681.63993139743, -4112.899793732142, 424.7054963952895, -1786.8431552461573, -5441.21926322213, -6957.271034392243, 0.0025, 0.07175000000000001, 0.98, 192.0, 0.0, 0.0, 0.0, 0.0, 0.0, 0.0, 0.0, 0.0, 0.0, 1.6444917872269151E9, 0.0, 2022-02-10 22:16:27.226
34.0, -6424.047818666437, -4353.851598960352, -6037.362639589624, -11750.960260744127, -1568.4666119178073, 113.14453043276436, -3337.160150666255, -2891.354607505156, -15068.719097223175, -6499.775528881018, -4670.486410914232, -4102.19330813805, 431.9698133432643, -1773.8344399731684, -5418.59929783336, -6935.947470181879, 0.0025, 0.07175000000000001, 0.98, 192.0, 0.0, 0.0, 0.0, 0.0, 0.0, 0.0, 0.0, 0.0, 0.0, 1.6444917872269216E9, 0.0, 2022-02-10 22:16:27.226
36.0, -6436.207167650124, -4372.492953836078, -6055.221683409415, -11767.545255129964, -1594.2828767636868, 96.5371843024712, -3362.7976015564923, -2924.6140032546527, -15074.821123459475, -6502.323627748922, -4684.322140732067, -4109.569383808302, 415.09424627950744, -1782.8421929886572, -5427.517643871027, -6942.407124329463, 0.00425, 0.069875, 0.98, 192.0, 0.0, 24.0, 1.0, 16.0, 15.0, 80.0, 0.0, 0.0, 0.0, 1.64449178722693E9, 0.0, 2022-02-10 22:16:27.226
38.0, -6424.3160395999, -4359.484238563089, -6041.855340225142, -11753.933042756682, -1584.2022400143433, 106.21548965161917, -3344.8044472699703, -2917.1708723510355, -15074.217626359181, -6498.7920521249835, -4681.215248252779, -4100.025188925885, 407.4052461868818, -1783.7586145113248, -5432.792655562479, -6945.357554597564, 0.00425, 0.069875, 0.98, 192.0, 0.0, 0.0, 0.0, 0.0, 0.0, 0.0, 0.0, 0.0, 0.0, 1.6444917872269366E9, 0.0, 2022-02-10 22:16:27.226
40.0, -6449.886435256772, -4371.688291035687, -6049.186712406482, -11760.817380048917, -1601.79306290067, 91.53039354448242, -3366.418584158252, -2919.4954537743874, -15067.176826855759, -6491.438328199188, -4681.237599997235, -4092.939685933553, 411.36150495547116, -1778.170678397498, -5427.115312470832, -6934.874586448024, 0.00425, 0.069875, 0.98, 192.0, 0.0, 0.0, 0.0, 0.0, 0.0, 0.0, 0.0, 0.0, 0.0, 1.6444917872269433E9, 0.0, 2022-02-10 22:16:27.226
42.0, -6447.539502088965, -4380.852506262363, -6055.936939231985, -11768.416973163721, -1624.7259527118151, 90.03282666597684, -3366.7315085806263, -2908.565450735742, -15084.924111953273, -6513.544203465486, -4701.398873495922, -4114.15149142164, 384.58411509801334, -1795.1133006946209, -5441.755705089057, -6949.045592432689, 0.00425, 0.069875, 0.98, 192.0, 0.0, 0.0, 0.0, 0.0, 0.0, 0.0, 0.0, 0.0, 0.0, 1.6444917872269497E9, 0.0, 2022-02-10 22:16:27.226
44.0, -6442.331545630878, -4366.346224110869, -6042.749410003354, -11756.950528258149, -1623.8989381669687, 96.31366685791814, -3381.394252943308, -2908.7219129469295, -15079.514989795089, -6504.424691727721, -4689.26187625669, -4105.009627939418, 376.9398184942983, -1775.4661173184058, -5429.8869287832895, -6934.561662025651, 0.00425, 0.069875, 0.98, 192.0, 0.0, 0.0, 0.0, 0.0, 0.0, 0.0, 0.0, 0.0, 0.0, 1.6444917872269564E9, 0.0, 2022-02-10 22:16:27.226
46.0, -6461.643452840263, -4386.641608076287, -6062.664814313032, -11768.3275661859, -1651.65980478046, 82.14266087325346, -3384.5682006559614, -2934.2699568593453, -15088.433335832757, -6506.257534773056, -4712.9994288682265, -4107.088340173762, 357.35969035144933, -1800.5224228528052, -5438.469998654127, -6942.4294760739185, 0.0011250000000000001, 0.06693750000000001, 0.979, 192.0, 127.5, 120.0, 1.0, 0.0, 15.0, 72.0, 0.0, 0.0, 0.0, 1.6444917872269628E9, 0.0, 2022-02-10 22:16:27.226
48.0, -6440.833978752373, -4371.576532313411, -6050.393706607068, -11752.301365411446, -1641.4897610532953, 94.86080346832317, -3380.2096104871766, -2921.082427630714, -15093.149553912826, -6507.62099118483, -4724.175301095879, -4105.9931046954525, 342.1381523773852, -1802.6681903205147, -5437.419466664728, -6943.457656318862, 0.0011250000000000001, 0.06693750000000001, 0.979, 192.0, 0.0, 0.0, 0.0, 0.0, 0.0, 0.0, 0.0, 0.0, 0.0, 1.6444917872269697E9, 0.0, 2022-02-10 22:16:27.226
50.0, -6460.838790039872, -4379.600808572866, -6049.142008917572, -11756.838769535872, -1652.956205958868, 82.03090215097691, -3383.4729651776515, -2918.95901190746, -15082.465420063189, -6492.175935766213, -4716.374542280977, -4095.308970845815, 340.55117852105843, -1794.2862861497745, -5426.2435944370745, -6933.354667825064, 0.0011250000000000001, 0.06693750000000001, 0.979, 192.0, 0.0, 0.0, 0.0, 0.0, 0.0, 0.0, 0.0, 0.0, 0.0, 1.6444917872269764E9, 0.0, 2022-02-10 22:16:27.226
52.0, -6468.527790132498, -4373.409375358746, -6055.311090387237, -11758.984537003582, -1675.8667440255576, 79.50515502752722, -3389.865564091869, -2926.849177700183, -15084.410021830801, -6503.105938804858, -4721.716609205796, -4104.38377909467, 322.1109893454301, -1810.9383357689783, -5439.542882387982, -6945.044630175189, 0.0011250000000000001, 0.06693750000000001, 0.979, 192.0, 0.0, 0.0, 0.0, 0.0, 0.0, 0.0, 0.0, 0.0, 0.0, 1.6444917872269828E9, 0.0, 2022-02-10 22:16:27.226
54.0, -6487.057386285947, -4389.614390088844, -6051.757163018842, -11750.51322585502, -1683.4439853959068, 81.3156463284071, -3396.8840118508356, -2924.0105061543595, -15101.285588894558, -6500.446081214676, -4729.293850576145, -4100.5392790483575, 308.63288743887995, -1799.7624635413247, -5432.144454973275, -6935.433380059408, 0.0011250000000000001, 0.06693750000000001, 0.979, 192.0, 0.0, 0.0, 0.0, 0.0, 0.0, 0.0, 0.0, 0.0, 0.0, 1.6444917872269895E9, 0.0, 2022-02-10 22:16:27.226
56.0, -6503.24004927159, -4409.283925209514, -6075.539419119289, -11765.51124638453, -1717.8656718570796, 65.93764614315583, -3423.057904608, -2952.5536838237863, -15123.70438858323, -6512.359561009355, -4762.7767637701945, -4116.587831567268, 276.8710585678886, -1815.587498615682, -5448.394173192283, -6945.022278430734, 0.0011250000000000001, 0.06693750000000001, 0.979, 192.0, 0.0, 0.0, 1.0, 0.0, 15.0, 72.0, 0.0, 0.0, 0.0, 1.644491787226996E9, 0.0, 2022-02-10 22:16:27.226
58.0, -6504.782319639006, -4403.450119906678, -6067.269273670826, -11750.200301432646, -1711.7859973652362, 84.37783531878416, -3395.520555439062, -2927.989116667404, -15138.054208523537, -6510.794938897484, -4772.61153133053, -4117.079569945285, 255.9945292466318, -1806.7362078113804, -5452.372783705328, -6942.742400496292, 0.0011250000000000001, 0.06693750000000001, 0.979, 192.0, 0.0, 0.0, 0.0, 0.0, 0.0, 0.0, 0.0, 0.0, 0.0, 1.6444917872270026E9, 0.0, 2022-02-10 22:16:27.227
60.0, -6531.492654263098, -4414.849509578885, -6073.505410373857, -11750.535577599476, -1735.4564947434062, 67.63637872175917, -3420.6886196957375, -2960.1979804275015, -15132.086292753971, -6491.170107265724, -4771.85157201905, -4100.5392790483575, 257.536799614048, -1799.6060013301376, -5439.900510299267, -6932.5723567691275, 0.0011250000000000001, 0.06693750000000001, 0.979, 192.0, 0.0, 0.0, 0.0, 0.0, 0.0, 0.0, 0.0, 0.0, 0.0, 1.6444917872270093E9, 0.0, 2022-02-10 22:16:27.227
62.0, -6541.975622412637, -4422.940841071706, -6081.082651744206, -11753.821284034406, -1752.7343932073586, 63.054271108421226, -3426.67888720976, -2967.4622973754763, -15157.567281433021, -6510.079683074914, -4794.270371707723, -4117.995991467952, 216.1413688828193, -1825.3552109426512, -5463.593359421892, -6953.426534345929, 0.0011250000000000001, 0.06693750000000001, 0.979, 192.0, 0.0, 0.0, 0.0, 0.0, 0.0, 0.0, 0.0, 0.0, 0.0, 1.6444917872270155E9, 0.0, 2022-02-10 22:16:27.227
64.0, -6534.19721534219, -4424.885442839318, -6070.733794061398, -11742.958336229127, -1750.2980530617301, 73.4031287912284, -3430.6574977228047, -2925.1057416326694, -15143.262164981625, -6505.877555117316, -4795.253848463756, -4105.85899422872, 216.90132819429974, -1819.1861294729865, -5446.583681891404, -6933.935813180901, 0.0011250000000000001, 0.06693750000000001, 0.979, 192.0, 0.0, 0.0, 0.0, 0.0, 0.0, 0.0, 0.0, 0.0, 0.0, 1.6444917872270224E9, 0.0, 2022-02-10 22:16:27.227
66.0, -6559.164113898768, -4445.247882038103, -6082.334349433702, -11756.727010813596, -1787.3125418797188, 60.03678560695477, -3446.34842233043, -2938.472084816943, -15153.923947086805, -6514.840604643894, -4806.608534647052, -4118.0853984457735, 194.3037145499843, -1825.3775626871065, -5451.590472649393, -6938.003830671768, 0.0025625, 0.06546875, 0.9824999999999999, 192.0, 0.0, 16.0, 1.0, 0.0, 15.0, 104.0, 0.0, 0.0, 0.0, 1.6444917872270288E9, 0.0, 2022-02-10 22:16:27.227
68.0, -6543.249671846589, -4440.9339953582285, -6069.973834749918, -11746.333449641877, -1784.6750360339925, 69.78214618946865, -3434.993736147134, -2925.016334654848, -15160.629470423399, -6521.367314024844, -4817.203261518867, -4122.712209548022, 178.03164458652074, -1832.1277895126093, -5451.881045327312, -6937.221519615832, 0.0025625, 0.06546875, 0.9824999999999999, 192.0, 0.0, 0.0, 0.0, 0.0, 0.0, 0.0, 0.0, 0.0, 0.0, 1.6444917872270398E9, 0.0, 2022-02-10 22:16:27.227
70.0, -6558.739430754117, -4449.897044884807, -6078.132221476105, -11752.882510767284, -1810.6254113466039, 61.17672457417543, -3449.2988525985306, -2941.2660528738566, -15150.370019718412, -6512.694837176185, -4814.945735328882, -4116.81134901182, 170.38734798280575, -1825.5787283872044, -5442.046277766976, -6927.252641588765, 0.0025625, 0.06546875, 0.9824999999999999, 192.0, 0.0, 0.0, 0.0, 0.0, 0.0, 0.0, 0.0, 0.0, 0.0, 1.6444917872270465E9, 0.0, 2022-02-10 22:16:27.227
72.0, -6567.814239002972, -4458.5024665001, -6086.134145991105, -11758.4257433922, -1825.0869900091875, 54.605311704315156, -3452.025765422078, -2958.074564704247, -15169.793685650075, -6532.029096130025, -4844.494741498797, -4131.7646660524215, 134.1998737096636, -1846.075278052721, -5460.575873920426, -6945.245795875287, 0.0025625, 0.06546875, 0.9824999999999999, 192.0, 0.0, 0.0, 0.0, 0.0, 0.0, 0.0, 0.0, 0.0, 0.0, 1.644491787227053E9, 0.0, 2022-02-10 22:16:27.227
74.0, -6562.6509860337965, -4442.073934325449, -6071.270235928326, -11743.494778096054, -1827.8586063216458, 61.75786993001341, -3457.8819224693684, -2941.847198229694, -15158.774275633608, -6524.273040804034, -4840.739648430306, -4119.448854857547, 132.9258242757111, -1836.9334145705004, -5453.020984294532, -6935.2098626148545, 0.0025625, 0.06546875, 0.9824999999999999, 192.0, 0.0, 0.0, 0.0, 0.0, 0.0, 0.0, 0.0, 0.0, 0.0, 1.6444917872270596E9, 0.0, 2022-02-10 22:16:27.227
76.0, -6581.225285676156, -4460.581178734444, -6092.549096649778, -11762.113781227325, -1864.9848538619108, 44.34586099932921, -3490.604876351938, -2961.963768239471, -15166.798551893062, -6526.105883849369, -4861.459715540375, -4126.266136916415, 113.14453043276436, -1844.2200832629305, -5467.728432146124, -6940.104894650566, 0.00528125, 0.06473437500000001, 0.98125, 192.0, 0.0, 32.0, 1.0, 0.0, 15.0, 80.0, 0.0, 0.0, 0.0, 1.644491787227066E9, 0.0, 2022-02-10 22:16:27.227
78.0, -6579.593608330919, -4466.280873570547, -6080.143878477083, -11753.664821823219, -1879.13350810212, 46.40222148921746, -3479.674873313293, -2964.8024397852946, -15170.151313561359, -6535.8288926874275, -4863.918407430459, -4125.9532124940415, 84.64605625224785, -1860.9838916044107, -5476.9597026061665, -6950.230234888821, 0.00528125, 0.06473437500000001, 0.98125, 192.0, 0.0, 0.0, 0.0, 0.0, 0.0, 0.0, 0.0, 0.0, 0.0, 1.6444917872270727E9, 0.0, 2022-02-10 22:16:27.227
80.0, -6601.475966152664, -4487.805603481007, -6086.089442502194, -11756.61525209132, -1899.2724298563517, 31.068924792876818, -3496.282219443586, -2973.989006756426, -15171.470066484222, -6533.81723568645, -4873.619064524062, -4125.774398538399, 74.38660554726191, -1861.2074090489639, -5471.125897303331, -6944.687002263904, 0.00528125, 0.06473437500000001, 0.98125, 192.0, 0.0, 0.0, 0.0, 0.0, 0.0, 0.0, 0.0, 0.0, 0.0, 1.6444917872270792E9, 0.0, 2022-02-10 22:16:27.227
82.0, -6595.485698638642, -4486.866830213885, -6092.906724561063, -11758.2245776921, -1915.5668515642706, 30.398372459217605, -3503.0324462690887, -2988.2047162300014, -15187.563322492042, -6551.8550934618825, -4898.250686913811, -4141.308860934837, 41.70835515360298, -1878.328845301729, -5492.292999302506, -6957.583958814616, 0.00528125, 0.06473437500000001, 0.98125, 192.0, 0.0, 0.0, 0.0, 0.0, 0.0, 0.0, 0.0, 0.0, 0.0, 1.644491787227086E9, 0.0, 2022-02-10 22:16:27.227
84.0, -6577.358433885388, -4474.573370763465, -6083.742509334387, -11741.08078969488, -1920.037200455332, 33.2146922605863, -3504.0606265140327, -2981.499192893409, -15171.872397884417, -6536.879424676827, -4897.177803179956, -4124.969735738008, 45.28463426645211, -1864.0237288503324, -5482.413528253261, -6945.1340371530105, 0.00528125, 0.06473437500000001, 0.98125, 192.0, 0.0, 0.0, 0.0, 0.0, 0.0, 0.0, 0.0, 0.0, 0.0, 1.6444917872270925E9, 0.0, 2022-02-10 22:16:27.227
86.0, -6622.21838500719, -4511.811377026007, -6103.009713054862, -11763.209016705636, -1969.3675004681947, 8.113683237276463, -3540.5386734650942, -2997.726559367962, -15187.42921202531, -6551.989203928614, -4918.613126112596, -4136.6373463436785, 10.550023382904934, -1879.2452668243966, -5494.505822003583, -6951.325470367131, 0.00528125, 0.06473437500000001, 0.98125, 192.0, 0.0, 0.0, 1.0, 8.0, 15.0, 88.0, 0.0, 0.0, 0.0, 1.6444917872270987E9, 0.0, 2022-02-10 22:16:27.227
88.0, -6619.536175672552, -4503.943562977739, -6088.011692525351, -11751.94373750016, -1975.3130644933065, 19.848349076312672, -3539.1305135644097, -2990.953980798004, -15199.007415653161, -6562.740393011617, -4925.922146549481, -4144.0357737583845, -10.72883733854739, -1884.4532232824831, -5501.591324995915, -6957.248682647787, 0.00528125, 0.06473437500000001, 0.98125, 192.0, 0.0, 0.0, 0.0, 0.0, 0.0, 0.0, 0.0, 0.0, 0.0, 1.6444917872271056E9, 0.0, 2022-02-10 22:16:27.227
90.0, -6619.245602994633, -4515.544118350043, -6099.96987580894, -11759.386868403777, -1988.9252768665883, 6.258488447485978, -3538.3258507640185, -2995.558440155797, -15191.988967894195, -6559.901721465793, -4934.8181408426935, -4140.459494645535, -13.478101906550158, -1881.1228133586424, -5491.644798713302, -6942.496531307284, 0.00528125, 0.06473437500000001, 0.98125, 192.0, 0.0, 0.0, 0.0, 0.0, 0.0, 0.0, 0.0, 0.0, 0.0, 1.644491787227112E9, 0.0, 2022-02-10 22:16:27.227
92.0, -6649.733382431672, -4527.3905429113565, -6114.87848936063, -11765.846522551361, -2022.3187830828172, 1.765787811969258, -3553.1674090823426, -2984.762547583884, -15212.932552448816, -6578.341910641421, -4967.205818558433, -4164.2864542348925, -56.61696870529279, -1912.3482003627064, -5506.799281454001, -6954.141790168499, 0.00528125, 0.06473437500000001, 0.98125, 192.0, 0.0, 0.0, 0.0, 0.0, 0.0, 0.0, 0.0, 0.0, 0.0, 1.6444917872271185E9, 0.0, 2022-02-10 22:16:27.227
94.0, -6642.670231183795, -4519.098045718437, -6099.858117086664, -11754.983574746082, -2025.5821377732918, 3.509223879483209, -3557.615406228949, -2995.849012833716, -15215.503003061176, -6571.323462882455, -4979.633388475584, -4152.998823284963, -69.22335257808598, -1912.61642129617, -5497.076272615943, -6944.70935400836, 0.00528125, 0.06473437500000001, 0.98125, 192.0, 0.0, 0.0, 0.0, 0.0, 0.0, 0.0, 0.0, 0.0, 0.0, 1.6444917872271252E9, 0.0, 2022-02-10 22:16:27.227
96.0, -6669.067641385513, -4552.960938568227, -6117.583050439722, -11771.546217387464, -2060.987300990498, -11.175872227653532, -3587.7232060102474, -3007.5836786727523, -15220.77801475263, -6584.935675255737, -4994.676112494006, -4165.247579246471, -93.47499531209414, -1929.424933126561, -5501.99365639611, -6948.978537199323, 0.002, 0.07, 0.976, 192.0, 0.0, 8.0, 1.0, 24.0, 15.0, 64.0, 0.0, 0.0, 0.0, 1.6444917872271316E9, 0.0, 2022-02-10 22:16:27.227
98.0, -6658.539969747063, -4549.563473411021, -6109.648181158088, -11758.828074792395, -2067.0446237378865, -1.363456411773731, -3588.4831653217275, -3016.3232107547774, -15228.77993926763, -6598.704349840206, -5006.030798677301, -4175.529381695912, -113.97154497761072, -1928.7543807929017, -5512.163700123275, -6953.247720390287, 0.002, 0.07, 0.976, 192.0, 0.0, 0.0, 0.0, 0.0, 0.0, 0.0, 0.0, 0.0, 0.0, 1.6444917872271383E9, 0.0, 2022-02-10 22:16:27.227
100.0, -6657.198865079745, -4556.716031636719, -6120.667591174554, -11763.56664461692, -2090.4021966936825, -3.7774448129468934, -3599.5249270826494, -2993.2562104769004, -15223.81785199855, -6588.042567735025, -5013.228060391911, -4164.7558408684545, -128.32136491791783, -1921.0430289558208, -5504.161775608275, -6940.618984773038, 0.002, 0.07, 0.976, 192.0, 0.0, 0.0, 0.0, 0.0, 0.0, 0.0, 0.0, 0.0, 0.0, 1.6444917872271464E9, 0.0, 2022-02-10 22:16:27.227
102.0, -6693.408691097342, -4574.373909756411, -6129.764751167864, -11772.3285284434, -2114.407970238682, -12.18170072814235, -3596.8874212369233, -3010.5788124297637, -15251.601070356497, -6605.387521432343, -5044.7663718183485, -4186.6381986902, -164.0171008130432, -1930.1625406935862, -5516.835214714434, -6949.0902959216, 0.002, 0.07, 0.976, 192.0, 0.0, 0.0, 0.0, 0.0, 0.0, 0.0, 0.0, 0.0, 0.0, 1.6444917872271528E9, 0.0, 2022-02-10 22:16:27.227
104.0, -6696.694397532273, -4573.5915987004755, -6115.571393438744, -11751.13907469977, -2117.604269695791, -15.601517629804329, -3604.151738184898, -3005.5049664384087, -15247.734218565729, -6603.085291753447, -5050.264900954354, -4172.288378749893, -172.8013363839789, -1941.7183925769798, -5503.759444208079, -6938.920252194435, 0.002, 0.07, 0.976, 192.0, 0.0, 0.0, 0.0, 0.0, 0.0, 0.0, 0.0, 0.0, 0.0, 1.6444917872271595E9, 0.0, 2022-02-10 22:16:27.227
106.0, -6712.787653540094, -4595.920991411328, -6135.106818092682, -11764.37130741731, -2162.553627795414, -36.545102184427044, -3622.368409915973, -3021.1064840682134, -15254.842073302518, -6612.517727913586, -5065.307624972776, -4180.044434075884, -204.7419792106127, -1956.135267750653, -5514.912964691278, -6942.585938285106, -0.004, 0.068, 0.98, 192.0, 127.5, 112.0, 1.0, 16.0, 15.0, 80.0, 0.0, 0.0, 0.0, 1.644491787227166E9, 0.0, 2022-02-10 22:16:27.227
108.0, -6711.245383172677, -4594.356369299456, -6129.362419767669, -11757.285804424979, -2166.9122179641986, -38.86968360777898, -3617.249860435708, -3024.0792660807692, -15266.621442630463, -6626.956954831714, -5081.982026336435, -4193.6342947047115, -230.91587196777726, -1969.8145353573009, -5517.371656581361, -6947.548025554183, -0.004, 0.068, 0.98, 192.0, 0.0, 0.0, 0.0, 0.0, 0.0, 0.0, 0.0, 0.0, 0.0, 1.6444917872271729E9, 0.0, 2022-02-10 22:16:27.227
110.0, -6714.687551818794, -4608.192099117291, -6140.381829784135, -11759.65508933724, -2191.8120612874104, -57.9357216281559, -3651.403325963417, -3039.4796180104754, -15264.654489118397, -6620.094969283935, -5091.302703774298, -4185.92294286763, -244.5951395744252, -1969.5016109349265, -5514.309467590984, -6938.920252194435, -0.004, 0.068, 0.98, 192.0, 0.0, 0.0, 0.0, 0.0, 0.0, 0.0, 0.0, 0.0, 0.0, 1.6444917872271793E9, 0.0, 2022-02-10 22:16:27.227
112.0, -6733.485368905708, -4621.53609055711, -6147.623794987655, -11766.025336507004, -2223.372724458304, -62.49547749703855, -3673.7997739076345, -3051.214283849512, -15284.011099816693, -6644.145446317845, -5123.310401834297, -4203.558469242867, -276.58048588996957, -1996.0554833478313, -5537.689392291235, -6956.220502402843, -0.004, 0.068, 0.98, 192.0, 0.0, 0.0, 0.0, 0.0, 0.0, 0.0, 0.0, 0.0, 0.0, 1.644491787227186E9, 0.0, 2022-02-10 22:16:27.227
114.0, -6729.909089792859, -4616.506948054665, -6139.152483839093, -11754.111856712325, -2230.324116983905, -50.55964595790458, -3665.0378900811543, -3048.755591959428, -15275.964471812782, -6633.036629323558, -5124.562099523795, -4193.187259815605, -285.0741487829863, -1985.5278117093817, -5529.553357309504, -6943.23413887431, -0.004, 0.068, 0.98, 192.0, 0.0, 0.0, 0.0, 0.0, 0.0, 0.0, 0.0, 0.0, 0.0, 1.6444917872271924E9, 0.0, 2022-02-10 22:16:27.227
116.0, -6762.699098908794, -4651.822704294051, -6162.063021905783, -11775.837752322883, -2271.8760099263204, -76.71118697061384, -3691.6811694718804, -3067.888685213171, -15292.59416968753, -6647.587614963963, -5150.7136405365045, -4210.241640835005, -312.9914776076648, -1992.4121490016162, -5538.605813813903, -6947.749191254282, -0.002, 0.066, 0.976, 192.0, 127.5, 120.0, 1.0, 8.0, 15.0, 64.0, 0.0, 0.0, 0.0, 1.6444917872271993E9, 0.0, 2022-02-10 22:16:27.227
118.0, -6753.780752871126, -4645.921843757849, -6158.017356159372, -11760.392696904266, -2282.448385053681, -71.59263749034852, -3695.0339311401763, -3058.9032839421375, -15306.072271594081, -6665.513714017119, -5169.824382045792, -4219.74113222851, -352.7328792492008, -2022.1399691271747, -5548.999374985621, -6954.119438424044, -0.002, 0.066, 0.976, 192.0, 0.0, 0.0, 0.0, 0.0, 0.0, 0.0, 0.0, 0.0, 0.0, 1.644491787227206E9, 0.0, 2022-02-10 22:16:27.227
120.0, -6767.080040822035, -4661.702175343296, -6166.578074285755, -11761.487932382577, -2309.9410307337084, -87.23885860906347, -3713.5188238047153, -3058.6797664975843, -15302.317178525589, -6660.08224011448, -5179.435632161574, -4211.493338524501, -361.94179796478727, -2023.0787423942975, -5541.086857448442, -6941.043667917689, -0.002, 0.066, 0.976, 192.0, 0.0, 0.0, 0.0, 0.0, 0.0, 0.0, 0.0, 0.0, 0.0, 1.6444917877068076E9, 0.0, 2022-02-10 22:16:27.706
122.0, -6779.775831672649, -4674.442669682821, -6184.012434960894, -11764.147789972758, -2346.4861329181354, -88.73642548756904, -3730.0367629571874, -3050.9013594271373, -15329.116920127502, -6680.981121180192, -5218.528833213906, -4234.828559735842, -405.3712374414489, -2040.133123413697, -5562.05279374752, -6952.621871545538, -0.002, 0.066, 0.976, 192.0, 0.0, 0.0, 0.0, 0.0, 0.0, 0.0, 0.0, 0.0, 0.0, 1.6444917877069762E9, 0.0, 2022-02-10 22:16:27.706
124.0, -6780.1334595839335, -4669.458230669288, -6170.377870843157, -11750.043839221458, -2355.1586097667946, -77.98523640456634, -3735.401181626461, -3053.9635484175146, -15319.863297923006, -6668.262978585122, -5221.546318715372, -4219.02587640594, -413.6860863788231, -2027.0126494184317, -5554.676718077269, -6940.484874306307, -0.002, 0.066, 0.976, 192.0, 0.0, 0.0, 0.0, 0.0, 0.0, 0.0, 0.0, 0.0, 0.0, 1.6444917877069836E9, 0.0, 2022-02-10 22:16:27.706
126.0, -6811.336494843543, -4697.532021705154, -6191.768490286886, -11772.23912146558, -2399.280953321571, -103.30976287242925, -3753.9307777799104, -3070.9508742035478, -15333.453158551833, -6679.550609535052, -5243.495731770484, -4233.398048090702, -439.9046826248983, -2037.8755972237109, -5558.677680334768, -6943.502359807773, 0.002, 0.07, 0.978, 192.0, 0.0, 8.0, 1.0, 24.0, 15.0, 72.0, 0.0, 0.0, 0.0, 1.6444917877069905E9, 0.0, 2022-02-10 22:16:27.706
128.0, -6798.596000504017, -4704.304600275112, -6181.039652948339, -11760.683269582185, -2406.1876423582607, -98.48178607008292, -3741.5032078627596, -3071.5543713038414, -15350.440484337865, -6699.622476055918, -5259.454877311573, -4249.826580265353, -465.96681665978633, -2054.3041293983615, -5567.596026372436, -6949.917310466446, 0.002, 0.07, 0.978, 192.0, 0.0, 0.0, 0.0, 0.0, 0.0, 0.0, 0.0, 0.0, 0.0, 1.6444917877069972E9, 0.0, 2022-02-10 22:16:27.706
130.0, -6819.874861225469, -4720.375504538477, -6190.22621991947, -11760.862083537828, -2433.4791223381903, -113.79273102196825, -3763.407917428961, -3083.4454993540644, -15341.186862133369, -6694.101595175457, -5269.513162316462, -4247.8149232643755, -480.92013370038677, -2060.74143180149, -5557.738907067645, -6939.367287083542, 0.002, 0.07, 0.978, 192.0, 0.0, 0.0, 0.0, 0.0, 0.0, 0.0, 0.0, 0.0, 0.0, 1.644491787707004E9, 0.0, 2022-02-10 22:16:27.707
132.0, -6825.596907806028, -4734.613565756508, -6210.253382951425, -11769.176932475202, -2467.29731169907, -119.78299853599054, -3786.8996008514887, -3091.246258168967, -15358.174187919401, -6716.766264053138, -5297.676360330148, -4271.79834506492, -519.3874859079702, -2084.03194952392, -5579.822430589489, -6954.320604124142, 0.002, 0.07, 0.978, 192.0, 0.0, 0.0, 0.0, 0.0, 0.0, 0.0, 0.0, 0.0, 0.0, 1.6444917877070167E9, 0.0, 2022-02-10 22:16:27.707
134.0, -6838.940899245847, -4732.467798288799, -6196.171783944582, -11756.972880002604, -2467.9678640327293, -120.96764099212183, -3780.9987403152873, -3095.4483861265644, -15357.503635585743, -6714.441682629787, -5309.09810174681, -4265.651615339711, -527.1435412339617, -2078.7122343435567, -5572.714575852701, -6945.178740641921, 0.002, 0.07, 0.978, 192.0, 0.0, 0.0, 0.0, 0.0, 0.0, 0.0, 0.0, 0.0, 0.0, 1.6444917877070236E9, 0.0, 2022-02-10 22:16:27.707
136.0, -6856.531722132173, -4758.865208490516, -6218.657638866621, -11776.150676745257, -2511.710227931765, -141.68770810219146, -3806.3232667831503, -3112.8603950572488, -15366.667850812419, -6720.051970488068, -5330.645183401726, -4271.954807276107, -552.4010124684587, -2095.476042685037, -5580.694148623246, -6953.247720390287, 0.004, 0.074, 0.976, 192.0, 0.0, 16.0, 1.0, 40.0, 15.0, 64.0, 0.0, 0.0, 0.0, 1.6444917877070303E9, 0.0, 2022-02-10 22:16:27.707
138.0, -6843.143027203444, -4749.522179308197, -6213.494385897445, -11767.008813263037, -2528.943422906807, -129.64011784078096, -3808.1784615729407, -3097.169470449623, -15382.537589375686, -6732.613650871951, -5354.896826135734, -4285.455260927112, -588.5437832526902, -2110.094083558808, -5592.138241784363, -6958.053345448178, 0.004, 0.074, 0.976, 192.0, 0.0, 0.0, 0.0, 0.0, 0.0, 0.0, 0.0, 0.0, 0.0, 1.6444917877070372E9, 0.0, 2022-02-10 22:16:27.707
140.0, -6855.905873287425, -4762.933225981382, -6222.345676701746, -11767.858179552339, -2555.944330208818, -144.23580697009646, -3824.428179791949, -3118.850662571271, -15377.575502106609, -6728.858557803459, -5357.511980237005, -4272.044214253929, -595.2716583337377, -2088.055263525875, -5583.465764935704, -6943.0776766631225, 0.004, 0.074, 0.976, 192.0, 0.0, 0.0, 0.0, 0.0, 0.0, 0.0, 0.0, 0.0, 0.0, 1.644491787707044E9, 0.0, 2022-02-10 22:16:27.707
142.0, -6873.899027573947, -4782.982740757792, -6236.427275708589, -11772.23912146558, -2590.3660166699906, -164.5311909355153, -3850.0879824266417, -3134.3851249677095, -15399.055528528159, -6748.684555135317, -5394.817041732913, -4289.746795862531, -630.2074349173827, -2130.5012262465034, -5606.0410268355645, -6960.75790652727, 0.004, 0.074, 0.976, 192.0, 0.0, 0.0, 0.0, 0.0, 0.0, 0.0, 0.0, 0.0, 0.0, 1.6444917877070508E9, 0.0, 2022-02-10 22:16:27.707
144.0, -6879.129335776489, -4780.658159334441, -6222.546842401844, -11755.296499168457, -2597.5632783845995, -151.72364136262433, -3853.105467928108, -3108.233583955, -15396.57448489362, -6748.483389435219, -5389.653788763737, -4288.651560384222, -647.5523886147009, -2131.618813469269, -5597.569715687003, -6947.749191254282, 0.004, 0.074, 0.976, 192.0, 0.0, 0.0, 0.0, 0.0, 0.0, 0.0, 0.0, 0.0, 0.0, 1.6444917877070575E9, 0.0, 2022-02-10 22:16:27.707
146.0, -6903.090405832578, -4806.47442418032, -6248.810142136829, -11775.234255222591, -2640.389220760968, -174.41066198476102, -3885.3143316882056, -3140.62126167074, -15408.398557710476, -6761.67091866385, -5419.716885056125, -4305.750644892531, -673.4580604384018, -2141.6547467297014, -5606.9798001026875, -6952.845388990091, -0.004, 0.074, 0.978, 192.0, 127.5, 112.0, 1.0, 40.0, 15.0, 72.0, 0.0, 0.0, 0.0, 1.6444917877070642E9, 0.0, 2022-02-10 22:16:27.707
148.0, -6890.796946382159, -4800.99824678877, -6246.977299091494, -11768.416973163721, -2651.4980377552556, -167.52632469252643, -3877.9159042734987, -3121.108188761257, -15422.413101483955, -6779.887590394926, -5447.008365036055, -4313.596107196344, -700.8612991406083, -2156.6527672592124, -5614.154710072841, -6958.2768628927315, -0.004, 0.074, 0.978, 192.0, 0.0, 0.0, 0.0, 0.0, 0.0, 0.0, 0.0, 0.0, 0.0, 1.6444917877070713E9, 0.0, 2022-02-10 22:16:27.707
150.0, -6909.639466957983, -4819.460787708854, -6255.850941640251, -11773.624929621808, -2685.964427705339, -181.0267783435319, -3904.0003900528422, -3131.300584232877, -15419.61913342704, -6777.4288985048415, -5446.606033635859, -4308.410502482713, -715.836967925664, -2145.990985154031, -5601.838898877967, -6947.548025554183, -0.004, 0.074, 0.978, 192.0, 0.0, 0.0, 0.0, 0.0, 0.0, 0.0, 0.0, 0.0, 0.0, 1.644491787707078E9, 0.0, 2022-02-10 22:16:27.707
152.0, -6946.18456914241, -4842.013697864259, -6273.486468015489, -11774.206074977646, -2723.6271171125313, -198.01410412956525, -3919.9818873383865, -3151.6630234316617, -15449.525767508241, -6805.860317451992, -5483.374653264839, -4330.337563793369, -759.2440556578703, -2188.86163101931, -5627.610460234936, -6965.138848440511, -0.004, 0.074, 0.978, 192.0, 0.0, 0.0, 0.0, 0.0, 0.0, 0.0, 0.0, 0.0, 0.0, 1.644491787707085E9, 0.0, 2022-02-10 22:16:27.707
154.0, -6927.766731711237, -4830.413142491954, -6260.790677164874, -11757.285804424979, -2727.449265414389, -189.05105460298714, -3921.032419327786, -3145.1810175396226, -15445.72597095084, -6803.245163350722, -5491.08600510192, -4324.391999768258, -765.0108057273395, -2186.604104829324, -5618.736817686179, -6953.001851201278, -0.004, 0.07300000000000001, 0.978, 192.0, 127.5, 112.0, 1.0, 32.0, 15.0, 72.0, 0.0, 0.0, 0.0, 1.6444917877070916E9, 0.0, 2022-02-10 22:16:27.707
156.0, -6953.04655469019, -4853.457791025376, -6286.450479799567, -11774.340185444378, -2768.0176816007715, -208.5417757680149, -3944.2111783279397, -3157.9885671125135, -15454.15257861049, -6808.229602364255, -5517.058732158987, -4334.025601628495, -786.6472943600768, -2187.922857752187, -5628.929213157799, -6954.991156457801, -0.004, 0.07300000000000001, 0.978, 192.0, 0.0, 0.0, 0.0, 0.0, 0.0, 0.0, 0.0, 0.0, 0.0, 1.6444917877070985E9, 0.0, 2022-02-10 22:16:27.707
158.0, -6920.3012490631645, -4836.917500128448, -6275.252255827458, -11759.543330614964, -2771.638664202531, -203.66909547675795, -3948.748582452367, -3161.1625148251674, -15463.741476981817, -6808.319009342076, -5533.174339911264, -4340.4405522871675, -821.8512918771854, -2196.1035962228293, -5637.244062095173, -6960.713203038359, -0.004, 0.07300000000000001, 0.978, 192.0, 0.0, 0.0, 0.0, 0.0, 0.0, 0.0, 0.0, 0.0, 0.0, 1.644491787707105E9, 0.0, 2022-02-10 22:16:27.707
160.0, -6965.094144951599, -4877.776488992749, -6281.041357641382, -11766.539426629475, -2793.386911557545, -220.8575869628891, -3961.3773180696153, -3176.0487766324018, -15453.236157087822, -6808.676637253361, -5529.978040454154, -4336.149017351749, -823.9970593448949, -2198.8752125352876, -5626.090541611975, -6952.688926778905, -0.004, 0.07300000000000001, 0.978, 192.0, 0.0, 0.0, 0.0, 0.0, 0.0, 0.0, 0.0, 0.0, 0.0, 1.6444917877071116E9, 0.0, 2022-02-10 22:16:27.707
162.0, -6976.76175555727, -4895.6131810680845, -6303.169584652136, -11775.167199989224, -2829.194406174947, -234.60390980290293, -3984.6231323031348, -3191.0467971619128, -15488.797782516216, -6847.9263005168805, -5576.693186365746, -4371.710642780143, -868.8570104666961, -2230.9723175731087, -5645.916538943832, -6968.0445752197, -0.004, 0.07300000000000001, 0.978, 192.0, 0.0, 0.0, 0.0, 0.0, 0.0, 0.0, 0.0, 0.0, 0.0, 1.6444917877071185E9, 0.0, 2022-02-10 22:16:27.707
164.0, -6978.169915457955, -4910.007704497302, -6296.53111654891, -11767.23233070759, -2837.9115865125164, -224.29975560900638, -3983.483193335914, -3166.303416049888, -15484.930930725448, -6848.418038894897, -5591.311227239517, -4371.285959635492, -877.5294873153553, -2218.3882854447706, -5640.149788874363, -6956.131095425021, -0.001, 0.07050000000000001, 0.977, 192.0, 0.0, 8.0, 1.0, 16.0, 15.0, 64.0, 0.0, 0.0, 0.0, 1.644491787707127E9, 0.0, 2022-02-10 22:16:27.707
166.0, -7016.972543832368, -4935.131065265067, -6324.113169206759, -11782.453868681654, -2888.4265289815103, -254.20638969020723, -4016.6308303631345, -3201.2168408890775, -15499.951302999414, -6867.5287804041845, -5609.304381526039, -4384.317026652936, -906.6091068517097, -2249.3678032598264, -5650.230425623707, -6957.494551836795, -0.001, 0.07050000000000001, 0.977, 192.0, 0.0, 0.0, 0.0, 0.0, 0.0, 0.0, 0.0, 0.0, 0.0, 1.644491787707134E9, 0.0, 2022-02-10 22:16:27.707
168.0, -7016.950192087912, -4941.724829879383, -6316.4688726030445, -11770.987423776081, -2904.9668198784375, -251.70299431121282, -4017.9942867749082, -3200.1886606441335, -15516.379835174064, -6890.059338815134, -5633.556024260048, -4398.622143104332, -935.5993194102431, -2271.987768648597, -5666.390736864893, -6969.810363031669, -0.001, 0.07050000000000001, 0.977, 192.0, 0.0, 0.0, 0.0, 0.0, 0.0, 0.0, 0.0, 0.0, 0.0, 1.6444917877071407E9, 0.0, 2022-02-10 22:16:27.707
170.0, -7021.308782256697, -4941.9259955794805, -6316.893555747695, -11767.098220240858, -2934.4264190705326, -263.77293631707863, -4046.0233743218632, -3216.34897188532, -15511.149526971523, -6882.996187567257, -5635.008887649642, -4394.643532591287, -949.4797527169887, -2263.11412609984, -5657.584149549502, -6957.114572181055, -0.001, 0.07050000000000001, 0.977, 192.0, 0.0, 0.0, 0.0, 0.0, 0.0, 0.0, 0.0, 0.0, 0.0, 1.6444917877071474E9, 0.0, 2022-02-10 22:16:27.707
172.0, -7035.189215563442, -4962.556655711729, -6341.525178137444, -11778.519961657521, -2967.931684009038, -280.24617198063993, -4060.775525662366, -3241.2935186974432, -15531.623724892585, -6899.22355404181, -5668.31298688805, -4408.836890320407, -987.6565322466532, -2287.5445827894905, -5684.786222551611, -6973.923084011446, -0.001, 0.07050000000000001, 0.977, 192.0, 0.0, 0.0, 0.0, 0.0, 0.0, 0.0, 0.0, 0.0, 0.0, 1.644491787707154E9, 0.0, 2022-02-10 22:16:27.707
174.0, -7018.380703733052, -4950.129085794579, -6322.995581983993, -11764.594824861864, -2962.8801897621383, -267.0586427520088, -4047.7891621338326, -3210.6269253047617, -15523.39828293303, -6895.870792373514, -5670.0787747000195, -4404.813576318452, -990.919886937128, -2280.6378937528007, -5671.1963619227845, -6963.462467606362, 5.0E-4, 0.06725, 0.9784999999999999, 192.0, 0.0, 8.0, 1.0, 0.0, 15.0, 80.0, 0.0, 0.0, 0.0, 1.6444917877071612E9, 0.0, 2022-02-10 22:16:27.707
176.0, -7035.256270796808, -4967.719908680905, -6348.007184029482, -11779.481086669099, -3010.534108940853, -293.54545993154767, -4083.3060840733156, -3230.6317365922614, -15528.494480668842, -6901.816356398625, -5691.514097632658, -4412.189651988703, -1010.8799947357172, -2300.240373640105, -5673.386832879404, -6962.814267017158, 5.0E-4, 0.06725, 0.9784999999999999, 192.0, 0.0, 0.0, 0.0, 0.0, 0.0, 0.0, 0.0, 0.0, 0.0, 1.644491787707168E9, 0.0, 2022-02-10 22:16:27.707
178.0, -7042.4535325114175, -4969.463344748419, -6344.185035727624, -11772.552045887953, -3024.1686730585902, -282.9283813152768, -4081.897924172631, -3209.129358426256, -15548.275774511789, -6921.105911863556, -5727.187481783329, -4427.2547277515805, -1045.3463846858008, -2317.7641412930657, -5690.463565643259, -6970.346804898597, 5.0E-4, 0.06725, 0.9784999999999999, 192.0, 0.0, 0.0, 0.0, 0.0, 0.0, 0.0, 0.0, 0.0, 0.0, 1.6444917877071745E9, 0.0, 2022-02-10 22:16:27.707
180.0, -7066.012271167311, -4980.594513487162, -6341.569881626354, -11766.293557440467, -3048.956757659526, -289.29862848503933, -4117.7948257678545, -3224.0156202334906, -15544.185405276467, -6913.908650148946, -5721.666600902868, -4418.917527069751, -1042.0383265064152, -2301.894402729798, -5676.896056758887, -6954.477066335329, 5.0E-4, 0.06725, 0.9784999999999999, 192.0, 0.0, 0.0, 0.0, 0.0, 0.0, 0.0, 0.0, 0.0, 0.0, 1.6444917877071815E9, 0.0, 2022-02-10 22:16:27.707
182.0, -7076.003500938833, -5010.769368501827, -6364.6592336486865, -11778.38585119079, -3084.5854383212854, -308.99051535016486, -4112.564517565313, -3245.9203297996914, -15566.64890845405, -6931.9241561799245, -5754.344851296527, -4444.197350048703, -1076.3482542453116, -2336.0702200019623, -5699.6054291254795, -6969.944473498402, 5.0E-4, 0.06725, 0.9784999999999999, 192.0, 0.0, 0.0, 0.0, 0.0, 0.0, 0.0, 0.0, 0.0, 0.0, 1.6444917877071884E9, 0.0, 2022-02-10 22:16:27.707
184.0, -7056.691593729448, -4988.238810090877, -6352.2763672204455, -11761.42087714921, -3087.178240678101, -297.4570152112264, -4117.012514711919, -3248.4237251786863, -15562.89381538556, -6939.3225835946305, -5765.2301508462615, -4444.443219237712, -1097.6271149667639, -2322.5474146065017, -5694.375120922938, -6961.942548983401, 5.0E-4, 0.06725, 0.9784999999999999, 192.0, 0.0, 0.0, 1.0, 0.0, 15.0, 88.0, 0.0, 0.0, 0.0, 1.6444917877071953E9, 0.0, 2022-02-10 22:16:27.707
186.0, -7086.620579555104, -5014.904441226058, -6376.706823910096, -11776.061269767437, -3127.880767331215, -325.2402335691731, -4149.824875572309, -3260.225446251088, -15568.213530565923, -6942.049496418178, -5776.361319585004, -4441.805713391986, -1113.0945221298364, -2340.8087898264876, -5704.209888483273, -6965.451772862884, 5.0E-4, 0.06725, 0.9784999999999999, 192.0, 0.0, 0.0, 0.0, 0.0, 0.0, 0.0, 0.0, 0.0, 0.0, 1.644491787707202E9, 0.0, 2022-02-10 22:16:27.707
188.0, -7086.866448744113, -5015.977324959913, -6375.298664009412, -11771.345051687367, -3142.118828549246, -322.0886376009748, -4150.24955871696, -3266.6403969097614, -15586.385498808088, -6955.549950069184, -5808.190203689362, -4461.810524679485, -1150.198417925646, -2369.03904307354, -5719.61024041298, -6975.2418369343095, 5.0E-4, 0.06725, 0.9784999999999999, 192.0, 0.0, 0.0, 0.0, 0.0, 0.0, 0.0, 0.0, 0.0, 0.0, 1.6444917877072089E9, 0.0, 2022-02-10 22:16:27.707
190.0, -7084.944198720957, -5022.816958763237, -6383.769975157974, -11767.545255129964, -3165.3422910383097, -333.39862029536016, -4178.300998008371, -3278.196248793155, -15576.058992869735, -6954.633528546516, -5798.735415784767, -4451.863998396873, -1156.0322232284814, -2347.469609674169, -5709.998990297197, -6964.71416529586, 5.0E-4, 0.06725, 0.9784999999999999, 192.0, 0.0, 0.0, 0.0, 0.0, 0.0, 0.0, 0.0, 0.0, 0.0, 1.6444917877072155E9, 0.0, 2022-02-10 22:16:27.707
192.0, -7116.326047936207, -5048.655575353572, -6405.3394085573445, -11779.883418069294, -3204.4131403461865, -353.1352106493963, -4196.11533833925, -3286.2428767970655, -15602.478754815907, -6978.505191624784, -5839.773218604711, -4476.629731253353, -1178.6074851283415, -2368.4802494621576, -5729.042676573119, -6978.840467791613, 5.0E-4, 0.06725, 0.9784999999999999, 192.0, 0.0, 0.0, 0.0, 0.0, 0.0, 0.0, 0.0, 0.0, 0.0, 1.6444917877072222E9, 0.0, 2022-02-10 22:16:27.707
194.0, -7112.995638012367, -5045.123999729633, -6392.59891421782, -11770.026298764504, -3210.716332282583, -348.240178613684, -4194.684826694111, -3274.999949336046, -15607.75376650736, -6980.986235259323, -5855.330032745604, -4477.166173120281, -1198.6122964158412, -2371.631845430356, -5725.153473037895, -6971.039708976711, 5.0E-4, 0.06725, 0.9784999999999999, 192.0, 0.0, 0.0, 1.0, 0.0, 15.0, 88.0, 0.0, 0.0, 0.0, 1.644491787707229E9, 0.0, 2022-02-10 22:16:27.707
196.0, -7131.055847532255, -5071.47670644244, -6415.375341817778, -11787.125383272814, -3256.8726845827923, -365.31691137753864, -4227.184263132127, -3291.0261501105015, -15619.935467235502, -6993.994950532312, -5873.502000987769, -4489.012597681594, -1224.9873548731036, -2383.4559182472135, -5734.094170820019, -6974.079546222633, 5.0E-4, 0.06725, 0.9784999999999999, 192.0, 0.0, 0.0, 0.0, 0.0, 0.0, 0.0, 0.0, 0.0, 0.0, 1.6444917877072375E9, 0.0, 2022-02-10 22:16:27.707
198.0, -7118.337704937185, -5056.389278935108, -6405.719388213085, -11773.803743577451, -3260.8289433513814, -351.2800158596058, -4230.358210844781, -3290.6685221992166, -15625.94808649398, -7004.567325659672, -5899.765300722755, -4499.719083275686, -1253.1282011423352, -2389.6697032057887, -5744.107752335996, -6979.689834080915, 5.0E-4, 0.06725, 0.9784999999999999, 192.0, 0.0, 0.0, 0.0, 0.0, 0.0, 0.0, 0.0, 0.0, 0.0, 1.644491787707244E9, 0.0, 2022-02-10 22:16:27.707
200.0, -7141.337649981696, -5070.515581430863, -6408.513356269998, -11769.914540042228, -3281.0572720834343, -364.5569520660582, -4233.554510301889, -3301.0173798820238, -15616.403891611564, -6991.178630730943, -5892.16570760795, -4483.089385400937, -1252.7929249755055, -2381.980703113163, -5725.175824782351, -6960.3332233826195, 5.0E-4, 0.06725, 0.9784999999999999, 192.0, 0.0, 0.0, 0.0, 0.0, 0.0, 0.0, 0.0, 0.0, 0.0, 1.6444917877072508E9, 0.0, 2022-02-10 22:16:27.707
202.0, -7150.993603586388, -5090.587447951728, -6430.730990258574, -11776.687118612184, -3318.94347893518, -382.9747894972312, -4242.897539484208, -3306.22533634011, -15649.99856352789, -7020.302953756208, -5931.393019127014, -4515.119435205393, -1293.584858606441, -2422.884395466375, -5743.034868602142, -6976.0464997347, 5.0E-4, 0.06725, 0.9784999999999999, 192.0, 0.0, 0.0, 0.0, 0.0, 0.0, 0.0, 0.0, 0.0, 0.0, 1.6444917877072575E9, 0.0, 2022-02-10 22:16:27.707
204.0, -7139.9518418254665, -5081.691453658516, -6418.571641274887, -11762.091429482869, -3313.377894565808, -363.4393648432928, -4230.447617822601, -3281.101975572345, -15646.109359992668, -7020.749988645314, -5932.55530983869, -4510.157347936314, -1299.843347053927, -2422.9738024441963, -5732.842473130521, -6961.808438516669, -7.5E-4, 0.065625, 0.97925, 192.0, 127.5, 120.0, 1.0, 0.0, 15.0, 80.0, 0.0, 0.0, 0.0, 1.6444917877072644E9, 0.0, 2022-02-10 22:16:27.707
206.0, -7169.545551484293, -5101.651561457105, -6441.571586319397, -11783.079717526403, -3355.645043330794, -389.3003331780831, -4265.048118239417, -3308.460510785641, -15649.596232127695, -7024.974468347367, -5949.632042602545, -4521.355571908423, -1317.5682804069854, -2418.078770408484, -5734.228281286751, -6958.790953015203, -7.5E-4, 0.065625, 0.97925, 192.0, 0.0, 0.0, 0.0, 0.0, 0.0, 0.0, 0.0, 0.0, 0.0, 1.644491787707271E9, 0.0, 2022-02-10 22:16:27.707
208.0, -7174.5299904978265, -5105.786634181337, -6439.470522340599, -11777.76000234604, -3372.7217760946487, -386.6851790768122, -4284.449432426623, -3306.3817985512974, -15665.555377668785, -7048.801427936724, -5971.13442076855, -4537.448827916244, -1348.324280777488, -2434.484950838679, -5753.47313326277, -6971.553799099183, -7.5E-4, 0.065625, 0.97925, 192.0, 0.0, 0.0, 0.0, 0.0, 0.0, 0.0, 0.0, 0.0, 0.0, 1.644491787707278E9, 0.0, 2022-02-10 22:16:27.707
210.0, -7184.878848180634, -5117.7895209538365, -6444.387906120766, -11781.291577969978, -3393.6653606492714, -397.1681472263512, -4276.000473022517, -3303.2749060720093, -15664.773066612848, -7042.609994722605, -5978.912827838997, -4532.307926691524, -1351.4982284901416, -2427.7794275020874, -5740.240900545228, -6958.410973359463, -7.5E-4, 0.065625, 0.97925, 192.0, 0.0, 0.0, 0.0, 0.0, 0.0, 0.0, 0.0, 0.0, 0.0, 1.6444917877072847E9, 0.0, 2022-02-10 22:16:27.707
212.0, -7199.85451696569, -5136.341468851741, -6468.706604088141, -11782.655034381753, -3430.5680907449832, -408.05344677608576, -4312.120892062294, -3321.89390920328, -15686.118982567667, -7065.6993467449365, -6015.502633512335, -4555.352575224945, -1389.6526562753506, -2468.079622755006, -5762.056203133608, -6972.559627599672, -7.5E-4, 0.065625, 0.97925, 192.0, 0.0, 0.0, 0.0, 0.0, 0.0, 0.0, 0.0, 0.0, 0.0, 1.6444917877072914E9, 0.0, 2022-02-10 22:16:27.707
214.0, -7192.769013973358, -5128.406599570108, -6454.312080658923, -11762.76198181653, -3424.9130993977906, -405.3265339525383, -4298.709845389109, -3304.906583417247, -15690.34346226972, -7067.666300257004, -6021.649363237544, -4549.518769922111, -1398.7051127797502, -2457.037860994084, -5760.849208933021, -6960.959072227368, -7.5E-4, 0.065625, 0.97925, 192.0, 0.0, 0.0, 1.0, 8.0, 15.0, 96.0, 0.0, 0.0, 0.0, 1.6444917877072983E9, 0.0, 2022-02-10 22:16:27.707
216.0, -7220.149900931108, -5152.524131837384, -6475.523886147009, -11786.410127450245, -3461.189980648754, -426.3595254849822, -4328.974107381596, -3338.4342001002074, -15700.53585774134, -7077.858695728624, -6043.844645481664, -4565.030880574093, -1412.6526013198616, -2481.915352572841, -5763.687880478845, -6965.340014140608, -7.5E-4, 0.065625, 0.97925, 192.0, 0.0, 0.0, 0.0, 0.0, 0.0, 0.0, 0.0, 0.0, 0.0, 1.6444917877073047E9, 0.0, 2022-02-10 22:16:27.707
218.0, -7211.835051993734, -5148.813742257803, -6470.293577944467, -11781.917426814727, -3467.9849109631673, -425.688973151323, -4344.687383733676, -3339.2388629005986, -15713.276352080866, -7097.662341316026, -6062.217779423926, -4583.225200560713, -1437.0383545206016, -2478.5849426490004, -5780.630502775968, -6979.689834080915, -7.5E-4, 0.065625, 0.97925, 192.0, 0.0, 0.0, 0.0, 0.0, 0.0, 0.0, 0.0, 0.0, 0.0, 1.6444917877073116E9, 0.0, 2022-02-10 22:16:27.707
220.0, -7220.23930790893, -5151.719469036993, -6478.13904024828, -11778.028223279503, -3491.45424264124, -431.9251098543537, -4349.403601813746, -3327.0124586835454, -15696.512543739385, -7082.820782997702, -6057.00982296584, -4566.081412563492, -1440.704040611272, -2483.7705473626315, -5769.119354381484, -6968.893941509002, -7.5E-4, 0.065625, 0.97925, 192.0, 0.0, 0.0, 0.0, 0.0, 0.0, 0.0, 0.0, 0.0, 0.0, 1.6444917877073185E9, 0.0, 2022-02-10 22:16:27.707
222.0, -7229.694095813525, -5180.173239728599, -6502.793014382483, -11786.499534428065, -3533.117894305932, -449.7618019296887, -4375.018700959528, -3347.218435671143, -15732.1635761456, -7107.742978065369, -6096.147727507082, -4580.274770292613, -1478.9031718853919, -2505.787015651109, -5787.648950534935, -6976.806459046181, -7.5E-4, 0.065625, 0.97925, 192.0, 0.0, 0.0, 0.0, 0.0, 0.0, 0.0, 0.0, 0.0, 0.0, 1.6444917877073255E9, 0.0, 2022-02-10 22:16:27.707
224.0, -7239.3276976737625, -5179.994425772957, -6493.449985200165, -11760.884435282283, -3540.5386734650942, -440.8658076364765, -4382.394776629779, -3341.9434239796906, -15734.666971524593, -7113.174451968009, -6103.814375855252, -4589.349578541467, -1488.96145689028, -2505.854070884475, -5789.638255791457, -6968.133982197522, 0.002, 0.068, 0.982, 192.0, 0.0, 8.0, 1.0, 16.0, 15.0, 88.0, 0.0, 0.0, 0.0, 1.6444917877073321E9, 0.0, 2022-02-10 22:16:27.707
226.0, -7266.82034335379, -5204.782510373892, -6520.607354713364, -11781.224522736613, -3573.1945721142974, -470.0124824061969, -4392.29659942348, -3370.28543594902, -15751.1178554437, -7125.60202188516, -6120.958163852473, -4608.4603200507545, -1516.8117304815926, -2519.8909664024077, -5793.86273549351, -6967.105801952577, 0.002, 0.068, 0.982, 192.0, 0.0, 0.0, 0.0, 0.0, 0.0, 0.0, 0.0, 0.0, 0.0, 1.6444917877073388E9, 0.0, 2022-02-10 22:16:27.707
228.0, -7265.814514853301, -5200.625085905205, -6512.694837176185, -11780.889246569783, -3579.095432650499, -462.18937184683944, -4395.045863991483, -3370.419546415752, -15765.378268406186, -7146.612661673148, -6146.841483931718, -4627.928689471328, -1537.8670737584919, -2536.9676991662623, -5805.709160054822, -6978.862819536069, 0.002, 0.068, 0.982, 192.0, 0.0, 0.0, 0.0, 0.0, 0.0, 0.0, 0.0, 0.0, 0.0, 1.6444917877073472E9, 0.0, 2022-02-10 22:16:27.707
230.0, -7249.922424545578, -5199.418091704619, -6505.564630694942, -11785.091374527381, -3588.4608135772723, -460.4012322904149, -4409.596849631888, -3370.352491182386, -15751.944869988547, -7134.654478389559, -6142.102914107194, -4617.669238766342, -1545.9807569957684, -2516.6052599674777, -5792.745148270745, -6962.300176894686, 0.002, 0.068, 0.982, 192.0, 0.0, 0.0, 0.0, 0.0, 0.0, 0.0, 0.0, 0.0, 0.0, 1.644491787707354E9, 0.0, 2022-02-10 22:16:27.707
232.0, -7282.444212728049, -5218.372371002719, -6533.571366497442, -11794.635569409797, -3629.4539129083055, -486.7986424921325, -4433.155588287782, -3365.166886468755, -15763.746591060948, -7154.458123976961, -6173.015376688883, -4636.4000006198885, -1566.49965840574, -2555.1396674084267, -5812.079407224585, -6981.299159681697, 0.002, 0.068, 0.982, 192.0, 0.0, 0.0, 0.0, 0.0, 0.0, 0.0, 0.0, 0.0, 0.0, 1.6444917877073607E9, 0.0, 2022-02-10 22:16:27.707
234.0, -7281.013701082909, -5209.588135431783, -6522.931936136715, -11775.502476156054, -3630.929128042356, -476.203915620317, -4433.177940032237, -3355.1756566972326, -15777.582320878784, -7153.854626876668, -6184.437118105545, -4633.58368081852, -1578.0778620335893, -2563.2980541346137, -5809.821881034599, -6973.14077295551, 0.002, 0.068, 0.982, 192.0, 0.0, 0.0, 1.0, 16.0, 15.0, 96.0, 0.0, 0.0, 0.0, 1.644491787707368E9, 0.0, 2022-02-10 22:16:27.707
236.0, -7312.261439831429, -5238.421885779129, -6546.021288159048, -11784.152601260257, -3669.2176662942966, -498.71212228681117, -4459.083611855938, -3387.7645001130704, -15794.279073986898, -7157.833237389713, -6197.691702567542, -4624.82179699204, -1591.8241848736031, -2566.583760569544, -5813.5993258475455, -6970.480915365329, 0.002, 0.068, 0.982, 192.0, 0.0, 0.0, 0.0, 0.0, 0.0, 0.0, 0.0, 0.0, 0.0, 1.6444917877073753E9, 0.0, 2022-02-10 22:16:27.707
238.0, -7295.542334978859, -5234.599737477271, -6541.059200889969, -11770.80860982044, -3676.370224519995, -489.3467413600375, -4470.147725361315, -3381.483659921129, -15807.354844493253, -7178.061566121765, -6217.763569088408, -4651.152151960391, -1628.9280806694128, -2574.9209612513737, -5828.530291143691, -6977.342900913108, 0.002, 0.068, 0.982, 192.0, 0.0, 0.0, 0.0, 0.0, 0.0, 0.0, 0.0, 0.0, 0.0, 1.6444917877073824E9, 0.0, 2022-02-10 22:16:27.707
240.0, -7291.720186677002, -5238.310127056852, -6538.555805510975, -11774.340185444378, -3686.7637856917127, -486.28455236966045, -4482.240019111636, -3389.5973431584052, -15793.385004208685, -7166.013975860355, -6212.622667863688, -4642.479675111732, -1622.3566677995525, -2561.264045389181, -5818.740227072266, -6961.853142005581, 0.002, 0.068, 0.982, 192.0, 0.0, 0.0, 0.0, 0.0, 0.0, 0.0, 0.0, 0.0, 0.0, 1.6444917881862962E9, 0.0, 2022-02-10 22:16:28.186
242.0, -7308.260477573929, -5256.593854021294, -6558.0688784204585, -11792.109822286347, -3719.2855738741846, -501.975476977286, -4495.963990207194, -3377.840325574914, -15809.590018938783, -7184.945903414, -6238.885967598673, -4661.21043696528, -1651.369232102541, -2575.815031029586, -5834.475855168803, -6972.023185732745, 0.002, 0.068, 0.982, 192.0, 0.0, 0.0, 0.0, 0.0, 0.0, 0.0, 0.0, 0.0, 0.0, 1.644491788186498E9, 0.0, 2022-02-10 22:16:28.186
244.0, -7302.359617037728, -5235.784379933403, -6541.215663101157, -11770.629795864797, -3711.8647947150225, -491.5372123166576, -4482.865867956384, -3378.6002848863945, -15809.992350338978, -7184.878848180634, -6232.13574077317, -4655.711907829274, -1654.632586793016, -2587.460289890801, -5828.44088416587, -6967.306967652675, 0.002, 0.068, 0.982, 192.0, 0.0, 0.0, 1.0, 8.0, 15.0, 88.0, 0.0, 0.0, 0.0, 1.6444917881865067E9, 0.0, 2022-02-10 22:16:28.186
246.0, -7322.49853879196, -5262.51706630195, -6563.455648834187, -11784.800801849462, -3756.3894696699945, -514.4477503833474, -4520.617964341398, -3405.4447299772182, -15813.523925962918, -7190.869115694656, -6253.973395106005, -4661.053974754092, -1670.2788079117308, -2590.5001271367228, -5833.760599346233, -6968.2010374308875, 0.002, 0.068, 0.982, 192.0, 0.0, 0.0, 0.0, 0.0, 0.0, 0.0, 0.0, 0.0, 0.0, 1.6444917881865144E9, 0.0, 2022-02-10 22:16:28.186
248.0, -7328.757027239446, -5259.499580800483, -6566.808410502483, -11775.211903478135, -3760.0551557606645, -512.0784654710848, -4528.664592345309, -3419.77219817307, -15834.936897151101, -7206.761206002379, -6287.523363533422, -4674.465021427277, -1697.592639636116, -2606.079293022072, -5851.77610537721, -6982.752023071293, 0.002, 0.068, 0.982, 192.0, 0.0, 0.0, 0.0, 0.0, 0.0, 0.0, 0.0, 0.0, 0.0, 1.644491788186522E9, 0.0, 2022-02-10 22:16:28.186
250.0, -7345.78905651439, -5270.586046050316, -6573.066898949969, -11766.606481862842, -3777.5342199247148, -517.9346225183752, -4513.375999137878, -3393.0842152934333, -15833.953420395068, -7191.226743605941, -6285.019968154427, -4658.304710186089, -1694.977485534845, -2583.101699722016, -5839.773218604711, -6961.786086772214, 0.002, 0.068, 0.982, 192.0, 0.0, 0.0, 0.0, 0.0, 0.0, 0.0, 0.0, 0.0, 0.0, 1.644491788186529E9, 0.0, 2022-02-10 22:16:28.186
252.0, -7349.03005946041, -5287.595723580805, -6587.282608423545, -11781.291577969978, -3805.2727347937507, -530.8986343024534, -4542.94735705225, -3409.1104160678883, -15860.484941063518, -7217.244174151919, -6323.10734070627, -4686.713777388785, -1740.0386023567441, -2634.9800986027835, -5856.402916479459, -6971.978482243834, 0.002, 0.068, 0.982, 192.0, 0.0, 0.0, 0.0, 0.0, 0.0, 0.0, 0.0, 0.0, 0.0, 1.644491788186536E9, 0.0, 2022-02-10 22:16:28.186
254.0, -7338.010649443942, -5275.324615874841, -6567.367204113866, -11766.874702796305, -3802.6352289480246, -525.556567377635, -4544.891958819861, -3412.1055498248998, -15855.589909027805, -7224.866119011179, -6313.674904546131, -4683.249256998212, -1739.7703814232805, -2619.356229228524, -5856.604082179557, -6969.229217675832, -0.004, 0.07, 0.98, 192.0, 127.5, 112.0, 1.0, 24.0, 15.0, 80.0, 0.0, 0.0, 0.0, 1.6444917881865427E9, 0.0, 2022-02-10 22:16:28.186
0.0, -7351.153475183663, -5288.266275914464, -6586.3661869008765, -11782.990310548581, -3840.364973588583, -545.5166751762242, -4589.57309598602, -3442.8168467064916, -15854.673487505137, -7226.7660172898795, -6314.568974324343, -4687.943123333826, -1745.783000681758, -2623.290136252658, -5857.900483357965, -6973.945435755902, -0.004, 0.07, 0.98, 192.0, 0.0, 0.0, 0.0, 0.0, 0.0, 0.0, 0.0, 0.0, 0.0, 1.6444917881865509E9, 0.0, 2022-02-10 22:16:28.186
2.0, -7341.609280301247, -5286.701653802593, -6589.137803213335, -11781.403336692256, -3847.070496925175, -540.7557536072437, -4578.553685969554, -3426.030686620556, -15871.794923757903, -7241.071133741276, -6342.933338038128, -4705.668056686885, -1771.5322102942719, -2636.7905899036637, -5878.2852743012045, -6986.462412650873, -0.004, 0.07, 0.98, 192.0, 0.0, 0.0, 0.0, 0.0, 0.0, 0.0, 0.0, 0.0, 0.0, 1.6444917881865575E9, 0.0, 2022-02-10 22:16:28.186
4.0, -7360.921187510632, -5289.272104414953, -6589.763652058084, -11776.888284312283, -3851.585549305147, -535.8383698270762, -4565.232046274191, -3414.452482992707, -15862.809522486868, -7223.256793410396, -6345.593195628309, -4697.509669960698, -1765.8995706915346, -2627.6934299103536, -5861.521465959724, -6965.027089718234, -0.004, 0.07, 0.98, 192.0, 0.0, 0.0, 0.0, 0.0, 0.0, 0.0, 0.0, 0.0, 0.0, 1.6444917881865735E9, 0.0, 2022-02-10 22:16:28.186
6.0, -7374.6898620951015, -5298.726892319548, -6607.063902266491, -11783.772621604518, -3888.0859480006634, -547.5283321772018, -4638.456361109777, -3444.359117073908, -15882.747278541003, -7241.473465141472, -6366.35796622729, -4704.863393886494, -1804.4339781324838, -2655.588406990577, -5886.577771494123, -6978.058156735678, -0.004, 0.07, 0.98, 192.0, 0.0, 0.0, 0.0, 0.0, 0.0, 0.0, 0.0, 0.0, 0.0, 1.6444917881865804E9, 0.0, 2022-02-10 22:16:28.186
8.0, -7356.763763041946, -5285.025272968444, -6595.999788761114, -11765.824170806905, -3885.7613665773115, -544.8461228425649, -4610.829604963017, -3429.003468633112, -15867.816313244859, -7227.168348690075, -6366.02269006046, -4681.148193019413, -1804.7692542993134, -2651.453334266345, -5890.265809329249, -6973.990139244812, -0.002, 0.068, 0.978, 192.0, 127.5, 120.0, 1.0, 16.0, 15.0, 72.0, 0.0, 0.0, 0.0, 1.644491788186588E9, 0.0, 2022-02-10 22:16:28.186
10.0, -7419.974496361554, -5345.218520786586, -6619.312658227999, -11790.880476341305, -3919.0878175601742, -579.647788959478, -4584.834526161495, -3434.211425091198, -15899.824011304858, -7263.400526452127, -6393.336521784845, -4726.656344730419, -1830.1831877449977, -2669.915875186429, -5879.894599901986, -6968.692775808904, -0.002, 0.068, 0.978, 192.0, 0.0, 0.0, 0.0, 0.0, 0.0, 0.0, 0.0, 0.0, 0.0, 1.6444917881865952E9, 0.0, 2022-02-10 22:16:28.186
12.0, -7419.102778327797, -5351.0523260894215, -6616.585745404452, -11785.694871627675, -3919.5572041937357, -568.7624894097435, -4603.1182531259365, -3427.617660476883, -15904.942560785123, -7287.115727319208, -6412.000228405026, -4749.812751986116, -1855.686528168503, -2692.4687853418336, -5894.378530309025, -6982.662616093471, -0.002, 0.068, 0.978, 192.0, 0.0, 0.0, 0.0, 0.0, 0.0, 0.0, 0.0, 0.0, 0.0, 1.6444917881866028E9, 0.0, 2022-02-10 22:16:28.186
14.0, -7412.978400347042, -5347.520750465483, -6608.628524378362, -11777.581188390397, -3922.2841170172833, -557.58661718209, -4626.699343526286, -3429.897538411324, -15913.168002744676, -7281.661901672113, -6408.446301036633, -4739.039211158659, -1834.139446513587, -2674.453279310856, -5882.777974936721, -6961.830790261125, -0.002, 0.068, 0.978, 192.0, 0.0, 0.0, 0.0, 0.0, 0.0, 0.0, 0.0, 0.0, 0.0, 1.6444917881866095E9, 0.0, 2022-02-10 22:16:28.186
16.0, -7429.049304610408, -5378.589675258359, -6632.768408390094, -11792.847429853373, -3958.1810186125067, -586.8897541629975, -4656.829495052039, -3468.834277252469, -15929.887107597246, -7302.180803082086, -6430.708638514118, -4755.870074733505, -1866.3259585292292, -2695.2404016542914, -5907.387245582015, -6980.941531770412, -0.002, 0.068, 0.978, 192.0, 0.0, 0.0, 0.0, 0.0, 0.0, 0.0, 0.0, 0.0, 0.0, 1.644491788186617E9, 0.0, 2022-02-10 22:16:28.186
18.0, -7411.346723001805, -5357.0425936034435, -6616.3622279598985, -11771.635624365286, -3968.775745484322, -575.0656813461401, -4677.884838328939, -3472.7234807876926, -15930.557659930904, -7306.740558950968, -6439.716391529607, -4754.014879943715, -1877.680644712525, -2697.386169122001, -5906.537879292712, -6982.19322945991, -0.002, 0.068, 0.978, 192.0, 0.0, 0.0, 1.0, 24.0, 15.0, 72.0, 0.0, 0.0, 0.0, 1.6444917881866236E9, 0.0, 2022-02-10 22:16:28.186
20.0, -7440.42634253816, -5361.15531458322, -6636.992888092147, -11784.152601260257, -3997.6318475761236, -596.8139287011538, -4707.635010198952, -3507.0334085265886, -15927.651933151716, -7300.996160625954, -6442.756228775529, -4754.1489904104465, -1889.2812000848294, -2692.8934684864844, -5913.310457862671, -6984.160182971977, -0.002, 0.068, 0.978, 192.0, 0.0, 0.0, 0.0, 0.0, 0.0, 0.0, 0.0, 0.0, 0.0, 1.644491788186631E9, 0.0, 2022-02-10 22:16:28.186
22.0, -7441.141598360729, -5365.2009803296305, -6642.2678997836, -11783.593807648875, -4001.2081266889727, -587.649713474478, -4686.110280288492, -3457.926625958279, -15949.355477017818, -7319.168128868119, -6463.319833674412, -4771.203371429846, -1917.6679155430695, -2726.957527036372, -5925.2462894018045, -6989.926933041446, -0.002, 0.068, 0.978, 192.0, 0.0, 0.0, 0.0, 0.0, 0.0, 0.0, 0.0, 0.0, 0.0, 1.644491788186638E9, 0.0, 2022-02-10 22:16:28.186
24.0, -7440.828673938356, -5365.983291385566, -6643.318431772999, -11786.410127450245, -4007.8912982811094, -598.5126612797573, -4689.351283234511, -3471.225913909187, -15944.996886849034, -7312.507309020438, -6461.978729007093, -4766.08482194958, -1910.7388747619243, -2715.5581373641658, -5910.3376758501145, -6976.404127645985, -0.002, 0.068, 0.978, 192.0, 0.0, 0.0, 0.0, 0.0, 0.0, 0.0, 0.0, 0.0, 0.0, 1.6444917881866453E9, 0.0, 2022-02-10 22:16:28.186
26.0, -7454.642052011735, -5383.663521249714, -6663.122077360401, -11803.062177069447, -4041.843598108721, -612.1248736530392, -4709.26668754419, -3485.083995471477, -15972.82480869589, -7332.579175541303, -6492.310046232945, -4782.133374468491, -1948.6027298692145, -2732.903091061484, -5927.816740014165, -6991.4468516644065, -0.002, 0.068, 0.978, 192.0, 0.0, 0.0, 0.0, 0.0, 0.0, 0.0, 0.0, 0.0, 0.0, 1.644491788186652E9, 0.0, 2022-02-10 22:16:28.186
28.0, -7433.430246523649, -5370.788916443457, -6645.754771918628, -11783.504400671054, -4034.5569294162906, -595.9645624118522, -4709.691370688841, -3479.5854663354717, -15962.677116713181, -7328.242937116974, -6486.409185696743, -4776.99247324377, -1947.775715324368, -2730.9808410383275, -5926.408580113481, -6985.970674272857, 0.002, 0.07, 0.972, 192.0, 0.0, 8.0, 1.0, 24.0, 15.0, 48.0, 0.0, 0.0, 0.0, 1.644491788186659E9, 0.0, 2022-02-10 22:16:28.186
30.0, -7466.689642273145, -5382.523582282493, -6662.764449449116, -11796.021377566025, -4061.7590024183996, -623.1442836695056, -4713.580574224064, -3481.5300681030835, -15964.82288418089, -7333.160320897141, -6495.931028834704, -4780.6805110788955, -1954.0118520273986, -2743.609576655576, -5923.391094612014, -6986.350653928596, 0.002, 0.07, 0.972, 192.0, 0.0, 0.0, 0.0, 0.0, 0.0, 0.0, 0.0, 0.0, 0.0, 1.644491788186666E9, 0.0, 2022-02-10 22:16:28.186
32.0, -7469.0142236964975, -5390.234934119575, -6664.172609349801, -11790.925179830216, -4072.0184531233854, -619.8809289790307, -4732.2666325887, -3494.896411287357, -15985.632358268782, -7360.451800877071, -6524.653020459774, -4794.784461830194, -1979.6493029176359, -2763.3014635207014, -5937.740914552322, -6997.3700639450635, 0.002, 0.07, 0.972, 192.0, 0.0, 0.0, 0.0, 0.0, 0.0, 0.0, 0.0, 0.0, 0.0, 1.6444917881866732E9, 0.0, 2022-02-10 22:16:28.186
34.0, -7456.09491540133, -5382.054195648932, -6658.204693580234, -11786.454830939154, -4076.801726436821, -621.0879231796174, -4778.646502333463, -3514.2083184967423, -15974.16591336321, -7345.8337600033, -6513.968886610137, -4792.862211807038, -1970.3062737353175, -2748.9069400914836, -5929.671934803955, -6988.965808029868, 0.002, 0.07, 0.972, 192.0, 0.0, 0.0, 0.0, 0.0, 0.0, 0.0, 0.0, 0.0, 0.0, 1.64449178818668E9, 0.0, 2022-02-10 22:16:28.186
36.0, -7466.779049250967, -5407.088149438876, -6679.058871157035, -11799.977636334615, -4114.15149142164, -639.0363739772289, -4798.450147920865, -3510.0285422836, -15987.711070503125, -7358.238978175996, -6533.616069986352, -4803.523993912219, -1993.77560541339, -2773.382100270045, -5951.978975770352, -7002.376854703052, 0.002, 0.07, 0.971, 192.0, 0.0, 8.0, 1.0, 24.0, 15.0, 40.0, 0.0, 0.0, 0.0, 1.644491788186689E9, 0.0, 2022-02-10 22:16:28.186
38.0, -7458.061868913397, -5392.157184142731, -6666.340728561965, -11780.688080869686, -4105.501366317435, -622.6525452914889, -4770.868095263016, -3519.6174406549267, -15996.741175263069, -7364.363356156749, -6539.159302611269, -4805.178023001912, -2009.1089021097307, -2763.9496641099054, -5945.720487322866, -6990.999816775301, 0.002, 0.07, 0.971, 192.0, 0.0, 0.0, 0.0, 0.0, 0.0, 0.0, 0.0, 0.0, 0.0, 1.6444917881867082E9, 0.0, 2022-02-10 22:16:28.186
40.0, -7473.216351654095, -5392.268942865007, -6690.592371295974, -11794.255589754057, -4138.671355089111, -645.4513246359021, -4813.694037639384, -3531.3297547495076, -15987.979291436588, -7357.233149675507, -6546.937709681715, -4800.595915388574, -2012.3499050557502, -2750.06923080316, -5952.493065892824, -6989.055215007689, 0.002, 0.07, 0.971, 192.0, 0.0, 0.0, 0.0, 0.0, 0.0, 0.0, 0.0, 0.0, 0.0, 1.644491788186715E9, 0.0, 2022-02-10 22:16:28.186
42.0, -7495.478689131581, -5407.222259905608, -6694.392167853376, -11797.183668277701, -4148.193198227072, -652.0897927391283, -4747.666984518407, -3504.194736980765, -16024.636152343292, -7373.8628475502555, -6574.810335017483, -4829.452017480376, -2040.4013443471606, -2798.7513302268185, -5964.898284065519, -7001.438081435929, 0.002, 0.07, 0.971, 192.0, 0.0, 0.0, 0.0, 0.0, 0.0, 0.0, 0.0, 0.0, 0.0, 1.6444917881867213E9, 0.0, 2022-02-10 22:16:28.186
44.0, -7512.354256195338, -5425.21541419213, -6691.508792818641, -11791.305159485955, -4152.752954095955, -654.7720020737651, -4748.3375368520665, -3493.778824064592, -16022.378626153306, -7368.610187603258, -6572.463401849676, -4811.101235282568, -2042.1894839035851, -2792.805766201707, -5944.98287975584, -6983.601389360594, 0.002, 0.07, 0.971, 192.0, 0.0, 0.0, 0.0, 0.0, 0.0, 0.0, 0.0, 0.0, 0.0, 1.644491788186728E9, 0.0, 2022-02-10 22:16:28.186
46.0, -7523.261907489527, -5450.31642321544, -6712.430025628809, -11804.984427092604, -4183.061919577351, -668.2501039803152, -4795.52206939722, -3527.5523099365605, -16045.803254342469, -7396.482812939026, -6594.502221882609, -4849.367421790054, -2070.3079784283614, -2810.351885599123, -5966.574664899667, -6997.414767433974, 0.003, 0.067, 0.9735, 192.0, 0.0, 16.0, 1.0, 0.0, 15.0, 64.0, 0.0, 0.0, 0.0, 1.6444917881867344E9, 0.0, 2022-02-10 22:16:28.186
48.0, -7497.847974043843, -5421.21445193463, -6695.509755076141, -11786.454830939154, -4180.089137564795, -658.4823916533461, -4802.965200300837, -3525.31713549103, -16046.920841565234, -7396.683978639124, -6597.564410872986, -4838.6162327070515, -2074.1971819635846, -2808.31787685369, -5968.519266667279, -6996.923029055957, 0.003, 0.067, 0.9735, 192.0, 0.0, 0.0, 0.0, 0.0, 0.0, 0.0, 0.0, 0.0, 0.0, 1.6444917881867416E9, 0.0, 2022-02-10 22:16:28.186
50.0, -7562.600977730868, -5479.686615429713, -6720.387246654898, -11807.063139326947, -4206.061864621862, -677.9507610739186, -4845.031183365725, -3544.3608217669516, -16047.45728343216, -7400.170850774151, -6607.645047622329, -4843.95829963187, -2078.242847709995, -2792.0458068902262, -5970.977958557362, -6995.984255788834, 0.003, 0.067, 0.9735, 192.0, 0.0, 0.0, 0.0, 0.0, 0.0, 0.0, 0.0, 0.0, 0.0, 1.6444917881867483E9, 0.0, 2022-02-10 22:16:28.186
52.0, -7581.219980862139, -5493.120013847353, -6720.767226310638, -11799.62000842333, -4203.245544820493, -659.6223306205667, -4840.583186219119, -3537.9235193638233, -16073.519417467049, -7428.289345298928, -6637.1940537922455, -4867.070003398658, -2099.4323014536267, -2810.2401268768463, -5985.70775815341, -7006.534279171739, 0.003, 0.067, 0.9735, 192.0, 0.0, 0.0, 0.0, 0.0, 0.0, 0.0, 0.0, 0.0, 0.0, 1.6444917881867547E9, 0.0, 2022-02-10 22:16:28.186
54.0, -7617.295696413004, -5540.103380692409, -6713.3911506403865, -11793.026243809014, -4207.671190222644, -660.874028310064, -4890.069948443169, -3539.5999001979712, -16067.283280764019, -7426.098874342308, -6629.88503335536, -4861.549122518197, -2087.384711192216, -2803.3334378401564, -5974.777755114765, -6991.200982475399, 0.003, 0.067, 0.9735, 192.0, 0.0, 0.0, 0.0, 0.0, 0.0, 0.0, 0.0, 0.0, 0.0, 1.6444917881867611E9, 0.0, 2022-02-10 22:16:28.186
56.0, -7669.107040060407, -5582.191715501752, -6737.888662563403, -11813.343979518888, -4230.022934677951, -680.1412320305386, -4858.15165736099, -3574.1333453814204, -16091.244350820107, -7458.911235202699, -6665.379603550387, -4904.486823616841, -2106.9871910795205, -2829.5520340862317, -5992.2791710232705, -7001.214563991376, 0.0045000000000000005, 0.0645, 0.97475, 192.0, 0.0, 24.0, 0.5, 120.0, 15.0, 64.0, 0.0, 0.0, 0.0, 1.6444917881867678E9, 0.0, 2022-02-10 22:16:28.186
58.0, -7697.493755518646, -5615.3170007845165, -6730.244365959688, -11810.19238355069, -4216.790701960409, -662.7292230998544, -4842.8407124091045, -3506.7204841042144, -16095.938217155723, -7459.425325325171, -6681.405804324842, -4910.074759730668, -2100.371074720749, -2812.564708300198, -5973.771926614276, -6998.442947678918, 0.0045000000000000005, 0.0645, 0.97475, 192.0, 0.0, 0.0, 0.0, 0.0, 0.0, 0.0, 0.0, 0.0, 0.0, 1.6444917881867745E9, 0.0, 2022-02-10 22:16:28.186
60.0, -7799.8423933794975, -5720.839586358022, -6747.164636512356, -11821.502366245077, -4239.388315604725, -678.5989616631224, -4807.122624769524, -3488.8167367955134, -16118.424072077762, -7478.737232534556, -6703.690493546784, -4938.4614751889085, -2122.253432542495, -2836.5034266118323, -5967.51343816679, -6985.054252750189, 0.0045000000000000005, 0.0645, 0.97475, 192.0, 0.0, 0.0, 0.0, 0.0, 0.0, 0.0, 0.0, 0.0, 0.0, 1.6444917881867807E9, 0.0, 2022-02-10 22:16:28.186
62.0, -7807.419634749846, -5734.094170820019, -6739.632098630917, -11807.309008515957, -4231.386391089724, -662.9080370554968, -4801.422929933421, -3503.613591624927, -16137.132482186853, -7524.20068075665, -6721.2366129442, -4969.262179048322, -2135.1056856042965, -2852.9096070420273, -5975.805935359709, -6994.799613332702, 0.0045000000000000005, 0.0645, 0.97475, 192.0, 0.0, 0.0, 0.0, 0.0, 0.0, 0.0, 0.0, 0.0, 0.0, 1.6444917881867874E9, 0.0, 2022-02-10 22:16:28.186
64.0, -7800.065910824051, -5729.84733937351, -6728.277412447622, -11802.90571485826, -4221.998658418495, -657.0071765192959, -4831.083694825613, -3518.0751702875104, -16125.24135413663, -7514.231802729583, -6707.982028482203, -4943.132989780068, -2116.017295839464, -2827.6297840630755, -5960.897321808019, -6977.231142190832, 0.0045000000000000005, 0.0645, 0.97475, 192.0, 0.0, 0.0, 0.0, 0.0, 0.0, 0.0, 0.0, 0.0, 0.0, 1.644491788186794E9, 0.0, 2022-02-10 22:16:28.186
66.0, -7789.739404885699, -5719.632592157435, -6748.103409779479, -11820.183613322213, -4245.9373767301295, -661.5892841326338, -4833.229462293322, -3516.0858650309883, -16125.219002392174, -7519.350352209849, -6726.399865913376, -4967.429336002986, -2128.8248454123554, -2833.8882725105614, -5977.459964449402, -6991.379796431041, 0.00425, 0.06525, 0.976375, 192.0, 0.0, 16.0, 1.0, 8.0, 15.0, 72.0, 0.0, 0.0, 0.0, 1.6444917881868005E9, 0.0, 2022-02-10 22:16:28.186
68.0, -7806.659675438366, -5732.328383008049, -6725.885775790904, -11793.71914788713, -4231.9675364455625, -654.5261328847567, -4827.663877923951, -3496.125757232399, -16121.866240723879, -7503.748834580045, -6732.390133427398, -4961.617882444606, -2125.963822122076, -2825.3722578730894, -5965.7476503548205, -6981.0979939816, 0.00425, 0.06525, 0.976375, 192.0, 0.0, 0.0, 0.0, 0.0, 0.0, 0.0, 0.0, 0.0, 0.0, 1.6444917881868083E9, 0.0, 2022-02-10 22:16:28.186
70.0, -7831.380704805935, -5752.064973362086, -6740.526168409129, -11803.799784636472, -4255.995661735018, -674.5309441722566, -4863.136096374524, -3532.559100694549, -16126.157775659298, -7518.188061498173, -6720.320191421532, -4963.338966767665, -2126.120284333263, -2840.3255749136897, -5967.424031188969, -6977.834639291124, 0.00425, 0.06525, 0.976375, 192.0, 0.0, 0.0, 0.0, 0.0, 0.0, 0.0, 0.0, 0.0, 0.0, 1.6444917881868148E9, 0.0, 2022-02-10 22:16:28.186
72.0, -7776.261302979148, -5725.734618393733, -6738.134531752412, -11803.911543358749, -4260.0189757369735, -672.1169557710833, -4919.730713335361, -3562.9127696648566, -16134.159700174298, -7532.87315760531, -6737.955717796769, -4986.160097856534, -2127.282575044939, -2845.9582145164272, -5987.205325031916, -6996.498345911306, 0.00425, 0.06525, 0.976375, 192.0, 0.0, 0.0, 0.0, 0.0, 0.0, 0.0, 0.0, 0.0, 0.0, 1.6444917881868215E9, 0.0, 2022-02-10 22:16:28.186
74.0, -7784.889076338897, -5727.634516672435, -6733.328906694521, -11802.458679969155, -4265.5398566174335, -669.4570981809019, -4864.656014997485, -3496.371626421407, -16104.9012666823, -7497.222125199095, -6722.980049011713, -4961.193199299955, -2132.7587524364894, -2832.2565951653237, -5974.330720225659, -6977.946398013401, 0.00425, 0.06525, 0.976375, 192.0, 0.0, 0.0, 0.0, 0.0, 0.0, 0.0, 0.0, 0.0, 0.0, 1.644491788186828E9, 0.0, 2022-02-10 22:16:28.186
76.0, -7799.618875934944, -5741.0455633456195, -6744.415371944353, -11810.997046351082, -4283.868287070785, -690.3336275021586, -4845.589976977108, -3521.8749668449127, -16125.442519836728, -7533.186082027684, -6742.515473665652, -4979.7227954534055, -2163.872380718277, -2877.4965259428654, -5975.381252215058, -6986.507116139784, 0.003125, 0.065625, 0.9791875, 192.0, 0.0, 8.0, 1.0, 8.0, 15.0, 88.0, 0.0, 0.0, 0.0, 1.6444917881868343E9, 0.0, 2022-02-10 22:16:28.186
78.0, -7765.219541218226, -5716.5704031670575, -6733.66418286135, -11793.339168231389, -4270.993682264529, -665.6573016234996, -4858.777506205739, -3500.93138229029, -16129.175261160764, -7528.939250581176, -6751.053840047579, -4969.3962895150535, -2155.8481044588216, -2857.223493721902, -5973.7272231253655, -6980.203924203387, 0.003125, 0.065625, 0.9791875, 192.0, 0.0, 0.0, 0.0, 0.0, 0.0, 0.0, 0.0, 0.0, 0.0, 1.6444917881868412E9, 0.0, 2022-02-10 22:16:28.186
80.0, -7757.239968447682, -5701.08064425953, -6755.47948544973, -11803.688025914196, -4297.033464554962, -674.7544616168096, -4880.481050071842, -3516.9799348092006, -16116.054787165498, -7519.171538254206, -6752.417296459353, -4944.071763047191, -2162.643034773235, -2864.5101624143317, -5975.671824892977, -6977.566418357661, 0.003125, 0.065625, 0.9791875, 192.0, 0.0, 0.0, 0.0, 0.0, 0.0, 0.0, 0.0, 0.0, 0.0, 1.6444917881868477E9, 0.0, 2022-02-10 22:16:28.186
82.0, -7761.263282449638, -5700.499498903692, -6751.478523192231, -11798.301255500468, -4299.648618656232, -676.8778773400638, -4907.660771329495, -3550.216978814242, -16120.592191289925, -7510.409654427726, -6758.675784906839, -4991.502164781352, -2169.2367993875505, -2863.124354258103, -5998.895287382042, -6990.284560952731, 0.003125, 0.065625, 0.9791875, 192.0, 0.0, 0.0, 0.0, 0.0, 0.0, 0.0, 0.0, 0.0, 0.0, 1.6444917881868548E9, 0.0, 2022-02-10 22:16:28.186
84.0, -7790.409957219358, -5750.433296016848, -6747.589319657007, -11794.076775798414, -4303.80604312492, -687.450252467424, -4875.988349436325, -3508.0168852826223, -16129.510537327593, -7522.30078247795, -6748.304575479577, -4982.2261908324, -2154.9093311916986, -2848.930996528983, -5981.662092406999, -6978.773412558247, 0.003125, 0.065625, 0.9791875, 192.0, 0.0, 0.0, 0.0, 0.0, 0.0, 0.0, 0.0, 0.0, 0.0, 1.644491788186862E9, 0.0, 2022-02-10 22:16:28.186
86.0, -7788.934742085307, -5750.165075083384, -6763.347299497998, -11805.789089892995, -4321.441569500157, -697.352075261125, -4927.553823894718, -3557.1460195953873, -16158.321935930484, -7529.095712792363, -6769.963415856769, -4995.771347972316, -2177.641055302746, -2893.2098022949463, -5994.80491814672, -6991.603313875594, 0.004562500000000001, 0.0648125, 0.97759375, 192.0, 0.0, 24.0, 1.0, 0.0, 15.0, 64.0, 0.0, 0.0, 0.0, 1.644491788186869E9, 0.0, 2022-02-10 22:16:28.186
88.0, -7741.794913029064, -5714.625801399446, -6740.168540497844, -11781.604502392353, -4311.0927118173495, -676.1849732619493, -4902.16224219349, -3509.156824249843, -16126.38129310385, -7523.8430528453655, -6752.707869137272, -4962.847228389648, -2179.540953581447, -2874.2778747413013, -5996.28013328077, -6988.2729039517535, 0.004562500000000001, 0.0648125, 0.97759375, 192.0, 0.0, 0.0, 0.0, 0.0, 0.0, 0.0, 0.0, 0.0, 0.0, 1.6444917881868756E9, 0.0, 2022-02-10 22:16:28.186
90.0, -7752.613157345433, -5722.627725914446, -6760.218055274255, -11799.86587761234, -4330.538729493467, -697.352075261125, -4880.279884371744, -3502.317190446519, -16117.708816255192, -7520.579698154891, -6753.154904026378, -4971.072670349201, -2184.14541293924, -2868.4217176940106, -5983.51728719679, -6976.225313690343, 0.004562500000000001, 0.0648125, 0.97759375, 192.0, 0.0, 0.0, 0.0, 0.0, 0.0, 0.0, 0.0, 0.0, 0.0, 1.6444917881868823E9, 0.0, 2022-02-10 22:16:28.186
92.0, -7755.451828891258, -5724.929955593343, -6763.973148342747, -11796.513115944043, -4341.312270320925, -685.0362640662509, -4903.011608482791, -3515.50471967515, -16146.699028813724, -7540.472750720114, -6780.558142728584, -4999.6829032519945, -2214.767302843011, -2885.0514155687592, -6006.383121774569, -6989.47989815234, 0.004562500000000001, 0.0648125, 0.97759375, 192.0, 0.0, 0.0, 0.0, 0.0, 0.0, 0.0, 0.0, 0.0, 0.0, 1.6444917881868887E9, 0.0, 2022-02-10 22:16:28.186
94.0, -7741.727857795699, -5701.259458215172, -6748.595148157496, -11782.18564774819, -4339.814703442419, -685.0362640662509, -4906.185556195445, -3526.8817576029014, -16137.803034520512, -7519.573869654402, -6767.080040822035, -4989.758728713838, -2206.117177738807, -2875.015482308326, -5995.743691413843, -6976.962921257368, 0.004562500000000001, 0.0648125, 0.97759375, 192.0, 0.0, 0.0, 0.0, 0.0, 0.0, 0.0, 0.0, 0.0, 0.0, 1.64449178818691E9, 0.0, 2022-02-10 22:16:28.186
96.0, -7729.926136723297, -5697.146737235396, -6764.800162887593, -11794.769679876528, -4359.998328685561, -699.386084006558, -4974.693652950961, -3555.4919905056945, -16132.103339684409, -7525.854709846343, -6773.115011824967, -4987.903533924047, -2215.5943173878572, -2876.4236422090107, -6011.501671254835, -6988.407014418485, 0.004562500000000001, 0.0648125, 0.97759375, 192.0, 0.0, 0.0, 1.0, 8.0, 15.0, 96.0, 0.0, 0.0, 0.0, 1.6444917881869168E9, 0.0, 2022-02-10 22:16:28.186
98.0, -7688.262485058604, -5691.178821465829, -6758.049936062091, -11775.077793011404, -4352.421087315212, -682.868144854086, -4939.891986834048, -3520.3997517108623, -16125.554278559004, -7510.588468383368, -6762.252064019688, -4977.800545430248, -2209.022904517997, -2881.251619011357, -6013.669790466999, -6982.416746904462, 0.004562500000000001, 0.0648125, 0.97759375, 192.0, 0.0, 0.0, 0.0, 0.0, 0.0, 0.0, 0.0, 0.0, 0.0, 1.6444917881869235E9, 0.0, 2022-02-10 22:16:28.186
100.0, -7715.777482483088, -5694.598638367491, -6762.587340186517, -11781.157467503246, -4365.765078755031, -702.6717904414882, -4936.293355976743, -3562.6221969869375, -16130.091682683431, -7516.4446254306595, -6772.690328680316, -4964.277740034788, -2204.5302038824802, -2888.2253632814127, -6000.415206005002, -6976.0464997347, 0.004562500000000001, 0.0648125, 0.97759375, 192.0, 0.0, 0.0, 0.0, 0.0, 0.0, 0.0, 0.0, 0.0, 0.0, 1.644491788186932E9, 0.0, 2022-02-10 22:16:28.186
102.0, -7732.3401251244695, -5693.7939755671, -6765.5154187101625, -11778.117630257324, -4371.129497424305, -697.352075261125, -4943.602376413629, -3518.186929009787, -16149.604755592914, -7536.941175096175, -6779.641721205917, -4992.530345026296, -2241.432933978192, -2894.4391482399883, -6011.076988110183, -6990.284560952731, 0.004562500000000001, 0.0648125, 0.97759375, 192.0, 0.0, 0.0, 0.0, 0.0, 0.0, 0.0, 0.0, 0.0, 0.0, 1.6444917881869512E9, 0.0, 2022-02-10 22:16:28.186
104.0, -7708.9154969353085, -5676.963111992253, -6751.657337147873, -11767.500551641055, -4362.635834531287, -690.3112757577034, -4962.668414434006, -3533.6990396617703, -16135.81372926399, -7520.49029117707, -6766.431840232831, -4974.537190739774, -2225.339677970371, -2873.5849706631866, -5999.431729248969, -6974.660691578471, 0.004562500000000001, 0.0648125, 0.97759375, 192.0, 0.0, 0.0, 0.0, 0.0, 0.0, 0.0, 0.0, 0.0, 0.0, 1.6444917886663387E9, 0.0, 2022-02-10 22:16:28.666
106.0, -7704.71336897771, -5692.36346392196, -6771.371575757454, -11787.415955950733, -4381.523058596023, -713.5123865023121, -4950.59847242814, -3544.9419671227897, -16142.362790389394, -7527.7769598694995, -6780.066404350568, -4991.233943847888, -2235.867349608821, -2896.1378808185914, -6010.7640636878095, -6988.518773140761, 0.0032812500000000003, 0.06840625, 0.979796875, 192.0, 0.0, 8.0, 1.0, 32.0, 15.0, 88.0, 0.0, 0.0, 0.0, 1.6444917886663585E9, 0.0, 2022-02-10 22:16:28.666
108.0, -7677.891275631342, -5656.5783210490135, -6757.0664593060565, -11773.42376392171, -4370.861276490841, -685.3715402330805, -4935.35458270962, -3523.059609301044, -16140.731113044158, -7510.9237445501985, -6774.165543814367, -4975.475964006897, -2238.5942624323684, -2891.1087383161475, -6002.538621728257, -6984.495459138806, 0.0032812500000000003, 0.06840625, 0.979796875, 192.0, 0.0, 0.0, 0.0, 0.0, 0.0, 0.0, 0.0, 0.0, 0.0, 1.644491788666366E9, 0.0, 2022-02-10 22:16:28.666
110.0, -7683.255694300616, -5674.16914393534, -6773.584398458529, -11774.787220333485, -4400.67850359422, -694.289886270748, -4992.396234559565, -3563.3598045539625, -16126.336589614939, -7500.843107800854, -6765.940101854814, -4958.466286476408, -2230.1453030282623, -2867.1700200045134, -6009.937049142963, -6971.956130499379, 0.0032812500000000003, 0.06840625, 0.979796875, 192.0, 0.0, 0.0, 0.0, 0.0, 0.0, 0.0, 0.0, 0.0, 0.0, 1.6444917886663735E9, 0.0, 2022-02-10 22:16:28.666
112.0, -7700.622999742389, -5700.477147159237, -6785.274360808655, -11781.001005292059, -4408.993352531595, -698.3579037616139, -5001.605153275151, -3560.61053998596, -16153.20338645022, -7539.355163497349, -6802.149927872411, -4995.279609594299, -2259.269626053527, -2905.3020960452673, -6038.234357623382, -6994.419633676963, 0.0032812500000000003, 0.06840625, 0.979796875, 192.0, 0.0, 0.0, 0.0, 0.0, 0.0, 0.0, 0.0, 0.0, 0.0, 1.644491788666381E9, 0.0, 2022-02-10 22:16:28.666
114.0, -7684.932075134764, -5675.912580002854, -6775.752517670694, -11772.775563332507, -4401.550221627977, -695.7874531492536, -4993.536173526785, -3537.9011676193677, -16137.758331031602, -7514.432968429682, -6784.335587541532, -4969.709213937427, -2260.409565020748, -2887.063072569737, -6020.643534737055, -6976.873514279547, 0.0032812500000000003, 0.06840625, 0.979796875, 192.0, 0.0, 0.0, 0.0, 0.0, 0.0, 0.0, 0.0, 0.0, 0.0, 1.6444917886663878E9, 0.0, 2022-02-10 22:16:28.666
116.0, -7745.952337497752, -5717.7997491121, -6797.120785369967, -11790.388737963289, -4430.808655119974, -724.7776657077868, -5014.144481914578, -3575.8767814489347, -16145.067351468488, -7528.358105225338, -6807.559050030595, -4993.066786893223, -2282.02370190903, -2922.4905875313984, -6035.038058166273, -6989.546953385706, 0.006, 0.076, 0.984, 192.0, 0.0, 24.0, 1.0, 48.0, 15.0, 96.0, 0.0, 0.0, 0.0, 1.6444917886663952E9, 0.0, 2022-02-10 22:16:28.666
118.0, -7740.565567084023, -5714.692856632812, -6772.064479835568, -11770.04865050896, -4418.202271247181, -695.4074734935133, -5014.211537147944, -3560.6775952193257, -16176.158628005818, -7512.913049806721, -6807.067311652579, -4997.581839273195, -2271.361919803848, -2912.544061248787, -6034.434561065979, -6991.759776086781, 0.006, 0.076, 0.984, 192.0, 0.0, 0.0, 0.0, 0.0, 0.0, 0.0, 0.0, 0.0, 0.0, 1.644491788666402E9, 0.0, 2022-02-10 22:16:28.666
120.0, -7746.734648553687, -5735.2341097872395, -6786.2354858202325, -11774.988386033581, -4436.620108678354, -711.6795434569768, -5041.435961894508, -3563.4268597873283, -16163.48518889966, -7525.519433679514, -6796.092605125023, -4973.486658750375, -2273.239466338094, -2890.1029098156587, -6031.104151142139, -6977.85699103558, 0.006, 0.076, 0.984, 192.0, 0.0, 0.0, 0.0, 0.0, 0.0, 0.0, 0.0, 0.0, 0.0, 1.6444917886664088E9, 0.0, 2022-02-10 22:16:28.666
122.0, -7743.493645607668, -5736.999897599208, -6785.810802675582, -11775.010737778037, -4432.619146420854, -714.6523254695327, -4994.072615393712, -3568.9477406677893, -16190.77666887959, -7559.807009673955, -6818.801977491615, -5021.341743629187, -2294.205402637172, -2924.4798927879206, -6041.654174525043, -6994.129060999044, 0.006, 0.076, 0.984, 192.0, 0.0, 0.0, 0.0, 0.0, 0.0, 0.0, 0.0, 0.0, 0.0, 1.644491788666416E9, 0.0, 2022-02-10 22:16:28.666
124.0, -7736.9222327378075, -5717.687990389823, -6779.731128183738, -11766.159446973736, -4427.92528008524, -710.5843079786669, -5003.885031209592, -3553.122705593432, -16168.156703490818, -7536.717657651622, -6809.280134353654, -5009.048284178768, -2259.2025708201613, -2910.3312385477116, -6019.7494649588425, -6974.3030636671865, 0.006, 0.076, 0.984, 192.0, 0.0, 0.0, 0.0, 0.0, 0.0, 0.0, 0.0, 0.0, 0.0, 1.644491788666423E9, 0.0, 2022-02-10 22:16:28.666
126.0, -7746.265261920126, -5724.013534070675, -6793.388044045931, -11780.553970402952, -4446.633690194331, -722.4307325399795, -5039.513711871352, -3572.3899093139066, -16180.338404218961, -7544.071381577419, -6828.100303185022, -5008.601249289662, -2290.204440379672, -2927.6761922450296, -6036.848549467153, -6986.641226606515, 0.008, 0.07, 0.978, 192.0, 0.0, 32.0, 1.0, 24.0, 15.0, 72.0, 0.0, 0.0, 0.0, 1.64449178866643E9, 0.0, 2022-02-10 22:16:28.666
128.0, -7720.851328474442, -5711.384798453427, -6767.236503033221, -11759.968013759615, -4427.813521362963, -706.5833457211669, -5034.99865949138, -3570.042976146099, -16170.794209336545, -7525.050047045952, -6811.895288454925, -4991.122185125611, -2293.4230915812363, -2918.4896252738986, -6033.361677332125, -6982.327339926642, 0.008, 0.07, 0.978, 192.0, 0.0, 0.0, 0.0, 0.0, 0.0, 0.0, 0.0, 0.0, 0.0, 1.644491788666437E9, 0.0, 2022-02-10 22:16:28.666
130.0, -7728.517976822613, -5711.317743220061, -6781.228695062244, -11769.266339453023, -4445.694916927208, -715.8146161812086, -5047.895616042092, -3572.7922407141023, -16169.564863391504, -7527.173462769207, -6807.469643052775, -5001.5604497862405, -2283.0965856428847, -2911.270011814834, -6023.057523138228, -6973.453697377885, 0.008, 0.07, 0.978, 192.0, 0.0, 0.0, 0.0, 0.0, 0.0, 0.0, 0.0, 0.0, 0.0, 1.6444917886664436E9, 0.0, 2022-02-10 22:16:28.666
