%OpenBCI Raw EEG Data
%Number of channels = 16
%Sample Rate = 125 Hz
%Board = OpenBCI_GUI$BoardCytonSerialDaisy
Sample Index, EXG Channel 0, EXG Channel 1, EXG Channel 2, EXG Channel 3, EXG Channel 4, EXG Channel 5, EXG Channel 6, EXG Channel 7, EXG Channel 8, EXG Channel 9, EXG Channel 10, EXG Channel 11, EXG Channel 12, EXG Channel 13, EXG Channel 14, EXG Channel 15, Accel Channel 0, Accel Channel 1, Accel Channel 2, Other, Other, Other, Other, Other, Other, Other, Analog Channel 0, Analog Channel 1, Analog Channel 2, Timestamp, Other, Timestamp (Formatted)
0.0, -8776.457163865229, -10592.446993881107, -10329.836348275703, -16398.178505680386, -2196.6400380897567, -1637.5558540291613, -4733.3171645781, -5853.608948422546, 0.0, 0.0, 0.0, 0.0, 0.0, 0.0, 0.0, 0.0, 0.005, -0.014, 0.493, 192.0, 0.0, 40.0, 127.5, 16.0, 15.0, 104.0, 0.0, 0.0, 0.0, 1.6444986894950867E9, 0.0, 2022-02-11 00:11:29.495
84.0, -8764.946015470745, -10588.691900812615, -10321.90147899407, -16401.195991181852, -2181.9772937270754, -1629.4868742807955, -4727.349248808533, -5840.48847442728, -17128.320590057443, -15696.646654206117, -20130.249277383005, -11840.747218221095, -6495.2828282455, -10886.283026490573, -10591.262351424975, -11256.696135603921, 0.005, -0.014, 0.493, 192.0, 0.0, 0.0, 0.0, 0.0, 0.0, 0.0, 0.0, 0.0, 0.0, 1.6444986894950945E9, 0.0, 2022-02-11 00:11:29.495
86.0, -8782.469783123706, -10596.850287538802, -10338.531176868819, -16398.714947547312, -2194.9413055111536, -1640.9086156974574, -4738.189844869357, -5857.006413579752, -17139.094130884903, -15703.419232776074, -20138.832347253843, -11843.183558366723, -6487.504421175054, -10907.15955581183, -10590.681206069137, -11260.205359483405, 0.005, -0.014, 0.493, 192.0, 0.0, 0.0, 0.0, 0.0, 0.0, 0.0, 0.0, 0.0, 0.0, 1.6444986894951017E9, 0.0, 2022-02-11 00:11:29.495
88.0, -8773.238512663665, -10593.519877614961, -10332.429150632519, -16389.729546276278, -2192.6837793211675, -1628.4810457803067, -4727.46100753081, -5843.3047942286485, -17138.669447740253, -15700.625264719161, -20150.298792159414, -11850.20200612569, -6480.3295112049, -10900.565791197514, -10593.363415403774, -11254.483312902847, 0.005, -0.014, 0.493, 192.0, 0.0, 0.0, 0.0, 0.0, 0.0, 0.0, 0.0, 0.0, 0.0, 1.6444986894951084E9, 0.0, 2022-02-11 00:11:29.495
90.0, -8775.607797575927, -10595.509182871483, -10327.802339530272, -16395.00455796773, -2197.2882386789606, -1635.8794731950134, -4734.6582692454185, -5854.123038545017, -17140.994029163605, -15696.892523395125, -20134.22788789605, -11837.729732719628, -6494.589924167386, -10907.986570356676, -10592.37993864774, -11253.857464058097, 0.005, -0.014, 0.493, 192.0, 0.0, 0.0, 0.0, 0.0, 0.0, 0.0, 0.0, 0.0, 0.0, 1.6444986894951153E9, 0.0, 2022-02-11 00:11:29.495
92.0, -8782.469783123706, -10596.447956138607, -10329.47872036442, -16395.920979490398, -2197.377645656782, -1643.1214383985327, -4741.184978626368, -5856.604082179557, -17134.824947693938, -15707.174325844566, -20141.693370544122, -11845.217567112157, -6502.591848682386, -10902.175116798297, -10594.682168326637, -11262.306423462203, 0.006500000000000001, -0.018, 0.7404999999999999, 192.0, 0.0, 32.0, 127.5, 40.0, 15.0, 112.0, 0.0, 0.0, 0.0, 1.644498689495122E9, 0.0, 2022-02-11 00:11:29.495
94.0, -8766.175361415788, -10585.629711822237, -10321.052112704769, -16389.8189532541, -2181.7537762825223, -1630.313888825642, -4727.952745908827, -5845.24939599626, -17135.87547968334, -15698.032462362346, -20131.858602983786, -11838.601450753386, -6490.812479354439, -10910.489965735671, -10588.960121746079, -11258.528978649258, 0.006500000000000001, -0.018, 0.7404999999999999, 192.0, 0.0, 0.0, 0.0, 0.0, 0.0, 0.0, 0.0, 0.0, 0.0, 1.6444986894951289E9, 0.0, 2022-02-11 00:11:29.495
96.0, -8785.64373083636, -10594.033967737434, -10335.13371171161, -16398.80435452513, -2191.923820009687, -1637.019412162234, -4729.740885465251, -5855.128867045506, -17138.043598895503, -15696.512543739385, -20136.753635019497, -11840.747218221095, -6467.589016865375, -10898.755299896635, -10581.0476042089, -11256.539673392734, 0.006500000000000001, -0.018, 0.7404999999999999, 192.0, 0.0, 0.0, 0.0, 0.0, 0.0, 0.0, 0.0, 0.0, 0.0, 1.6444986894951355E9, 0.0, 2022-02-11 00:11:29.495
98.0, -8776.07718420949, -10590.86002002478, -10333.479682621919, -16400.391328381458, -2185.0394827174523, -1627.698734724371, -4730.612603499008, -5845.696430885367, -17140.837566952418, -15702.413404275585, -20149.717646803576, -11848.726790991639, -6473.065194256926, -10878.72813686468, -10587.082575211833, -11258.707792604899, 0.006500000000000001, -0.018, 0.7404999999999999, 192.0, 0.0, 0.0, 0.0, 0.0, 0.0, 0.0, 0.0, 0.0, 0.0, 1.6444986894951437E9, 0.0, 2022-02-11 00:11:29.495
100.0, -8778.625283077394, -10592.245828181009, -10335.692505322993, -16393.52934283368, -2186.358235640316, -1634.113685383044, -4730.299679076634, -5852.424305966414, -17142.20102336419, -15704.447413021018, -20136.753635019497, -11836.098055374392, -6503.821194627428, -10911.92047738081, -10581.740508287014, -11255.913824547986, 0.006500000000000001, -0.018, 0.7404999999999999, 192.0, 0.0, 0.0, 0.0, 0.0, 0.0, 0.0, 0.0, 0.0, 0.0, 1.6444986894951503E9, 0.0, 2022-02-11 00:11:29.495
102.0, -8790.44935589425, -10597.297322427909, -10339.626412347128, -16394.91515098991, -2192.7284828100783, -1632.0126214042452, -4730.992583154748, -5849.809151865144, -17141.26225009707, -15711.219991590977, -20153.070408471875, -11850.000840425593, -6496.981560824104, -10923.677494964302, -10592.536400858928, -11258.484275160346, 0.00625, -0.022, 0.86625, 192.0, 0.0, 24.0, 127.5, 24.0, 15.5, 0.0, 0.0, 0.0, 0.0, 1.6444986894951572E9, 0.0, 2022-02-11 00:11:29.495
104.0, -8768.16466667231, -10588.133107201233, -10328.070560463735, -16393.86461900051, -2175.0706046903856, -1610.2643740492315, -4716.709818447807, -5828.9773260327975, -17137.842433195405, -15701.608741475195, -20136.664228041678, -11836.612145496863, -6492.600618910864, -10894.240247516662, -10585.115621699766, -11248.850673300109, 0.00625, -0.022, 0.86625, 192.0, 0.0, 0.0, 0.0, 0.0, 0.0, 0.0, 0.0, 0.0, 0.0, 1.644498689495164E9, 0.0, 2022-02-11 00:11:29.495
106.0, -8781.30749241203, -10589.943598502112, -10336.206595445467, -16395.630406812477, -2179.0492152034303, -1623.7201242113263, -4727.684524975362, -5847.6410326529785, -17140.323476829944, -15701.117003097179, -20136.798338508408, -11840.188424609712, -6487.079738030403, -10885.858343345923, -10579.505333841484, -11253.119856491072, 0.00625, -0.022, 0.86625, 192.0, 0.0, 0.0, 0.0, 0.0, 0.0, 0.0, 0.0, 0.0, 0.0, 1.6444986894951708E9, 0.0, 2022-02-11 00:11:29.495
108.0, -8773.059698708023, -10580.399403619696, -10330.462197120452, -16394.401060867436, -2178.4233663586815, -1624.5471387561727, -4720.442559771844, -5835.191110991373, -17135.204927349678, -15691.662215192584, -20141.447501355113, -11840.456645543176, -6467.253740698546, -10894.508468450125, -10583.886275754723, -11252.56106287969, 0.00625, -0.022, 0.86625, 192.0, 0.0, 0.0, 0.0, 0.0, 0.0, 0.0, 0.0, 0.0, 0.0, 1.6444986894951775E9, 0.0, 2022-02-11 00:11:29.495
110.0, -8773.93141674178, -10583.461592610072, -10328.204670930467, -16397.463249857814, -2185.2406484175503, -1630.0009644032675, -4725.181129596368, -5840.577881405102, -17136.747197717097, -15692.310415781787, -20126.60594303679, -11828.63257272632, -6489.471374687121, -10892.228590515684, -10580.444107108606, -11251.823455312664, 0.00625, -0.022, 0.86625, 192.0, 0.0, 0.0, 0.0, 0.0, 0.0, 0.0, 0.0, 0.0, 0.0, 1.644498689495184E9, 0.0, 2022-02-11 00:11:29.495
112.0, -8782.827411034992, -10594.011615992978, -10331.982115743413, -16398.267912658204, -2193.4213868881925, -1629.4421707918848, -4728.511539520209, -5834.654669124445, -17140.703456485684, -15702.748680442415, -20143.727379289554, -11843.451779300187, -6491.550086921464, -10895.96133183972, -10586.14380194471, -11252.628118113056, 0.008125, -0.024, 0.929125, 192.0, 0.0, 40.0, 127.5, 24.0, 15.5, 0.0, 0.0, 0.0, 0.0, 1.6444986894951909E9, 0.0, 2022-02-11 00:11:29.495
114.0, -8772.813829519013, -10589.228342679542, -10324.04724646178, -16397.038566713163, -2184.2571716615166, -1617.3275252971084, -4716.329838792067, -5821.802416062644, -17141.48576754162, -15700.267636807876, -20134.160832662685, -11838.869671686849, -6486.297426974467, -10910.333503524484, -10584.020386221455, -11245.877891287553, 0.008125, -0.024, 0.929125, 192.0, 0.0, 0.0, 0.0, 0.0, 0.0, 0.0, 0.0, 0.0, 0.0, 1.644498689495201E9, 0.0, 2022-02-11 00:11:29.495
116.0, -8790.136431471878, -10599.823069551358, -10340.09579898069, -16403.5205726052, -2195.8800787782766, -1626.8717201795246, -4716.218080069791, -5835.481683669292, -17146.96194493317, -15706.302607810809, -20138.921754231662, -11841.171901365746, -6495.640456156785, -10890.596913170448, -10580.421755364152, -11246.570795365667, 0.008125, -0.024, 0.929125, 192.0, 0.0, 0.0, 0.0, 0.0, 0.0, 0.0, 0.0, 0.0, 0.0, 1.644498689495208E9, 0.0, 2022-02-11 00:11:29.495
118.0, -8775.496038853651, -10589.250694423998, -10328.539947097295, -16401.73243304878, -2175.919970979687, -1621.954336399357, -4710.965420122793, -5835.504035413746, -17144.905584443284, -15703.978026387458, -20148.689466558633, -11846.849244457395, -6490.588961909886, -10894.687282405768, -10585.339139144318, -11251.510530890291, 0.008125, -0.024, 0.929125, 192.0, 0.0, 0.0, 0.0, 0.0, 0.0, 0.0, 0.0, 0.0, 0.0, 1.6444986894952147E9, 0.0, 2022-02-11 00:11:29.495
120.0, -8773.707899297226, -10587.194333934109, -10327.467063363441, -16406.269837173204, -2173.95301746762, -1627.117589368533, -4717.4027225259215, -5833.335916201582, -17141.374008819344, -15695.841991405725, -20128.46113782658, -11840.926032176738, -6493.584095666897, -10889.479325947683, -10577.024290206944, -11250.75057157881, 0.008125, -0.024, 0.929125, 192.0, 0.0, 0.0, 0.0, 0.0, 0.0, 0.0, 0.0, 0.0, 0.0, 1.6444986894952216E9, 0.0, 2022-02-11 00:11:29.495
122.0, -8786.224876192198, -10594.101022970799, -10338.464121635452, -16404.99578773925, -2184.1677646836956, -1638.4946272962843, -4721.515443505698, -5838.856797082043, -17140.748159974595, -15711.622322991172, -20147.08014095785, -11850.246709614601, -6481.42474668321, -10915.474404749204, -10582.14283968721, -11255.645603614523, 0.0060625, -0.026000000000000002, 0.9615625, 192.0, 0.0, 16.0, 127.5, 16.0, 15.5, 8.0, 0.0, 0.0, 0.0, 1.6444986894952283E9, 0.0, 2022-02-11 00:11:29.495
124.0, -8771.897407996346, -10586.568485089361, -10329.925755253525, -16403.58762783857, -2174.5341628234582, -1619.9650311428347, -4717.827405670572, -5830.631355122489, -17141.66458149726, -15704.603875232206, -20141.246335655014, -11844.05527640048, -6490.7454241210735, -10902.510392965127, -10587.104926956288, -11255.533844892245, 0.0060625, -0.026000000000000002, 0.9615625, 192.0, 0.0, 0.0, 0.0, 0.0, 0.0, 0.0, 0.0, 0.0, 0.0, 1.644498689495235E9, 0.0, 2022-02-11 00:11:29.495
126.0, -8790.829335549992, -10600.80654630739, -10348.321240940242, -16409.644950585956, -2197.1317764677738, -1635.9018249394685, -4734.390048311955, -5842.164855261428, -17145.039694910014, -15707.196677589021, -20142.341571133325, -11844.189386867212, -6493.561743922442, -10893.972026583198, -10586.926113000645, -11256.584376881645, 0.0060625, -0.026000000000000002, 0.9615625, 192.0, 0.0, 0.0, 0.0, 0.0, 0.0, 0.0, 0.0, 0.0, 0.0, 1.644498689495242E9, 0.0, 2022-02-11 00:11:29.495
128.0, -8784.794364547059, -10599.733662573537, -10340.028743747323, -16405.01813948371, -2181.9325902381647, -1628.36928705803, -4712.753559679218, -5835.146407502461, -17146.313744343966, -15712.53874451384, -20152.71278056059, -11851.096075903903, -6513.3877412543, -10918.670704206314, -10586.702595556093, -11260.428876927957, 0.0060625, -0.026000000000000002, 0.9615625, 192.0, 0.0, 0.0, 0.0, 0.0, 0.0, 0.0, 0.0, 0.0, 0.0, 1.6444986894952488E9, 0.0, 2022-02-11 00:11:29.495
130.0, -8785.420213391806, -10599.823069551358, -10339.67111583604, -16410.62842734199, -2190.314494408905, -1633.5772435161166, -4718.296792304134, -5841.628413394501, -17145.330267587935, -15713.857497436704, -20136.865393741777, -11838.892023431305, -6517.768683167539, -10908.59006745697, -10580.086479197322, -11257.143170493027, 0.0060625, -0.026000000000000002, 0.9615625, 192.0, 0.0, 0.0, 0.0, 0.0, 0.0, 0.0, 0.0, 0.0, 0.0, 1.6444986894952557E9, 0.0, 2022-02-11 00:11:29.495
132.0, -8790.203486705243, -10600.67243584066, -10346.130769983623, -16408.86263953002, -2194.2707531774945, -1638.6510895074714, -4725.315240063101, -5847.618680908523, -17146.58196527743, -15711.890543924635, -20151.975172993563, -11849.643212514307, -6514.438273243699, -10910.914648880322, -10586.9484647451, -11261.479408917357, 0.00503125, -0.029, 0.97578125, 192.0, 0.0, 16.0, 127.5, 0.0, 15.0, 120.0, 0.0, 0.0, 0.0, 1.6444986894952626E9, 0.0, 2022-02-11 00:11:29.495
134.0, -8773.551437086038, -10589.228342679542, -10335.290173922798, -16405.107546461528, -2190.582715342369, -1628.3245835691196, -4718.185033581857, -5833.984116790786, -17143.4974245426, -15707.196677589021, -20137.670056542167, -11837.841491441905, -6511.286677275501, -10900.476384219694, -10588.960121746079, -11259.46775191638, 0.00503125, -0.029, 0.97578125, 192.0, 0.0, 0.0, 0.0, 0.0, 0.0, 0.0, 0.0, 0.0, 0.0, 1.6444986894952695E9, 0.0, 2022-02-11 00:11:29.495
136.0, -8789.756451816136, -10596.827935794347, -10348.298889195787, -16408.393252896458, -2211.0122097745193, -1641.4227058199294, -4734.3676965674995, -5852.178436777406, -17143.11744488686, -15708.761299700893, -20138.787643764932, -11836.701552474684, -6508.29154351849, -10901.39280574236, -10589.38480489073, -11263.89339731853, 0.00503125, -0.029, 0.97578125, 192.0, 0.0, 0.0, 0.0, 0.0, 0.0, 0.0, 0.0, 0.0, 0.0, 1.6444986894952765E9, 0.0, 2022-02-11 00:11:29.495
138.0, -8776.747736543148, -10586.412022878174, -10343.336801926709, -16403.073537716096, -2209.402884173737, -1629.2186533473318, -4732.020763399692, -5843.975346562308, -17140.949325674694, -15704.805040932304, -20149.315315403383, -11841.194253110201, -6513.633610443308, -10897.436546973771, -10596.649121838704, -11266.37444095307, 0.00503125, -0.029, 0.97578125, 192.0, 0.0, 0.0, 0.0, 0.0, 0.0, 0.0, 0.0, 0.0, 0.0, 1.644498689495284E9, 0.0, 2022-02-11 00:11:29.495
140.0, -8781.083974967478, -10589.72008105756, -10342.733304826415, -16404.682863316877, -2205.4242736606925, -1633.7113539828486, -4734.41240005641, -5847.216349508328, -17140.703456485684, -15699.462974007485, -20135.03255069644, -11827.313819803456, -6528.564575739453, -10910.802890158046, -10587.976644990045, -11261.814685084188, 0.00503125, -0.029, 0.97578125, 192.0, 0.0, 0.0, 0.0, 0.0, 0.0, 0.0, 0.0, 0.0, 0.0, 1.6444986894952908E9, 0.0, 2022-02-11 00:11:29.495
142.0, -8788.258884937632, -10601.879430041246, -10345.706086838973, -16412.237752942772, -2210.2075469741285, -1637.2876330956976, -4725.896385418938, -5848.132771030995, -17138.311819828967, -15710.482384023951, -20146.253126413005, -11844.368200822855, -6525.412979771255, -10919.184794328785, -10586.769650789458, -11266.843827586632, 0.0045156250000000005, -0.0285, 0.981890625, 192.0, 0.0, 16.0, 127.5, 16.0, 15.0, 112.0, 0.0, 0.0, 0.0, 1.6444986894952981E9, 0.0, 2022-02-11 00:11:29.495
144.0, -8781.441602878762, -10602.192354463621, -10338.508825124363, -16413.221229698807, -2195.3883404002595, -1625.7541329567591, -4714.496995746732, -5838.365058704026, -17134.579078504932, -15713.0081311474, -20134.8537367408, -11843.943517678204, -6530.687991462707, -10905.416119744315, -10585.316787399863, -11263.13343800705, 0.0045156250000000005, -0.0285, 0.981890625, 192.0, 0.0, 0.0, 0.0, 0.0, 0.0, 0.0, 0.0, 0.0, 0.0, 1.6444986894953053E9, 0.0, 2022-02-11 00:11:29.495
146.0, -8791.812812306025, -10608.048511510911, -10351.584595630717, -16415.791680311166, -2215.370799943304, -1639.634566263505, -4726.186958096857, -5850.077372798607, -17144.16797687626, -15705.565000243783, -20140.240507154525, -11837.77443620854, -6526.150587338279, -10899.627017930392, -10586.881409511734, -11268.475504931868, 0.0045156250000000005, -0.0285, 0.981890625, 192.0, 0.0, 0.0, 0.0, 0.0, 0.0, 0.0, 0.0, 0.0, 0.0, 1.644498689495314E9, 0.0, 2022-02-11 00:11:29.495
148.0, -8788.907085526835, -10605.634523109738, -10347.04719150629, -16410.471965130804, -2212.5991836308463, -1626.0447056346782, -4718.185033581857, -5833.58178539059, -17143.698590242697, -15707.643712478128, -20155.32793466186, -11843.854110700382, -6526.91054664976, -10919.251849562152, -10591.999958992, -11264.474542674368, 0.0045156250000000005, -0.0285, 0.981890625, 192.0, 0.0, 0.0, 0.0, 0.0, 0.0, 0.0, 0.0, 0.0, 0.0, 1.6444986894953213E9, 0.0, 2022-02-11 00:11:29.495
150.0, -8798.518335642617, -10616.028084281455, -10348.053020006779, -16418.92092453491, -2223.529186669491, -1641.757981986759, -4734.211234356312, -5845.5846721630905, -17149.174767634246, -15711.175288102066, -20147.527175846957, -11841.171901365746, -6529.458645517665, -10909.707654679734, -10589.09423221281, -11265.256853730305, 0.0045156250000000005, -0.0285, 0.981890625, 192.0, 0.0, 0.0, 0.0, 0.0, 0.0, 0.0, 0.0, 0.0, 0.0, 1.644498689495328E9, 0.0, 2022-02-11 00:11:29.495
152.0, -8806.453204924252, -10620.029046538955, -10352.143389242101, -16419.39031116847, -2245.2327305355943, -1645.0213366772339, -4740.201501870335, -5856.425268223914, -17150.225299623646, -15717.143203871634, -20159.485359130547, -11850.62668927034, -6561.8910267223155, -10893.256770760629, -10602.48292714154, -11274.912807334997, 0.008, -0.024, 0.986, 192.0, 0.0, 32.0, 127.5, 32.0, 15.0, 104.0, 0.0, 0.0, 0.0, 1.6444986894953349E9, 0.0, 2022-02-11 00:11:29.495
154.0, -8788.795326804558, -10609.568430133872, -10344.655554849573, -16414.562334366125, -2239.44362872167, -1643.0320314207115, -4740.872054203994, -5854.212445522839, -17140.524642530043, -15711.48821252444, -20139.525251331957, -11839.696686231695, -6568.954177970193, -10920.078864106998, -10604.762805075981, -11270.844789844132, 0.008, -0.024, 0.986, 192.0, 0.0, 0.0, 0.0, 0.0, 0.0, 0.0, 0.0, 0.0, 0.0, 1.6444986894953427E9, 0.0, 2022-02-11 00:11:29.495
156.0, -8806.766129346624, -10619.738473861036, -10357.820732333748, -16420.39613966896, -2262.309463299449, -1653.0009094477784, -4747.912853707416, -5862.370832249026, -17149.152415889792, -15705.386186288142, -20141.536908332935, -11839.920203676249, -6574.072727450458, -10930.293611323073, -10611.155403990198, -11276.119801535584, 0.008, -0.024, 0.986, 192.0, 0.0, 0.0, 0.0, 0.0, 0.0, 0.0, 0.0, 0.0, 0.0, 1.6444986894953496E9, 0.0, 2022-02-11 00:11:29.495
158.0, -8797.601914119949, -10613.167060991176, -10352.255147964377, -16413.623561099, -2249.6807276822005, -1643.3002523541752, -4739.396839069944, -5854.771239134221, -17149.375933334344, -15710.102404368212, -20157.920737018674, -11842.513006033065, -6567.0542796914915, -10921.934058896788, -10611.244810968019, -11273.079964289662, 0.008, -0.024, 0.986, 192.0, 0.0, 0.0, 0.0, 0.0, 0.0, 0.0, 0.0, 0.0, 0.0, 1.6444986894953563E9, 0.0, 2022-02-11 00:11:29.495
160.0, -8802.675760111304, -10628.098026287322, -10352.992755531403, -16419.7255873353, -2250.172466060217, -1650.341051857597, -4750.058621175125, -5866.505904973257, -17150.11354090137, -15705.0062066324, -20151.32697240436, -11833.371142550845, -6575.167962928768, -10912.166346569818, -10607.959104533089, -11271.872970089074, 0.008, -0.024, 0.986, 192.0, 0.0, 0.0, 0.0, 0.0, 0.0, 0.0, 0.0, 0.0, 0.0, 1.644498689495363E9, 0.0, 2022-02-11 00:11:29.495
162.0, -8816.109158528943, -10639.117436303788, -10356.390220688609, -16427.81691882812, -2261.0801173544073, -1656.4654298383512, -4759.401650357443, -5867.623492196023, -17150.649982768296, -15714.639808492639, -20171.46589415859, -11851.029020670536, -6565.355547112888, -10914.200355315252, -10611.445976668118, -11280.433688215458, 0.008, -0.026000000000000002, 0.988, 192.0, 0.0, 32.0, 127.5, 24.0, 15.0, 112.0, 0.0, 0.0, 0.0, 1.6444986894953697E9, 0.0, 2022-02-11 00:11:29.495
164.0, -8805.939114801778, -10643.051343327921, -10348.388296173609, -16424.754729837743, -2254.374594017815, -1650.0951826685887, -4751.84676073155, -5858.079297313607, -17145.553785032487, -15715.82445094877, -20163.687487088144, -11855.320555605955, -6564.77440175705, -10921.822300174512, -10611.021293523467, -11277.013871313797, 0.008, -0.026000000000000002, 0.988, 192.0, 0.0, 0.0, 0.0, 0.0, 0.0, 0.0, 0.0, 0.0, 0.0, 1.6444986894953763E9, 0.0, 2022-02-11 00:11:29.495
166.0, -8825.966277833733, -10653.422552755184, -10360.681755624028, -16426.900497305454, -2285.0635391549517, -1665.2273136648314, -4763.335557381578, -5866.148277061972, -17149.934726945725, -15719.132509128156, -20161.56407136489, -11854.582948038931, -6600.604248118908, -10912.21105005873, -10617.168023248676, -11279.025528314773, 0.008, -0.026000000000000002, 0.988, 192.0, 0.0, 0.0, 0.0, 0.0, 0.0, 0.0, 0.0, 0.0, 0.0, 1.6444986894953835E9, 0.0, 2022-02-11 00:11:29.495
168.0, -8815.528013173105, -10645.711200918104, -10354.155046243079, -16418.049206501153, -2283.141289131795, -1661.0028339627784, -4760.563941069119, -5860.537989203691, -17152.10284615789, -15711.644674735628, -20174.818655826886, -11857.645137029307, -6610.930754057259, -10933.333448568994, -10627.226308253565, -11278.444382958936, 0.008, -0.026000000000000002, 0.988, 192.0, 0.0, 0.0, 0.0, 0.0, 0.0, 0.0, 0.0, 0.0, 0.0, 1.644498689495391E9, 0.0, 2022-02-11 00:11:29.495
170.0, -8815.259792239642, -10647.901671874723, -10354.28915670981, -16417.021026256207, -2288.572763034435, -1666.1213834430437, -4764.631958559985, -5861.052079326163, -17150.851148468395, -15711.510564268896, -20157.83133004085, -11839.182596109224, -6619.849100094927, -10933.646372991368, -10619.760825605492, -11272.118839278084, 0.008, -0.026000000000000002, 0.988, 192.0, 0.0, 0.0, 0.0, 0.0, 0.0, 0.0, 0.0, 0.0, 0.0, 1.6444986894953976E9, 0.0, 2022-02-11 00:11:29.495
172.0, -8822.233536509697, -10653.10962833281, -10362.000508546891, -16415.85873554453, -2297.31229511646, -1664.3555956310745, -4762.84381900356, -5859.912140358942, -17149.845319967906, -15707.286084566842, -20175.198635482626, -11841.842453699404, -6612.294210469033, -10938.943736427276, -10621.43720643964, -11273.147019523029, 0.008, -0.024, 0.99, 192.0, 0.0, 32.0, 127.5, 32.0, 15.0, 120.0, 0.0, 0.0, 0.0, 1.6444986894954045E9, 0.0, 2022-02-11 00:11:29.495
174.0, -8813.046969538567, -10655.948299878633, -10355.205578232477, -16417.892744289966, -2289.667998512745, -1658.7453077727923, -4755.311281122123, -5856.82759962411, -17150.359410090376, -15712.337578813742, -20170.772990080477, -11841.48482578812, -6606.102777254913, -10918.313076295028, -10622.040703539933, -11266.732068864354, 0.008, -0.024, 0.99, 192.0, 0.0, 0.0, 0.0, 0.0, 0.0, 0.0, 0.0, 0.0, 0.0, 1.6444986894954116E9, 0.0, 2022-02-11 00:11:29.495
176.0, -8841.433684996806, -10684.35736708133, -10365.129752770634, -16424.687674604378, -2310.6786383007334, -1681.0747004836442, -4775.316092409622, -5866.885884628998, -17155.120331659356, -15721.88177369616, -20176.495036661036, -11850.403171825788, -6622.598364662929, -10943.659954507346, -10622.979476807055, -11275.404545713014, 0.008, -0.024, 0.99, 192.0, 0.0, 0.0, 0.0, 0.0, 0.0, 0.0, 0.0, 0.0, 0.0, 1.6444986894954183E9, 0.0, 2022-02-11 00:11:29.495
178.0, -8834.661106426849, -10682.055137402433, -10358.29011896731, -16420.01616001322, -2314.947821491697, -1668.3118543996638, -4766.867133005516, -5853.676003655912, -17152.52752930254, -15717.210259104999, -20188.006185055518, -11861.422581842255, -6660.752792448139, -10944.196396374273, -10634.065942056888, -11276.276263746771, 0.008, -0.024, 0.99, 192.0, 0.0, 0.0, 0.0, 0.0, 0.0, 0.0, 0.0, 0.0, 0.0, 1.6444986894954278E9, 0.0, 2022-02-11 00:11:29.495
180.0, -8834.571699449027, -10688.805364227936, -10360.637052135116, -16423.10070074805, -2315.5513185919904, -1678.1689737044542, -4767.604740572541, -5861.365003748537, -17151.566404290963, -15724.563983030795, -20175.33274594936, -11846.648078757296, -6660.238702325667, -10940.307192839051, -10629.48383444355, -11272.32000497818, 0.008, -0.024, 0.99, 192.0, 0.0, 0.0, 0.0, 0.0, 0.0, 0.0, 0.0, 0.0, 0.0, 1.6444986894954348E9, 0.0, 2022-02-11 00:11:29.495
182.0, -8853.28010955812, -10703.892791735267, -10370.963558073468, -16421.781947825188, -2336.8748828023536, -1693.8598983120798, -4786.626075104007, -5874.910160888453, -17157.757837505083, -15732.92353545708, -20194.4658392031, -11857.354564351388, -6662.809152938027, -10962.614233805447, -10642.380790994262, -11279.13728703705, 0.008, -0.028, 0.992, 192.0, 0.0, 32.0, 127.5, 16.0, 15.5, 0.0, 0.0, 0.0, 0.0, 1.6444986894954736E9, 0.0, 2022-02-11 00:11:29.495
184.0, -8843.333583275507, -10708.430195859695, -10362.983985302924, -16421.379616424994, -2339.534740392535, -1686.7520435752922, -4777.283045921689, -5864.337785761093, -17160.127122417347, -15726.620343520683, -20193.974100825086, -11854.024154427547, -6669.8946559303595, -10952.332431356006, -10644.995945095534, -11278.75730738131, 0.008, -0.028, 0.992, 192.0, 0.0, 0.0, 0.0, 0.0, 0.0, 0.0, 0.0, 0.0, 0.0, 1.6444986894954813E9, 0.0, 2022-02-11 00:11:29.495
186.0, -8858.152789849377, -10713.21346917313, -10374.517485441862, -16422.363093181026, -2358.310205734993, -1697.7714535917585, -4787.967179771326, -5874.552532977168, -17163.479884085642, -15722.798195218826, -20197.304510748927, -11851.96779393766, -6682.143411891868, -10948.398524331871, -10642.738418905546, -11280.545446937735, 0.008, -0.028, 0.992, 192.0, 0.0, 0.0, 0.0, 0.0, 0.0, 0.0, 0.0, 0.0, 0.0, 1.6444986894954882E9, 0.0, 2022-02-11 00:11:29.495
188.0, -8858.622176482937, -10730.871347292823, -10370.047136550802, -16416.14930822245, -2366.5579994390014, -1705.4157501954735, -4793.37630192951, -5873.92668413242, -17166.72088703166, -15730.151919144622, -20215.76705166901, -11861.154360908791, -6694.146298664367, -10959.708507026256, -10653.400201010729, -11281.551275438223, 0.008, -0.028, 0.992, 192.0, 0.0, 0.0, 0.0, 0.0, 0.0, 0.0, 0.0, 0.0, 0.0, 1.644498689495495E9, 0.0, 2022-02-11 00:11:29.495
190.0, -8878.626987770438, -10762.856693608368, -10370.583578417729, -16423.90536354844, -2379.0973280784283, -1717.888023601535, -4799.277162465712, -5879.134640590506, -17170.654794055798, -15719.288971339343, -20208.413327743212, -11855.409962583777, -6723.583546112007, -10969.83384726451, -10654.227215555575, -11281.238351015849, 0.008, -0.028, 0.992, 192.0, 0.0, 0.0, 0.0, 0.0, 0.0, 0.0, 0.0, 0.0, 0.0, 1.6444986894955027E9, 0.0, 2022-02-11 00:11:29.495
192.0, -8899.1011856915, -10786.482487497628, -10382.139430301122, -16426.676979860902, -2406.791139458554, -1724.370029493574, -4820.578374931619, -5883.426175525925, -17176.287433658534, -15743.987648962457, -20229.356912297837, -11875.168904682268, -6730.736104337705, -10971.577283332024, -10666.632433728271, -11285.99927258483, 0.008, -0.028, 0.992, 192.0, 0.0, 32.0, 127.5, 16.0, 15.5, 0.0, 0.0, 0.0, 0.0, 1.64449868949551E9, 0.0, 2022-02-11 00:11:29.495
194.0, -8906.007874728188, -10800.653493482292, -10372.885808096626, -16425.559392638133, -2389.893220650342, -1721.1513782920097, -4800.193583988379, -5871.579750964613, -17179.86371277138, -15752.861291511213, -20230.876830920795, -11876.264140160578, -6731.853691560471, -10984.36248116046, -10670.096954118842, -11280.880723104563, 0.008, -0.028, 0.992, 192.0, 0.0, 0.0, 0.0, 0.0, 0.0, 0.0, 0.0, 0.0, 0.0, 1.6444986894955175E9, 0.0, 2022-02-11 00:11:29.495
196.0, -8967.475171980283, -10858.186883710252, -10388.934360615536, -16428.599229884057, -2420.0010204316404, -1745.1795035814648, -4820.265450509244, -5887.270675572237, -17200.20380022571, -15762.919576516102, -20250.456959063646, -11883.528457108552, -6757.200569772789, -11000.07575751254, -10670.141657607754, -11283.965263839396, 0.008, -0.028, 0.992, 192.0, 0.0, 0.0, 0.0, 0.0, 0.0, 0.0, 0.0, 0.0, 0.0, 1.6444986894955246E9, 0.0, 2022-02-11 00:11:29.495
198.0, -9003.796756720158, -10894.44141321676, -10390.43192749404, -16426.76638683872, -2428.204110646738, -1742.6761082024705, -4822.366514488043, -5885.370777293537, -17216.297056233532, -15779.102239501744, -20275.110933197848, -11901.767480584083, -6781.519267740163, -11008.837641339022, -10679.104707134331, -11284.434650472958, 0.008, -0.028, 0.992, 192.0, 0.0, 0.0, 0.0, 0.0, 0.0, 0.0, 0.0, 0.0, 0.0, 1.6444986894955316E9, 0.0, 2022-02-11 00:11:29.495
200.0, -9047.36030666355, -10941.558890528548, -10392.264770539376, -16427.660456616934, -2429.1652356583163, -1746.4982565043279, -4827.842691879594, -5882.867381914542, -17243.320315279998, -15781.493876158462, -20282.19643619018, -11902.706253851207, -6795.891439424925, -11004.724920359246, -10679.328224578885, -11282.221827771882, 0.008, -0.028, 0.992, 192.0, 0.0, 0.0, 0.0, 0.0, 0.0, 0.0, 0.0, 0.0, 0.0, 1.6444986894955385E9, 0.0, 2022-02-11 00:11:29.495
202.0, -9103.262019546273, -11000.142812745908, -10397.495078741918, -16428.353360695048, -2446.6442998223665, -1752.1532478515207, -4830.413142491954, -5888.254152328272, -17249.154120582836, -15797.631835655195, -20309.845544081396, -11925.236812262156, -6801.948762172314, -11010.335208217528, -10679.752907723536, -11283.42882197247, 0.008, -0.034, 0.986, 192.0, 0.0, 32.0, 127.0, 120.0, 15.0, 104.0, 0.0, 0.0, 0.0, 1.6444986894955451E9, 0.0, 2022-02-11 00:11:29.495
204.0, -9121.121063366063, -11036.620859696968, -10393.605875206695, -16429.24743047326, -2446.599596333456, -1749.6722042169815, -4813.738741128295, -5871.847971898076, -17268.309565581032, -15809.500611960962, -20320.373215719846, -11935.853890878427, -6809.68246575385, -11009.575248906047, -10678.523561778495, -11277.885589347552, 0.008, -0.034, 0.986, 192.0, 0.0, 0.0, 0.0, 0.0, 0.0, 0.0, 0.0, 0.0, 0.0, 1.6444986894955523E9, 0.0, 2022-02-11 00:11:29.495
0.0, -2179.5856570703577, -3139.6377849147066, -3335.0367349430007, -6351.762277097974, 183.2396010446073, 296.7417593886566, -1421.3027264240654, -1888.7000547289915, -8638.1892726647, -7910.461176688812, -10167.741497485817, -5976.498839437823, -3422.2085383186986, -5504.228830841641, -5342.670421918681, -5636.774675461612, 0.01, -0.026000000000000002, 0.988, 192.0, 0.0, 40.0, 127.5, 24.0, 15.0, 112.0, 0.0, 0.0, 0.0, 1.644498689576719E9, 0.0, 2022-02-11 00:11:29.576
2.0, -4349.895340191762, -6279.4320320406005, -6665.625472739395, -12700.819993116856, 376.4480801162816, 606.581641028123, -2848.930996528983, -3767.945321553388, -11797.943627589182, -9695.91852377874, -15781.717393603016, -7660.188694022739, -2694.1675179204367, -6808.274305853165, -7334.054390675354, -7528.760436625534, 0.01, -0.026000000000000002, 0.988, 192.0, 0.0, 0.0, 0.0, 0.0, 0.0, 0.0, 0.0, 0.0, 0.0, 1.6444986900556808E9, 0.0, 2022-02-11 00:11:30.055
4.0, -4345.179122111693, -6271.228941825502, -6662.809152938027, -12705.26799026346, 384.8299842870217, 619.5233010677458, -2851.412040163522, -3767.677100619924, -11796.021377566025, -9690.218828942638, -15769.35687891923, -7659.696955644722, -2690.412424851945, -6795.064424880079, -7333.048562174865, -7523.753645867544, 0.01, -0.026000000000000002, 0.988, 192.0, 0.0, 0.0, 0.0, 0.0, 0.0, 0.0, 0.0, 0.0, 0.0, 1.6444986900557015E9, 0.0, 2022-02-11 00:11:30.055
6.0, -4353.046936159961, -6271.877142414706, -6666.944225662259, -12695.544981425403, 377.67742606132344, 617.8245684891425, -2859.413964678522, -3775.813135601656, -11796.468412455131, -9685.189686440193, -15772.30730918733, -7670.515199961091, -2682.0528724256606, -6814.711608256293, -7335.082570920297, -7529.6545064037455, 0.01, -0.026000000000000002, 0.986, 192.0, 0.0, 40.0, 127.5, 24.0, 15.0, 96.0, 0.0, 0.0, 0.0, 1.6444986900557084E9, 0.0, 2022-02-11 00:11:30.055
8.0, -4336.99838364105, -6276.012215138939, -6647.051173097036, -12684.637330131214, 394.82121405854394, 637.0470687207066, -2834.0447347217482, -3749.2816149332066, -11791.796897863973, -9679.400584626268, -15760.773809048393, -7645.280080471049, -2683.349273604068, -6791.756366700693, -7331.841567974278, -7520.512642921525, 0.01, -0.026000000000000002, 0.986, 192.0, 0.0, 0.0, 0.0, 0.0, 0.0, 0.0, 0.0, 0.0, 0.0, 1.6444986900557153E9, 0.0, 2022-02-11 00:11:30.055
10.0, -4347.14607562376, -6277.643892484176, -6659.121115102901, -12693.309806979873, 394.9776762697311, 627.5252255827457, -2841.4655138809103, -3768.8393913316004, -11796.267246755035, -9680.24995091557, -15756.035239223867, -7636.965231533674, -2684.489212571289, -6792.851602179004, -7327.035942916387, -7521.7866923554775, 0.01, -0.026000000000000002, 0.986, 192.0, 0.0, 0.0, 0.0, 0.0, 0.0, 0.0, 0.0, 0.0, 0.0, 1.6444986900557349E9, 0.0, 2022-02-11 00:11:30.055
12.0, -4336.685459218676, -6263.539941732877, -6650.806266165527, -12690.359376711773, 403.3148769515606, 641.517417611768, -2846.4276011499887, -3754.9366062803992, -11787.99710130657, -9676.494857847078, -15761.287899170864, -7643.804865336999, -2676.844915967574, -6788.470660265763, -7330.142835395674, -7526.860538346832, 0.01, -0.026000000000000002, 0.986, 192.0, 0.0, 0.0, 0.0, 0.0, 0.0, 0.0, 0.0, 0.0, 0.0, 1.6444986900557559E9, 0.0, 2022-02-11 00:11:30.055
14.0, -4328.8176451704085, -6252.542883460866, -6646.1794550632785, -12694.27093199145, 417.6646968918678, 645.8536560360976, -2835.899929511539, -3751.5391411231926, -11782.47622042611, -9670.526942077511, -15742.82535825078, -7640.809731579988, -2672.776898476708, -6781.027529362146, -7320.598640513259, -7517.20458474214, 0.01, -0.026000000000000002, 0.986, 192.0, 0.0, 0.0, 0.0, 0.0, 0.0, 0.0, 0.0, 0.0, 0.0, 1.6444986900557632E9, 0.0, 2022-02-11 00:11:30.055
16.0, -4338.652412730743, -6250.106543315237, -6654.8072284230275, -12690.649949389692, 416.0330195466304, 642.5679496011675, -2839.0068219908267, -3760.569245883137, -11785.314891971933, -9665.788372252986, -15757.912785758113, -7652.633804396845, -2665.1996571063587, -6773.785564158627, -7318.430521301094, -7519.171538254206, 0.009000000000000001, -0.026000000000000002, 0.984, 192.0, 0.0, 32.0, 127.5, 24.0, 15.0, 88.0, 0.0, 0.0, 0.0, 1.6444986900557709E9, 0.0, 2022-02-11 00:11:30.055
18.0, -4328.124741092293, -6249.883025870684, -6653.041440611058, -12682.871542319244, 429.3546592419934, 660.5611038876896, -2833.3294788991784, -3746.2194259428297, -11786.074851283414, -9654.500741303056, -15756.683439813072, -7643.51429265908, -2665.646691995465, -6779.1499828279, -7324.599602770759, -7516.668142875212, 0.009000000000000001, -0.026000000000000002, 0.984, 192.0, 0.0, 0.0, 0.0, 0.0, 0.0, 0.0, 0.0, 0.0, 0.0, 1.6444986900557911E9, 0.0, 2022-02-11 00:11:30.055
20.0, -4341.66989823221, -6252.9005113721505, -6650.046306854047, -12683.966777797554, 423.0961707945074, 657.7000805974103, -2841.1749412029912, -3754.60133011357, -11789.517019929532, -9662.502665818056, -15758.203358436032, -7639.334516445937, -2659.187037847881, -6767.43766873332, -7322.252669602951, -7515.483500419081, 0.009000000000000001, -0.026000000000000002, 0.984, 192.0, 0.0, 0.0, 0.0, 0.0, 0.0, 0.0, 0.0, 0.0, 0.0, 1.6444986900557978E9, 0.0, 2022-02-11 00:11:30.055
22.0, -4334.830264428886, -6244.764476390419, -6640.278594527077, -12679.921112051143, 436.55192095660226, 666.1713917459717, -2824.947574728438, -3750.667423089436, -11782.275054726011, -9660.423953583713, -15764.104218972234, -7645.011859537585, -2651.319223799613, -6751.1879505143115, -7319.21283235703, -7516.690494619667, 0.009000000000000001, -0.026000000000000002, 0.984, 192.0, 0.0, 0.0, 0.0, 0.0, 0.0, 0.0, 0.0, 0.0, 0.0, 1.6444986900558045E9, 0.0, 2022-02-11 00:11:30.055
24.0, -4322.961488123118, -6236.315516986313, -6634.869472368893, -12675.316652693351, 439.99408960271955, 673.32394997167, -2833.5976998326423, -3752.9249492794215, -11782.275054726011, -9645.828264454398, -15744.389980362652, -7626.594022106412, -2643.227892306792, -6749.980956313724, -7313.8260619433, -7514.455320174136, 0.009000000000000001, -0.026000000000000002, 0.984, 192.0, 0.0, 0.0, 0.0, 0.0, 0.0, 0.0, 0.0, 0.0, 0.0, 1.6444986900558116E9, 0.0, 2022-02-11 00:11:30.055
26.0, -4330.784598682475, -6234.437970452067, -6639.853911382426, -12668.767591567945, 440.7316971697447, 674.6874063834437, -2826.735714284863, -3738.6421845724803, -11782.14094425928, -9648.354011577847, -15749.93321298757, -7628.471568640658, -2637.751714915242, -6757.334680239521, -7314.563669510326, -7512.466014917614, 0.0055000000000000005, -0.027000000000000003, 0.984, 192.0, 0.0, 8.0, 127.5, 16.0, 15.0, 96.0, 0.0, 0.0, 0.0, 1.6444986900558183E9, 0.0, 2022-02-11 00:11:30.055
28.0, -4313.216127540604, -6218.054141766327, -6624.610021663907, -12664.252539187974, 459.7753834456663, 699.1625665620049, -2825.1263886840807, -3728.896823989967, -11773.088487754881, -9636.753456205543, -15735.784558747358, -7624.962344761175, -2634.2424910357586, -6754.473656949242, -7307.4781665179935, -7503.838241557866, 0.0055000000000000005, -0.027000000000000003, 0.984, 192.0, 0.0, 0.0, 0.0, 0.0, 0.0, 0.0, 0.0, 0.0, 0.0, 1.6444986900558252E9, 0.0, 2022-02-11 00:11:30.055
30.0, -4333.735028950576, -6240.450589710545, -6636.836425880961, -12674.042603259399, 451.14761008591773, 684.1645460324938, -2817.9067752250166, -3744.587748597592, -11776.865932567827, -9636.731104461087, -15726.933267943057, -7624.671772083256, -2630.934432856373, -6734.468845661741, -7304.795957183356, -7502.34067467936, 0.0055000000000000005, -0.027000000000000003, 0.984, 192.0, 0.0, 0.0, 0.0, 0.0, 0.0, 0.0, 0.0, 0.0, 0.0, 1.6444986900558317E9, 0.0, 2022-02-11 00:11:30.055
32.0, -4337.870101674807, -6231.5322436728775, -6638.043420081547, -12672.142704980697, 450.0970780965183, 694.8486798821307, -2800.7182837388855, -3733.9483182368663, -11788.622950151319, -9644.5765667649, -15754.11298920071, -7644.006031037096, -2637.1705695594037, -6736.86048231846, -7314.317800321317, -7511.080206761385, 0.0055000000000000005, -0.027000000000000003, 0.984, 192.0, 0.0, 0.0, 0.0, 0.0, 0.0, 0.0, 0.0, 0.0, 0.0, 1.644498690055838E9, 0.0, 2022-02-11 00:11:30.055
34.0, -4314.0878455743605, -6214.343752186746, -6634.2659752685995, -12673.304995692373, 463.1281451139623, 703.0741218416837, -2811.4024175885224, -3728.9638792233327, -11779.90576981375, -9638.631002739789, -15743.630021051173, -7624.962344761175, -2634.510711969222, -6729.193833970289, -7306.427634528593, -7504.799366569444, 0.0055000000000000005, -0.027000000000000003, 0.984, 192.0, 0.0, 0.0, 0.0, 0.0, 0.0, 0.0, 0.0, 0.0, 0.0, 1.6444986900558448E9, 0.0, 2022-02-11 00:11:30.055
36.0, -4352.644604759766, -6238.997726320949, -6648.906367886826, -12669.8404753018, 459.50716251220257, 698.7155316728988, -2819.002010703327, -3734.1941874258746, -11782.342109959378, -9637.356953305836, -15762.226672437988, -7631.936089031231, -2626.687601409865, -6729.126778736923, -7303.611314727225, -7505.9393055366645, 0.006750000000000001, -0.027500000000000004, 0.985, 192.0, 0.0, 32.0, 127.5, 16.0, 15.0, 104.0, 0.0, 0.0, 0.0, 1.6444986900558531E9, 0.0, 2022-02-11 00:11:30.055
38.0, -4342.76513371052, -6238.684801898576, -6636.612908436407, -12669.818123557345, 472.24765685172764, 708.416188766502, -2812.5870600446538, -3732.3389926360837, -11801.43049972421, -9644.442456298168, -15768.462809141018, -7631.51140588658, -2630.777970645186, -6729.8867380484035, -7299.230372813985, -7506.051064258942, 0.006750000000000001, -0.027500000000000004, 0.985, 192.0, 0.0, 0.0, 0.0, 0.0, 0.0, 0.0, 0.0, 0.0, 0.0, 1.6444986900558596E9, 0.0, 2022-02-11 00:11:30.055
40.0, -4346.564930267922, -6239.5788716767875, -6638.445751481742, -12676.590702127303, 465.8103544485992, 700.5260229737786, -2831.0496009647372, -3755.584806869603, -11803.196287536179, -9648.28695634448, -15757.935137502569, -7635.467664655169, -2628.7216101552976, -6730.534938637607, -7298.246896057952, -7512.555421895436, 0.006750000000000001, -0.027500000000000004, 0.985, 192.0, 0.0, 0.0, 0.0, 0.0, 0.0, 0.0, 0.0, 0.0, 0.0, 1.644498690055866E9, 0.0, 2022-02-11 00:11:30.055
42.0, -4340.775828453998, -6236.181406519581, -6634.668306668796, -12681.03869927391, 479.10964239950687, 712.9088894020188, -2814.419903089989, -3718.167986651419, -11789.718185629628, -9651.885587201785, -15758.985669491967, -7651.963252063186, -2618.1492350279373, -6713.592316340485, -7303.767776938413, -7517.718674864612, 0.006750000000000001, -0.027500000000000004, 0.985, 192.0, 0.0, 0.0, 0.0, 0.0, 0.0, 0.0, 0.0, 0.0, 0.0, 1.6444986900558732E9, 0.0, 2022-02-11 00:11:30.055
44.0, -4338.42889528619, -6231.5322436728775, -6641.597347449941, -12679.451725417583, 485.59164829154594, 719.480302271879, -2792.31402782369, -3703.3264283330955, -11799.262380512046, -9646.275299343502, -15751.676649055082, -7646.554129905001, -2622.4407699633566, -6729.819682815038, -7296.659922201625, -7509.135604993774, 0.006750000000000001, -0.027500000000000004, 0.985, 192.0, 0.0, 0.0, 0.0, 0.0, 0.0, 0.0, 0.0, 0.0, 0.0, 1.6444986900558796E9, 0.0, 2022-02-11 00:11:30.055
46.0, -4351.549369281455, -6226.99483954845, -6650.783914421072, -12674.020251514943, 469.654854494912, 717.4909970153567, -2808.2061181314134, -3712.915326704422, -11806.929028860215, -9643.302517330947, -15773.0225650099, -7640.697972857711, -2626.70995315432, -6736.525206151629, -7301.44319551506, -7511.370779439304, 0.004375, -0.025750000000000002, 0.9844999999999999, 192.0, 0.0, 8.0, 127.5, 32.0, 15.0, 96.0, 0.0, 0.0, 0.0, 1.6444986900558865E9, 0.0, 2022-02-11 00:11:30.055
48.0, -4337.311308063425, -6230.146435516648, -6640.479760227176, -12666.800638055878, 486.8880494699537, 733.7183634899096, -2797.991370915338, -3709.8084342251345, -11803.643322425285, -9630.539671246966, -15770.809742308826, -7630.863205297376, -2628.1181130550044, -6721.750703066672, -7302.7843001823785, -7503.570020624402, 0.004375, -0.025750000000000002, 0.9844999999999999, 192.0, 0.0, 0.0, 0.0, 0.0, 0.0, 0.0, 0.0, 0.0, 0.0, 1.6444986900558934E9, 0.0, 2022-02-11 00:11:30.055
50.0, -4346.654337245744, -6234.61678440771, -6645.911234129815, -12674.757859081968, 485.61400003600124, 723.6153749961109, -2802.349961084123, -3725.1640826659304, -11807.353712004866, -9639.234499840082, -15765.624137595194, -7630.215004708172, -2626.5981944320433, -6719.604935598963, -7297.665750702114, -7507.615686370813, 0.004375, -0.025750000000000002, 0.9844999999999999, 192.0, 0.0, 0.0, 0.0, 0.0, 0.0, 0.0, 0.0, 0.0, 0.0, 1.6444986900559E9, 0.0, 2022-02-11 00:11:30.055
52.0, -4337.311308063425, -6220.535185400866, -6640.636222438362, -12676.680109105124, 495.3370088740598, 725.8505494416415, -2808.407283831511, -3728.583899567592, -11801.072871812925, -9637.267546328014, -15776.420030167108, -7662.602682423912, -2615.556432671122, -6717.526223364619, -7302.3149135488175, -7513.181270740184, 0.004375, -0.025750000000000002, 0.9844999999999999, 192.0, 0.0, 0.0, 0.0, 0.0, 0.0, 0.0, 0.0, 0.0, 0.0, 1.6444986900559063E9, 0.0, 2022-02-11 00:11:30.055
54.0, -4338.138322608272, -6233.253327995936, -6633.774236890583, -12680.41285042916, 504.7247415452888, 735.126523390594, -2801.858222706106, -3728.0027542117546, -11799.932932845704, -9643.503683031046, -15758.0692479693, -7641.837911824931, -2612.4942436807446, -6701.701188290262, -7296.7940326683565, -7510.968448039109, 0.004375, -0.025750000000000002, 0.9844999999999999, 192.0, 0.0, 0.0, 0.0, 0.0, 0.0, 0.0, 0.0, 0.0, 0.0, 1.644498690055913E9, 0.0, 2022-02-11 00:11:30.055
56.0, -4356.980843184095, -6239.735333887975, -6646.961766119214, -12691.007577300976, 486.7315872587666, 726.6999157309432, -2815.0457519347374, -3735.8035130266567, -11803.464508469642, -9648.443418555667, -15769.222768452499, -7649.862188084387, -2614.617659403999, -6689.27361837311, -7301.6667129596135, -7518.255116731539, 0.0051875, -0.025875000000000002, 0.98325, 192.0, 0.0, 24.0, 127.5, 24.0, 15.0, 88.0, 0.0, 0.0, 0.0, 1.6444986900559196E9, 0.0, 2022-02-11 00:11:30.055
58.0, -4346.2520058455475, -6230.5934704057545, -6633.528367701575, -12677.104792249775, 508.524538102691, 730.1644361215158, -2802.1711471284807, -3741.011469484743, -11808.538354460998, -9644.733028976087, -15773.626062110194, -7646.1070950158955, -2613.5671274145993, -6706.260944159144, -7308.327532807295, -7522.971334811608, 0.0051875, -0.025875000000000002, 0.98325, 192.0, 0.0, 0.0, 0.0, 0.0, 0.0, 0.0, 0.0, 0.0, 0.0, 1.6444986900559263E9, 0.0, 2022-02-11 00:11:30.055
60.0, -4354.544503038466, -6229.855862838729, -6640.658574182818, -12681.46338241856, 495.1134914295067, 724.7776657077868, -2824.7240572838855, -3734.462408359338, -11813.72395917463, -9638.988630651073, -15769.870969041702, -7633.299545443005, -2614.5059006817223, -6715.402807641364, -7307.4781665179935, -7523.1948522561615, 0.0051875, -0.025875000000000002, 0.98325, 192.0, 0.0, 0.0, 0.0, 0.0, 0.0, 0.0, 0.0, 0.0, 0.0, 1.6444986900559328E9, 0.0, 2022-02-11 00:11:30.055
62.0, -4352.331680337391, -6232.493368684455, -6638.222234037189, -12676.568350382848, 500.9696484767972, 737.1158286471164, -2822.0418479492487, -3737.1222659495197, -11812.695778929685, -9643.81660745342, -15778.610501123727, -7648.677545628256, -2615.779950115675, -6712.988819240191, -7312.060274131331, -7527.285221491483, 0.0051875, -0.025875000000000002, 0.98325, 192.0, 0.0, 0.0, 0.0, 0.0, 0.0, 0.0, 0.0, 0.0, 0.0, 1.6444986900559397E9, 0.0, 2022-02-11 00:11:30.055
64.0, -4354.1198198938155, -6236.80725536433, -6641.999678850136, -12681.709251607568, 500.5449653321464, 739.8874449595744, -2817.7503130138293, -3735.8929200044777, -11816.205002809169, -9642.38609580828, -15764.975937005991, -7636.004106522097, -2622.1501972854376, -6704.629266813907, -7311.568535753315, -7524.558308667935, 0.0051875, -0.025875000000000002, 0.98325, 192.0, 0.0, 0.0, 0.0, 0.0, 0.0, 0.0, 0.0, 0.0, 0.0, 1.644498690055946E9, 0.0, 2022-02-11 00:11:30.055
66.0, -4372.492953836078, -6239.668278654609, -6656.885940657371, -12687.945388310598, 492.23011639477215, 735.0371164127728, -2799.7124552383966, -3735.2000159263634, -11828.766683193051, -9646.6776307437, -15784.89134131567, -7654.757220120099, -2630.4426944783563, -6703.578734824507, -7318.184652112085, -7529.028657558997, 0.006593750000000001, -0.0249375, 0.984625, 192.0, 0.0, 32.0, 127.5, 32.0, 15.0, 104.0, 0.0, 0.0, 0.0, 1.6444986900559528E9, 0.0, 2022-02-11 00:11:30.055
68.0, -4354.8797792052965, -6228.894737827151, -6642.670231183795, -12681.41867892965, 509.73153230327756, 747.2411688853704, -2788.536583010743, -3729.0979896900644, -11826.889136658805, -9640.419142296212, -15786.12068726071, -7650.420981695769, -2629.9509561003397, -6699.80129001156, -7313.267268331918, -7527.329924980394, 0.006593750000000001, -0.0249375, 0.984625, 192.0, 0.0, 0.0, 0.0, 0.0, 0.0, 0.0, 0.0, 0.0, 0.0, 1.6444986900559611E9, 0.0, 2022-02-11 00:11:30.055
70.0, -4367.732032267098, -6233.387438462668, -6648.12405683089, -12691.879295334733, 505.88703225696474, 737.7193257474096, -2800.4947662943323, -3732.495454847271, -11825.43627326921, -9643.302517330947, -15776.867065056214, -7640.541510646523, -2624.295964753147, -6690.994702696169, -7306.360579295228, -7530.995611071064, 0.006593750000000001, -0.0249375, 0.984625, 192.0, 0.0, 0.0, 0.0, 0.0, 0.0, 0.0, 0.0, 0.0, 0.0, 1.644498690055968E9, 0.0, 2022-02-11 00:11:30.055
72.0, -4366.3238723664135, -6234.192101263059, -6652.236777810666, -12687.69951912159, 509.64212532545633, 754.5725410667111, -2803.445196562433, -3715.6422395279697, -11829.414883782254, -9649.404543567247, -15796.111917032233, -7655.22660675366, -2624.0500955641387, -6696.582638809996, -7313.513137520927, -7533.186082027684, 0.006593750000000001, -0.0249375, 0.984625, 192.0, 0.0, 0.0, 0.0, 0.0, 0.0, 0.0, 0.0, 0.0, 0.0, 1.6444986900559745E9, 0.0, 2022-02-11 00:11:30.055
74.0, -4361.987633942083, -6238.707153643031, -6645.687716685262, -12687.833629588322, 517.6440498404563, 751.1303724205939, -2787.21783008788, -3718.7044285183465, -11830.040732627003, -9639.458017284634, -15788.1770477506, -7637.792246078521, -2626.6652496654096, -6696.202659154255, -7306.651151973147, -7526.7264278801, 0.006593750000000001, -0.0249375, 0.984625, 192.0, 0.0, 0.0, 0.0, 0.0, 0.0, 0.0, 0.0, 0.0, 0.0, 1.6444986900559807E9, 0.0, 2022-02-11 00:11:30.055
76.0, -4376.0692329489275, -6248.452514225544, -6664.12790586089, -12697.020196559453, 502.6907327998558, 738.6580990145325, -2802.9087546955056, -3736.2281961713074, -11840.3448868209, -9655.260700614537, -15807.332492748797, -7661.865074856887, -2633.326069513091, -6698.3037231330545, -7310.249782830451, -7536.136512295785, 0.008, -0.03, 0.988, 192.0, 0.0, 32.0, 127.5, 8.0, 15.0, 112.0, 0.0, 0.0, 0.0, 1.6444986900559876E9, 0.0, 2022-02-11 00:11:30.055
78.0, -4377.812669016441, -6232.202796006536, -6656.908292401826, -12701.267028005961, 520.393314408459, 742.2567298718369, -2794.12451912457, -3724.694696032369, -11839.361410064867, -9649.181026122693, -15800.537562434383, -7674.516162218591, -2632.6331654349765, -6710.351313394465, -7317.491748033971, -7539.6904396641785, 0.008, -0.03, 0.988, 192.0, 0.0, 0.0, 0.0, 0.0, 0.0, 0.0, 0.0, 0.0, 0.0, 1.644498690055994E9, 0.0, 2022-02-11 00:11:30.055
80.0, -4390.888439522796, -6259.181351564092, -6660.350461047943, -12702.18344952863, 511.6984858153446, 746.5482648072559, -2801.925277939472, -3725.946393721866, -11848.480921802631, -9646.945851677163, -15796.335434476787, -7668.749412149122, -2636.5447207146553, -6710.239554672188, -7316.955306167043, -7539.82455013091, 0.008, -0.03, 0.988, 192.0, 0.0, 0.0, 0.0, 0.0, 0.0, 0.0, 0.0, 0.0, 0.0, 1.6444986900560012E9, 0.0, 2022-02-11 00:11:30.056
82.0, -4388.474451121623, -6253.727525916997, -6663.4350017827755, -12701.021158816953, 511.51967185970216, 750.124543920105, -2803.9369349404496, -3726.080504188598, -11848.749142736095, -9659.641642527777, -15808.561838693839, -7667.542417948534, -2633.907214868929, -6690.726481762706, -7322.409131814138, -7537.835244874388, 0.008, -0.03, 0.988, 192.0, 0.0, 0.0, 0.0, 0.0, 0.0, 0.0, 0.0, 0.0, 0.0, 1.6444986900560079E9, 0.0, 2022-02-11 00:11:30.056
84.0, -4393.302427923969, -6256.230921295992, -6671.973368164703, -12705.826783874845, 508.9268695028865, 752.3373666211804, -2798.9748476713717, -3727.8686437450224, -11856.281680617534, -9644.978898165095, -15802.728033391004, -7661.976833579163, -2647.519427242211, -6695.532106820597, -7326.6112597717365, -7541.992669343075, 0.008, -0.03, 0.988, 192.0, 0.0, 0.0, 0.0, 0.0, 0.0, 0.0, 0.0, 0.0, 0.0, 1.6444986900560143E9, 0.0, 2022-02-11 00:11:30.056
86.0, -4401.416111161246, -6258.399040508157, -6681.808135725038, -12706.854964119788, 506.1329014459731, 755.7124800339318, -2813.928164711972, -3740.2515101732624, -11868.798657512505, -9668.5823403099, -15826.242068557987, -7671.744545906133, -2651.4756860108005, -6702.639961557385, -7338.4129808441385, -7553.347355526371, 0.01, -0.028, 0.99, 192.0, 0.0, 40.0, 127.5, 16.0, 15.0, 120.0, 0.0, 0.0, 0.0, 1.6444986900560217E9, 0.0, 2022-02-11 00:11:30.056
88.0, -4393.749462813075, -6252.520531716411, -6664.798458194549, -12706.720853653056, 527.814093567621, 767.380090639602, -2786.2343533318467, -3713.7646929937237, -11863.68010803224, -9651.706773246142, -15823.22458305652, -7664.6590429138005, -2642.8032091621412, -6682.746908992161, -7335.7084197650465, -7548.139399068285, 0.01, -0.028, 0.99, 192.0, 0.0, 0.0, 0.0, 0.0, 0.0, 0.0, 0.0, 0.0, 0.0, 1.6444986900560284E9, 0.0, 2022-02-11 00:11:30.056
90.0, -4411.787320588508, -6267.272683056914, -6678.924760690304, -12722.076502093852, 511.7431893042552, 755.3772038671021, -2811.93885945545, -3738.888053761489, -11873.090192447924, -9667.375346109313, -15819.000103354467, -7678.114793075895, -2644.6360522074765, -6690.413557340331, -7328.913489450632, -7554.263777049038, 0.01, -0.028, 0.99, 192.0, 0.0, 0.0, 0.0, 0.0, 0.0, 0.0, 0.0, 0.0, 0.0, 1.6444986900560348E9, 0.0, 2022-02-11 00:11:30.056
92.0, -4418.023457291539, -6283.544753020376, -6684.490345059675, -12721.42830150465, 503.3389333890597, 749.2528258863481, -2822.935917727461, -3731.243757157774, -11878.141686694824, -9670.325776377413, -15840.27896407592, -7695.929133406775, -2650.6039679770433, -6695.42034809832, -7344.962041969543, -7560.790486429988, 0.01, -0.028, 0.99, 192.0, 0.0, 0.0, 0.0, 0.0, 0.0, 0.0, 0.0, 0.0, 0.0, 1.644498690056042E9, 0.0, 2022-02-11 00:11:30.056
94.0, -4417.531718913522, -6288.260971100446, -6680.511734546631, -12729.586688230836, 509.37390439199265, 744.5589595507336, -2814.1069786676144, -3746.7111643208464, -11885.763631554084, -9681.38988988279, -15832.94759189458, -7692.889296160853, -2656.7954011911634, -6709.233726171699, -7343.665640791135, -7562.824495175421, 0.01, -0.028, 0.99, 192.0, 0.0, 0.0, 0.0, 0.0, 0.0, 0.0, 0.0, 0.0, 0.0, 1.6444986900560484E9, 0.0, 2022-02-11 00:11:30.056
96.0, -4421.644439893298, -6278.0238721399155, -6691.620551540917, -12725.250449806506, 499.04739845364077, 751.9797387098955, -2820.5442810707427, -3720.0678849301203, -11889.362262411389, -9677.746555536576, -15842.871766432736, -7699.863040430909, -2658.740002958775, -6710.977162239214, -7346.54901582587, -7568.390079544793, 0.012, -0.026000000000000002, 0.988, 192.0, 0.0, 48.0, 127.5, 24.0, 15.0, 112.0, 0.0, 0.0, 0.0, 1.644498690056055E9, 0.0, 2022-02-11 00:11:30.056
98.0, -4422.87378583834, -6277.018043639427, -6685.205600882245, -12722.635295705235, 514.2912881721602, 767.6259598286105, -2793.1633941129917, -3718.9950011962655, -11886.411832143287, -9676.070174702427, -15846.112769378755, -7690.7211769486885, -2662.2492268382584, -6699.689531289284, -7344.000916957965, -7557.437724761692, 0.012, -0.026000000000000002, 0.988, 192.0, 0.0, 0.0, 0.0, 0.0, 0.0, 0.0, 0.0, 0.0, 0.0, 1.6444986900560615E9, 0.0, 2022-02-11 00:11:30.056
100.0, -4435.144893544304, -6282.851848942262, -6694.70509227575, -12732.380656287749, 502.84719501104297, 764.0496807157613, -2812.4305978334664, -3733.233062414296, -11894.413756658287, -9682.954511994662, -15841.41890304314, -7689.514182748102, -2664.19382860587, -6695.219182398222, -7345.029097202909, -7562.891550408787, 0.012, -0.026000000000000002, 0.988, 192.0, 0.0, 0.0, 0.0, 0.0, 0.0, 0.0, 0.0, 0.0, 0.0, 1.64449869005607E9, 0.0, 2022-02-11 00:11:30.056
102.0, -4440.151684302293, -6286.159907121648, -6695.08507193149, -12730.99484813152, 508.09985495804017, 761.6356923145881, -2808.2731733647793, -3733.657745558947, -11901.2086869727, -9676.919540991728, -15862.831874231324, -7704.825127699987, -2666.451354795856, -6688.670121272818, -7355.623824074724, -7568.948873156175, 0.012, -0.026000000000000002, 0.988, 192.0, 0.0, 0.0, 0.0, 0.0, 0.0, 0.0, 0.0, 0.0, 0.0, 1.6444986900560763E9, 0.0, 2022-02-11 00:11:30.056
104.0, -4427.5453004295, -6270.379575536201, -6687.507830561141, -12728.871432408267, 522.5837853650792, 765.0555092162501, -2806.730902997363, -3730.9755362243104, -11902.885067806848, -9659.038145427483, -15849.75610372497, -7696.175002595784, -2667.3677763185237, -6716.989781497691, -7350.147646683175, -7567.227788833116, 0.012, -0.026000000000000002, 0.988, 192.0, 0.0, 0.0, 0.0, 0.0, 0.0, 0.0, 0.0, 0.0, 0.0, 1.644498690056083E9, 0.0, 2022-02-11 00:11:30.056
106.0, -4436.977736589639, -6276.973340150516, -6696.180307409801, -12733.744112699524, 514.9171370169088, 759.512276591334, -2810.4189408324887, -3736.8763967605114, -11899.286436949544, -9676.360747380346, -15852.527720037428, -7711.329485336481, -2656.90715991344, -6696.046196943069, -7348.515969337937, -7571.787544702, 0.012, -0.028, 0.986, 192.0, 0.0, 48.0, 127.5, 16.0, 15.0, 104.0, 0.0, 0.0, 0.0, 1.6444986900560896E9, 0.0, 2022-02-11 00:11:30.056
108.0, -4429.266384752558, -6276.548657005866, -6687.999568939158, -12740.226118591561, 527.7023348453445, 768.8553057736524, -2813.905812967517, -3738.97746073931, -11896.537172381542, -9679.758212537554, -15850.560766525361, -7698.991322397152, -2654.269654067714, -6689.072452673013, -7348.381858871206, -7571.5640272574465, 0.012, -0.028, 0.986, 192.0, 0.0, 0.0, 0.0, 0.0, 0.0, 0.0, 0.0, 0.0, 0.0, 1.644498690056096E9, 0.0, 2022-02-11 00:11:30.056
110.0, -4446.186655305226, -6288.395081567179, -6702.014112712635, -12748.652726251214, 513.3078114161267, 754.2372648998816, -2833.217720176902, -3753.7743155687235, -11907.958913798204, -9686.10610796286, -15854.584080527316, -7704.6686654888, -2659.254093081247, -6697.499060332663, -7353.992146729487, -7583.49985879658, 0.012, -0.028, 0.986, 192.0, 0.0, 0.0, 0.0, 0.0, 0.0, 0.0, 0.0, 0.0, 0.0, 1.6444986900561025E9, 0.0, 2022-02-11 00:11:30.056
112.0, -4450.813466407474, -6304.53304106391, -6706.350351136965, -12746.484607039049, 505.0823694565737, 761.255712658848, -2849.4227349069997, -3744.1630654529413, -11912.652780133818, -9690.799974298474, -15876.645252304705, -7724.226441887194, -2670.6981862423645, -6702.103519690457, -7367.202027702574, -7587.947855943186, 0.012, -0.028, 0.986, 192.0, 0.0, 0.0, 0.0, 0.0, 0.0, 0.0, 0.0, 0.0, 0.0, 1.6444986900561106E9, 0.0, 2022-02-11 00:11:30.056
114.0, -4454.83678040943, -6310.992695211494, -6706.1715371813225, -12753.391296075737, 519.7004103303445, 771.4257563860126, -2829.3508683861337, -3741.4808561183045, -11920.78881511555, -9688.765965553042, -15870.878502235235, -7714.48108130468, -2673.805078721652, -6697.789633010582, -7364.74333581249, -7586.78556523151, 0.012, -0.028, 0.986, 192.0, 0.0, 0.0, 0.0, 0.0, 0.0, 0.0, 0.0, 0.0, 0.0, 1.6444986900561173E9, 0.0, 2022-02-11 00:11:30.056
116.0, -4467.957254404695, -6308.064616687849, -6718.487348376197, -12755.71587749909, 516.0570759841295, 770.062299974239, -2820.5889845596535, -3749.013393999743, -11929.438940219754, -9700.567686625443, -15887.66466232117, -7726.305154121537, -2670.7875932201855, -6691.79936549656, -7366.285606179907, -7591.88176296732, 0.01, -0.028, 0.986, 192.0, 0.0, 40.0, 127.5, 16.0, 15.0, 104.0, 0.0, 0.0, 0.0, 1.6444986900561242E9, 0.0, 2022-02-11 00:11:30.056
118.0, -4466.638501481832, -6311.976171967527, -6712.452377373264, -12754.911214698699, 530.0939715020623, 773.4821168759009, -2812.542356555743, -3734.015373470232, -11929.505995453119, -9699.96418952515, -15890.637444333726, -7729.702619278743, -2667.345424574068, -6695.554458565052, -7365.749164312979, -7590.004216433074, 0.01, -0.028, 0.986, 192.0, 0.0, 0.0, 0.0, 0.0, 0.0, 0.0, 0.0, 0.0, 0.0, 1.644498690056131E9, 0.0, 2022-02-11 00:11:30.056
120.0, -4483.64817901232, -6319.598116826787, -6726.8916042913925, -12763.270767124983, 516.4147038954144, 763.8932185045742, -2830.3119933977123, -3748.499303877271, -11946.090989838958, -9700.29946569198, -15893.856095535291, -7727.646258788855, -2683.572791048621, -6713.27939191811, -7371.292396937895, -7594.429861835225, 0.01, -0.028, 0.986, 192.0, 0.0, 0.0, 0.0, 0.0, 0.0, 0.0, 0.0, 0.0, 0.0, 1.644498690056137E9, 0.0, 2022-02-11 00:11:30.056
122.0, -4480.69774874422, -6317.7652737814515, -6722.868290289437, -12757.638127522247, 522.8967097874535, 770.1740586965154, -2818.6220310475865, -3731.847254258067, -11944.45931249372, -9700.165355225248, -15903.936732284634, -7738.017468216118, -2684.57861954911, -6706.886793003892, -7378.824934819333, -7595.703911269178, 0.01, -0.028, 0.986, 192.0, 0.0, 0.0, 0.0, 0.0, 0.0, 0.0, 0.0, 0.0, 0.0, 1.6444986905350056E9, 0.0, 2022-02-11 00:11:30.535
124.0, -4470.840629439429, -6314.501919090977, -6717.682685575805, -12763.069601424886, 527.9705557788081, 767.8718290176188, -2826.2663276513017, -3737.8822252610003, -11942.51471072611, -9697.863125546352, -15889.631615833237, -7727.24392738866, -2679.4600700688447, -6702.148223179367, -7368.967815514543, -7594.02753043503, 0.01, -0.028, 0.986, 192.0, 0.0, 0.0, 0.0, 0.0, 0.0, 0.0, 0.0, 0.0, 0.0, 1.6444986905351634E9, 0.0, 2022-02-11 00:11:30.535
126.0, -4493.79587099503, -6322.213270928058, -6737.329868952021, -12772.770258518489, 511.5867270930681, 751.5774073097, -2847.478133139388, -3753.684908590902, -11949.399048018342, -9702.847564559885, -15908.0047497755, -7747.963994498729, -2684.6233230380208, -6717.906203020359, -7378.891990052699, -7608.667923053256, 0.008, -0.028, 0.984, 192.0, 0.0, 32.0, 127.5, 16.0, 15.0, 96.0, 0.0, 0.0, 0.0, 1.6444986905351713E9, 0.0, 2022-02-11 00:11:30.535
128.0, -4487.023292425071, -6326.236584930013, -6725.572851368529, -12773.418459107694, 530.0269162686964, 766.5977795836664, -2820.633688048564, -3740.206806684352, -11950.60604221893, -9704.591000627399, -15911.357511443795, -7748.589843343479, -2684.220991637825, -6717.99560999818, -7383.429394177127, -7610.165489931762, 0.008, -0.028, 0.984, 192.0, 0.0, 0.0, 0.0, 0.0, 0.0, 0.0, 0.0, 0.0, 0.0, 1.6444986905351791E9, 0.0, 2022-02-11 00:11:30.535
130.0, -4499.406158853311, -6339.4464659031, -6734.245328217188, -12780.593369077847, 520.0356864971741, 760.4510498584569, -2836.257557422824, -3752.366155668039, -11955.299908554543, -9718.717303123154, -15900.47221189406, -7745.81822703102, -2678.968331690828, -6710.083092461002, -7378.042623763397, -7611.372484132348, 0.008, -0.028, 0.984, 192.0, 0.0, 0.0, 0.0, 0.0, 0.0, 0.0, 0.0, 0.0, 0.0, 1.6444986905351863E9, 0.0, 2022-02-11 00:11:30.535
132.0, -4505.351722878423, -6341.547529881898, -6742.962508554758, -12777.821752765389, 521.9355847758752, 765.8378202721859, -2840.0350022357707, -3753.0590597461537, -11959.055001623035, -9721.287753735514, -15920.007636548, -7754.758924813143, -2681.4717270698225, -6708.585525582496, -7390.93958031411, -7618.949725502697, 0.008, -0.028, 0.984, 192.0, 0.0, 0.0, 0.0, 0.0, 0.0, 0.0, 0.0, 0.0, 0.0, 1.6444986905352E9, 0.0, 2022-02-11 00:11:30.535
134.0, -4499.987304209149, -6342.195730471102, -6733.351258438976, -12783.901427257231, 525.847140055554, 774.3314831652026, -2829.1720544304912, -3747.202902698863, -11956.976289388693, -9711.900021064284, -15905.188429974132, -7744.2536049191485, -2682.231686381303, -6693.855725986448, -7387.117432012253, -7617.273344668549, 0.008, -0.028, 0.984, 192.0, 0.0, 0.0, 0.0, 0.0, 0.0, 0.0, 0.0, 0.0, 0.0, 1.644498690535207E9, 0.0, 2022-02-11 00:11:30.535
136.0, -4508.950353735728, -6332.048038488393, -6747.544616168096, -12788.639997081757, 510.1562154479284, 760.7192707919206, -2846.2040837054356, -3766.693623863891, -11965.55935925953, -9708.390797184802, -15921.371092959775, -7763.185532472794, -2687.9537329618615, -6706.998551726169, -7397.242772250506, -7623.8671092828645, 0.006, -0.03, 0.984, 192.0, 0.0, 24.0, 127.5, 8.0, 15.0, 96.0, 0.0, 0.0, 0.0, 1.6444986905352137E9, 0.0, 2022-02-11 00:11:30.535
138.0, -4504.5023565891215, -6348.92360555215, -6738.38040094142, -12785.801325535933, 520.4827213862802, 771.6045703416551, -2845.6229383495975, -3752.1873417123966, -11965.581711003984, -9728.68618115022, -15925.43911045064, -7768.9075790533525, -2683.9527707043617, -6710.194851183278, -7402.428376964138, -7629.343286674415, 0.006, -0.03, 0.984, 192.0, 0.0, 0.0, 0.0, 0.0, 0.0, 0.0, 0.0, 0.0, 0.0, 1.6444986905352209E9, 0.0, 2022-02-11 00:11:30.535
140.0, -4513.398350882334, -6351.784628842429, -6741.822569587537, -12790.897523271744, 515.3641719060149, 767.0001109838619, -2849.7803628182846, -3760.144562738486, -11970.432039550788, -9727.278021249536, -15920.007636548, -7760.905654538353, -2683.5057358152553, -6706.573868581519, -7401.422548463649, -7629.276231441049, 0.006, -0.03, 0.984, 192.0, 0.0, 0.0, 0.0, 0.0, 0.0, 0.0, 0.0, 0.0, 0.0, 1.644498690535228E9, 0.0, 2022-02-11 00:11:30.535
142.0, -4516.169967194792, -6344.810884572374, -6747.924595823836, -12790.33872966036, 513.9783637497859, 768.9670644959289, -2865.2701217258123, -3750.041574244687, -11974.589464019475, -9727.434483460724, -15939.118378057288, -7773.601445388967, -2682.4105003369455, -6707.892621504381, -7409.603286934292, -7635.154740232795, 0.006, -0.03, 0.984, 192.0, 0.0, 0.0, 0.0, 0.0, 0.0, 0.0, 0.0, 0.0, 0.0, 1.6444986905352352E9, 0.0, 2022-02-11 00:11:30.535
144.0, -4519.165100951803, -6346.6437276177085, -6752.774924370638, -12800.419366409704, 518.7839888076769, 767.6036080841551, -2824.858167750617, -3768.302949464673, -11980.870304211416, -9725.445178204202, -15936.033837322455, -7770.382794187402, -2686.612628294543, -6707.4008831263645, -7407.815147377867, -7636.27232745556, 0.006, -0.028999999999999998, 0.984, 192.0, 0.0, 24.0, 127.5, 16.0, 15.0, 96.0, 0.0, 0.0, 0.0, 1.6444986905352428E9, 0.0, 2022-02-11 00:11:30.535
146.0, -4533.894900547851, -6355.7408876110185, -6762.028546575135, -12805.314398445416, 498.5109565867134, 767.2459801728702, -2843.097191226148, -3755.495399891782, -11990.570961305018, -9732.5977364299, -15948.193186306142, -7779.234084991705, -2695.665084798942, -6723.181214711812, -7411.011446834976, -7646.241205482627, 0.006, -0.028999999999999998, 0.984, 192.0, 0.0, 0.0, 0.0, 0.0, 0.0, 0.0, 0.0, 0.0, 0.0, 1.64449869053525E9, 0.0, 2022-02-11 00:11:30.535
148.0, -4517.287554417558, -6349.482399163533, -6752.104372036979, -12805.6720263567, 505.55175609013514, 778.7124250784427, -2866.3877089485777, -3753.9978330132767, -11980.84795246696, -9730.608431173378, -15944.482796726561, -7786.878381595419, -2701.163613934948, -6703.310513891043, -7417.024066093453, -7641.793208336021, 0.006, -0.028999999999999998, 0.984, 192.0, 0.0, 0.0, 0.0, 0.0, 0.0, 0.0, 0.0, 0.0, 0.0, 1.644498690535257E9, 0.0, 2022-02-11 00:11:30.535
150.0, -4542.925005307795, -6361.328823724845, -6761.737973897216, -12817.853727084843, 497.63923855295644, 757.8582475016412, -2859.3692611896113, -3779.1658972699524, -11992.090879927979, -9732.150701540793, -15940.168910046687, -7793.427442720824, -2703.845823269585, -6719.537880365597, -7417.426397493648, -7652.767914863577, 0.006, -0.028999999999999998, 0.984, 192.0, 0.0, 0.0, 0.0, 0.0, 0.0, 0.0, 0.0, 0.0, 0.0, 1.6444986905352647E9, 0.0, 2022-02-11 00:11:30.535
152.0, -4550.301080978046, -6374.002262831004, -6768.085869322524, -12814.210392738629, 502.46721535530276, 761.6356923145881, -2864.979549047893, -3775.74608036829, -12005.256057412154, -9752.177864572748, -15964.48760801406, -7797.227239278226, -2706.5280326042216, -6718.777921054116, -7426.747074931512, -7663.474400457669, 0.006, -0.028999999999999998, 0.984, 192.0, 0.0, 0.0, 0.0, 0.0, 0.0, 0.0, 0.0, 0.0, 0.0, 1.6444986905352716E9, 0.0, 2022-02-11 00:11:30.535
154.0, -4543.930833808284, -6368.660195906186, -6764.263721020666, -12817.876078829298, 508.74805554724406, 763.2673696598256, -2864.4207554365107, -3774.919065823444, -12009.122909202923, -9750.725001183153, -15954.697543942637, -7786.118422283938, -2704.784596536708, -6715.358104152454, -7424.176624319151, -7662.669737657277, 0.007, -0.028499999999999998, 0.984, 192.0, 0.0, 32.0, 127.5, 16.0, 15.0, 96.0, 0.0, 0.0, 0.0, 1.644498690535279E9, 0.0, 2022-02-11 00:11:30.535
156.0, -4561.2087322722355, -6379.254922778002, -6776.981863615735, -12819.86538408582, 495.5828780630682, 764.5414190937781, -2859.5480751452537, -3773.242684989296, -12014.71084531675, -9748.020440104061, -15965.20286383663, -7798.188364289805, -2706.39392213749, -6720.4319501438085, -7426.523557486958, -7669.442316227236, 0.007, -0.028499999999999998, 0.984, 192.0, 0.0, 0.0, 0.0, 0.0, 0.0, 0.0, 0.0, 0.0, 0.0, 1.6444986905352864E9, 0.0, 2022-02-11 00:11:30.535
158.0, -4556.268996747613, -6378.047928577415, -6773.405584502886, -12824.022808554508, 503.42834036688095, 771.7833842972975, -2864.4878106698766, -3764.79372558519, -12016.834261040005, -9757.251710564102, -15972.44482904015, -7802.25638178067, -2709.4561111278667, -6719.649639087873, -7437.699429714612, -7667.743583648633, 0.007, -0.028499999999999998, 0.984, 192.0, 0.0, 0.0, 0.0, 0.0, 0.0, 0.0, 0.0, 0.0, 0.0, 1.644498690535293E9, 0.0, 2022-02-11 00:11:30.535
160.0, -4566.930778852794, -6383.345292013323, -6788.135384098934, -12835.556308693447, 493.48181408426933, 758.3946893685686, -2870.835706095184, -3778.0259583027314, -12025.2385169552, -9767.60056824691, -15968.086238871365, -7803.910410870363, -2713.613535596554, -6722.443607144786, -7436.537139002936, -7675.253769785616, 0.007, -0.028499999999999998, 0.984, 192.0, 0.0, 0.0, 0.0, 0.0, 0.0, 0.0, 0.0, 0.0, 0.0, 1.6444986905353012E9, 0.0, 2022-02-11 00:11:30.535
162.0, -4569.277712020602, -6386.116908325781, -6790.839945178026, -12837.791483138977, 496.2087269078168, 765.5919510831775, -2864.3760519476, -3772.8403535891002, -12030.938211791303, -9764.337213556435, -15989.320396103907, -7824.049332624595, -2713.233555940814, -6713.815833785037, -7443.421476295171, -7679.120621576384, 0.007, -0.028499999999999998, 0.984, 192.0, 0.0, 0.0, 0.0, 0.0, 0.0, 0.0, 0.0, 0.0, 0.0, 1.644498690535308E9, 0.0, 2022-02-11 00:11:30.535
164.0, -4567.556627697543, -6393.291818295935, -6786.481355009241, -12839.624326184312, 501.46138685481395, 761.1439539365714, -2870.3886712060776, -3773.399147200483, -12038.04606652809, -9763.040812378027, -15987.778125736491, -7817.83554766602, -2723.068323501149, -6718.464996631742, -7442.058019883397, -7677.399537253325, 0.0055, -0.02725, 0.984, 192.0, 0.0, 16.0, 127.5, 24.0, 15.0, 96.0, 0.0, 0.0, 0.0, 1.64449869053533E9, 0.0, 2022-02-11 00:11:30.535
166.0, -4582.28642729359, -6396.912800897694, -6794.684445224339, -12838.462035472636, 497.66159029741175, 754.3043201332474, -2881.989226578382, -3786.4525659623823, -12043.343429963998, -9764.426620534256, -15996.964692707623, -7821.858861667974, -2723.4706549013445, -6726.757493824661, -7444.0696768843745, -7685.04383385704, 0.0055, -0.02725, 0.984, 192.0, 0.0, 0.0, 0.0, 0.0, 0.0, 0.0, 0.0, 0.0, 0.0, 1.6444986905353367E9, 0.0, 2022-02-11 00:11:30.535
168.0, -4584.879229650406, -6403.841841678839, -6793.186878345833, -12841.904204118753, 506.7140468018111, 760.0710702027167, -2873.897895085561, -3781.1999060153853, -12043.455188686276, -9768.02525139156, -15997.814058996924, -7834.174672862849, -2721.1684252224477, -6724.388208912398, -7447.556549019403, -7685.535572235057, 0.0055, -0.02725, 0.984, 192.0, 0.0, 0.0, 0.0, 0.0, 0.0, 0.0, 0.0, 0.0, 0.0, 1.6444986905353432E9, 0.0, 2022-02-11 00:11:30.535
170.0, -4598.67025597933, -6411.083806882359, -6808.475471553264, -12857.93040489321, 487.75976750371075, 747.7329072633871, -2884.894953357572, -3787.078414807131, -12057.62619467094, -9776.898893940317, -15999.870419486811, -7838.376800820447, -2735.8535213295845, -6736.86048231846, -7456.698412501623, -7694.319807805992, 0.0055, -0.02725, 0.984, 192.0, 0.0, 0.0, 0.0, 0.0, 0.0, 0.0, 0.0, 0.0, 0.0, 1.64449869053535E9, 0.0, 2022-02-11 00:11:30.535
172.0, -4606.649828749875, -6412.0896353828475, -6815.359808845497, -12860.187931083196, 481.9259622008756, 751.0633171872279, -2892.2263255389125, -3796.019112589254, -12063.281186018132, -9788.655911523809, -16019.763472052036, -7854.7829812506425, -2739.1392277645145, -6732.412485171853, -7470.467087086093, -7701.42766254278, 0.0055, -0.02725, 0.984, 192.0, 0.0, 0.0, 0.0, 0.0, 0.0, 0.0, 0.0, 0.0, 0.0, 1.6444986905353715E9, 0.0, 2022-02-11 00:11:30.535
174.0, -4610.986067174204, -6424.696019255641, -6812.029398921657, -12862.847788673376, 482.0153691786968, 750.191599153471, -2908.029008868815, -3785.580847928625, -12066.253968030689, -9790.354644102412, -16009.794594024968, -7842.690687500321, -2743.5872249111208, -6728.970316525736, -7470.869418486288, -7702.3440840654475, 0.00475, -0.023625, 0.986, 192.0, 0.0, 16.0, 127.5, 48.0, 15.0, 112.0, 0.0, 0.0, 0.0, 1.644498690535386E9, 0.0, 2022-02-11 00:11:30.535
176.0, -4636.958794231271, -6436.207167650124, -6832.972983476279, -12873.6883847342, 470.7277382287667, 743.5307793057895, -2899.244773297879, -3790.744100897801, -12090.170334597868, -9807.431376866267, -16035.610858870848, -7859.342737119525, -2755.7018704058974, -6732.1889677273, -7478.737232534556, -7711.9106306923195, 0.00475, -0.023625, 0.986, 192.0, 0.0, 0.0, 0.0, 0.0, 0.0, 0.0, 0.0, 0.0, 0.0, 1.6444986905353937E9, 0.0, 2022-02-11 00:11:30.535
178.0, -4618.160977144358, -6430.9321559586715, -6827.072122940079, -12874.537751023503, 483.7588052462108, 749.3645846086246, -2896.853136641161, -3790.0064933307763, -12087.845753174515, -9800.636446551855, -16044.193928741686, -7868.79752502412, -2754.807800627685, -6725.550499624074, -7481.151220935729, -7713.363494081914, 0.00475, -0.023625, 0.986, 192.0, 0.0, 0.0, 0.0, 0.0, 0.0, 0.0, 0.0, 0.0, 0.0, 1.6444986905354009E9, 0.0, 2022-02-11 00:11:30.535
180.0, -4630.074456939037, -6439.604632807331, -6832.391838120442, -12881.802067971477, 476.1815638758617, 736.1323518910827, -2913.840462427195, -3801.7635109142675, -12088.493953763718, -9804.950333231727, -16034.515623392539, -7872.46321111479, -2756.931216350939, -6744.884758577915, -7479.810116268411, -7721.141901152361, 0.00475, -0.023625, 0.986, 192.0, 0.0, 0.0, 0.0, 0.0, 0.0, 0.0, 0.0, 0.0, 0.0, 1.6444986905354083E9, 0.0, 2022-02-11 00:11:30.535
182.0, -4641.518550100154, -6449.193531178657, -6839.7679137906935, -12889.535771553014, 467.2408660937388, 731.5502442777448, -2926.536253277809, -3807.8878888950217, -12090.438555531331, -9820.618906094898, -16050.586527655903, -7881.470964130279, -2760.105164063593, -6757.1782180283335, -7491.857706529821, -7736.050514704051, 0.00475, -0.023625, 0.986, 192.0, 0.0, 0.0, 0.0, 0.0, 0.0, 0.0, 0.0, 0.0, 0.0, 1.6444986905354152E9, 0.0, 2022-02-11 00:11:30.535
184.0, -4635.684744797319, -6458.156580705236, -6837.219814922788, -12893.179105899228, 471.3088835846047, 729.4044768100354, -2908.856023413661, -3810.011304618276, -12097.457003290298, -9823.815205552008, -16039.8353385729, -7877.537057106145, -2771.5269054802548, -6751.791447614604, -7496.10453797633, -7739.716200794721, 0.004375, -0.0268125, 0.986, 192.0, 0.0, 16.0, 127.5, 8.0, 15.0, 104.0, 0.0, 0.0, 0.0, 1.6444986905354223E9, 0.0, 2022-02-11 00:11:30.535
186.0, -4657.164771218869, -6462.381060407289, -6853.916568030902, -12899.079966435429, 460.8035636906104, 723.6600784850215, -2910.1300728476135, -3818.7061332113904, -12111.44919531932, -9813.242830424648, -16057.917899837244, -7890.635179356955, -2774.8796671485507, -6773.67380543635, -7497.155069965729, -7746.891110764875, 0.004375, -0.0268125, 0.986, 192.0, 0.0, 0.0, 0.0, 0.0, 0.0, 0.0, 0.0, 0.0, 0.0, 1.6444986905354297E9, 0.0, 2022-02-11 00:11:30.535
188.0, -4652.783829305628, -6460.347051661855, -6856.509370387718, -12908.311236895472, 467.82201144957685, 732.8019419672421, -2928.43615155651, -3825.9928019038207, -12110.711587752294, -9828.844348054452, -16063.103504550876, -7890.389310167946, -2778.83592591714, -6764.040203576113, -7509.493232905059, -7751.562625356034, 0.004375, -0.0268125, 0.986, 192.0, 0.0, 0.0, 0.0, 0.0, 0.0, 0.0, 0.0, 0.0, 0.0, 1.6444986905354369E9, 0.0, 2022-02-11 00:11:30.535
190.0, -4673.772117349162, -6468.483086643588, -6865.383012936475, -12920.850565534898, 455.28268281014954, 719.4579505274237, -2939.6790790175296, -3832.072476395664, -12131.789282773649, -9845.719915118209, -16070.792504643501, -7904.984999297261, -2794.7503679693186, -6752.506703437174, -7517.897488820254, -7759.855122548953, 0.004375, -0.0268125, 0.986, 192.0, 0.0, 0.0, 0.0, 0.0, 0.0, 0.0, 0.0, 0.0, 0.0, 1.644498690535444E9, 0.0, 2022-02-11 00:11:30.535
192.0, -4681.930504075349, -6485.828040340905, -6872.133239761978, -12919.55416435649, 461.4070607909037, 718.385066793569, -2922.222366597935, -3826.529243770748, -12136.818425276093, -9855.219406511713, -16087.869237407356, -7920.005371571228, -2793.0739871351707, -6770.902189123892, -7521.093788277363, -7767.410012174847, 0.004375, -0.0268125, 0.986, 192.0, 0.0, 0.0, 0.0, 0.0, 0.0, 0.0, 0.0, 0.0, 0.0, 1.6444986905354512E9, 0.0, 2022-02-11 00:11:30.535
194.0, -4677.750727862207, -6490.52190667652, -6868.691071115861, -12920.98467600163, 470.77244171767734, 724.9564796634293, -2920.5012822748763, -3817.1191593550634, -12140.908794511413, -9851.441961698767, -16077.967414613655, -7908.807147599119, -2794.035112146749, -6773.4949914807075, -7518.456282431636, -7763.29729119507, 0.0061875, -0.02640625, 0.987, 192.0, 0.0, 32.0, 127.5, 24.0, 15.0, 112.0, 0.0, 0.0, 0.0, 1.6444986905354588E9, 0.0, 2022-02-11 00:11:30.535
196.0, -4701.085949073547, -6501.273095759523, -6887.22066726931, -12934.529833141547, 449.58298797404626, 709.8467004116417, -2955.3923553696104, -3851.1161626715857, -12151.592928361051, -9862.796647882062, -16095.334720055429, -7927.38144724148, -2795.666789491986, -6774.366709514465, -7528.7157331366225, -7776.261302979148, 0.0061875, -0.02640625, 0.987, 192.0, 0.0, 0.0, 0.0, 0.0, 0.0, 0.0, 0.0, 0.0, 0.0, 1.6444986905354693E9, 0.0, 2022-02-11 00:11:30.535
198.0, -4690.5135739461875, -6499.797880625472, -6882.750318378248, -12935.200385475206, 460.87061892397634, 717.0439621262506, -2942.6518610300855, -3841.817836978178, -12151.101189983034, -9864.76360139413, -16104.051900392999, -7934.601060700544, -2798.12548138207, -6772.936197869325, -7538.1034658078515, -7783.503268182668, 0.0061875, -0.02640625, 0.987, 192.0, 0.0, 0.0, 0.0, 0.0, 0.0, 0.0, 0.0, 0.0, 0.0, 1.6444986905354762E9, 0.0, 2022-02-11 00:11:30.535
200.0, -4703.097606074525, -6511.130215064313, -6890.841649871069, -12942.241184978628, 455.2156275767836, 710.6290114675775, -2943.5459308082977, -3847.9198632144767, -12158.700783097838, -9869.256302029646, -16098.95570265719, -7934.154025811437, -2807.155586142014, -6779.10527933899, -7537.20939602964, -7787.593637417989, 0.0061875, -0.02640625, 0.987, 192.0, 0.0, 0.0, 0.0, 0.0, 0.0, 0.0, 0.0, 0.0, 0.0, 1.6444986905354831E9, 0.0, 2022-02-11 00:11:30.535
202.0, -4698.001408338715, -6507.66569467374, -6892.808603383137, -12940.810673333488, 456.3555665440043, 711.2995638012367, -2950.050288444792, -3850.5350173157476, -12159.371335431497, -9870.57505495251, -16113.082005152943, -7945.374601528001, -2806.797958230729, -6780.356977028487, -7546.954756612153, -7795.2602857661595, 0.0061875, -0.02640625, 0.987, 192.0, 0.0, 0.0, 0.0, 0.0, 0.0, 0.0, 0.0, 0.0, 0.0, 1.6444986905354912E9, 0.0, 2022-02-11 00:11:30.535
204.0, -4696.436786226844, -6514.974715110626, -6893.099176061056, -12947.784417603543, 456.333214799549, 714.1829388359713, -2957.985157726426, -3840.923767199966, -12159.483094153775, -9867.535217706587, -16102.129650369841, -7940.412514258924, -2809.547222798732, -6778.837058405526, -7545.725410667112, -7795.68496891081, 0.00609375, -0.027203125, 0.9884999999999999, 192.0, 0.0, 24.0, 127.5, 16.0, 15.0, 120.0, 0.0, 0.0, 0.0, 1.6444986905354986E9, 0.0, 2022-02-11 00:11:30.535
206.0, -4726.388123796955, -6517.165186067246, -6915.585030983095, -12958.982641575652, 441.02226984766367, 700.3919125070468, -2975.73244282394, -3857.2181889078847, -12175.375184461498, -9883.360252780945, -16118.513479055582, -7956.058735377638, -2813.7046472674187, -6780.915770639869, -7556.968338128131, -7805.609143448966, 0.00609375, -0.027203125, 0.9884999999999999, 192.0, 0.0, 0.0, 0.0, 0.0, 0.0, 0.0, 0.0, 0.0, 0.0, 1.644498690535506E9, 0.0, 2022-02-11 00:11:30.535
208.0, -4726.611641241508, -6518.260421545556, -6906.264353545232, -12965.934034101252, 442.1175053259737, 701.2859822852591, -2968.7810502983393, -3853.2842818837503, -12176.381012961987, -9884.880171403905, -16129.085854182942, -7964.060659892638, -2814.933993212461, -6793.2762853236545, -7562.802143430966, -7813.8122336640645, 0.00609375, -0.027203125, 0.9884999999999999, 192.0, 0.0, 0.0, 0.0, 0.0, 0.0, 0.0, 0.0, 0.0, 0.0, 1.6444986905355136E9, 0.0, 2022-02-11 00:11:30.535
210.0, -4744.448333316843, -6533.81723568645, -6918.781330440203, -12973.846551638431, 435.00965058918604, 687.1820315339603, -2960.1309251941357, -3868.550523346725, -12197.257542283243, -9886.28833130459, -16131.768063517578, -7969.536837284189, -2832.055429465226, -6812.074102410567, -7565.372594043326, -7821.523585501145, 0.00609375, -0.027203125, 0.9884999999999999, 192.0, 0.0, 0.0, 0.0, 0.0, 0.0, 0.0, 0.0, 0.0, 0.0, 1.6444986905355213E9, 0.0, 2022-02-11 00:11:30.535
212.0, -4750.349193853044, -6537.281756077023, -6924.4139700429405, -12969.957348103208, 423.5432056836135, 685.4385954664464, -2973.20669570049, -3869.891628014044, -12196.855210883048, -9899.945247166783, -16149.850624781922, -7978.0528519216605, -2835.542301600254, -6807.022608163668, -7572.323986568927, -7828.497329771201, 0.00609375, -0.027203125, 0.9884999999999999, 192.0, 0.0, 0.0, 0.0, 0.0, 0.0, 0.0, 0.0, 0.0, 0.0, 1.6444986905355282E9, 0.0, 2022-02-11 00:11:30.535
214.0, -4744.850664717039, -6539.963965411659, -6919.094254862578, -12977.623996451379, 434.6296709334458, 693.6193339370888, -2971.6867770775293, -3866.2259419233733, -12206.958199376846, -9903.253305346168, -16143.48037761216, -7965.759392471242, -2837.5316068567763, -6796.2043638473, -7574.380347058815, -7824.764588447165, 0.005046875, -0.026601562500000002, 0.98925, 192.0, 0.0, 16.0, 127.5, 24.0, 15.0, 120.0, 0.0, 0.0, 0.0, 1.644498690535536E9, 0.0, 2022-02-11 00:11:30.535
216.0, -4768.208237672834, -6559.097058665402, -6935.165159125943, -12987.972854134185, 418.8269876035437, 675.6261796505665, -2997.860669834694, -3883.7720613207894, -12210.46742325633, -9914.809157229562, -16155.103284728919, -7983.841953735585, -2836.1010952116367, -6807.402587819409, -7577.934274427209, -7840.12023688796, 0.005046875, -0.026601562500000002, 0.98925, 192.0, 0.0, 0.0, 0.0, 0.0, 0.0, 0.0, 0.0, 0.0, 0.0, 1.6444986905355432E9, 0.0, 2022-02-11 00:11:30.535
218.0, -4764.743717282262, -6556.01251793057, -6934.092275392089, -12988.151668089828, 427.09713305200734, 686.287961755748, -2966.277654919345, -3870.0927937141414, -12216.882373915003, -9921.089997421503, -16169.073125013487, -7996.984779475306, -2845.6899935829633, -6815.650381523416, -7588.0596146654625, -7842.64598401141, 0.005046875, -0.026601562500000002, 0.98925, 192.0, 0.0, 0.0, 0.0, 0.0, 0.0, 0.0, 0.0, 0.0, 0.0, 1.6444986905355508E9, 0.0, 2022-02-11 00:11:30.535
220.0, -4771.89627550796, -6565.847285490905, -6945.581072042117, -12998.835801939465, 419.0281533036415, 673.2345429938488, -2993.5244314103643, -3885.224924710384, -12218.268182071231, -9923.615744544953, -16160.400648164827, -7986.993549703783, -2846.7181738279073, -6804.496861040218, -7585.265646608549, -7845.082324157039, 0.005046875, -0.026601562500000002, 0.98925, 192.0, 0.0, 0.0, 0.0, 0.0, 0.0, 0.0, 0.0, 0.0, 0.0, 1.644498690535558E9, 0.0, 2022-02-11 00:11:30.535
222.0, -4783.653293091452, -6571.211704160179, -6950.699621522382, -13007.262409599116, 409.70747586577846, 665.2773219677595, -2999.3358849687443, -3886.3201601886944, -12226.046589141679, -9931.327096382034, -16181.858322841923, -8008.697093569886, -2851.3896884190667, -6813.281096611154, -7599.213135148661, -7854.738277761731, 0.005046875, -0.026601562500000002, 0.98925, 192.0, 0.0, 0.0, 0.0, 0.0, 0.0, 0.0, 0.0, 0.0, 0.0, 1.644498690535565E9, 0.0, 2022-02-11 00:11:30.535
224.0, -4779.831144789594, -6567.322500624955, -6952.4654093343515, -13004.379034564381, 414.9377840683203, 670.0158917922845, -2999.849975091216, -3892.2433724693506, -12237.021295669234, -9930.589488815009, -16175.82335183899, -8003.578544089622, -2862.8561333246394, -6831.87774799797, -7605.404568362781, -7857.800466752108, 0.006, -0.026000000000000002, 0.992, 192.0, 0.0, 24.0, 127.5, 24.0, 15.5, 0.0, 0.0, 0.0, 0.0, 1.644498690535572E9, 0.0, 2022-02-11 00:11:30.535
226.0, -4810.877717838016, -6585.11448921138, -6972.224351432843, -13013.319732346503, 396.5422983816026, 658.7282608423544, -3008.6789141510626, -3901.206421995929, -12246.967821951846, -9944.782846544129, -16190.44139271276, -8008.495927869789, -2867.549999660254, -6828.390875862941, -7611.55129808799, -7865.087135444539, 0.006, -0.026000000000000002, 0.992, 192.0, 0.0, 0.0, 0.0, 0.0, 0.0, 0.0, 0.0, 0.0, 0.0, 1.6444986905355797E9, 0.0, 2022-02-11 00:11:30.535
228.0, -4809.00017130377, -6587.7743468015615, -6969.989176987312, -13019.57822079399, 405.25947871917236, 663.578589389156, -3007.8071961173055, -3904.156852264029, -12255.863816245059, -9953.63413734843, -16208.63571269938, -8021.3705326760455, -2873.9873020633822, -6832.2577276537095, -7622.123673215351, -7870.853885514008, 0.006, -0.026000000000000002, 0.992, 192.0, 0.0, 0.0, 0.0, 0.0, 0.0, 0.0, 0.0, 0.0, 0.0, 1.6444986905355923E9, 0.0, 2022-02-11 00:11:30.535
230.0, -4817.829110363617, -6589.204858446701, -6978.907523024979, -13026.14963366385, 398.1516239823847, 655.4649061518796, -3021.1064840682134, -3901.9887330518645, -12260.512979091762, -9953.231805948235, -16202.399575996349, -8022.264602454258, -2876.311883486734, -6839.611451579506, -7622.79422554901, -7875.190123938338, 0.006, -0.026000000000000002, 0.992, 192.0, 0.0, 0.0, 0.0, 0.0, 0.0, 0.0, 0.0, 0.0, 0.0, 1.6444986905355995E9, 0.0, 2022-02-11 00:11:30.535
232.0, -4825.38399998951, -6593.809317804494, -6989.681063852438, -13034.732703534688, 387.1322139659183, 651.5309991277455, -3015.0268095763695, -3902.189898751962, -12267.03968847271, -9964.675899109352, -16225.466576274226, -8039.721314873853, -2879.351720732656, -6851.122599973989, -7630.594984363912, -7883.974359509273, 0.006, -0.026000000000000002, 0.992, 192.0, 0.0, 0.0, 0.0, 0.0, 0.0, 0.0, 0.0, 0.0, 0.0, 1.6444986905356188E9, 0.0, 2022-02-11 00:11:30.535
234.0, -4817.292668496689, -6592.1776404592565, -6984.2272382053425, -13042.980497238696, 392.78720531311103, 659.8458480651198, -3020.5029869679197, -3904.3133144752164, -12274.438115887418, -9960.02673626265, -16214.78244242459, -8039.229576495836, -2888.672398170519, -6850.407344151419, -7636.2499757111045, -7887.215362455293, 0.004, -0.026000000000000002, 0.99, 192.0, 0.0, 16.0, 127.5, 24.0, 15.0, 120.0, 0.0, 0.0, 0.0, 1.644498690535626E9, 0.0, 2022-02-11 00:11:30.535
236.0, -4846.238177566312, -6615.624620392874, -7000.499308168806, -13049.86483453093, 373.6541120593682, 634.4319146194357, -3044.017022134903, -3933.3482305226603, -12285.05519450369, -9981.97614931776, -16228.372303053417, -8046.0245068102495, -2897.3895785080886, -6862.209065223821, -7641.346173446915, -7898.257124216214, 0.004, -0.026000000000000002, 0.99, 192.0, 0.0, 0.0, 0.0, 0.0, 0.0, 0.0, 0.0, 0.0, 0.0, 1.644498690535633E9, 0.0, 2022-02-11 00:11:30.535
238.0, -4843.57831997613, -6620.83257685096, -6997.90650581199, -13047.003811240651, 381.09724296298543, 649.9887287603294, -3034.651641208129, -3919.2889832602723, -12292.297159707208, -9991.810916878096, -16240.26343110364, -8049.667841156464, -2896.0931773296807, -6864.019556524701, -7646.308260715993, -7905.923772564384, 0.004, -0.026000000000000002, 0.99, 192.0, 0.0, 0.0, 0.0, 0.0, 0.0, 0.0, 0.0, 0.0, 0.0, 1.64449869053564E9, 0.0, 2022-02-11 00:11:30.535
240.0, -4855.447096281898, -6633.751885146128, -7006.064892538177, -13059.073753246517, 374.0564434595637, 642.1209147120613, -3039.3678592881993, -3924.7204571629118, -12301.774299356259, -9996.102451813515, -16237.938849680288, -8054.115838303071, -2906.5537937347644, -6861.02442276769, -7647.671717127767, -7906.549621409134, 0.004, -0.026000000000000002, 0.99, 192.0, 0.0, 0.0, 0.0, 0.0, 0.0, 0.0, 0.0, 0.0, 0.0, 1.644498690535647E9, 0.0, 2022-02-11 00:11:30.535
242.0, -4861.638529496018, -6630.443826966743, -7016.637267665537, -13062.582977126, 359.48310607470347, 638.097600710106, -3046.3192518137994, -3937.2821375467943, -12301.886058078535, -10003.031492594659, -16254.21091964375, -8068.733879176842, -2905.5256134898204, -6864.935978047369, -7660.2557492561045, -7915.602077913532, 0.004, -0.026000000000000002, 0.99, 192.0, 0.0, 0.0, 0.0, 0.0, 0.0, 0.0, 0.0, 0.0, 0.0, 1.6444986910154731E9, 0.0, 2022-02-11 00:11:31.015
244.0, -4859.269244583756, -6637.17170204779, -7014.737369386837, -13071.926006308318, 365.4063183553599, 629.6039378170893, -3040.083115110769, -3937.1480270800625, -12308.278656992754, -9999.231696037257, -16249.449998074771, -8066.208132053392, -2918.5566805072644, -6868.109925760023, -7667.1847900372495, -7922.598173928043, 0.008, -0.024, 0.982, 192.0, 0.0, 32.0, 127.5, 32.0, 15.0, 88.0, 0.0, 0.0, 0.0, 1.6444986910155115E9, 0.0, 2022-02-11 00:11:31.015
246.0, -4881.062195427679, -6647.967594619703, -7033.5351864737495, -13082.565436669045, 350.49770480367005, 623.099580180595, -3059.104449642235, -3947.429829529504, -12323.142567055533, -10009.424091508878, -16263.375134870426, -8083.575437495165, -2923.1164363761472, -6877.899989831447, -7672.415098239791, -7933.192900799859, 0.008, -0.024, 0.982, 192.0, 0.0, 0.0, 0.0, 0.0, 0.0, 0.0, 0.0, 0.0, 0.0, 1.6444986910155275E9, 0.0, 2022-02-11 00:11:31.015
248.0, -4873.7755267352495, -6648.414629508809, -7028.081360826655, -13084.331224481015, 357.13617290689626, 623.8371877476201, -3062.1889903770675, -3947.9662713964312, -12320.0580263207, -10009.468794997787, -16271.622928574436, -8097.724091735375, -2921.730628219918, -6882.660911400428, -7680.439374499247, -7937.752656668742, 0.008, -0.024, 0.982, 192.0, 0.0, 0.0, 0.0, 0.0, 0.0, 0.0, 0.0, 0.0, 0.0, 1.6444986910155346E9, 0.0, 2022-02-11 00:11:31.015
250.0, -4888.326512375655, -6656.885940657371, -7040.531282488261, -13099.68687292181, 342.87575994441033, 615.9023184659861, -3080.8079935083383, -3970.83210597421, -12333.670238693981, -10019.84000442505, -16268.22546341723, -8087.55404800821, -2932.5935760251973, -6887.667702158416, -7682.585141966956, -7949.353212041046, 0.008, -0.024, 0.982, 192.0, 0.0, 0.0, 0.0, 0.0, 0.0, 0.0, 0.0, 0.0, 0.0, 1.644498691015542E9, 0.0, 2022-02-11 00:11:31.015
252.0, -4901.871669515571, -6660.953958148237, -7052.333003560663, -13099.552762455078, 328.86121617093283, 604.7487979827879, -3094.0849297147906, -3966.942902438987, -12342.63328822056, -10028.020742895693, -16290.376042172438, -8110.106958163615, -2935.5440062932976, -6898.217725541321, -7694.923304906286, -7961.333747069091, 0.008, -0.024, 0.982, 192.0, 0.0, 0.0, 0.0, 0.0, 0.0, 0.0, 0.0, 0.0, 0.0, 1.6444986910155487E9, 0.0, 2022-02-11 00:11:31.015
254.0, -4900.35175089261, -6668.866475685415, -7051.617747738093, -13103.173745056838, 337.3772308084048, 608.0568561621733, -3092.6767698141066, -3959.7232889799225, -12351.819855191692, -10033.519272031697, -16288.476143893737, -8098.640513258042, -2948.2621488883674, -6907.672513445916, -7704.6910172332555, -7960.350270313057, 0.01, -0.026000000000000002, 0.982, 192.0, 0.0, 40.0, 127.5, 24.0, 15.0, 88.0, 0.0, 0.0, 0.0, 1.644498691015556E9, 0.0, 2022-02-11 00:11:31.015
0.0, -4920.311858691199, -6681.674025258306, -7061.407811809518, -13108.851088148485, 325.3519922914496, 598.937344424408, -3084.0042929654473, -3979.6610450340568, -12362.124009385589, -10041.23062386878, -16299.160277743375, -8111.60452504212, -2950.944358223004, -6913.327504793108, -7704.9815899111745, -7964.887674437485, 0.01, -0.026000000000000002, 0.982, 192.0, 0.0, 0.0, 0.0, 0.0, 0.0, 0.0, 0.0, 0.0, 0.0, 1.6444986910155635E9, 0.0, 2022-02-11 00:11:31.015
2.0, -4921.250631958322, -6692.268752130121, -7060.759611220314, -13115.869535907452, 334.33739356248304, 598.4679577908466, -3085.65832205514, -3970.0497949182745, -12364.917977442501, -10047.310298360622, -16308.860934836977, -8121.3945891135445, -2950.117343678158, -6912.634600714994, -7708.267296346105, -7970.296796595669, 0.01, -0.026000000000000002, 0.982, 192.0, 0.0, 0.0, 0.0, 0.0, 0.0, 0.0, 0.0, 0.0, 0.0, 1.6444986910155704E9, 0.0, 2022-02-11 00:11:31.015
4.0, -4926.346829694132, -6704.808080769549, -7077.188143394965, -13125.234916834226, 320.18873932227365, 598.9596961688634, -3102.2433164409777, -3976.5988560436795, -12380.363032861118, -10048.807865239129, -16309.643245892912, -8119.427635601478, -2961.382622883633, -6915.070940860623, -7711.284781847571, -7975.504753053756, 0.01, -0.026000000000000002, 0.982, 192.0, 0.0, 0.0, 0.0, 0.0, 0.0, 0.0, 0.0, 0.0, 0.0, 1.6444986910155883E9, 0.0, 2022-02-11 00:11:31.015
6.0, -4937.925033321981, -6710.552479094563, -7083.848963242646, -13132.342771571013, 308.45407348323744, 586.0403878736959, -3116.101398003268, -3988.489984093903, -12382.374689862096, -10059.201426410846, -16332.263211281683, -8143.65692659103, -2967.4846491199314, -6921.552946752661, -7729.099122178451, -7987.686453781897, 0.01, -0.026000000000000002, 0.982, 192.0, 0.0, 0.0, 0.0, 0.0, 0.0, 0.0, 0.0, 0.0, 0.0, 1.6444986910155954E9, 0.0, 2022-02-11 00:11:31.015
8.0, -4951.425486972987, -6715.983952997202, -7088.54282957826, -13140.255289108192, 312.9020706298436, 582.2852948052043, -3113.039209012891, -3994.346141141193, -12395.137535946076, -10070.511409105231, -16334.140757815929, -8147.434371403978, -2978.6828730920406, -6932.997039913779, -7736.408142615336, -7998.549401587177, 0.01, -0.024, 0.99, 192.0, 0.0, 40.0, 127.5, 32.0, 15.0, 120.0, 0.0, 0.0, 0.0, 1.6444986910156024E9, 0.0, 2022-02-11 00:11:31.015
10.0, -4974.26896980631, -6740.079133520024, -7102.646780329559, -13157.041449194128, 302.44145422475987, 570.4835737328021, -3130.8982528326815, -4014.9768012734417, -12404.50291687285, -10081.396708654966, -16341.18155731935, -8159.191388987469, -2978.973445769959, -6936.595670771083, -7741.370229884414, -8008.384169147512, 0.01, -0.024, 0.99, 192.0, 0.0, 0.0, 0.0, 0.0, 0.0, 0.0, 0.0, 0.0, 0.0, 1.6444986910156095E9, 0.0, 2022-02-11 00:11:31.015
12.0, -4968.681033692484, -6743.521302166141, -7102.579725096193, -13159.36603061748, 307.7388176606676, 573.7916319121877, -3115.1626247361455, -4000.157594699573, -12402.357149405141, -10091.365586682032, -16351.552766746614, -8168.601473403153, -2984.159050483591, -6940.596633028583, -7748.746305554665, -8018.330695430124, 0.01, -0.024, 0.99, 192.0, 0.0, 0.0, 0.0, 0.0, 0.0, 0.0, 0.0, 0.0, 0.0, 1.6444986910156162E9, 0.0, 2022-02-11 00:11:31.015
14.0, -4983.142612355067, -6753.534883682119, -7113.286210690286, -13168.597301077521, 295.82533786598896, 565.8344108860983, -3129.7359621210057, -4004.672647079545, -12425.26768747183, -10104.419005443931, -16357.006592393709, -8171.6413106490745, -2995.826661089261, -6956.622833803039, -7752.680212578799, -8021.526994887233, 0.01, -0.024, 0.99, 192.0, 0.0, 0.0, 0.0, 0.0, 0.0, 0.0, 0.0, 0.0, 0.0, 1.644498691015623E9, 0.0, 2022-02-11 00:11:31.015
16.0, -4986.584781001185, -6750.651508647384, -7125.110283507143, -13170.564254589588, 287.82341335098903, 562.4369457288916, -3139.6601366591617, -4012.942792528009, -12429.134539262599, -10103.52493566572, -16381.660566527913, -8185.342930000178, -2998.0394837903364, -6957.718069281348, -7758.759887070643, -8032.144073503504, 0.01, -0.024, 0.99, 192.0, 0.0, 0.0, 0.0, 0.0, 0.0, 0.0, 0.0, 0.0, 0.0, 1.64449869101563E9, 0.0, 2022-02-11 00:11:31.015
18.0, -4991.345702570165, -6759.636909918418, -7115.342571180174, -13171.70419355681, 291.08676804146387, 566.9743498533189, -3140.0177645704466, -4014.0380280063187, -12431.928507319511, -10100.641560630986, -16373.189255379351, -8183.666549166031, -3002.6215914036743, -6953.381830857019, -7761.48679989419, -8034.200433993392, 0.002, -0.028, 0.984, 192.0, 0.0, 8.0, 127.5, 16.0, 15.0, 96.0, 0.0, 0.0, 0.0, 1.6444986910156374E9, 0.0, 2022-02-11 00:11:31.015
20.0, -5017.229022649411, -6765.314253010065, -7135.682658634503, -13186.210475708303, 269.2714654530842, 561.6546346729559, -3162.5483229813963, -4031.360629959182, -12446.121865048632, -10116.24307826079, -16380.386517093959, -8195.043587093782, -3010.1988327740232, -6961.942548983401, -7772.43915467729, -8042.604689908588, 0.002, -0.028, 0.984, 192.0, 0.0, 0.0, 0.0, 0.0, 0.0, 0.0, 0.0, 0.0, 0.0, 1.6444986910156443E9, 0.0, 2022-02-11 00:11:31.015
22.0, -5004.0861969096895, -6772.824439147048, -7135.280327234308, -13188.222132709281, 270.5902183759473, 559.4641637163357, -3184.6765499921503, -4040.569548674768, -12454.481417474917, -10118.232383517312, -16399.586665581068, -8210.019255878837, -3019.631268934163, -6968.648072319994, -7783.68208213831, -8048.5502539336985, 0.002, -0.028, 0.984, 192.0, 0.0, 0.0, 0.0, 0.0, 0.0, 0.0, 0.0, 0.0, 0.0, 1.6444986910156517E9, 0.0, 2022-02-11 00:11:31.015
24.0, -5037.077371725723, -6793.611561490484, -7151.5747489422265, -13209.791566108654, 267.8409538079445, 545.941358320875, -3161.564846225363, -4047.364478989182, -12468.160685081564, -10129.855290634072, -16397.910284746922, -8209.259296567358, -3027.0073446044144, -6974.0124909892675, -7784.464393194246, -8057.446248226911, 0.002, -0.028, 0.984, 192.0, 0.0, 0.0, 0.0, 0.0, 0.0, 0.0, 0.0, 0.0, 0.0, 1.6444986910156639E9, 0.0, 2022-02-11 00:11:31.015
26.0, -5050.220197465444, -6806.352055830009, -7163.4882287369055, -13219.04518831315, 264.97993051766525, 541.3592507075371, -3153.138238565712, -4047.677403411556, -12480.297682320796, -10159.359593315077, -16422.385444925483, -8228.258279354368, -3033.243481307445, -6977.968749757857, -7789.940570585796, -8069.136210577037, 0.002, -0.028, 0.984, 192.0, 0.0, 0.0, 0.0, 0.0, 0.0, 0.0, 0.0, 0.0, 0.0, 1.6444986910156715E9, 0.0, 2022-02-11 00:11:31.015
28.0, -5046.308642185765, -6815.091587912034, -7168.718536939447, -13220.699217402842, 268.26563695259534, 527.7693900787103, -3163.643558459706, -4051.968938346975, -12484.499810278394, -10154.017526390258, -16419.278552446194, -8230.739322988908, -3036.9985743759366, -6996.207773233387, -7797.562515445056, -8074.768850179774, 0.002, -0.03, 0.982, 192.0, 0.0, 8.0, 127.5, 8.0, 15.0, 88.0, 0.0, 0.0, 0.0, 1.6444986910156791E9, 0.0, 2022-02-11 00:11:31.015
30.0, -5062.6701191270495, -6819.964268203291, -7173.948845141989, -13226.980057594785, 247.41145937579387, 515.654744583934, -3196.3888640867312, -4075.2147525804944, -12493.261694104875, -10171.362480087577, -16432.555488652648, -8245.53617781832, -3044.151132601635, -7012.43513970794, -7806.7714341606425, -8086.592922996631, 0.002, -0.03, 0.982, 192.0, 0.0, 0.0, 0.0, 0.0, 0.0, 0.0, 0.0, 0.0, 0.0, 1.6444986910156872E9, 0.0, 2022-02-11 00:11:31.015
32.0, -5064.771183105849, -6819.852509481015, -7182.442508035006, -13231.293944274657, 245.24334016362909, 520.1250934749953, -3188.386939571731, -4059.0544413393072, -12494.736909238925, -10175.877532467548, -16442.569070168625, -8251.191169165513, -3051.7954292053496, -7001.90746806949, -7820.137777344916, -8090.325664320668, 0.002, -0.03, 0.982, 192.0, 0.0, 0.0, 0.0, 0.0, 0.0, 0.0, 0.0, 0.0, 0.0, 1.6444986910156941E9, 0.0, 2022-02-11 00:11:31.015
34.0, -5075.723537888949, -6831.54247183114, -7193.730138984935, -13243.4756450028, 235.94501447022137, 514.201881194339, -3193.2819716074437, -4072.7113572015, -12512.126566425153, -10179.789087747227, -16442.926698079908, -8254.745096533907, -3068.5145340579193, -7014.357389731096, -7825.1445681029045, -8096.762966723796, 0.002, -0.03, 0.982, 192.0, 0.0, 0.0, 0.0, 0.0, 0.0, 0.0, 0.0, 0.0, 0.0, 1.6444986910157013E9, 0.0, 2022-02-11 00:11:31.015
36.0, -5082.563171692273, -6829.888442741447, -7202.4696710669605, -13245.487302003778, 230.51354056758174, 513.1066457160289, -3206.268335135977, -4083.0378631398517, -12519.927325240056, -10191.59080881963, -16464.607890201558, -8270.190151952524, -3068.6709962691066, -7018.224241521864, -7836.767475219664, -8106.4859755618545, 0.004, -0.028999999999999998, 0.985, 192.0, 0.0, 24.0, 127.5, 16.0, 15.0, 112.0, 0.0, 0.0, 0.0, 1.6444986910157125E9, 0.0, 2022-02-11 00:11:31.015
38.0, -5081.892619358614, -6846.004050493723, -7204.458976323483, -13252.259880573736, 233.48632258013757, 512.9278317603864, -3196.6123815312844, -4077.986368892952, -12522.967162485977, -10186.226390150356, -16457.45533197586, -8259.170741936057, -3073.722490516006, -7017.6207444215715, -7840.3437543325135, -8109.212888385402, 0.004, -0.028999999999999998, 0.985, 192.0, 0.0, 0.0, 0.0, 0.0, 0.0, 0.0, 0.0, 0.0, 0.0, 1.6444986910157192E9, 0.0, 2022-02-11 00:11:31.015
40.0, -5100.131642834144, -6858.3198616885975, -7224.821415522268, -13269.515427293234, 213.14623512580815, 494.86762224049835, -3211.744512527527, -4101.14277614865, -12539.328639427262, -10202.319646158177, -16471.98396587181, -8275.085183988236, -3084.6748452991064, -7023.275735768764, -7847.183388135838, -8123.7415222813515, 0.004, -0.028999999999999998, 0.985, 192.0, 0.0, 0.0, 0.0, 0.0, 0.0, 0.0, 0.0, 0.0, 0.0, 1.6444986910157263E9, 0.0, 2022-02-11 00:11:31.015
42.0, -5107.373608037664, -6866.813524581615, -7229.090598713232, -13271.795305227675, 213.16858687026345, 491.5372123166576, -3217.0865794523456, -4094.839584212254, -12542.189662717541, -10211.550916618218, -16486.02086138974, -8295.82760284276, -3091.1344994466904, -7037.357334775607, -7861.264987142681, -8133.151606697036, 0.004, -0.028999999999999998, 0.985, 192.0, 0.0, 0.0, 0.0, 0.0, 0.0, 0.0, 0.0, 0.0, 0.0, 1.6444986910157428E9, 0.0, 2022-02-11 00:11:31.015
44.0, -5122.259869844898, -6878.995225309757, -7234.410313893594, -13285.072241434127, 202.26093557607362, 481.88125871196496, -3229.357687158309, -4098.415863325103, -12558.841712336745, -10214.367236419588, -16489.418326546947, -8291.69253011853, -3100.8798600292043, -7053.830570439169, -7866.539998834133, -8138.89600502205, 0.004, -0.028999999999999998, 0.985, 192.0, 0.0, 0.0, 0.0, 0.0, 0.0, 0.0, 0.0, 0.0, 0.0, 1.64449869101575E9, 0.0, 2022-02-11 00:11:31.015
46.0, -5133.793369983837, -6888.740585892271, -7243.753343075913, -13287.307415879657, 198.50584250758203, 474.460479552803, -3228.8883005247476, -4105.546069806346, -12567.648299652135, -10230.818120338694, -16511.21127739087, -8306.64584715913, -3104.1879182085895, -7062.480695543372, -7878.9675687512845, -8150.988298772371, 0.006, -0.028499999999999998, 0.9864999999999999, 192.0, 0.0, 32.0, 127.5, 16.0, 15.0, 112.0, 0.0, 0.0, 0.0, 1.6444986910157568E9, 0.0, 2022-02-11 00:11:31.015
48.0, -5127.467826302985, -6888.561771936628, -7242.43459015305, -13293.141221182494, 209.1899763572188, 477.880296454465, -3232.30811742641, -4101.47805231548, -12573.146828788142, -10240.675239643484, -16505.288065110217, -8306.757605881407, -3108.9711915220255, -7051.282471571264, -7879.459307129301, -8151.100057494647, 0.006, -0.028499999999999998, 0.9864999999999999, 192.0, 0.0, 0.0, 0.0, 0.0, 0.0, 0.0, 0.0, 0.0, 0.0, 1.6444986910157642E9, 0.0, 2022-02-11 00:11:31.015
50.0, -5146.153884667621, -6902.17398430991, -7261.38886945115, -13301.746642797785, 192.44851976019382, 471.53240102915777, -3247.328489700376, -4109.703494275033, -12584.389756249162, -10235.31082097421, -16519.83905075062, -8316.100635063725, -3116.660191614651, -7060.044355397744, -7886.433051399357, -8160.666604121519, 0.006, -0.028499999999999998, 0.9864999999999999, 192.0, 0.0, 0.0, 0.0, 0.0, 0.0, 0.0, 0.0, 0.0, 0.0, 1.6444986910157712E9, 0.0, 2022-02-11 00:11:31.015
52.0, -5139.9177479645905, -6889.187620781377, -7255.577415892771, -13299.153840440971, 200.13751985281945, 490.46432858280286, -3238.901882040725, -4100.740444748455, -12581.551084703337, -10236.473111685886, -16526.924553742952, -8322.515585722398, -3118.8059590823605, -7053.987032650356, -7898.435938171857, -8160.398383188056, 0.006, -0.028499999999999998, 0.9864999999999999, 192.0, 0.0, 0.0, 0.0, 0.0, 0.0, 0.0, 0.0, 0.0, 0.0, 1.644498691015778E9, 0.0, 2022-02-11 00:11:31.015
54.0, -5147.673803290582, -6903.492737232774, -7266.10508753122, -13312.721349325342, 190.5262697370374, 476.9191714428868, -3237.516073884496, -4113.033904198874, -12585.149715560641, -10248.990088580858, -16516.106309426585, -8317.531146708865, -3120.974078294525, -7047.572081991682, -7896.714853848798, -8161.963005299927, 0.006, -0.028499999999999998, 0.9864999999999999, 192.0, 0.0, 0.0, 0.0, 0.0, 0.0, 0.0, 0.0, 0.0, 0.0, 1.6444986910157847E9, 0.0, 2022-02-11 00:11:31.015
56.0, -5168.818553545303, -6921.597650241572, -7276.521000447393, -13320.812680818162, 167.59337992589235, 459.08247936755174, -3258.5714171613954, -4131.742314307966, -12598.694872700558, -10263.652832943539, -16544.001286506806, -8341.402809787132, -3133.356944722765, -7064.4700007998945, -7913.590420912555, -8182.347796243167, 0.006, -0.028249999999999997, 0.98625, 192.0, 0.0, 24.0, 127.5, 16.0, 15.0, 104.0, 0.0, 0.0, 0.0, 1.644498691015792E9, 0.0, 2022-02-11 00:11:31.015
58.0, -5170.517286123906, -6915.473272260818, -7278.130326048175, -13326.244154720802, 174.3883102403057, 466.41385154889247, -3262.304158485432, -4131.787017796876, -12610.20602109504, -10265.016289355313, -16546.28116444125, -8343.950908655037, -3144.376354739232, -7077.054032928233, -7918.038418059161, -8184.71708115543, 0.006, -0.028249999999999997, 0.98625, 192.0, 0.0, 0.0, 0.0, 0.0, 0.0, 0.0, 0.0, 0.0, 0.0, 1.6444986910157988E9, 0.0, 2022-02-11 00:11:31.015
60.0, -5191.662036378627, -6926.626792744017, -7297.799861168845, -13333.866099580062, 151.65658612925841, 454.1203920984736, -3295.3847402792862, -4146.405058670647, -12621.717169489524, -10276.862713916626, -16561.457998926402, -8355.864388449716, -3155.8875031337147, -7080.965588207911, -7928.5213862087, -8194.66360743804, 0.006, -0.028249999999999997, 0.98625, 192.0, 0.0, 0.0, 0.0, 0.0, 0.0, 0.0, 0.0, 0.0, 0.0, 1.6444986910158055E9, 0.0, 2022-02-11 00:11:31.015
62.0, -5186.230562475987, -6943.480008063318, -7296.704625690535, -13339.342276971613, 158.92090307723322, 454.34390954302665, -3291.7637576775264, -4141.644137101667, -12630.948439949565, -10282.562408752729, -16569.70579263041, -8365.833266476782, -3158.390898512709, -7082.507858575328, -7939.317278780613, -8200.542116229786, 0.006, -0.028249999999999997, 0.98625, 192.0, 0.0, 0.0, 0.0, 0.0, 0.0, 0.0, 0.0, 0.0, 0.0, 1.6444986910158124E9, 0.0, 2022-02-11 00:11:31.015
64.0, -5208.604658675749, -6958.522732081739, -7310.093320619264, -13359.704716170398, 149.13083900580872, 430.785170887133, -3276.251647025543, -4161.470134433524, -12643.59952731127, -10295.481717047896, -16565.14603676153, -8364.715679254017, -3166.9516166390918, -7095.315408148219, -7937.95382236884, -8211.047436123781, 0.006, -0.028249999999999997, 0.98625, 192.0, 0.0, 0.0, 0.0, 0.0, 0.0, 0.0, 0.0, 0.0, 0.0, 1.6444986910158195E9, 0.0, 2022-02-11 00:11:31.015
66.0, -5224.362638516741, -6969.452735120384, -7327.4382743165825, -13366.879626140551, 135.25040569906304, 426.51598769616936, -3293.0378071114787, -4170.96962582703, -12656.585890839802, -10308.468080576431, -16591.498743474334, -8397.148060458669, -3176.62992198824, -7107.228887942897, -7952.773028942708, -8230.716971244452, 0.007, -0.027125, 0.9901249999999999, 192.0, 0.0, 32.0, 127.5, 24.0, 15.5, 8.0, 0.0, 0.0, 0.0, 1.6444986910158267E9, 0.0, 2022-02-11 00:11:31.015
68.0, -5215.488995967984, -6964.71416529586, -7325.247803359963, -13369.673594197464, 139.98897552358812, 427.49946445220286, -3300.995028137568, -4174.411794473147, -12658.083457718309, -10305.316484608233, -16587.609539939112, -8399.383234904199, -3185.9282476816475, -7109.061730988233, -7962.563093014132, -8230.851081711184, 0.007, -0.027125, 0.9901249999999999, 192.0, 0.0, 0.0, 0.0, 0.0, 0.0, 0.0, 0.0, 0.0, 0.0, 1.644498691015836E9, 0.0, 2022-02-11 00:11:31.015
70.0, -5232.565728731839, -6979.980406758834, -7344.40324835816, -13381.698832714419, 121.10175145885367, 412.0544090335857, -3328.9570604511573, -4188.560448713356, -12667.65000434518, -10315.75474926886, -16597.846638899642, -8403.205383206056, -3187.716387238072, -7113.330914179196, -7969.827409962108, -8239.188282393014, 0.007, -0.027125, 0.9901249999999999, 192.0, 0.0, 0.0, 0.0, 0.0, 0.0, 0.0, 0.0, 0.0, 0.0, 1.644498691015843E9, 0.0, 2022-02-11 00:11:31.015
72.0, -5242.445199781085, -6997.012436033779, -7343.933861724599, -13382.615254237087, 126.53322536149328, 418.3128974810717, -3309.3098770749425, -4169.248541503971, -12675.070783504341, -10326.260069162854, -16615.705682719432, -8418.985714791503, -3194.0642826633793, -7114.73907407988, -7980.355081600557, -8244.44094234001, 0.007, -0.027125, 0.9901249999999999, 192.0, 0.0, 0.0, 0.0, 0.0, 0.0, 0.0, 0.0, 0.0, 0.0, 1.6444986910158515E9, 0.0, 2022-02-11 00:11:31.015
74.0, -5262.539418046405, -6999.3146657126745, -7351.60051007277, -13395.556914276709, 112.25046065455207, 398.755121082678, -3327.2359761280986, -4186.369977756736, -12692.013405801465, -10334.150234955578, -16612.6211419846, -8424.551299160874, -3209.486986337541, -7125.624373629615, -7982.0985176680715, -8253.359288377678, 0.007, -0.027125, 0.9901249999999999, 192.0, 0.0, 0.0, 0.0, 0.0, 0.0, 0.0, 0.0, 0.0, 0.0, 1.6444986910158584E9, 0.0, 2022-02-11 00:11:31.015
76.0, -5266.048641925889, -7007.405997205496, -7361.256463677462, -13399.580228278664, 108.74123677506886, 394.0612547470635, -3337.2719093885316, -4200.228059319027, -12698.137783782218, -10334.530214611319, -16632.38008408309, -8429.71455213005, -3210.6045735603066, -7143.282251749308, -7992.805003262163, -8267.999680995903, 0.0085, -0.026562500000000003, 0.9900625, 192.0, 0.0, 40.0, 127.5, 24.0, 15.0, 120.0, 0.0, 0.0, 0.0, 1.644498691015865E9, 0.0, 2022-02-11 00:11:31.015
78.0, -5259.432525567117, -7016.011418820789, -7360.451800877071, -13408.699740016431, 108.96475421962192, 397.61518211545734, -3344.647985058783, -4198.462271507057, -12700.328254738839, -10343.157987971066, -16621.42772929999, -8428.99929630748, -3210.7386840270383, -7134.162740011542, -7997.990607975795, -8267.798515295806, 0.0085, -0.026562500000000003, 0.9900625, 192.0, 0.0, 0.0, 0.0, 0.0, 0.0, 0.0, 0.0, 0.0, 0.0, 1.6444986910158722E9, 0.0, 2022-02-11 00:11:31.015
80.0, -5282.320711889352, -7034.809235907703, -7381.328330198327, -13426.13410069157, 87.55178303143776, 384.1817836978178, -3345.027964714523, -4202.038550619906, -12713.649894434202, -10356.949014299991, -16636.716322507422, -8439.974002835037, -3219.8581957648034, -7137.761370868847, -8005.366683646046, -8282.505963147398, 0.0085, -0.026562500000000003, 0.9900625, 192.0, 0.0, 0.0, 0.0, 0.0, 0.0, 0.0, 0.0, 0.0, 0.0, 1.6444986910158792E9, 0.0, 2022-02-11 00:11:31.015
82.0, -5287.729834047536, -7038.072590598177, -7380.925998798132, -13428.726903048386, 95.08432091287625, 389.07681573353005, -3344.8938542477913, -4189.0521870913735, -12721.8529846493, -10370.270653995354, -16657.726962295408, -8455.374354764743, -3232.1293034707674, -7138.007240057856, -8016.721369829342, -8287.3562916942, 0.0085, -0.026562500000000003, 0.9900625, 192.0, 0.0, 0.0, 0.0, 0.0, 0.0, 0.0, 0.0, 0.0, 0.0, 1.6444986910158863E9, 0.0, 2022-02-11 00:11:31.015
84.0, -5291.194354438109, -7039.883081899057, -7384.815202333356, -13431.163243194014, 91.88802145576733, 382.3489406524826, -3353.476924118629, -4198.864602907253, -12728.647914963713, -10367.81196210527, -16648.808616257742, -8453.094476830302, -3237.3819634177644, -7154.771048399335, -8018.844785552596, -8291.06668127378, 0.0085, -0.026562500000000003, 0.9900625, 192.0, 0.0, 0.0, 0.0, 0.0, 0.0, 0.0, 0.0, 0.0, 0.0, 1.6444986910158937E9, 0.0, 2022-02-11 00:11:31.015
86.0, -5303.376055166252, -7042.833512167158, -7400.662589152168, -13439.500443875844, 81.82973645087915, 381.18664994080666, -3359.9812817551237, -4208.11822511175, -12733.52059525497, -10379.948959344501, -16669.662793834545, -8470.394727038709, -3242.7016785981273, -7146.858530862157, -8032.032314781227, -8300.320303478278, 0.009250000000000001, -0.02928125, 0.98903125, 192.0, 0.0, 40.0, 127.5, 0.0, 15.0, 112.0, 0.0, 0.0, 0.0, 1.6444986910159009E9, 0.0, 2022-02-11 00:11:31.015
88.0, -5301.163232465176, -7051.818913438191, -7395.119356527252, -13443.680220088985, 81.29329458395179, 376.7833562831112, -3365.6362731023164, -4213.2367745920155, -12740.09200812483, -10370.449467950997, -16670.065125234738, -8476.161477108179, -3248.0213937784906, -7154.636937932603, -8036.793236350208, -8304.924762836072, 0.009250000000000001, -0.02928125, 0.98903125, 192.0, 0.0, 0.0, 0.0, 0.0, 0.0, 0.0, 0.0, 0.0, 0.0, 1.644498691015908E9, 0.0, 2022-02-11 00:11:31.015
90.0, -5326.532462421949, -7070.728489247381, -7415.839423637322, -13455.23607197238, 59.41093676220617, 354.69983276126777, -3381.8189360879587, -4229.642955022211, -12756.900519955221, -10394.499944984907, -16683.096192252182, -8478.53076202044, -3260.001928806535, -7171.311339296262, -8046.516245188266, -8319.989838598947, 0.009250000000000001, -0.02928125, 0.98903125, 192.0, 0.0, 0.0, 0.0, 0.0, 0.0, 0.0, 0.0, 0.0, 0.0, 1.6444986910159152E9, 0.0, 2022-02-11 00:11:31.015
92.0, -5319.581069896349, -7072.11429740361, -7418.409874249683, -13461.740429608873, 59.030957106465955, 363.21584739873975, -3378.3991191862965, -4228.748885243998, -12761.393220590739, -10403.530049744852, -16697.960102314963, -8492.925285449659, -3272.8988853572473, -7180.721423711947, -8058.4520767274, -8327.768245669395, 0.009250000000000001, -0.02928125, 0.98903125, 192.0, 0.0, 0.0, 0.0, 0.0, 0.0, 0.0, 0.0, 0.0, 0.0, 1.6444986910159223E9, 0.0, 2022-02-11 00:11:31.015
94.0, -5330.935756079645, -7090.30861739023, -7425.987115620032, -13472.983357069894, 59.96973037358885, 351.2576641151505, -3394.0229885605563, -4244.015126706973, -12765.148313659229, -10411.666084726583, -16693.288587723804, -8492.612361027284, -3277.928027859691, -7178.508601010872, -8061.804838395696, -8334.02673411688, 0.009250000000000001, -0.02928125, 0.98903125, 192.0, 0.0, 0.0, 0.0, 0.0, 0.0, 0.0, 0.0, 0.0, 0.0, 1.6444986910159292E9, 0.0, 2022-02-11 00:11:31.015
96.0, -5352.236968545552, -7093.706082547436, -7437.073580869864, -13487.91432236604, 51.61017794730401, 344.35097507846064, -3403.611886931883, -4267.216237451582, -12774.848970752833, -10419.73506447495, -16709.87358210964, -8512.550117081419, -3277.4809929705852, -7187.359891815173, -8076.579341480654, -8350.164693613613, 0.010625, -0.029640625, 0.983515625, 192.0, 0.0, 48.0, 127.5, 8.0, 15.0, 72.0, 0.0, 0.0, 0.0, 1.644498691015937E9, 0.0, 2022-02-11 00:11:31.015
98.0, -5344.056230074911, -7090.196858667953, -7434.190205835129, -13498.19612481548, 52.839523892345895, 344.0604024005416, -3408.350456756408, -4265.025766494962, -12781.062755711408, -10411.643732982127, -16709.35949198717, -8519.367399140287, -3283.113632573323, -7188.18690636002, -8082.234332827847, -8359.910054196127, 0.010625, -0.029640625, 0.983515625, 192.0, 0.0, 0.0, 0.0, 0.0, 0.0, 0.0, 0.0, 0.0, 0.0, 1.6444986910159438E9, 0.0, 2022-02-11 00:11:31.015
100.0, -5362.719936695092, -7107.005370498344, -7454.932624689654, -13500.833630661205, 24.72102936756961, 330.7834661940892, -3455.937320701757, -4254.296929156414, -12794.943189018153, -10434.598974537728, -16723.55284971629, -8537.002925515524, -3299.452757770152, -7203.430796078539, -8098.059367902204, -8363.575740286797, 0.010625, -0.029640625, 0.983515625, 192.0, 0.0, 0.0, 0.0, 0.0, 0.0, 0.0, 0.0, 0.0, 0.0, 1.6444986910159533E9, 0.0, 2022-02-11 00:11:31.015
102.0, -5376.645073490748, -7121.154024738554, -7463.225121882573, -13498.777270171318, 29.481950936550017, 335.4326290407931, -3390.5361164255282, -4250.6312430657445, -12796.038424496464, -10448.747628777937, -16738.617925479168, -8536.354724926321, -3309.488691030585, -7205.621267035159, -8112.230373886869, -8368.448420578054, 0.010625, -0.029640625, 0.983515625, 192.0, 0.0, 0.0, 0.0, 0.0, 0.0, 0.0, 0.0, 0.0, 0.0, 1.6444986910159602E9, 0.0, 2022-02-11 00:11:31.015
104.0, -5382.501230538039, -7127.703085863958, -7463.470991071581, -13507.449747019977, 19.87070082076798, 329.0847336154859, -3408.5292707120507, -4262.500019371512, -12817.607857895835, -10456.704849804026, -16740.339009802225, -8531.012658001502, -3320.932784191702, -7202.4696710669605, -8108.788205240751, -8369.722470012006, 0.010625, -0.029640625, 0.983515625, 192.0, 0.0, 0.0, 0.0, 0.0, 0.0, 0.0, 0.0, 0.0, 0.0, 1.6444986910159671E9, 0.0, 2022-02-11 00:11:31.015
106.0, -5396.471070822606, -7132.329896966207, -7479.854819757322, -13521.374883815633, 2.7045610790921546, 323.2285765681954, -3430.322221555975, -4283.778880092965, -12822.63700039828, -10462.605710340227, -16761.573167034767, -8545.809512830916, -3326.6324790278054, -7203.341389100718, -8128.569499083698, -8385.055766708347, 0.01, -0.026000000000000002, 0.98, 192.0, 0.0, 40.0, 127.5, 24.0, 15.0, 80.0, 0.0, 0.0, 0.0, 1.6444986914956045E9, 0.0, 2022-02-11 00:11:31.495
108.0, -5392.917143454211, -7146.724420395425, -7478.223142412084, -13534.137729899614, 10.751189083002696, 323.1838730792848, -3430.0092971336007, -4289.23270574006, -12825.63213415529, -10460.683460317072, -16759.36034433369, -8552.224463489589, -3331.7733802525263, -7209.890450226123, -8137.599603843642, -8394.08587146829, 0.01, -0.026000000000000002, 0.98, 192.0, 0.0, 0.0, 0.0, 0.0, 0.0, 0.0, 0.0, 0.0, 0.0, 1.6444986914957788E9, 0.0, 2022-02-11 00:11:31.495
110.0, -5410.485614596083, -7161.945958369489, -7492.371796652294, -13543.704276526485, -7.68900009262563, 313.2149950522179, -3448.1142101423993, -4298.039293055451, -12838.037352327985, -10471.389945911164, -16773.37488810717, -8570.798763131948, -3339.797656511981, -7212.103272927198, -8145.914452781017, -8404.591191362286, 0.01, -0.026000000000000002, 0.98, 192.0, 0.0, 0.0, 0.0, 0.0, 0.0, 0.0, 0.0, 0.0, 0.0, 1.644498691495786E9, 0.0, 2022-02-11 00:11:31.495
112.0, -5408.339847128374, -7159.017879845844, -7491.857706529821, -13539.658610780074, -1.363456411773731, 313.12558807439666, -3434.7031634692153, -4288.919781317685, -12837.411503483238, -10480.59886462675, -16783.254359156414, -8578.93479811368, -3342.479865846618, -7232.845691781723, -8154.743391840862, -8411.408473421154, 0.01, -0.026000000000000002, 0.98, 192.0, 0.0, 0.0, 0.0, 0.0, 0.0, 0.0, 0.0, 0.0, 0.0, 1.644498691495793E9, 0.0, 2022-02-11 00:11:31.495
114.0, -5416.006495476544, -7170.998414873889, -7498.116194977307, -13553.919023742561, 3.7774448129468934, 305.0789600704861, -3444.0461926515336, -4290.082072029361, -12848.475616988615, -10485.896228062658, -16778.426382354068, -8574.196228289155, -3348.581892082917, -7230.141130702631, -8154.653984863042, -8413.37542693322, 0.01, -0.026000000000000002, 0.98, 192.0, 0.0, 0.0, 0.0, 0.0, 0.0, 0.0, 0.0, 0.0, 0.0, 1.6444986914958E9, 0.0, 2022-02-11 00:11:31.495
116.0, -5448.975318548121, -7185.124717369643, -7517.808081842432, -13564.401991892099, -12.494625150516647, 287.51048892861473, -3443.1968263622316, -4302.464938457601, -12860.88083516131, -10499.55314392485, -16801.292216931848, -8600.459528024141, -3355.1086014638668, -7236.444322639028, -8164.175828001003, -8427.993467806991, 0.012, -0.024, 0.982, 192.0, 0.0, 48.0, 127.5, 32.0, 15.0, 88.0, 0.0, 0.0, 0.0, 1.6444986914958076E9, 0.0, 2022-02-11 00:11:31.495
118.0, -5455.882007584812, -7207.297647869307, -7525.25121274605, -13577.522465887365, -15.780331585446786, 279.4191574357936, -3468.4319458522737, -4326.917746891707, -12878.69517549219, -10511.444271975073, -16806.701339090032, -8608.148528116766, -3368.81022081497, -7259.533674661359, -8174.4576304504435, -8437.358848733766, 0.012, -0.024, 0.982, 192.0, 0.0, 0.0, 0.0, 0.0, 0.0, 0.0, 0.0, 0.0, 0.0, 1.644498691495815E9, 0.0, 2022-02-11 00:11:31.495
120.0, -5470.3882897363055, -7219.993438719922, -7540.718619909123, -13588.586579392742, -37.10389579580973, 261.6942240827351, -3490.180193207287, -4342.899244177252, -12899.906980980275, -10532.611373974249, -16823.04046428686, -8621.358409089853, -3382.6235988883495, -7272.877666101178, -8188.315712012734, -8453.809732652871, 0.012, -0.024, 0.982, 192.0, 0.0, 0.0, 0.0, 0.0, 0.0, 0.0, 0.0, 0.0, 0.0, 1.644498691495822E9, 0.0, 2022-02-11 00:11:31.495
122.0, -5466.588493178903, -7211.745645015913, -7545.300727522461, -13591.268788727379, -40.85898886430131, 265.02463400657587, -3503.0995015024546, -4347.995441913062, -12894.229637888628, -10528.006914616457, -16832.674066147098, -8633.249537140076, -3383.4953169221067, -7272.34122423425, -8203.29138079779, -8462.951596135092, 0.012, -0.024, 0.982, 192.0, 0.0, 0.0, 0.0, 0.0, 0.0, 0.0, 0.0, 0.0, 0.0, 1.644498691495829E9, 0.0, 2022-02-11 00:11:31.495
124.0, -5476.736185161613, -7227.7047905570025, -7550.218111302628, -13601.774108621374, -45.32933775536272, 261.9400932717435, -3508.9556585497453, -4358.970148440618, -12904.89141999381, -10527.068141349333, -16828.538993422866, -8626.253441125566, -3391.318427481464, -7276.945683592044, -8206.510031999354, -8467.332538048333, 0.012, -0.024, 0.982, 192.0, 0.0, 0.0, 0.0, 0.0, 0.0, 0.0, 0.0, 0.0, 0.0, 1.6444986914958358E9, 0.0, 2022-02-11 00:11:31.495
126.0, -5508.967400666166, -7257.00792753791, -7574.067422636441, -13616.79448089534, -69.24570432254129, 253.04409897853125, -3501.8031003240467, -4331.455151016135, -12923.644533591812, -10558.494694053496, -16859.406752515646, -8657.076496729434, -3403.4554247206956, -7286.176954052085, -8220.05518913927, -8479.223666098556, 0.008, -0.024, 0.986, 192.0, 0.0, 32.0, 127.5, 32.0, 15.0, 104.0, 0.0, 0.0, 0.0, 1.6444986914958427E9, 0.0, 2022-02-11 00:11:31.495
128.0, -5510.286153589029, -7257.7008316160245, -7577.241370349094, -13629.423216512587, -69.35746304481782, 247.72438379816816, -3496.1034054879437, -4339.881758675785, -12940.564804144478, -10566.161342401665, -16868.52626425341, -8668.922921290747, -3426.321259298475, -7296.749329179446, -8226.358381075666, -8485.616265012774, 0.008, -0.024, 0.986, 192.0, 0.0, 0.0, 0.0, 0.0, 0.0, 0.0, 0.0, 0.0, 0.0, 1.6444986914958494E9, 0.0, 2022-02-11 00:11:31.495
