%OpenBCI Raw EEG Data
%Number of channels = 16
%Sample Rate = 125 Hz
%Board = OpenBCI_GUI$BoardCytonSerialDaisy
Sample Index, EXG Channel 0, EXG Channel 1, EXG Channel 2, EXG Channel 3, EXG Channel 4, EXG Channel 5, EXG Channel 6, EXG Channel 7, EXG Channel 8, EXG Channel 9, EXG Channel 10, EXG Channel 11, EXG Channel 12, EXG Channel 13, EXG Channel 14, EXG Channel 15, Accel Channel 0, Accel Channel 1, Accel Channel 2, Other, Other, Other, Other, Other, Other, Other, Analog Channel 0, Analog Channel 1, Analog Channel 2, Timestamp, Other, Timestamp (Formatted)
188.0, -9103.172612568453, -10817.640819268325, -10740.46024566415, -17076.397487687766, -2570.629426315955, -2523.064914115061, -6243.825703123296, -7543.132608310296, -16248.421817829827, -14934.899203169252, -20583.140323536438, -12736.76159820099, -6641.910271872315, -10347.896557795591, -11722.730007497074, -12445.317202248241, 0.0, 0.0, 0.0, 192.0, 0.0, 0.0, 0.0, 0.0, 0.0, 0.0, 0.0, 0.0, 0.0, 1.6444988134832904E9, 0.0, 2022-02-11 00:13:33.483
190.0, -9106.726539936846, -10815.316237844972, -10746.02583003352, -17082.499513924064, -2577.6702258193764, -2534.5090072761786, -6255.493313728966, -7559.985823629597, -16251.796931242578, -14927.389017032268, -20574.601957154508, -12724.043455605919, -6642.31260327251, -10354.959709043469, -11718.930210939672, -12447.485321460406, 0.0, 0.0, 0.0, 192.0, 0.0, 0.0, 0.0, 0.0, 0.0, 0.0, 0.0, 0.0, 0.0, 1.6444988134832988E9, 0.0, 2022-02-11 00:13:33.483
192.0, -9113.119138851063, -10829.420188596272, -10746.204643989164, -17080.018470289528, -2578.2066676863037, -2534.5313590206338, -6259.896607386662, -7552.497989237069, -16245.605498028459, -14936.150900858749, -20584.88375960395, -12737.834481934844, -6639.317469515499, -10361.844046335704, -11723.17704238618, -12454.32495526373, 0.008, -0.026000000000000002, 0.992, 192.0, 0.0, 32.0, 127.5, 24.0, 15.5, 0.0, 0.0, 0.0, 0.0, 1.644498813483306E9, 0.0, 2022-02-11 00:13:33.483
194.0, -9113.499118506805, -10836.14806367732, -10743.433027676705, -17083.32652846891, -2576.6643973188875, -2539.292280589614, -6262.847037654762, -7548.9664136131305, -16248.824149230022, -14942.699961984154, -20573.08203853155, -12729.899612653211, -6642.491417228153, -10365.733249870927, -11721.143033640747, -12451.665097673547, 0.008, -0.026000000000000002, 0.992, 192.0, 0.0, 0.0, 0.0, 0.0, 0.0, 0.0, 0.0, 0.0, 0.0, 1.644498813483313E9, 0.0, 2022-02-11 00:13:33.483
196.0, -9115.220202829863, -10831.878880486356, -10749.691516124192, -17086.746345370575, -2588.0190835021835, -2546.914225448874, -6255.493313728966, -7559.807009673955, -16251.796931242578, -14943.325810828903, -20584.72729739276, -12745.523482027469, -6640.815036394005, -10370.136543528622, -11721.098330151837, -12456.515426220349, 0.008, -0.026000000000000002, 0.992, 192.0, 0.0, 0.0, 0.0, 0.0, 0.0, 0.0, 0.0, 0.0, 0.0, 1.6444988134833198E9, 0.0, 2022-02-11 00:13:33.483
198.0, -9093.293141519207, -10821.775891992556, -10740.79552183098, -17078.76677260003, -2573.4680978617785, -2530.105713618483, -6251.157075304637, -7538.215224530128, -16244.577317783514, -14934.00513339104, -20575.563082166085, -12732.671228965668, -6638.132827059368, -10356.85960732217, -11722.75235924153, -12450.771027895336, 0.008, -0.026000000000000002, 0.992, 192.0, 0.0, 0.0, 0.0, 0.0, 0.0, 0.0, 0.0, 0.0, 0.0, 1.6444988134833267E9, 0.0, 2022-02-11 00:13:33.483
200.0, -9103.284371290729, -10823.832252482445, -10746.048181777976, -17081.24781623457, -2578.9442752533287, -2535.6265944989436, -6260.075421342304, -7552.386230514793, -16244.197338127773, -14930.674723467198, -20564.007230282692, -12734.213499333084, -6637.864606125904, -10354.400915432087, -11717.499699294533, -12444.691353403492, 0.008, -0.026000000000000002, 0.992, 192.0, 0.0, 0.0, 0.0, 0.0, 0.0, 0.0, 0.0, 0.0, 0.0, 1.6444988134833333E9, 0.0, 2022-02-11 00:13:33.483
202.0, -9104.625475958048, -10824.94983970521, -10747.724562612124, -17076.598653387864, -2582.520554366178, -2531.0221351411506, -6272.167715092625, -7548.385268257292, -16244.107931149952, -14930.048874622451, -20579.988727568238, -12733.677057466157, -6638.088123570457, -10357.396049189098, -11728.899088966738, -12449.27346101683, 0.008, -0.026000000000000002, 0.982, 192.0, 0.0, 32.0, 127.5, 24.0, 15.0, 88.0, 0.0, 0.0, 0.0, 1.6444988134833405E9, 0.0, 2022-02-11 00:13:33.483
204.0, -9095.774185153745, -10827.252069384107, -10743.097751509877, -17080.644319134273, -2571.7917170276305, -2533.7713997091532, -6244.943290346061, -7545.591300200379, -16245.449035817272, -14941.984706161584, -20567.091771017527, -12724.311676539384, -6641.284423027566, -10355.183226488021, -11720.65129526273, -12445.496016203882, 0.008, -0.026000000000000002, 0.982, 192.0, 0.0, 0.0, 0.0, 0.0, 0.0, 0.0, 0.0, 0.0, 0.0, 1.6444988134833472E9, 0.0, 2022-02-11 00:13:33.483
206.0, -9102.747929423802, -10818.691351257725, -10749.244481235086, -17084.51117092504, -2578.0278537306613, -2543.4050015693906, -6259.04724109736, -7559.7623061850445, -16246.521919551125, -14937.581412503889, -20572.098561775514, -12722.255316049495, -6642.670231183795, -10353.752714842882, -11720.472481307088, -12453.207368040965, 0.008, -0.026000000000000002, 0.982, 192.0, 0.0, 0.0, 0.0, 0.0, 0.0, 0.0, 0.0, 0.0, 0.0, 1.6444988134833565E9, 0.0, 2022-02-11 00:13:33.483
208.0, -9093.404900241483, -10823.944011204721, -10744.371800943829, -17076.732763854598, -2569.93652223784, -2526.8200071835527, -6251.827627638296, -7540.316288508927, -16242.364495082438, -14935.05566538044, -20574.69136413233, -12729.296115552917, -6637.17170204779, -10359.698278867994, -11721.03127491847, -12449.854606372668, 0.008, -0.026000000000000002, 0.982, 192.0, 0.0, 0.0, 0.0, 0.0, 0.0, 0.0, 0.0, 0.0, 0.0, 1.6444988134833791E9, 0.0, 2022-02-11 00:13:33.483
210.0, -9109.833432416133, -10821.261801870085, -10748.640984134792, -17084.868798836327, -2581.134746209949, -2534.3078415760806, -6261.371822520712, -7542.7302769101, -16246.11958815093, -14934.474520024602, -20570.355125708, -12741.053133136409, -6643.318431772999, -10364.928587070535, -11720.65129526273, -12448.357039494162, 0.009000000000000001, -0.029, 0.983, 192.0, 0.0, 40.0, 127.5, 0.0, 15.0, 96.0, 0.0, 0.0, 0.0, 1.6444988134833884E9, 0.0, 2022-02-11 00:13:33.483
212.0, -9112.76151093978, -10836.706857288702, -10746.852844578367, -17077.827999332905, -2575.792679285131, -2532.720867719754, -6263.271720799413, -7556.6554137057565, -16247.751265496168, -14941.984706161584, -20585.73312589325, -12735.420493533671, -6639.295117771044, -10358.893616067602, -11722.84176621935, -12448.424094727528, 0.009000000000000001, -0.029, 0.983, 192.0, 0.0, 0.0, 0.0, 0.0, 0.0, 0.0, 0.0, 0.0, 0.0, 1.6444988134833956E9, 0.0, 2022-02-11 00:13:33.483
214.0, -9095.70712992038, -10829.867223485378, -10737.68862935169, -17081.00194704556, -2565.4438216023236, -2519.7121524467652, -6263.025851610405, -7539.668087919723, -16243.951468938765, -14933.312229312925, -20564.476616916254, -12723.507013738992, -6639.809207893516, -10347.918909540047, -11714.146937626236, -12443.663173158548, 0.009000000000000001, -0.029, 0.983, 192.0, 0.0, 0.0, 0.0, 0.0, 0.0, 0.0, 0.0, 0.0, 0.0, 1.6444988134834025E9, 0.0, 2022-02-11 00:13:33.483
216.0, -9106.145394581008, -10839.009086967599, -10748.708039368157, -17081.71720286813, -2579.167792697882, -2537.772361966653, -6257.348508518757, -7550.151056069262, -16244.622021272424, -14931.904069412241, -20573.05968678709, -12728.603211474803, -6641.373830005387, -10365.062697537267, -11713.476385292577, -12449.407571483562, 0.009000000000000001, -0.029, 0.983, 192.0, 0.0, 0.0, 0.0, 0.0, 0.0, 0.0, 0.0, 0.0, 0.0, 1.6444988134834108E9, 0.0, 2022-02-11 00:13:33.483
218.0, -9104.446662002405, -10841.579537579959, -10743.388324187796, -17080.532560411997, -2570.5400193381333, -2524.9648123937623, -6247.424333980601, -7536.807064629444, -16250.12055040843, -14932.395807790257, -20582.3580124805, -12734.034685377443, -6643.74311491765, -10357.217235233455, -11713.096405636836, -12448.021763327333, 0.009000000000000001, -0.029, 0.983, 192.0, 0.0, 0.0, 0.0, 0.0, 0.0, 0.0, 0.0, 0.0, 0.0, 1.6444988134834177E9, 0.0, 2022-02-11 00:13:33.483
220.0, -9120.539918010225, -10850.609642339903, -10748.864501579345, -17081.940720312683, -2576.6420455744324, -2531.513873519167, -6259.315462030824, -7536.203567529151, -16251.618117286936, -14953.00411617805, -20573.037335042638, -12732.04538012092, -6646.224158552189, -10366.67202313805, -11712.515260281, -12444.51253944785, 0.007500000000000001, -0.0305, 0.9835, 192.0, 0.0, 24.0, 127.5, 0.0, 15.0, 96.0, 0.0, 0.0, 0.0, 1.6444988134834323E9, 0.0, 2022-02-11 00:13:33.483
222.0, -9113.700284206901, -10847.368639393884, -10752.12785626982, -17083.52769416901, -2580.2406764317366, -2529.4351612848236, -6259.226055053003, -7541.188006542684, -16249.584108541503, -14941.850595694852, -20584.079096803558, -12741.924851170166, -6640.636222438362, -10367.610796405173, -11719.98074292907, -12449.541681950293, 0.007500000000000001, -0.0305, 0.9835, 192.0, 0.0, 0.0, 0.0, 0.0, 0.0, 0.0, 0.0, 0.0, 0.0, 1.6444988134834394E9, 0.0, 2022-02-11 00:13:33.483
224.0, -9098.121118321553, -10848.106246960908, -10747.858673078856, -17079.414973189232, -2577.111432207994, -2531.223300841248, -6246.217339780014, -7542.484407721092, -16252.60159404297, -14938.564889259922, -20576.54655892212, -12726.748016685013, -6647.364097519409, -10373.91398834157, -11718.08084465037, -12446.457141215462, 0.007500000000000001, -0.0305, 0.9835, 192.0, 0.0, 0.0, 0.0, 0.0, 0.0, 0.0, 0.0, 0.0, 0.0, 1.6444988134834461E9, 0.0, 2022-02-11 00:13:33.483
226.0, -9110.593391727614, -10854.744715064135, -10757.000536561078, -17079.057345277946, -2590.835403303552, -2536.1183328769607, -6273.508819759944, -7558.085925350896, -16250.656992275357, -14942.878775939796, -20581.46394270229, -12726.345685284816, -6646.067696341002, -10366.582616160229, -11721.3665510853, -12451.240414528897, 0.007500000000000001, -0.0305, 0.9835, 192.0, 0.0, 0.0, 0.0, 0.0, 0.0, 0.0, 0.0, 0.0, 0.0, 1.6444988134834533E9, 0.0, 2022-02-11 00:13:33.483
228.0, -9112.247420817306, -10859.8632645444, -10747.70221086767, -17078.4314964332, -2578.8325165310525, -2530.038658385117, -6257.080287585293, -7548.832303146399, -16243.057399160552, -14949.517244043023, -20582.02273631367, -12730.771330686966, -6647.833484152971, -10357.284290466821, -11727.356818599323, -12448.93818485, 0.007500000000000001, -0.0305, 0.9835, 192.0, 0.0, 0.0, 0.0, 0.0, 0.0, 0.0, 0.0, 0.0, 0.0, 1.6444988134834604E9, 0.0, 2022-02-11 00:13:33.483
230.0, -9106.927705636943, -10844.95465099271, -10749.84797833538, -17087.66276689324, -2578.676054319865, -2542.242710857715, -6243.982165334483, -7564.769096943033, -16250.478178319716, -14945.225709107604, -20577.194759511323, -12731.173662087163, -6650.068658598502, -10355.116171254656, -11722.03710341896, -12453.855568630168, 0.00775, -0.029249999999999998, 0.98575, 192.0, 0.0, 32.0, 127.5, 16.0, 15.0, 112.0, 0.0, 0.0, 0.0, 1.6444988134834676E9, 0.0, 2022-02-11 00:13:33.483
232.0, -9104.379606769038, -10844.597023081426, -10753.401905703773, -17087.282787237502, -2579.391310142435, -2545.6625277593766, -6247.71490665852, -7552.7215066816225, -16242.364495082438, -14929.065397866416, -20587.141285793936, -12755.537063543446, -6646.045344596547, -10379.233703521932, -11721.768882485496, -12457.32008902074, 0.00775, -0.029249999999999998, 0.98575, 192.0, 0.0, 0.0, 0.0, 0.0, 0.0, 0.0, 0.0, 0.0, 0.0, 1.6444988134834745E9, 0.0, 2022-02-11 00:13:33.483
234.0, -9100.535106722726, -10875.665947874302, -10748.573928901425, -17083.795915102473, -2576.6196938299768, -2532.363239808469, -6255.962700362528, -7548.631137446301, -16246.298402106573, -14953.160578389237, -20577.038297300136, -12732.04538012092, -6651.499170243642, -10381.871209367659, -11721.165385385202, -12449.854606372668, 0.00775, -0.029249999999999998, 0.98575, 192.0, 0.0, 0.0, 0.0, 0.0, 0.0, 0.0, 0.0, 0.0, 0.0, 1.644498813483481E9, 0.0, 2022-02-11 00:13:33.483
236.0, -9125.837281446133, -10879.286930476062, -10763.214321519652, -17088.534484926997, -2592.645894604432, -2542.64504225791, -6260.835380653784, -7551.313346780938, -16255.26145163315, -14960.62606103731, -20583.654413658907, -12731.732455698546, -6653.734344689173, -10382.72057565696, -11724.94283019815, -12454.32495526373, 0.00775, -0.029249999999999998, 0.98575, 192.0, 0.0, 0.0, 0.0, 0.0, 0.0, 0.0, 0.0, 0.0, 0.0, 1.6444988134834878E9, 0.0, 2022-02-11 00:13:33.483
238.0, -9107.218278314862, -10867.14993323683, -10752.217263247641, -17083.751211613562, -2581.8052985436084, -2537.5488445221004, -6266.423316767611, -7559.427030018214, -16256.468445833738, -14959.307308114447, -20593.22096028578, -12741.701333725612, -6656.8635889129155, -10378.898427355103, -11727.60268778833, -12454.03438258581, 0.00775, -0.029249999999999998, 0.98575, 192.0, 0.0, 0.0, 0.0, 0.0, 0.0, 0.0, 0.0, 0.0, 0.0, 1.6444988134834948E9, 0.0, 2022-02-11 00:13:33.483
240.0, -9113.409711528982, -10873.631939128869, -10758.296937739486, -17090.993176817083, -2589.1143189804934, -2543.2485393582033, -6262.869389399218, -7557.549483483968, -16253.965050454743, -14946.902089941752, -20577.619442655974, -12731.66540046518, -6660.372812792399, -10378.876075610648, -11724.629905775775, -12456.537777964804, 0.006875, -0.030625, 0.9878750000000001, 192.0, 0.0, 24.0, 127.5, 0.0, 15.0, 120.0, 0.0, 0.0, 0.0, 1.644498813483502E9, 0.0, 2022-02-11 00:13:33.483
242.0, -9112.962676639876, -10867.842837314945, -10762.253196508074, -17092.557798928952, -2590.6565893479096, -2546.623652770955, -6263.964624877528, -7550.374573513815, -16258.614213301447, -14946.253889352547, -20594.472657975275, -12745.836406449844, -6659.054059869535, -10377.691433154516, -11730.46371107861, -12459.912891377557, 0.006875, -0.030625, 0.9878750000000001, 192.0, 0.0, 0.0, 0.0, 0.0, 0.0, 0.0, 0.0, 0.0, 0.0, 1.6444988134835088E9, 0.0, 2022-02-11 00:13:33.483
244.0, -9101.65269394549, -10862.165494223296, -10755.480617938116, -17086.56753141493, -2584.4428043893345, -2544.254367858692, -6275.833401183296, -7561.125762596818, -16254.412085343849, -14961.609537793343, -20578.02177405617, -12733.498243510514, -6659.501094758642, -10382.474706467952, -11728.250888377535, -12458.862359388157, 0.006875, -0.030625, 0.9878750000000001, 192.0, 0.0, 0.0, 0.0, 0.0, 0.0, 0.0, 0.0, 0.0, 0.0, 1.6444988134835155E9, 0.0, 2022-02-11 00:13:33.483
246.0, -9121.657505232992, -10890.462802703716, -10768.690498911203, -17090.52379018352, -2602.7935865871414, -2557.88893197643, -6260.321290531313, -7557.30361429496, -16262.592823814492, -14961.877758726807, -20587.185989282847, -12738.147406357219, -6661.780972693083, -10390.72250017196, -11727.759149999518, -12460.963423366955, 0.006875, -0.030625, 0.9878750000000001, 192.0, 0.0, 0.0, 0.0, 0.0, 0.0, 0.0, 0.0, 0.0, 0.0, 1.6444988134835222E9, 0.0, 2022-02-11 00:13:33.483
248.0, -9109.207583571386, -10898.643541174359, -10760.532112185016, -17089.76383087204, -2593.1152812379937, -2552.3456993515133, -6271.38540403669, -7563.919730653732, -16256.401390600371, -14962.347145360369, -20594.942044608837, -12746.953993672609, -6666.497190773152, -10397.875058397658, -11731.491891323554, -12460.941071622501, 0.006875, -0.030625, 0.9878750000000001, 192.0, 0.0, 0.0, 0.0, 0.0, 0.0, 0.0, 0.0, 0.0, 0.0, 1.644498813483529E9, 0.0, 2022-02-11 00:13:33.483
250.0, -9114.572002240659, -10884.003148556132, -10764.22015002014, -17094.81532511894, -2601.519537153189, -2558.4030220989016, -6264.746935933464, -7564.947910898675, -16262.45871334776, -14970.170255919726, -20589.465867217288, -12752.519578041982, -6674.052080399047, -10396.377491519153, -11729.815510489407, -12463.13154257912, 0.0064375000000000005, -0.0293125, 0.9869375, 192.0, 0.0, 24.0, 127.5, 16.0, 15.0, 104.0, 0.0, 0.0, 0.0, 1.6444988134835362E9, 0.0, 2022-02-11 00:13:33.483
252.0, -9111.42040627246, -10883.220837500196, -10762.74493488609, -17093.787144873993, -2602.2124412313037, -2548.478847560745, -6261.550636476355, -7563.092716108885, -16252.378076598416, -14945.069246896417, -20596.4619632318, -12747.110455883796, -6667.592426251463, -10403.284180555842, -11734.643487291753, -12467.534836236817, 0.0064375000000000005, -0.0293125, 0.9869375, 192.0, 0.0, 0.0, 0.0, 0.0, 0.0, 0.0, 0.0, 0.0, 0.0, 1.644498813483722E9, 0.0, 2022-02-11 00:13:33.483
254.0, -9110.861612661078, -10889.144049780853, -10756.486446438605, -17096.223485019622, -2600.4466534193343, -2537.414734055368, -6268.703194702053, -7559.628195718312, -16259.620041801936, -14961.72129651562, -20581.55334968011, -12733.297077810417, -6668.084164629479, -10390.789555405327, -11729.904917467227, -12465.769048424847, 0.0064375000000000005, -0.0293125, 0.9869375, 192.0, 0.0, 0.0, 0.0, 0.0, 0.0, 0.0, 0.0, 0.0, 0.0, 1.64449881348373E9, 0.0, 2022-02-11 00:13:33.483
0.0, -9123.33388606714, -10889.904009092334, -10763.527245942027, -17100.917351355238, -2606.5039761667226, -2549.082344661039, -6263.271720799413, -7570.982881901608, -16264.917405237844, -14970.550235575467, -20588.70590790581, -12739.80143544691, -6669.045289641058, -10381.379470989641, -11732.855347735329, -12469.099458348688, 0.0064375000000000005, -0.0293125, 0.9869375, 192.0, 0.0, 0.0, 0.0, 0.0, 0.0, 0.0, 0.0, 0.0, 0.0, 1.6444988134837372E9, 0.0, 2022-02-11 00:13:33.483
2.0, -9101.742100923313, -10854.074162730476, -10753.893644081789, -17098.257493765057, -2595.395159172435, -2541.8403794575192, -6244.496255456956, -7547.938233368187, -16259.508283079658, -14947.438531808679, -20591.92455910737, -12759.113342656297, -6664.351423305443, -10390.990721105423, -11726.12747265428, -12467.08780134771, 0.0064375000000000005, -0.0293125, 0.9869375, 192.0, 0.0, 0.0, 0.0, 0.0, 0.0, 0.0, 0.0, 0.0, 0.0, 1.6444988134837444E9, 0.0, 2022-02-11 00:13:33.483
4.0, -9118.975295898354, -10918.8271664175, -10757.916958083744, -17093.228351262613, -2594.2775719496694, -2550.8928359619185, -6248.050182825349, -7546.708887423145, -16268.180759928318, -14963.665898283232, -20589.01883232818, -12752.229005364063, -6665.3125483170215, -10408.022750380367, -11714.817489959894, -12457.811827398757, 0.00621875, -0.02765625, 0.98846875, 192.0, 0.0, 24.0, 127.5, 24.0, 15.0, 120.0, 0.0, 0.0, 0.0, 1.6444988134837515E9, 0.0, 2022-02-11 00:13:33.483
6.0, -9129.99470591482, -10923.11870135292, -10757.805199361468, -17086.94751107067, -2599.194955729837, -2551.9657196957733, -6264.366956277723, -7568.345376055882, -16273.053440219575, -14978.842732768386, -20607.436669759354, -12747.311621583895, -6663.457353527231, -10404.379416034153, -11722.998228430537, -12465.187903069009, 0.00621875, -0.02765625, 0.98846875, 192.0, 0.0, 0.0, 0.0, 0.0, 0.0, 0.0, 0.0, 0.0, 0.0, 1.6444988134837592E9, 0.0, 2022-02-11 00:13:33.483
8.0, -9115.689589463424, -10901.415157486816, -10750.9879173026, -17087.282787237502, -2592.1541562264156, -2548.098867905005, -6250.464171226522, -7562.399812030771, -16264.917405237844, -14969.34324137488, -20585.93429159335, -12735.532252255947, -6661.468048270709, -10402.412462522087, -11722.908821452716, -12466.8419321587, 0.00621875, -0.02765625, 0.98846875, 192.0, 0.0, 0.0, 0.0, 0.0, 0.0, 0.0, 0.0, 0.0, 0.0, 1.6444988134837663E9, 0.0, 2022-02-11 00:13:33.483
10.0, -9120.741083710323, -10891.133355037375, -10761.068554051943, -17090.14381052778, -2604.872298821485, -2549.775248739153, -6272.011252881438, -7563.338585297894, -16265.610309315958, -14969.29853788597, -20592.729221907764, -12738.817958690877, -6660.9763098926915, -10400.49021249893, -11725.702789509629, -12467.758353681369, 0.00621875, -0.02765625, 0.98846875, 192.0, 0.0, 0.0, 0.0, 0.0, 0.0, 0.0, 0.0, 0.0, 0.0, 1.6444988134837942E9, 0.0, 2022-02-11 00:13:33.483
12.0, -9112.359179539584, -10898.06239581852, -10755.950004571678, -17089.316795982933, -2597.652685362421, -2540.8121992125753, -6264.568121977821, -7554.464942749137, -16261.519940080636, -14967.041011695983, -20595.009099842206, -12746.775179716968, -6662.60798723793, -10391.303645527798, -11730.642525034253, -12465.880807147123, 0.00621875, -0.02765625, 0.98846875, 192.0, 0.0, 0.0, 0.0, 0.0, 0.0, 0.0, 0.0, 0.0, 0.0, 1.6444988134838023E9, 0.0, 2022-02-11 00:13:33.483
14.0, -9135.180310628451, -10920.01180887363, -10763.437838964206, -17095.776450130517, -2606.0122377887055, -2543.226187613748, -6280.616674496731, -7559.516436996036, -16267.55491108357, -14969.320889630424, -20593.243312030234, -12744.271784337972, -6672.554513520541, -10406.905163157602, -11725.903955209727, -12464.159722824064, 0.008109375, -0.026828125, 0.985234375, 192.0, 0.0, 40.0, 127.5, 24.0, 15.0, 88.0, 0.0, 0.0, 0.0, 1.6444988134838092E9, 0.0, 2022-02-11 00:13:33.483
16.0, -9141.95288919841, -10930.07009387852, -10761.537940685505, -17095.642339663787, -2598.099720251527, -2545.4390103148235, -6250.575929948799, -7560.902245152265, -16279.021355989142, -14985.995290994084, -20608.42014651539, -12759.24745312303, -6666.743059962161, -10400.356102032198, -11730.262545378513, -12468.428906015028, 0.008109375, -0.026828125, 0.985234375, 192.0, 0.0, 0.0, 0.0, 0.0, 0.0, 0.0, 0.0, 0.0, 0.0, 1.6444988134838161E9, 0.0, 2022-02-11 00:13:33.483
18.0, -9136.722580995867, -10940.664820750335, -10752.351373714373, -17095.776450130517, -2586.521516623678, -2542.1086003909827, -6240.3388309882685, -7556.811875916944, -16271.17589368533, -14982.10608745886, -20590.471695717777, -12749.524444284969, -6659.188170336267, -10398.43385200904, -11718.594934772842, -12466.238435058409, 0.008109375, -0.026828125, 0.985234375, 192.0, 0.0, 0.0, 0.0, 0.0, 0.0, 0.0, 0.0, 0.0, 0.0, 1.6444988134838233E9, 0.0, 2022-02-11 00:13:33.483
20.0, -9173.357090158117, -10962.100143682974, -10768.064650066453, -17103.018415334038, -2600.1784324858704, -2554.26794937467, -6252.319366016312, -7558.287091050994, -16282.865856035454, -14992.477296886123, -20603.525114479675, -12762.33199385786, -6660.529275003586, -10406.189907335032, -11719.667818506698, -12468.361850781663, 0.008109375, -0.026828125, 0.985234375, 192.0, 0.0, 0.0, 0.0, 0.0, 0.0, 0.0, 0.0, 0.0, 0.0, 1.64449881348383E9, 0.0, 2022-02-11 00:13:33.483
22.0, -9182.208380962418, -10984.407184649372, -10760.286242996008, -17097.92221759823, -2588.5108218802, -2540.0969433900054, -6252.654642183143, -7552.16271307024, -16290.197228216795, -15001.149773734782, -20620.2665710767, -12770.199807906129, -6663.077373871491, -10405.876982912658, -11728.139129655257, -12468.004222870377, 0.008109375, -0.026828125, 0.985234375, 192.0, 0.0, 0.0, 0.0, 0.0, 0.0, 0.0, 0.0, 0.0, 0.0, 1.6444988134838371E9, 0.0, 2022-02-11 00:13:33.483
24.0, -9227.716532673423, -11015.029074553142, -10769.025775078033, -17107.75698515856, -2594.5904963720436, -2547.8977022049075, -6252.81110439433, -7564.255006820561, -16304.79291734611, -15006.581247637421, -20614.61157972951, -12768.881054983265, -6660.529275003586, -10404.692340456528, -11720.852460962828, -12464.56205422426, 0.012, -0.024, 0.986, 192.0, 0.0, 48.0, 127.5, 32.0, 15.0, 104.0, 0.0, 0.0, 0.0, 1.644498813483844E9, 0.0, 2022-02-11 00:13:33.483
26.0, -9270.765992494344, -11068.583854268058, -10772.691461168703, -17110.528601471022, -2599.7537493412196, -2540.3428125790138, -6266.333909789791, -7555.359012527349, -16322.629609421447, -15026.273134502548, -20642.95359169884, -12795.792555307455, -6667.0783361289905, -10403.574753233761, -11728.452054077632, -12473.122772350642, 0.012, -0.024, 0.986, 192.0, 0.0, 0.0, 0.0, 0.0, 0.0, 0.0, 0.0, 0.0, 0.0, 1.6444988134838507E9, 0.0, 2022-02-11 00:13:33.483
28.0, -9297.766899796356, -11091.203819656828, -10768.243464022096, -17115.691854440196, -2585.269818934181, -2545.3719550814576, -6231.509891928422, -7539.802198386455, -16333.358446759994, -15043.26046028858, -20644.94289695536, -12803.794479822456, -6671.481629786686, -10414.549459761318, -11721.053626662926, -12464.249129801885, 0.012, -0.024, 0.986, 192.0, 0.0, 0.0, 0.0, 0.0, 0.0, 0.0, 0.0, 0.0, 0.0, 1.6444988134838617E9, 0.0, 2022-02-11 00:13:33.483
30.0, -9341.263394506383, -11136.555509156646, -10783.017967107055, -17114.35074977288, -2598.636162118454, -2554.2232458857593, -6245.7926566353635, -7556.364841027837, -16342.656772453402, -15038.45483523069, -20661.013801218727, -12803.168630977707, -6669.089993129968, -10435.805968738314, -11720.181908629169, -12466.8419321587, 0.012, -0.024, 0.986, 192.0, 0.0, 0.0, 0.0, 0.0, 0.0, 0.0, 0.0, 0.0, 0.0, 1.6444988134838681E9, 0.0, 2022-02-11 00:13:33.483
32.0, -9346.828978875754, -11163.39995424747, -10774.814876891956, -17114.216639306145, -2582.6993683218207, -2529.0775333735387, -6235.354391974734, -7532.0014395715525, -16350.211662079295, -15041.449968987701, -20675.676545581406, -12818.703093374144, -6671.638091997874, -10411.308456815297, -11723.489966808555, -12462.505693734372, 0.012, -0.024, 0.986, 192.0, 0.0, 0.0, 0.0, 0.0, 0.0, 0.0, 0.0, 0.0, 0.0, 1.644498813483875E9, 0.0, 2022-02-11 00:13:33.483
34.0, -9362.922234883576, -11181.281349811716, -10778.9946531051, -17113.411976505755, -2586.9238480238737, -2528.496388017701, -6230.705229128031, -7532.671991905212, -16351.016324879685, -15064.382858798846, -20659.717400040317, -12812.042273526464, -6665.290196572566, -10422.216108109487, -11713.69990273713, -12455.733115164414, 0.004, -0.026000000000000002, 0.986, 192.0, 0.0, 16.0, 127.5, 24.0, 15.0, 104.0, 0.0, 0.0, 0.0, 1.6444988134838817E9, 0.0, 2022-02-11 00:13:33.483
36.0, -9357.490760980936, -11165.478666481813, -10778.189990304709, -17111.802650904974, -2589.6507608474208, -2527.3117455615698, -6222.7256563574865, -7537.745837896567, -16355.687839470846, -15086.086402664949, -20672.122618213012, -12810.835279325876, -6665.647824483851, -10419.980933663957, -11716.382112071768, -12458.772952410336, 0.004, -0.026000000000000002, 0.986, 192.0, 0.0, 0.0, 0.0, 0.0, 0.0, 0.0, 0.0, 0.0, 0.0, 1.6444988134838884E9, 0.0, 2022-02-11 00:13:33.483
38.0, -9331.003943801397, -11141.741113870277, -10773.317310013452, -17116.496517240586, -2579.9277520093624, -2525.098922860494, -6228.291240726858, -7532.7613988830335, -16346.322458544071, -15058.772570940564, -20655.559975571632, -12803.168630977707, -6662.585635493474, -10417.991628407435, -11708.581353256865, -12453.140312807598, 0.004, -0.026000000000000002, 0.986, 192.0, 0.0, 0.0, 0.0, 0.0, 0.0, 0.0, 0.0, 0.0, 0.0, 1.6444988134838953E9, 0.0, 2022-02-11 00:13:33.483
40.0, -9333.864967091677, -11165.389259503992, -10782.861504895867, -17120.542182987, -2596.6021533730213, -2539.2028736117927, -6248.877197370195, -7559.114105595841, -16343.439083509336, -15064.65107973231, -20659.538586084676, -12821.318247475416, -6667.391260551365, -10418.885698185648, -11714.661027748709, -12463.444467001495, 0.004, -0.026000000000000002, 0.986, 192.0, 0.0, 0.0, 0.0, 0.0, 0.0, 0.0, 0.0, 0.0, 0.0, 1.644498813483902E9, 0.0, 2022-02-11 00:13:33.483
42.0, -9301.566696353757, -11141.741113870277, -10770.679804167725, -17112.316741027444, -2581.4700223767786, -2530.5974519965, -6233.923880329595, -7556.0072131165525, -16333.827833393556, -15069.412001301289, -20657.303411639146, -12809.58358163638, -6662.406821537831, -10425.099483144222, -11719.041969661948, -12467.691298448002, 0.004, -0.026000000000000002, 0.986, 192.0, 0.0, 0.0, 0.0, 0.0, 0.0, 0.0, 0.0, 0.0, 0.0, 1.6444988134839087E9, 0.0, 2022-02-11 00:13:33.483
44.0, -9294.145917194595, -11118.33883742557, -10777.18416180422, -17117.23412480761, -2593.94229578284, -2531.536225263623, -6261.863560898729, -7542.216186787628, -16335.638324694435, -15053.788131927031, -20644.60762078853, -12799.882924542777, -6663.278539571588, -10417.030503395856, -11712.627019003276, -12469.367679282152, 0.008, -0.03, 0.992, 192.0, 0.0, 32.0, 127.5, 8.0, 15.5, 0.0, 0.0, 0.0, 0.0, 1.6444988134839153E9, 0.0, 2022-02-11 00:13:33.483
46.0, -9271.950634950475, -11096.05414820363, -10777.720603671147, -17110.349787515377, -2588.533173624656, -2524.4730740157456, -6226.793673848352, -7539.601032686357, -16326.47410946776, -15046.21089055668, -20653.145987170457, -12803.772128078, -6661.311586059522, -10421.992590664935, -11715.488042293555, -12469.501789748883, 0.008, -0.03, 0.992, 192.0, 0.0, 0.0, 0.0, 0.0, 0.0, 0.0, 0.0, 0.0, 0.0, 1.6444988134839222E9, 0.0, 2022-02-11 00:13:33.483
48.0, -9245.396762537572, -11079.603264284524, -10766.65649016577, -17109.969807859638, -2580.1959729428263, -2528.4516845287903, -6215.573098131788, -7537.835244874388, -16315.097071540007, -15035.772625896052, -20632.60473401603, -12791.478668627582, -6662.540932004564, -10437.63881178365, -11706.860268933806, -12463.958557123966, 0.008, -0.03, 0.992, 192.0, 0.0, 0.0, 0.0, 0.0, 0.0, 0.0, 0.0, 0.0, 0.0, 1.644498813483929E9, 0.0, 2022-02-11 00:13:33.483
50.0, -9262.205274367961, -11088.499258577736, -10779.687557183213, -17113.747252672583, -2601.4748336642783, -2542.3097660910807, -6252.386421249678, -7559.516436996036, -16319.120385541963, -15036.577288696444, -20635.08577765057, -12795.569037862902, -6664.910216916825, -10437.348239105731, -11711.487080036055, -12469.501789748883, 0.008, -0.03, 0.992, 192.0, 0.0, 0.0, 0.0, 0.0, 0.0, 0.0, 0.0, 0.0, 0.0, 1.6444988134839356E9, 0.0, 2022-02-11 00:13:33.483
52.0, -9245.128541604106, -11065.074630388573, -10771.104487312376, -17108.226371792123, -2593.0258742601723, -2533.9278619203405, -6240.562348432822, -7549.413448502237, -16324.32834200005, -15045.249765545102, -20642.93123995438, -12786.136601702763, -6669.1346966188785, -10427.401712823119, -11719.153728384224, -12470.999356627388, 0.008, -0.03, 0.992, 192.0, 0.0, 0.0, 0.0, 0.0, 0.0, 0.0, 0.0, 0.0, 0.0, 1.6444988134839425E9, 0.0, 2022-02-11 00:13:33.483
0.0, -4529.670420845798, -5341.038744573444, -5372.286483321963, -8533.359591169308, -1281.1349369448349, -1198.1205580378244, -3059.730298486984, -3759.272844704729, -8155.749220341351, -7513.225974229094, -10310.680903277505, -6390.989588617038, -3331.1251796633223, -5212.717379655526, -5856.402916479459, -6231.934575073073, 0.004, -0.026000000000000002, 0.994, 192.0, 0.0, 16.0, 127.5, 24.0, 15.5, 8.0, 0.0, 0.0, 0.0, 1.6444988140591774E9, 0.0, 2022-02-11 00:13:34.059
2.0, -9044.007544995255, -10670.767506452503, -10737.241594462586, -17066.47331314961, -2556.7266412647537, -2386.272238048582, -6139.912443150573, -7531.196776771161, -16411.00840699773, -15165.323336759013, -20500.93060742982, -12643.823044755824, -6527.067008860947, -10375.143334286611, -11688.353024524811, -12490.46772604796, 0.004, -0.026000000000000002, 0.994, 192.0, 0.0, 0.0, 0.0, 0.0, 0.0, 0.0, 0.0, 0.0, 0.0, 1.6444988140591912E9, 0.0, 2022-02-11 00:13:34.059
4.0, -9057.97738527982, -10678.948244923145, -10746.830492833913, -17070.027240518004, -2576.3067694076026, -2401.7396452116545, -6144.092219363716, -7542.35029725436, -16411.16486920892, -15157.679040155297, -20496.929645172317, -12646.304088390361, -6526.262346060556, -10364.883883581626, -11690.208219314602, -12494.915723194566, 0.004, -0.026000000000000002, 0.994, 192.0, 0.0, 0.0, 0.0, 0.0, 0.0, 0.0, 0.0, 0.0, 0.0, 1.644498814059201E9, 0.0, 2022-02-11 00:13:34.059
6.0, -9052.344745677085, -10688.201867127642, -10741.22020497563, -17065.780409071496, -2569.645949559921, -2397.1351858538615, -6139.264242561369, -7524.804177856944, -16411.790718053668, -15163.222272780213, -20506.093860398993, -12638.726847020012, -6531.760875196562, -10369.868322595159, -11691.4599170041, -12496.413290073073, 0.007, -0.025, 0.996, 192.0, 0.0, 40.0, 127.5, 32.0, 15.5, 24.0, 0.0, 0.0, 0.0, 1.6444988140592167E9, 0.0, 2022-02-11 00:13:34.059
8.0, -9048.276728186218, -10682.993910669555, -10738.269774707529, -17067.501493394553, -2570.8529437605075, -2389.6697032057887, -6157.212693358982, -7532.448474460659, -16407.946218007353, -15163.937528602783, -20492.325185814523, -12632.22248938352, -6531.939689152204, -10365.86736033766, -11686.69899543512, -12491.495906292905, 0.007, -0.025, 0.996, 192.0, 0.0, 0.0, 0.0, 0.0, 0.0, 0.0, 0.0, 0.0, 0.0, 1.644498814059224E9, 0.0, 2022-02-11 00:13:34.059
10.0, -9058.290309702195, -10685.653768259737, -10746.182292244708, -17070.608385873842, -2568.4389553593346, -2400.4208922887915, -6119.415893485057, -7525.519433679514, -16411.58955235357, -15160.51771170112, -20507.881999955418, -12640.894966232177, -6531.224433329634, -10368.460162694475, -11686.162553568192, -12495.206295872485, 0.007, -0.025, 0.996, 192.0, 0.0, 0.0, 0.0, 0.0, 0.0, 0.0, 0.0, 0.0, 0.0, 1.644498814059231E9, 0.0, 2022-02-11 00:13:34.059
12.0, -9055.473989900827, -10688.604198527837, -10739.74498984158, -17069.401391673255, -2556.391365097924, -2400.8679271778974, -6112.598611426189, -7530.34741048186, -16412.483622131782, -15165.926833859306, -20504.730403987218, -12641.78903601039, -6538.488750277609, -10395.550476974306, -11682.183943055146, -12492.904066193589, 0.007, -0.025, 0.996, 192.0, 0.0, 0.0, 0.0, 0.0, 0.0, 0.0, 0.0, 0.0, 0.0, 1.6444988140592377E9, 0.0, 2022-02-11 00:13:34.059
14.0, -9072.215446497852, -10698.528373065994, -10749.691516124192, -17075.4810661651, -2576.3738246409685, -2406.165290613805, -6127.97661161144, -7520.87027083281, -16417.53511637868, -15173.459371740744, -20503.59046502, -12646.751123279468, -6540.232186345123, -10376.1491627871, -11684.866152389784, -12494.736909238925, 0.007, -0.025, 0.996, 192.0, 0.0, 0.0, 0.0, 0.0, 0.0, 0.0, 0.0, 0.0, 0.0, 1.6444988140592446E9, 0.0, 2022-02-11 00:13:34.059
16.0, -9060.637242870003, -10692.471050318605, -10742.717771854135, -17065.266318949023, -2567.611940814488, -2394.072996863484, -6126.255527288381, -7517.070474275408, -16418.809165812632, -15182.95886313425, -20514.20754363627, -12648.919242491633, -6545.171921869746, -10381.468877967463, -11686.900161135216, -12490.825353959246, 0.0095, -0.025500000000000002, 0.995, 192.0, 0.0, 48.0, 127.5, 24.0, 15.5, 8.0, 0.0, 0.0, 0.0, 1.6444988140592515E9, 0.0, 2022-02-11 00:13:34.059
18.0, -9058.357364935562, -10684.78205022598, -10742.583661387403, -17073.916444053226, -2568.7295280372537, -2400.890278922353, -6130.256489545881, -7525.340619723871, -16416.976322767296, -15172.967633362727, -20501.86938069694, -12637.296335374873, -6542.15443636828, -10367.38727896062, -11682.921550622172, -12485.729156223435, 0.0095, -0.025500000000000002, 0.995, 192.0, 0.0, 0.0, 0.0, 0.0, 0.0, 0.0, 0.0, 0.0, 0.0, 1.6444988140592585E9, 0.0, 2022-02-11 00:13:34.059
20.0, -9073.042461042698, -10698.9754079551, -10754.899472582278, -17081.203112745658, -2585.7392055677424, -2407.081712136473, -6146.953242653995, -7529.207471514639, -16423.68184610389, -15177.460333998244, -20518.1414506604, -12661.570329853337, -6541.953270668182, -10383.033500079335, -11688.397728013722, -12498.983740685433, 0.0095, -0.025500000000000002, 0.995, 192.0, 0.0, 0.0, 0.0, 0.0, 0.0, 0.0, 0.0, 0.0, 0.0, 1.644498814059265E9, 0.0, 2022-02-11 00:13:34.059
22.0, -9057.038612012699, -10688.78301248348, -10749.445646935183, -17077.09039176588, -2582.1182229659826, -2387.881563649364, -6145.858007175685, -7525.430026701692, -16424.464157159826, -15180.008432866149, -20515.392186092402, -12654.797751283379, -6547.34004108191, -10375.903293598092, -11691.683434448652, -12496.256827861886, 0.0095, -0.025500000000000002, 0.995, 192.0, 0.0, 0.0, 0.0, 0.0, 0.0, 0.0, 0.0, 0.0, 0.0, 1.644498814059272E9, 0.0, 2022-02-11 00:13:34.059
24.0, -9059.31848994714, -10695.153259653242, -10753.625423148325, -17077.55977839944, -2580.754766554209, -2393.5142032521017, -6141.6111757291765, -7526.748779624556, -16423.01129377023, -15173.347613018468, -20513.00054943568, -12645.87940524571, -6543.115561379857, -10361.352307957686, -11689.470611747576, -12495.005130172389, 0.0095, -0.025500000000000002, 0.995, 192.0, 0.0, 0.0, 0.0, 0.0, 0.0, 0.0, 0.0, 0.0, 0.0, 1.6444988140592787E9, 0.0, 2022-02-11 00:13:34.059
26.0, -9056.189245723397, -10708.206678415141, -10745.735257355602, -17067.23327246109, -2571.9928827277286, -2390.7425869396434, -6121.6510679305875, -7522.367837711316, -16414.942314021864, -15176.678022942308, -20517.2920843711, -12636.938707463589, -6535.091285120402, -10386.855648381192, -11685.447297745623, -12493.239342360419, 0.00975, -0.026750000000000003, 0.9944999999999999, 192.0, 0.0, 40.0, 127.5, 16.0, 15.5, 8.0, 0.0, 0.0, 0.0, 1.6444988140592873E9, 0.0, 2022-02-11 00:13:34.059
28.0, -9055.071658500632, -10701.434099845184, -10740.683763108704, -17072.79885683046, -2570.607074571499, -2392.6424852183445, -6141.566472240266, -7523.172500511707, -16411.924828520398, -15178.734383432196, -20498.091935883993, -12629.674390515613, -6532.677296719229, -10373.981043574935, -11677.110097063793, -12488.456069046983, 0.00975, -0.026750000000000003, 0.9944999999999999, 192.0, 0.0, 0.0, 0.0, 0.0, 0.0, 0.0, 0.0, 0.0, 0.0, 1.644498814059294E9, 0.0, 2022-02-11 00:13:34.059
30.0, -9067.70039411788, -10698.662483532726, -10750.406771946762, -17076.397487687766, -2577.5584670970998, -2396.5093370091126, -6151.848274689708, -7529.430988959192, -16412.908305276433, -15185.10463060196, -20511.234761623713, -12644.001858711465, -6530.53152925152, -10375.545665686806, -11684.21795180058, -12497.03913891782, 0.00975, -0.026750000000000003, 0.9944999999999999, 192.0, 0.0, 0.0, 0.0, 0.0, 0.0, 0.0, 0.0, 0.0, 0.0, 1.644498814059301E9, 0.0, 2022-02-11 00:13:34.059
32.0, -9060.03374576971, -10691.532277051483, -10742.114274753843, -17072.44122891918, -2563.454516345801, -2397.112834109406, -6091.722082104931, -7505.738139836567, -16420.731415835788, -15177.460333998244, -20511.413575579354, -12644.672411045125, -6535.337154309411, -10380.977139589446, -11679.009995342494, -12488.657234747081, 0.00975, -0.026750000000000003, 0.9944999999999999, 192.0, 0.0, 0.0, 0.0, 0.0, 0.0, 0.0, 0.0, 0.0, 0.0, 1.6444988140593073E9, 0.0, 2022-02-11 00:13:34.059
34.0, -9061.687774859402, -10687.508963049528, -10748.573928901425, -17082.343051712876, -2569.847115260019, -2396.688150964755, -6109.268201502347, -7521.540823166469, -16422.6760176034, -15170.955976361749, -20507.770241233142, -12641.721980777023, -6534.353677553378, -10380.306587255787, -11676.730117408051, -12489.528952780838, 0.00975, -0.026750000000000003, 0.9944999999999999, 192.0, 0.0, 0.0, 0.0, 0.0, 0.0, 0.0, 0.0, 0.0, 0.0, 1.6444988140593143E9, 0.0, 2022-02-11 00:13:34.059
36.0, -9055.40693466746, -10689.677082261693, -10741.868405564834, -17074.542292897975, -2567.880161747952, -2394.8776596638754, -6120.466425474457, -7520.713808621623, -16415.143479721963, -15174.107572329947, -20511.1900581348, -12653.188425682596, -6530.419770529244, -10374.606892419684, -11680.865190132285, -12491.585313270727, 0.010875, -0.025375, 0.99225, 192.0, 0.0, 48.0, 127.5, 32.0, 15.0, 120.0, 0.0, 0.0, 0.0, 1.6444988140593207E9, 0.0, 2022-02-11 00:13:34.059
38.0, -9048.813170053145, -10690.59350378436, -10742.047219520477, -17070.80955157394, -2569.422432115368, -2391.23432531766, -6128.8706813896515, -7534.460131461637, -16411.56720060911, -15176.543912475576, -20496.6390724944, -12627.483919558994, -6529.324535050933, -10364.548607414796, -11679.904065120705, -12490.601836514692, 0.010875, -0.025375, 0.99225, 192.0, 0.0, 0.0, 0.0, 0.0, 0.0, 0.0, 0.0, 0.0, 0.0, 1.6444988140593295E9, 0.0, 2022-02-11 00:13:34.059
40.0, -9055.429286411916, -10691.621684029304, -10747.679859123215, -17073.782333586496, -2573.289283906136, -2390.831993917465, -6129.742399423409, -7507.772148582, -16416.14930822245, -15174.152275818858, -20517.381491348922, -12646.996992468476, -6530.598584484886, -10361.352307957686, -11682.630977944253, -12489.260731847375, 0.010875, -0.025375, 0.99225, 192.0, 0.0, 0.0, 0.0, 0.0, 0.0, 0.0, 0.0, 0.0, 0.0, 1.6444988140593364E9, 0.0, 2022-02-11 00:13:34.059
42.0, -9048.924928775421, -10692.515753807516, -10738.873271807823, -17067.769714328017, -2560.973472711262, -2387.8145084159983, -6117.270126017347, -7509.023846271497, -16409.399081396947, -15168.921967616317, -20503.456354553266, -12636.424617341116, -6527.62580247233, -10374.584540675229, -11679.41232674269, -12484.276292833842, 0.010875, -0.025375, 0.99225, 192.0, 0.0, 0.0, 0.0, 0.0, 0.0, 0.0, 0.0, 0.0, 0.0, 1.6444988140593429E9, 0.0, 2022-02-11 00:13:34.059
44.0, -9060.279614958718, -10693.745099752558, -10749.758571357557, -17076.017508032026, -2574.3174641510805, -2400.7338167111657, -6118.722989406942, -7519.7303318655895, -16411.120165720007, -15181.930682889306, -20499.92477892933, -12639.397399353671, -6528.877500161827, -10361.441714935509, -11677.177152297158, -12486.980853912934, 0.010875, -0.025375, 0.99225, 192.0, 0.0, 0.0, 0.0, 0.0, 0.0, 0.0, 0.0, 0.0, 0.0, 1.6444988140593505E9, 0.0, 2022-02-11 00:13:34.059
46.0, -9047.829693297112, -10671.929797164179, -10742.337792198396, -17071.18953122968, -2566.9190367363735, -2391.9048776513196, -6116.197242283492, -7515.5058521635365, -16403.38646213847, -15176.119229330925, -20506.697357499284, -12651.55674833736, -6526.8434914163945, -10370.516523184362, -11679.613492442786, -12491.115926637165, 0.010437499999999999, -0.0276875, 0.9881249999999999, 192.0, 0.0, 40.0, 127.5, 8.0, 15.0, 96.0, 0.0, 0.0, 0.0, 1.644498814059357E9, 0.0, 2022-02-11 00:13:34.059
48.0, -9046.466236885339, -10685.452602559639, -10738.94032704119, -17067.412086416734, -2562.873370989963, -2385.914610137297, -6118.566527195755, -7517.428102186693, -16402.76061329372, -15170.777162406108, -20489.95590090226, -12636.044637685376, -6523.468378003643, -10362.201674246988, -11672.997376084015, -12483.404574800084, 0.010437499999999999, -0.0276875, 0.9881249999999999, 192.0, 0.0, 0.0, 0.0, 0.0, 0.0, 0.0, 0.0, 0.0, 0.0, 1.644498814059364E9, 0.0, 2022-02-11 00:13:34.059
50.0, -9054.959899778354, -10684.40207057024, -10746.070533522432, -17068.417914917223, -2572.4399176168345, -2386.205182815216, -6112.5539079372775, -7516.690494619667, -16404.749918550246, -15180.075488099515, -20503.59046502, -12634.07768417331, -6523.893061148294, -10357.776028844837, -11679.88171337625, -12489.394842314106, 0.010437499999999999, -0.0276875, 0.9881249999999999, 192.0, 0.0, 0.0, 0.0, 0.0, 0.0, 0.0, 0.0, 0.0, 0.0, 1.6444988140593717E9, 0.0, 2022-02-11 00:13:34.059
52.0, -9022.63927729598, -10655.501264989527, -10732.011286260044, -17061.846502047363, -2558.0230424431616, -2368.7708221400767, -6109.916402091551, -7515.483500419081, -16386.71206077481, -15160.897691356862, -20490.917025913837, -12624.891117202178, -6516.382875011311, -10347.851854306682, -11676.394841241223, -12485.460935289972, 0.010437499999999999, -0.0276875, 0.9881249999999999, 192.0, 0.0, 0.0, 0.0, 0.0, 0.0, 0.0, 0.0, 0.0, 0.0, 1.6444988140593784E9, 0.0, 2022-02-11 00:13:34.059
54.0, -9059.989042280798, -10675.841352443857, -10741.086094508899, -17071.52480739651, -2563.6109785569884, -2376.7727466550764, -6109.335256735713, -7510.275543960995, -16406.00161623974, -15165.300985014557, -20497.466087039244, -12624.846413713267, -6520.942630880193, -10343.962650771458, -11671.432753972143, -12483.203409099986, 0.010437499999999999, -0.0276875, 0.9881249999999999, 192.0, 0.0, 0.0, 0.0, 0.0, 0.0, 0.0, 0.0, 0.0, 0.0, 1.6444988140593853E9, 0.0, 2022-02-11 00:13:34.059
56.0, -9062.648899870981, -10694.25918987503, -10734.22410896112, -17057.264394434023, -2554.0220801856617, -2373.5093919646015, -6105.267239244848, -7496.86449728781, -16404.839325528064, -15168.072601327016, -20504.61864526494, -12644.515948833938, -6517.858090145361, -10362.827523091737, -11672.416230728179, -12480.588254998715, 0.010218749999999999, -0.024843749999999998, 0.9880625, 192.0, 0.0, 40.0, 127.5, 40.0, 15.0, 112.0, 0.0, 0.0, 0.0, 1.644498814059392E9, 0.0, 2022-02-11 00:13:34.059
58.0, -9061.26309171475, -10693.342768352362, -10732.346562426874, -17058.493740379065, -2553.753859252198, -2368.2120285286937, -6105.378997967124, -7498.898506033243, -16400.212514425817, -15164.384563491889, -20488.4359822793, -12631.015495182932, -6513.678313932218, -10348.410647918065, -11666.805942869896, -12469.65825196007, 0.010218749999999999, -0.024843749999999998, 0.9880625, 192.0, 0.0, 0.0, 0.0, 0.0, 0.0, 0.0, 0.0, 0.0, 0.0, 1.6444988140593987E9, 0.0, 2022-02-11 00:13:34.059
60.0, -9081.022033813242, -10698.282503876986, -10742.69542010968, -17061.66768809172, -2562.6945570343205, -2373.3976332423254, -6093.286704216803, -7504.218221213606, -16406.850982529042, -15167.178531548803, -20505.44565980979, -12648.785132024901, -6513.901831376771, -10349.371772929642, -11667.767067881474, -12475.425002029539, 0.010218749999999999, -0.024843749999999998, 0.9880625, 192.0, 0.0, 0.0, 0.0, 0.0, 0.0, 0.0, 0.0, 0.0, 0.0, 1.644498814059405E9, 0.0, 2022-02-11 00:13:34.059
62.0, -9038.374905392517, -10681.339881579863, -10725.529280368004, -17046.51320535102, -2548.3000336051027, -2368.010862828596, -6087.832878569709, -7496.931552521176, -16395.898627745944, -15165.815075137029, -20493.085145126002, -12627.618030025726, -6513.544203465486, -10349.662345607561, -11663.944919579617, -12472.854551417178, 0.010218749999999999, -0.024843749999999998, 0.9880625, 192.0, 0.0, 0.0, 0.0, 0.0, 0.0, 0.0, 0.0, 0.0, 0.0, 1.644498814059412E9, 0.0, 2022-02-11 00:13:34.059
64.0, -9052.277690443718, -10679.954073423634, -10728.859690291845, -17047.027295473494, -2552.3456993515133, -2374.939903609741, -6088.056396014261, -7503.726482835589, -16384.320424118094, -15158.774275633608, -20481.685755453796, -12613.581134507793, -6504.447043472176, -10350.846988063693, -11659.809846855385, -12469.747658937891, 0.010218749999999999, -0.024843749999999998, 0.9880625, 192.0, 0.0, 0.0, 0.0, 0.0, 0.0, 0.0, 0.0, 0.0, 0.0, 1.644498814059419E9, 0.0, 2022-02-11 00:13:34.059
66.0, -9049.439018897894, -10670.767506452503, -10721.55066985496, -17038.019542458005, -2551.652795273399, -2368.793173884532, -6088.928114048018, -7500.798404311944, -16388.924883475887, -15155.130941287392, -20490.492342769187, -12619.414939810627, -6501.742482393084, -10352.076334008734, -11660.838027100328, -12469.121810093142, 0.009109375, -0.022421875, 0.98503125, 192.0, 0.0, 32.0, 127.5, 48.0, 15.0, 88.0, 0.0, 0.0, 0.0, 1.6444988140594275E9, 0.0, 2022-02-11 00:13:34.059
68.0, -9056.435114912405, -10690.079413661888, -10724.568155356426, -17045.574432083897, -2550.803428984097, -2367.854400617409, -6093.800794339275, -7500.507831634025, -16389.32721487608, -15156.829673865996, -20476.030764106603, -12607.456756527037, -6504.7152644056405, -10340.989868758901, -11657.328803220846, -12467.445429258994, 0.009109375, -0.022421875, 0.98503125, 192.0, 0.0, 0.0, 0.0, 0.0, 0.0, 0.0, 0.0, 0.0, 0.0, 1.6444988140594342E9, 0.0, 2022-02-11 00:13:34.059
70.0, -9067.879208073522, -10684.580884525882, -10734.64879210577, -17049.396580385754, -2553.1503621519046, -2381.2654472905933, -6084.211895967948, -7509.716750349611, -16400.838363270566, -15161.85881636844, -20498.29310158409, -12628.847375970767, -6511.733712164607, -10351.137560741612, -11665.934224836139, -12472.698089205991, 0.009109375, -0.022421875, 0.98503125, 192.0, 0.0, 0.0, 0.0, 0.0, 0.0, 0.0, 0.0, 0.0, 0.0, 1.6444988140594428E9, 0.0, 2022-02-11 00:13:34.059
72.0, -9048.880225286512, -10679.864666445812, -10728.8820420363, -17042.98162972708, -2545.461362059279, -2375.2528280321158, -6077.752241820364, -7495.43398564267, -16397.664415557912, -15163.937528602783, -20497.19786610578, -12621.560707278337, -6511.532546464508, -10352.411610175564, -11658.580500910342, -12467.579539725726, 0.009109375, -0.022421875, 0.98503125, 192.0, 0.0, 0.0, 0.0, 0.0, 0.0, 0.0, 0.0, 0.0, 0.0, 1.6444988140594497E9, 0.0, 2022-02-11 00:13:34.059
74.0, -9055.473989900827, -10679.507038534528, -10736.906318295756, -17051.140016453268, -2558.939463965829, -2379.6561216898112, -6099.880468831118, -7519.976201054597, -16396.546828335147, -15171.179493806303, -20495.029746893615, -12624.73465499099, -6513.723017421129, -10345.482569394419, -11662.156780023191, -12468.965347881956, 0.009109375, -0.022421875, 0.98503125, 192.0, 0.0, 0.0, 0.0, 0.0, 0.0, 0.0, 0.0, 0.0, 0.0, 1.6444988140594563E9, 0.0, 2022-02-11 00:13:34.059
76.0, -9055.161065478453, -10677.58478851137, -10736.325172939918, -17049.351876896846, -2557.330138365047, -2387.8368601604534, -6101.623904898633, -7503.815889813411, -16395.96568297931, -15163.937528602783, -20503.56811327554, -12637.07281793032, -6512.3372092649, -10347.538929884307, -11665.554245180398, -12478.263673575364, 0.01, -0.026000000000000002, 0.994, 192.0, 0.0, 40.0, 127.5, 24.0, 15.5, 8.0, 0.0, 0.0, 0.0, 1.6444988140594633E9, 0.0, 2022-02-11 00:13:34.059
78.0, -9068.438001684905, -10683.373890325296, -10734.112350238842, -17043.160443682726, -2551.429277828846, -2379.6114182009005, -6086.87175355813, -7492.841183285855, -16401.35245339304, -15168.273767027113, -20489.665328224342, -12612.508250773937, -6514.997066855081, -10360.324127712742, -11662.760277123485, -12470.731135693924, 0.01, -0.026000000000000002, 0.994, 192.0, 0.0, 0.0, 0.0, 0.0, 0.0, 0.0, 0.0, 0.0, 0.0, 1.6444988140595217E9, 0.0, 2022-02-11 00:13:34.059
80.0, -9071.813115097657, -10686.078451404388, -10739.946155541678, -17045.552080339443, -2564.3485861240133, -2382.2936275355373, -6106.608343912166, -7500.7760525674885, -16402.313578404617, -15169.436057738789, -20499.142467873393, -12628.757968992946, -6514.974715110626, -10351.361078186164, -11668.102344048304, -12475.760278196369, 0.01, -0.026000000000000002, 0.994, 192.0, 0.0, 0.0, 0.0, 0.0, 0.0, 0.0, 0.0, 0.0, 0.0, 1.6444988140595284E9, 0.0, 2022-02-11 00:13:34.059
82.0, -9058.17855097992, -10691.420518329205, -10731.340733926385, -17043.42866461619, -2552.0551266735947, -2373.9340751092527, -6084.68128260151, -7495.791613553955, -16393.95402597833, -15157.991964577672, -20495.074450382526, -12619.772567721911, -6513.186575554201, -10343.47091239344, -11669.175227782158, -12471.938129894512, 0.01, -0.026000000000000002, 0.994, 192.0, 0.0, 0.0, 0.0, 0.0, 0.0, 0.0, 0.0, 0.0, 0.0, 1.6444988140595355E9, 0.0, 2022-02-11 00:13:34.059
84.0, -9064.325280705129, -10688.470088061105, -10739.610879374848, -17045.574432083897, -2561.9569494672955, -2383.6794356917662, -6095.790099595797, -7510.34259919436, -16397.99969172474, -15167.066772826527, -20493.621586992933, -12626.589849780781, -6511.197270297679, -10356.81490383326, -11664.324899235356, -12471.80401942778, 0.01, -0.026000000000000002, 0.994, 192.0, 0.0, 0.0, 0.0, 0.0, 0.0, 0.0, 0.0, 0.0, 0.0, 1.644498814059543E9, 0.0, 2022-02-11 00:13:34.059
86.0, -9062.648899870981, -10672.756811709025, -10735.36404792834, -17043.451016360643, -2555.4749435752565, -2378.3597205114033, -6102.182698510015, -7509.604991627335, -16399.34079639206, -15165.792723392573, -20503.657520253364, -12622.655942756646, -6510.549069708475, -10354.490322409907, -11670.873960360761, -12475.872036918645, 0.012, -0.024, 0.99, 192.0, 0.0, 48.0, 127.5, 32.0, 15.0, 120.0, 0.0, 0.0, 0.0, 1.64449881405955E9, 0.0, 2022-02-11 00:13:34.059
88.0, -9059.497303902783, -10674.20967509862, -10734.157053727753, -17048.726028052097, -2558.8053534990972, -2375.3869384988475, -6108.016503812851, -7508.509756149025, -16402.29122666016, -15165.658612925841, -20492.571055003533, -12618.811442710334, -6514.393569754788, -10353.395086931598, -11669.242283015525, -12471.84872291669, 0.012, -0.024, 0.99, 192.0, 0.0, 0.0, 0.0, 0.0, 0.0, 0.0, 0.0, 0.0, 0.0, 1.6444988140595567E9, 0.0, 2022-02-11 00:13:34.059
90.0, -9064.526446405227, -10684.44677405915, -10736.034600261999, -17046.4237983732, -2566.293187891625, -2379.3208455229815, -6113.559736437766, -7514.880003318787, -16399.7207760478, -15174.398145007866, -20502.96461617525, -12623.840585212778, -6516.00289535557, -10352.165740986555, -11671.768030138974, -12473.502752006383, 0.012, -0.024, 0.99, 192.0, 0.0, 0.0, 0.0, 0.0, 0.0, 0.0, 0.0, 0.0, 0.0, 1.644498814059564E9, 0.0, 2022-02-11 00:13:34.059
92.0, -9060.860760314556, -10681.16106762422, -10727.36212341334, -17044.769769283506, -2547.8306469715417, -2380.796060657032, -6091.677378616021, -7511.840166072866, -16391.227113154782, -15165.926833859306, -20490.134714857904, -12615.212811853029, -6511.867822631339, -10350.511711896863, -11670.941015594128, -12473.078068861732, 0.012, -0.024, 0.99, 192.0, 0.0, 0.0, 0.0, 0.0, 0.0, 0.0, 0.0, 0.0, 0.0, 1.6444988140595708E9, 0.0, 2022-02-11 00:13:34.059
94.0, -9065.50992316126, -10685.87728570429, -10733.59826011637, -17049.485987363576, -2553.5526935521, -2383.008883358107, -6090.850364071174, -7514.634134129779, -16400.145459192452, -15173.548778718565, -20487.54191250109, -12620.59958226676, -6513.633610443308, -10348.388296173609, -11662.849684101306, -12472.407516528072, 0.012, -0.024, 0.99, 192.0, 0.0, 0.0, 0.0, 0.0, 0.0, 0.0, 0.0, 0.0, 0.0, 1.6444988140595777E9, 0.0, 2022-02-11 00:13:34.059
96.0, -9058.98321378031, -10668.10764886232, -10729.664353092236, -17044.90387975024, -2551.295167362114, -2376.728043166166, -6085.6647593575435, -7504.48644214707, -16397.86558125801, -15162.372906490911, -20494.649767237875, -12626.031056169399, -6510.7055319196625, -10354.065639265256, -11665.800114369407, -12474.75444969588, 0.01, -0.026000000000000002, 0.992, 192.0, 0.0, 40.0, 127.5, 24.0, 15.5, 0.0, 0.0, 0.0, 0.0, 1.6444988140595844E9, 0.0, 2022-02-11 00:13:34.059
98.0, -9051.160103220953, -10677.361271066819, -10729.150262969764, -17047.384923384776, -2558.1795046543484, -2375.521048965579, -6092.169116994038, -7507.570982881902, -16398.558485336125, -15149.654763895842, -20485.4855520112, -12618.185593865586, -6514.684142432707, -10361.553473657785, -11661.352117222801, -12470.865246160656, 0.01, -0.026000000000000002, 0.992, 192.0, 0.0, 0.0, 0.0, 0.0, 0.0, 0.0, 0.0, 0.0, 0.0, 1.6444988140595913E9, 0.0, 2022-02-11 00:13:34.059
100.0, -9068.661519129459, -10692.672216018704, -10738.828568318911, -17048.480158863087, -2566.9190367363735, -2379.432604245258, -6092.996131538884, -7514.835299829877, -16405.174601694896, -15168.877264127406, -20501.131773129913, -12634.032980684398, -6522.328439036422, -10358.647746878594, -11670.248111516014, -12476.810810185769, 0.01, -0.026000000000000002, 0.992, 192.0, 0.0, 0.0, 0.0, 0.0, 0.0, 0.0, 0.0, 0.0, 0.0, 1.644498814059598E9, 0.0, 2022-02-11 00:13:34.059
102.0, -9055.541045134192, -10674.9696344101, -10726.803329801956, -17040.835862259373, -2554.4691150747676, -2374.984607098652, -6083.96602677894, -7502.519488635003, -16402.6712063159, -15175.292214786079, -20493.465124781746, -12617.000951409455, -6521.233203558112, -10351.852816564182, -11668.750544637507, -12469.479438004428, 0.01, -0.026000000000000002, 0.992, 192.0, 0.0, 0.0, 0.0, 0.0, 0.0, 0.0, 0.0, 0.0, 0.0, 1.6444988140596077E9, 0.0, 2022-02-11 00:13:34.059
104.0, -9055.496341645283, -10661.87151215929, -10729.373780414317, -17047.74255129606, -2552.703327262798, -2382.986531613652, -6101.288628731803, -7523.597183656358, -16402.604151082534, -15166.798551893062, -20485.61966247793, -12613.044692640864, -6511.219622042135, -10356.211406732966, -11663.386125968234, -12470.597025227193, 0.01, -0.026000000000000002, 0.992, 192.0, 0.0, 0.0, 0.0, 0.0, 0.0, 0.0, 0.0, 0.0, 0.0, 1.6444988140596144E9, 0.0, 2022-02-11 00:13:34.059
106.0, -9051.964766021343, -10666.319509305897, -10727.943268769177, -17044.70271405014, -2556.883103475941, -2371.922418108275, -6109.223498013437, -7512.15309049524, -16397.57500858009, -15157.924909344305, -20490.358232302457, -12621.40424506715, -6505.743444650584, -10363.028688791836, -11670.650442916209, -12476.922568908045, 0.01, -0.018000000000000002, 0.994, 192.0, 0.0, 40.0, 127.5, 56.0, 15.5, 8.0, 0.0, 0.0, 0.0, 1.644498814059621E9, 0.0, 2022-02-11 00:13:34.059
108.0, -9050.802475309667, -10676.981291411077, -10730.871347292823, -17050.692981564163, -2554.133838907938, -2369.1284500513616, -6092.035006527306, -7499.1890787111615, -16400.167810936906, -15161.05415356805, -20480.657575208854, -12618.587925265781, -6513.0524650874695, -10335.580746600717, -11671.924492350161, -12470.32880429373, 0.01, -0.018000000000000002, 0.994, 192.0, 0.0, 0.0, 0.0, 0.0, 0.0, 0.0, 0.0, 0.0, 0.0, 1.6444988140596285E9, 0.0, 2022-02-11 00:13:34.059
110.0, -9063.788838838202, -10685.273788603996, -10737.398056673772, -17049.731856552586, -2559.7441267662202, -2373.1070605644063, -6092.191468738493, -7505.179346225184, -16402.134764448972, -15166.217406537226, -20496.504962027666, -12629.517928304425, -6512.851299387372, -10353.663307865061, -11672.237416772536, -12471.826371172236, 0.01, -0.018000000000000002, 0.994, 192.0, 0.0, 0.0, 0.0, 0.0, 0.0, 0.0, 0.0, 0.0, 0.0, 1.6444988140596354E9, 0.0, 2022-02-11 00:13:34.059
112.0, -9058.022088768732, -10681.272826346496, -10726.177480957209, -17040.813510514916, -2550.803428984097, -2363.764031382088, -6090.470384415435, -7503.480613646581, -16402.179467937884, -15164.630432680899, -20491.81109569205, -12613.8270036968, -6513.275982532023, -10353.395086931598, -11672.259768516991, -12467.825408914734, 0.01, -0.018000000000000002, 0.994, 192.0, 0.0, 0.0, 0.0, 0.0, 0.0, 0.0, 0.0, 0.0, 0.0, 1.6444988140596423E9, 0.0, 2022-02-11 00:13:34.059
114.0, -9068.907388318466, -10673.270901831496, -10729.463187392139, -17046.26733616201, -2557.7995249986084, -2367.3850139838473, -6088.168154736538, -7507.749796837545, -16408.7732325522, -15168.206711793748, -20488.368927045933, -12606.741500704467, -6514.19240405469, -10346.488397894907, -11666.761239380985, -12466.081972847222, 0.01, -0.018000000000000002, 0.994, 192.0, 0.0, 0.0, 0.0, 0.0, 0.0, 0.0, 0.0, 0.0, 0.0, 1.6444988140596492E9, 0.0, 2022-02-11 00:13:34.059
116.0, -9064.168818493941, -10668.487628518062, -10729.619649603326, -17045.574432083897, -2550.1775801393487, -2363.2946447485265, -6086.91645704704, -7504.195869469151, -16408.192087196363, -15163.781066391597, -20498.114287628447, -12620.487823544481, -6510.482014475109, -10352.411610175564, -11670.73984989403, -12471.647557216593, 0.01, -0.014, 0.994, 192.0, 0.0, 40.0, 127.5, 72.0, 15.5, 8.0, 0.0, 0.0, 0.0, 1.644498814059657E9, 0.0, 2022-02-11 00:13:34.059
118.0, -9054.423457911427, -10673.44971578714, -10727.250364691063, -17044.970934983605, -2547.6965365048095, -2362.266464503582, -6095.812451340253, -7504.195869469151, -16408.01327324072, -15148.313659228525, -20489.330052057514, -12610.384835050683, -6511.912526120249, -10349.170607229544, -11667.543550436922, -12466.461952502961, 0.01, -0.014, 0.994, 192.0, 0.0, 0.0, 0.0, 0.0, 0.0, 0.0, 0.0, 0.0, 0.0, 1.6444988140596657E9, 0.0, 2022-02-11 00:13:34.059
120.0, -9068.75092610728, -10678.478858289584, -10734.045295005477, -17049.217766430113, -2557.330138365047, -2371.274217519071, -6092.951428049973, -7512.53307015098, -16408.549715107645, -15165.14452280337, -20495.63324399391, -12623.393550323672, -6508.3362470074, -10348.164778729055, -11671.700974905609, -12469.993528126899, 0.01, -0.014, 0.994, 192.0, 0.0, 0.0, 0.0, 0.0, 0.0, 0.0, 0.0, 0.0, 0.0, 1.6444988145398197E9, 0.0, 2022-02-11 00:13:34.539
122.0, -9054.557568378159, -10659.77044818049, -10723.74114081158, -17044.45684486113, -2545.4166585703683, -2365.730984894155, -6093.420814683534, -7502.251267701539, -16403.54292434966, -15167.424400737811, -20494.20273234877, -12627.506271303448, -6505.631685928308, -10344.789665316304, -11669.957538838094, -12466.730173436425, 0.01, -0.014, 0.994, 192.0, 0.0, 0.0, 0.0, 0.0, 0.0, 0.0, 0.0, 0.0, 0.0, 1.6444988145399847E9, 0.0, 2022-02-11 00:13:34.539
124.0, -9053.708202088857, -10662.810285426413, -10728.636172847293, -17051.4752926201, -2547.204798126793, -2370.5366099520456, -6082.468459900434, -7504.397035169249, -16402.33593014907, -15161.255319268146, -20486.62549097842, -12625.382855580194, -6503.3071045049555, -10354.535025898818, -11666.73888763653, -12468.026574614832, 0.01, -0.014, 0.994, 192.0, 0.0, 0.0, 0.0, 0.0, 0.0, 0.0, 0.0, 0.0, 0.0, 1.644498814539992E9, 0.0, 2022-02-11 00:13:34.539
126.0, -9059.452600413872, -10666.274805816985, -10724.322286167418, -17043.65218206074, -2545.617824270466, -2359.3607377243925, -6075.718233074932, -7497.6021048548355, -16400.972473737296, -15164.876301869906, -20497.62254925043, -12620.487823544481, -6504.625857427819, -10362.156970758078, -11669.398745226712, -12466.8419321587, 0.006, -0.02, 0.994, 192.0, 0.0, 24.0, 127.5, 48.0, 15.5, 8.0, 0.0, 0.0, 0.0, 1.644498814539999E9, 0.0, 2022-02-11 00:13:34.539
128.0, -9055.988080023299, -10673.136791364765, -10716.20860293014, -17045.932059995182, -2536.4983125327008, -2357.8408191014314, -6080.926189533018, -7501.8265845568885, -16399.586665581068, -15164.04928732506, -20480.38935427539, -12608.820212938812, -6502.793014382483, -10337.99473500189, -11661.64268990072, -12460.739905922403, 0.006, -0.02, 0.994, 192.0, 0.0, 0.0, 0.0, 0.0, 0.0, 0.0, 0.0, 0.0, 0.0, 1.6444988145400064E9, 0.0, 2022-02-11 00:13:34.540
130.0, -9064.12411500503, -10683.910332192223, -10724.54580361197, -17049.106007707836, -2545.2154928702707, -2366.84857211692, -6088.972817536929, -7511.884869561776, -16402.76061329372, -15172.006508351149, -20490.313528813545, -12624.198213124064, -6498.702645147163, -10345.90725253907, -11661.128599778247, -12467.981871125921, 0.006, -0.02, 0.994, 192.0, 0.0, 0.0, 0.0, 0.0, 0.0, 0.0, 0.0, 0.0, 0.0, 1.6444988145400133E9, 0.0, 2022-02-11 00:13:34.540
132.0, -9052.07652474362, -10674.410840798717, -10716.543879096971, -17049.351876896846, -2534.5313590206338, -2355.8738655893644, -6079.8533057991635, -7502.564192123913, -16397.887933002465, -15148.246603995158, -20491.498171269675, -12620.7783962224, -6497.830927113406, -10342.599194359684, -11659.765143366474, -12465.053792602277, 0.006, -0.02, 0.994, 192.0, 0.0, 0.0, 0.0, 0.0, 0.0, 0.0, 0.0, 0.0, 0.0, 1.6444988145400202E9, 0.0, 2022-02-11 00:13:34.540
134.0, -9056.79274282369, -10677.227160600087, -10720.231916932096, -17051.296478664455, -2540.298109090103, -2362.0205953145737, -6098.137032763605, -7510.096730005352, -16402.402985382436, -15167.469104226722, -20481.283424053603, -12619.750215977458, -6500.915467848238, -10346.33193568372, -11658.11111427678, -12465.880807147123, 0.006, -0.02, 0.994, 192.0, 0.0, 0.0, 0.0, 0.0, 0.0, 0.0, 0.0, 0.0, 0.0, 1.6444988145400333E9, 0.0, 2022-02-11 00:13:34.540
136.0, -9057.195074223886, -10675.595483254849, -10720.12015820982, -17053.174025198703, -2532.9667369087624, -2360.3218627359706, -6076.411137153046, -7501.0666252454075, -16397.910284746922, -15172.364136262435, -20491.095839869482, -12628.377989337205, -6496.221601512623, -10337.771217557338, -11659.429867199644, -12467.423077514539, 0.008, -0.022, 1.0, 192.0, 0.0, 32.0, 127.5, 40.0, 15.5, 32.0, 0.0, 0.0, 0.0, 1.6444988145400403E9, 0.0, 2022-02-11 00:13:34.540
138.0, -9049.036687497699, -10668.465276773606, -10712.83348951739, -17048.077827462894, -2527.1776350948376, -2366.9379790947414, -6055.445200853968, -7500.396072911749, -16400.927770248385, -15175.135752574892, -20483.76446768814, -12617.582096765293, -6498.6132381693415, -10348.09772349569, -11653.506654918989, -12461.23164430042, 0.008, -0.022, 1.0, 192.0, 0.0, 0.0, 0.0, 0.0, 0.0, 0.0, 0.0, 0.0, 0.0, 1.6444988145400476E9, 0.0, 2022-02-11 00:13:34.540
140.0, -9058.022088768732, -10664.419611027195, -10718.108501208842, -17053.46459787662, -2536.677126488343, -2380.416081001292, -6071.6949190729765, -7512.600125384346, -16392.90349398893, -15169.279595527601, -20482.356307787457, -12629.160300393141, -6495.327531734411, -10349.148255485088, -11658.178169510147, -12468.652423459582, 0.008, -0.022, 1.0, 192.0, 0.0, 0.0, 0.0, 0.0, 0.0, 0.0, 0.0, 0.0, 0.0, 1.6444988145400543E9, 0.0, 2022-02-11 00:13:34.540
142.0, -9051.584786365604, -10683.664463003215, -10712.654675561747, -17049.776560041497, -2526.8870624169185, -2362.1323540368503, -6077.10404123116, -7506.922782292698, -16395.429241112382, -15151.66642089682, -20483.317432799035, -12621.225431111507, -6495.6181044123305, -10358.692450367505, -11660.726268378052, -12465.366717024652, 0.008, -0.022, 1.0, 192.0, 0.0, 0.0, 0.0, 0.0, 0.0, 0.0, 0.0, 0.0, 0.0, 1.644498814540061E9, 0.0, 2022-02-11 00:13:34.540
144.0, -9068.952091807378, -10689.766489239513, -10722.802367544457, -17053.732818810084, -2542.8685597024632, -2365.1274877938617, -6092.973779794429, -7495.7692618095, -16413.19887795435, -15178.846142154473, -20487.228988078714, -12628.40034108166, -6504.581153938909, -10346.935432784014, -11661.262710244979, -12462.952728623477, 0.008, -0.022, 1.0, 192.0, 0.0, 0.0, 0.0, 0.0, 0.0, 0.0, 0.0, 0.0, 0.0, 1.644498814540068E9, 0.0, 2022-02-11 00:13:34.540
146.0, -9057.50799864626, -10686.793707226958, -10717.706169808647, -17049.888318763773, -2538.621728255955, -2364.367528482381, -6087.63171286961, -7520.646753388257, -16411.075462231096, -15181.796572422574, -20495.990871905193, -12628.981486437498, -6501.965999837637, -10338.844101291192, -11663.699050390607, -12464.539702479804, 0.01, -0.024, 0.99, 192.0, 0.0, 40.0, 127.5, 32.0, 15.0, 120.0, 0.0, 0.0, 0.0, 1.6444988145400743E9, 0.0, 2022-02-11 00:13:34.540
148.0, -9055.518693389737, -10685.810230470925, -10719.36019889834, -17052.436417631678, -2537.4370857998238, -2367.340310494937, -6078.020462753829, -7482.067642458397, -16408.505011618738, -15175.292214786079, -20482.87039790993, -12616.26334384243, -6502.971828338126, -10340.498130380885, -11657.30645147639, -12458.616490199149, 0.01, -0.024, 0.99, 192.0, 0.0, 0.0, 0.0, 0.0, 0.0, 0.0, 0.0, 0.0, 0.0, 1.6444988145400813E9, 0.0, 2022-02-11 00:13:34.540
150.0, -9064.191170238397, -10679.082355389877, -10729.17261471422, -17060.192472957668, -2545.6625277593766, -2382.4500897467246, -6092.459689671957, -7517.20458474214, -16410.896648275455, -15173.995813607671, -20493.822752693028, -12631.954268450054, -6504.044712071981, -10345.929604283525, -11661.553282922898, -12465.120847835642, 0.01, -0.024, 0.99, 192.0, 0.0, 0.0, 0.0, 0.0, 0.0, 0.0, 0.0, 0.0, 0.0, 1.644498814540088E9, 0.0, 2022-02-11 00:13:34.540
152.0, -9066.292234217195, -10692.44869857415, -10720.276620421007, -17051.967030998116, -2534.799579954097, -2365.4851157051467, -6083.876619801119, -7488.370834394794, -16409.66730233041, -15176.365098519935, -20495.365023060443, -12622.745349734469, -6500.826060870417, -10343.225043204433, -11662.201483512103, -12464.785571668814, 0.01, -0.024, 0.99, 192.0, 0.0, 0.0, 0.0, 0.0, 0.0, 0.0, 0.0, 0.0, 0.0, 1.6444988145400949E9, 0.0, 2022-02-11 00:13:34.540
154.0, -9083.726594892334, -10699.377739355295, -10727.8315100469, -17055.543310110967, -2535.783056710131, -2370.4248512297695, -6091.565619893744, -7498.697340333145, -16419.68088384639, -15178.756735176652, -20490.358232302457, -12623.415902068127, -6502.033055071003, -10347.226005461933, -11657.239396243025, -12459.488208232906, 0.009000000000000001, -0.026000000000000002, 0.987, 192.0, 0.0, 32.0, 127.5, 16.0, 15.0, 96.0, 0.0, 0.0, 0.0, 1.6444988145401015E9, 0.0, 2022-02-11 00:13:34.540
156.0, -9081.714937891358, -10702.55168706795, -10729.530242625504, -17058.56079561243, -2537.2806235886364, -2366.8709238613756, -6080.479154643912, -7501.178383967685, -16421.044340258162, -15186.132810846902, -20506.71970924374, -12628.780320737402, -6500.893116103783, -10332.1385779546, -11658.312279976879, -12462.438638501006, 0.009000000000000001, -0.026000000000000002, 0.987, 192.0, 0.0, 0.0, 0.0, 0.0, 0.0, 0.0, 0.0, 0.0, 0.0, 1.6444988145401084E9, 0.0, 2022-02-11 00:13:34.540
158.0, -9087.191115282907, -10721.528318110504, -10729.26202169204, -17057.018525245014, -2539.1134666339717, -2369.75429889611, -6077.77459356482, -7496.730386821078, -16426.16288973843, -15179.67315669932, -20497.689604483796, -12627.953306192554, -6510.370255752833, -10344.834368805215, -11658.044059043415, -12459.734077421914, 0.009000000000000001, -0.026000000000000002, 0.987, 192.0, 0.0, 0.0, 0.0, 0.0, 0.0, 0.0, 0.0, 0.0, 0.0, 1.644498814540115E9, 0.0, 2022-02-11 00:13:34.540
160.0, -9117.231859830841, -10743.969469543634, -10737.778036329513, -17058.00200200105, -2551.2728156176586, -2380.6395984458445, -6095.477175173423, -7518.612744642824, -16435.125939265006, -15195.989930151694, -20509.53602904511, -12629.920259704622, -6520.316782035445, -10363.989813803413, -11666.984756825537, -12466.976042625432, 0.009000000000000001, -0.026000000000000002, 0.987, 192.0, 0.0, 0.0, 0.0, 0.0, 0.0, 0.0, 0.0, 0.0, 0.0, 1.6444988145401216E9, 0.0, 2022-02-11 00:13:34.540
162.0, -9117.18715634193, -10753.536016170505, -10726.848033290868, -17056.593842100363, -2537.973527666751, -2376.2810082770598, -6091.073881515727, -7504.911125291721, -16433.024875286206, -15202.114308132448, -20508.887828455907, -12633.608297539748, -6510.90669761976, -10350.601118874683, -11665.889521347228, -12468.160685081564, 0.009000000000000001, -0.026000000000000002, 0.987, 192.0, 0.0, 0.0, 0.0, 0.0, 0.0, 0.0, 0.0, 0.0, 0.0, 1.6444988145401285E9, 0.0, 2022-02-11 00:13:34.540
164.0, -9143.584566543648, -10766.723545399136, -10731.296030437474, -17061.913557280728, -2542.5332835356335, -2382.13716532435, -6081.328520933213, -7519.216241743117, -16448.91696559393, -15207.523430290632, -20509.804249978573, -12633.630649284203, -6514.438273243699, -10347.583633373217, -11660.703916633596, -12465.478475746928, 0.009500000000000001, -0.027000000000000003, 0.9864999999999999, 192.0, 0.0, 40.0, 127.5, 16.0, 15.0, 104.0, 0.0, 0.0, 0.0, 1.6444988145401375E9, 0.0, 2022-02-11 00:13:34.540
166.0, -9157.487351594847, -10772.602054190882, -10733.687667094191, -17064.841635804372, -2547.785943482631, -2377.175078055272, -6072.566637106734, -7503.547668879947, -16451.241547017282, -15213.983084438216, -20526.143375175405, -12651.847321015279, -6512.314857520445, -10348.52240664034, -11660.301585233401, -12470.440563016005, 0.009500000000000001, -0.027000000000000003, 0.9864999999999999, 192.0, 0.0, 0.0, 0.0, 0.0, 0.0, 0.0, 0.0, 0.0, 0.0, 1.6444988145401464E9, 0.0, 2022-02-11 00:13:34.540
168.0, -9173.982939002864, -10804.18506910623, -10732.950059527167, -17070.38486842929, -2541.527455035145, -2370.8718861188754, -6074.712404574443, -7479.027805212475, -16456.762427897746, -15213.62545652693, -20523.48351758522, -12656.161207695151, -6519.176843068224, -10344.230871704922, -11655.339497964324, -12463.46681874595, 0.009500000000000001, -0.027000000000000003, 0.9864999999999999, 192.0, 0.0, 0.0, 0.0, 0.0, 0.0, 0.0, 0.0, 0.0, 0.0, 1.6444988145401657E9, 0.0, 2022-02-11 00:13:34.540
170.0, -9214.081968555685, -10844.865244014889, -10743.298917209973, -17072.95531904165, -2547.070687660061, -2382.9641798691964, -6072.477230128912, -7511.884869561776, -16470.419343759935, -15234.01024747017, -20542.01311373867, -12666.599472355781, -6516.293468033489, -10350.75758108587, -11657.59702415431, -12469.770010682347, 0.009500000000000001, -0.027000000000000003, 0.9864999999999999, 192.0, 0.0, 0.0, 0.0, 0.0, 0.0, 0.0, 0.0, 0.0, 0.0, 1.644498814540172E9, 0.0, 2022-02-11 00:13:34.540
172.0, -9225.436654738982, -10848.19565393873, -10737.420408418227, -17071.055420762947, -2540.8345509570304, -2364.0546040600066, -6066.8222387817195, -7480.078337201874, -16476.253149062773, -15246.72839006524, -20550.01503825367, -12667.292376433896, -6516.114654077846, -10340.56518561425, -11657.328803220846, -12468.540664737304, 0.009500000000000001, -0.027000000000000003, 0.9864999999999999, 192.0, 0.0, 0.0, 0.0, 0.0, 0.0, 0.0, 0.0, 0.0, 0.0, 1.6444988145401788E9, 0.0, 2022-02-11 00:13:34.540
174.0, -9243.027477625308, -10850.453180128716, -10741.868405564834, -17079.459676678143, -2542.6673940023657, -2376.884505377353, -6081.552038377767, -7505.067587502907, -16479.382393286516, -15241.92276500735, -20544.762378306674, -12684.056184775376, -6516.092302333392, -10343.090932737701, -11659.251053244001, -12468.51831299285, 0.007750000000000001, -0.026500000000000003, 0.98725, 192.0, 0.0, 24.0, 127.5, 24.0, 15.0, 112.0, 0.0, 0.0, 0.0, 1.6444988145401852E9, 0.0, 2022-02-11 00:13:34.540
176.0, -9254.516274275336, -10859.19271221074, -10753.401905703773, -17074.497589409064, -2547.7412399937202, -2378.7173484226882, -6086.402366924569, -7500.440776400659, -16489.105402124573, -15231.909183491372, -20565.16952099437, -12681.441030674105, -6522.484901247609, -10370.047136550802, -11665.755410880496, -12476.587292741215, 0.007750000000000001, -0.026500000000000003, 0.98725, 192.0, 0.0, 0.0, 0.0, 0.0, 0.0, 0.0, 0.0, 0.0, 0.0, 1.644498814540192E9, 0.0, 2022-02-11 00:13:34.540
178.0, -9245.664983471035, -10880.315110721007, -10747.322231211929, -17073.357650441845, -2542.0638969020724, -2371.274217519071, -6079.138049976594, -7498.093843232852, -16484.679756722424, -15246.281355176134, -20554.93242203384, -12666.688879333602, -6526.329401293922, -10363.676889381039, -11664.771934124463, -12466.707821691969, 0.007750000000000001, -0.026500000000000003, 0.98725, 192.0, 0.0, 0.0, 0.0, 0.0, 0.0, 0.0, 0.0, 0.0, 0.0, 1.6444988145401983E9, 0.0, 2022-02-11 00:13:34.540
180.0, -9247.095495116175, -10882.72909912218, -10752.59724290338, -17076.129266754302, -2547.6518330158992, -2372.950598353219, -6085.955332035463, -7513.270677718006, -16488.25603583527, -15265.503855407698, -20563.314326204578, -12669.572254368337, -6529.793921684494, -10356.546682899796, -11668.169399281669, -12471.669908961048, 0.007750000000000001, -0.026500000000000003, 0.98725, 192.0, 0.0, 0.0, 0.0, 0.0, 0.0, 0.0, 0.0, 0.0, 0.0, 1.6444988145402052E9, 0.0, 2022-02-11 00:13:34.540
182.0, -9225.950744861453, -10856.935186020755, -10742.69542010968, -17076.553949898953, -2537.6382514999214, -2373.598798942423, -6090.380977437613, -7497.758567066022, -16476.946053140888, -15254.327983180045, -20558.084018002035, -12674.46728640405, -6523.446026259187, -10338.598232102184, -11666.850646358806, -12472.921606650545, 0.007750000000000001, -0.026500000000000003, 0.98725, 192.0, 0.0, 0.0, 0.0, 0.0, 0.0, 0.0, 0.0, 0.0, 0.0, 1.6444988145402117E9, 0.0, 2022-02-11 00:13:34.540
184.0, -9213.143195288563, -10829.397836851816, -10747.813969589946, -17083.371231957823, -2547.875350460452, -2380.393729256836, -6097.175907752026, -7518.858613831832, -16482.154009598973, -15246.437817387321, -20548.182195208337, -12675.65192886018, -6530.7773984405285, -10360.569996901751, -11669.443448715621, -12478.710708464469, 0.006875000000000001, -0.02825, 0.987625, 192.0, 0.0, 24.0, 127.5, 8.0, 15.0, 112.0, 0.0, 0.0, 0.0, 1.644498814540218E9, 0.0, 2022-02-11 00:13:34.540
186.0, -9206.750596374344, -10824.726322260658, -10749.9373853132, -17077.693888866175, -2543.784981225131, -2386.8980868933304, -6074.757108063353, -7513.740064351567, -16475.224968817827, -15243.01800048566, -20560.16273023638, -12682.804487085878, -6528.788093184005, -10366.940244071513, -11670.73984989403, -12484.052775389287, 0.006875000000000001, -0.02825, 0.987625, 192.0, 0.0, 0.0, 0.0, 0.0, 0.0, 0.0, 0.0, 0.0, 0.0, 1.6444988145402248E9, 0.0, 2022-02-11 00:13:34.540
188.0, -9183.214209462907, -10805.906153429289, -10748.395114945784, -17070.13899924028, -2547.160094637882, -2378.3150170224926, -6086.938808791496, -7515.930535308187, -16474.30854729516, -15245.029657486637, -20545.16470970687, -12655.356544894761, -6533.459607775165, -10357.105476511178, -11669.890483604728, -12475.223836329442, 0.006875000000000001, -0.02825, 0.987625, 192.0, 0.0, 0.0, 0.0, 0.0, 0.0, 0.0, 0.0, 0.0, 0.0, 1.6444988145402312E9, 0.0, 2022-02-11 00:13:34.540
190.0, -9183.594189118647, -10794.886743412822, -10755.815894104946, -17071.703621352153, -2553.8209144855637, -2384.685264192255, -6104.663742144554, -7515.0364655299745, -16469.279404792716, -15236.245421915703, -20550.484424887232, -12656.652946073169, -6535.113636864858, -10366.76143011587, -11675.031384829448, -12477.861342175167, 0.006875000000000001, -0.02825, 0.987625, 192.0, 0.0, 0.0, 0.0, 0.0, 0.0, 0.0, 0.0, 0.0, 0.0, 1.644498814540238E9, 0.0, 2022-02-11 00:13:34.540
192.0, -9155.453342849416, -10772.177371046231, -10746.94225155619, -17065.355725926845, -2550.0211179281614, -2366.110964549895, -6114.789082382808, -7501.044273500953, -16459.10936106555, -15234.658448059376, -20540.4484916268, -12659.737486808, -6532.431427530221, -10348.991793273903, -11675.992509841028, -12470.977004882932, 0.006875000000000001, -0.02825, 0.987625, 192.0, 0.0, 0.0, 0.0, 0.0, 0.0, 0.0, 0.0, 0.0, 0.0, 1.6444988145402443E9, 0.0, 2022-02-11 00:13:34.540
194.0, -9153.218168403884, -10772.646757679791, -10750.607937646859, -17069.021412017515, -2550.065821417072, -2378.0244443445736, -6103.2779339883255, -7524.982991812586, -16455.331916252606, -15215.3912443389, -20529.987875221716, -12646.21468141254, -6530.53152925152, -10335.290173922798, -11675.187847040635, -12471.312281049763, 0.0064375000000000005, -0.028125, 0.9878125, 192.0, 0.0, 24.0, 127.5, 16.0, 15.0, 112.0, 0.0, 0.0, 0.0, 1.6444988145402508E9, 0.0, 2022-02-11 00:13:34.540
196.0, -9142.891662465532, -10749.646812635281, -10750.138551013297, -17069.848426562363, -2551.1163534064717, -2369.5307814515572, -6084.077785501217, -7508.800328826944, -16449.609869672047, -15209.53508729161, -20538.660352070376, -12651.892024504188, -6529.168072839746, -10348.365944429153, -11675.970158096572, -12476.721403207946, 0.0064375000000000005, -0.028125, 0.9878125, 192.0, 0.0, 0.0, 0.0, 0.0, 0.0, 0.0, 0.0, 0.0, 0.0, 1.6444988145402575E9, 0.0, 2022-02-11 00:13:34.540
198.0, -9125.546708768214, -10760.733277885114, -10742.918937554234, -17063.254661948045, -2543.784981225131, -2374.0234820870737, -6089.151631492571, -7498.7196920776005, -16443.507843435746, -15213.334883849013, -20523.97525596324, -12637.922184219622, -6533.727828708628, -10354.222101476444, -11669.823428371363, -12468.60771997067, 0.0064375000000000005, -0.028125, 0.9878125, 192.0, 0.0, 0.0, 0.0, 0.0, 0.0, 0.0, 0.0, 0.0, 0.0, 1.6444988145402656E9, 0.0, 2022-02-11 00:13:34.540
200.0, -9125.300839579206, -10735.341696183885, -10747.143417256286, -17064.260490448534, -2552.8374377295304, -2377.0409675885403, -6086.447070413479, -7515.259982974528, -16444.40191321396, -15229.294029390101, -20528.87028799895, -12638.749198764468, -6530.375067040332, -10359.340650956708, -11670.136352793736, -12476.654347974581, 0.0064375000000000005, -0.028125, 0.9878125, 192.0, 0.0, 0.0, 0.0, 0.0, 0.0, 0.0, 0.0, 0.0, 0.0, 1.6444988145402722E9, 0.0, 2022-02-11 00:13:34.540
202.0, -9105.832470158633, -10725.350466412363, -10739.521472397028, -17059.56662411292, -2540.3428125790138, -2359.919531335775, -6074.555942363256, -7489.510773362014, -16434.567145653626, -15207.590485523999, -20517.850877982484, -12640.850262743266, -6522.931936136715, -10346.421342661542, -11668.079992303848, -12467.445429258994, 0.0064375000000000005, -0.028125, 0.9878125, 192.0, 0.0, 0.0, 0.0, 0.0, 0.0, 0.0, 0.0, 0.0, 0.0, 1.6444988145402792E9, 0.0, 2022-02-11 00:13:34.540
204.0, -9109.676970204946, -10732.704190338158, -10745.17646374422, -17064.506359637544, -2548.2776818606476, -2375.0293105875626, -6087.676416358521, -7504.5311456359805, -16433.6283723865, -15209.691549502797, -20509.826601723027, -12631.21666088303, -6525.882366404816, -10346.555453128274, -11666.515370191977, -12467.37837402563, 0.00721875, -0.0310625, 0.98690625, 192.0, 0.0, 32.0, 127.0, 120.0, 15.0, 104.0, 0.0, 0.0, 0.0, 1.644498814540286E9, 0.0, 2022-02-11 00:13:34.540
206.0, -9111.263944061273, -10725.909260023745, -10742.94128929869, -17066.339202682877, -2545.841341715019, -2369.731947151655, -6093.420814683534, -7504.799366569444, -16431.9296398079, -15214.228953627224, -20520.2425146392, -12638.033942941898, -6524.116578592847, -10341.436903648008, -11668.035288814937, -12473.033365372821, 0.00721875, -0.0310625, 0.98690625, 192.0, 0.0, 0.0, 0.0, 0.0, 0.0, 0.0, 0.0, 0.0, 0.0, 1.6444988145402925E9, 0.0, 2022-02-11 00:13:34.540
208.0, -9094.343673508605, -10723.472919878117, -10735.65462060626, -17061.935909025182, -2541.616862012966, -2373.4423367312356, -6092.772614094331, -7505.402863669738, -16425.71585484932, -15207.76929947964, -20504.976273176228, -12628.333285848295, -6520.473244246632, -10351.651650864083, -11663.609643412787, -12470.619376971648, 0.00721875, -0.0310625, 0.98690625, 192.0, 0.0, 0.0, 0.0, 0.0, 0.0, 0.0, 0.0, 0.0, 0.0, 1.6444988145402992E9, 0.0, 2022-02-11 00:13:34.540
210.0, -9099.261057288773, -10732.0336380045, -10748.596280645881, -17064.729877082096, -2556.816048242575, -2382.13716532435, -6101.646256643088, -7513.404788184737, -16429.269782217718, -15224.555459565576, -20515.571000048043, -12632.893041717178, -6526.016476871548, -10355.987889288413, -11669.73402139354, -12477.168438097053, 0.00721875, -0.0310625, 0.98690625, 192.0, 0.0, 0.0, 0.0, 0.0, 0.0, 0.0, 0.0, 0.0, 0.0, 1.6444988145403056E9, 0.0, 2022-02-11 00:13:34.540
212.0, -9077.333995978117, -10703.557515568438, -10739.990859030588, -17059.43251364619, -2533.0337921421283, -2369.351967495915, -6091.543268149289, -7505.291104947461, -16429.560354895635, -15213.893677460395, -20513.961674447262, -12627.372160836716, -6522.507252992064, -10352.992755531403, -11672.013899327982, -12478.487191019916, 0.00721875, -0.0310625, 0.98690625, 192.0, 0.0, 0.0, 0.0, 0.0, 0.0, 0.0, 0.0, 0.0, 0.0, 1.644498814540312E9, 0.0, 2022-02-11 00:13:34.540
214.0, -9084.285388503718, -10705.479765591594, -10744.282393966007, -17063.32171718141, -2544.142609136416, -2389.2226683166828, -6105.4460532004905, -7521.563174910924, -16423.659494359435, -15202.896619188383, -20504.99862492068, -12617.44798629856, -6516.852261644872, -10357.306642211275, -11667.78941962593, -12476.98962414141, 0.009609375, -0.029531250000000002, 0.985453125, 192.0, 0.0, 48.0, 127.5, 16.0, 15.0, 96.0, 0.0, 0.0, 0.0, 1.6444988145403185E9, 0.0, 2022-02-11 00:13:34.540
216.0, -9086.855839116079, -10713.347579639862, -10746.271699222529, -17062.964089270128, -2549.9317109503404, -2386.5404589820455, -6112.889184104108, -7525.318267979416, -16421.178450724896, -15211.256171614668, -20514.386357591913, -12636.134044663197, -6521.456721002665, -10354.467970665452, -11675.523123207466, -12484.790382956313, 0.009609375, -0.029531250000000002, 0.985453125, 192.0, 0.0, 0.0, 0.0, 0.0, 0.0, 0.0, 0.0, 0.0, 0.0, 1.6444988145403252E9, 0.0, 2022-02-11 00:13:34.540
218.0, -9079.591522168103, -10699.601256799848, -10743.298917209973, -17062.47235089211, -2542.7568009801867, -2386.9651421266967, -6109.156442780071, -7525.430026701692, -16423.190107725874, -15201.10847963196, -20504.663348753853, -12621.046617155866, -6527.402285027777, -10353.439790420509, -11677.423021486167, -12482.510505021872, 0.009609375, -0.029531250000000002, 0.985453125, 192.0, 0.0, 0.0, 0.0, 0.0, 0.0, 0.0, 0.0, 0.0, 0.0, 1.6444988145403316E9, 0.0, 2022-02-11 00:13:34.540
220.0, -9086.967597838355, -10700.182402155686, -10753.245443492586, -17062.785275314483, -2558.224208143259, -2390.8990491508307, -6124.623849943144, -7528.0675325474185, -16427.369883939016, -15205.91410468985, -20516.755642504173, -12622.186556123086, -6532.811407185961, -10353.328031698231, -11680.909893621194, -12486.936150424022, 0.009609375, -0.029531250000000002, 0.985453125, 192.0, 0.0, 0.0, 0.0, 0.0, 0.0, 0.0, 0.0, 0.0, 0.0, 1.6444988145403383E9, 0.0, 2022-02-11 00:13:34.540
222.0, -9072.46131568686, -10691.912256707223, -10743.12010325433, -17060.192472957668, -2546.3330800930357, -2374.3811099983586, -6105.736625878409, -7505.24640145855, -16421.91605829192, -15208.886886702407, -20513.984026191716, -12626.656905014146, -6534.174863597735, -10340.520482125341, -11679.50173372051, -12481.23645558792, 0.009609375, -0.029531250000000002, 0.985453125, 192.0, 0.0, 0.0, 0.0, 0.0, 0.0, 0.0, 0.0, 0.0, 0.0, 1.6444988145403447E9, 0.0, 2022-02-11 00:13:34.540
224.0, -9067.387469695506, -10691.152297395742, -10742.784827087502, -17062.070019491915, -2552.4351063293348, -2385.4228717592805, -6120.108797563172, -7538.148169296762, -16418.697407090356, -15207.702244246275, -20500.2377033517, -12618.677332243602, -6531.492654263098, -10347.360115928665, -11670.06929756037, -12476.56494099676, 0.012, -0.032, 0.99, 192.0, 0.0, 48.0, 127.5, 0.0, 15.0, 120.0, 0.0, 0.0, 0.0, 1.6444988145403512E9, 0.0, 2022-02-11 00:13:34.540
226.0, -9078.093955289598, -10689.766489239513, -10746.294050966984, -17063.14290322577, -2559.8335337440412, -2387.5462874825344, -6115.861966116663, -7508.554459637936, -16418.563296623623, -15204.550648278077, -20516.465069826256, -12621.471300300516, -6529.525700751031, -10357.127828255634, -11679.524085464966, -12484.030423644832, 0.012, -0.032, 0.99, 192.0, 0.0, 0.0, 0.0, 0.0, 0.0, 0.0, 0.0, 0.0, 0.0, 1.6444988145403578E9, 0.0, 2022-02-11 00:13:34.540
228.0, -9073.55655116517, -10692.292236362962, -10739.566175885937, -17064.059324748436, -2555.0949639195164, -2385.2887612925483, -6118.991210340406, -7525.0723987904075, -16419.7255873353, -15205.578828523021, -20504.19396212029, -12623.907640446145, -6534.219567086646, -10353.797418331793, -11680.418155243178, -12478.062507875266, 0.012, -0.032, 0.99, 192.0, 0.0, 0.0, 0.0, 0.0, 0.0, 0.0, 0.0, 0.0, 0.0, 1.6444988145403645E9, 0.0, 2022-02-11 00:13:34.540
230.0, -9086.31939724915, -10697.991931199067, -10752.396077203284, -17065.445132904664, -2564.773269268664, -2400.465595777702, -6106.384826467613, -7524.334791223382, -16428.5768781396, -15211.367930336944, -20511.748851746186, -12620.39841656666, -6538.779322955528, -10361.86639808016, -11685.112021578792, -12485.125659123143, 0.012, -0.032, 0.99, 192.0, 0.0, 0.0, 0.0, 0.0, 0.0, 0.0, 0.0, 0.0, 0.0, 1.6444988145403726E9, 0.0, 2022-02-11 00:13:34.540
232.0, -9072.930702320422, -10694.952093953145, -10744.818835832935, -17061.95826076964, -2545.4390103148235, -2378.784403656054, -6080.322692432725, -7519.976201054597, -16424.06182575963, -15202.762508721651, -20515.571000048043, -12621.091320644775, -6539.807503200473, -10358.737153856417, -11685.246132045524, -12484.455106789483, 0.012, -0.032, 0.99, 192.0, 0.0, 0.0, 0.0, 0.0, 0.0, 0.0, 0.0, 0.0, 0.0, 1.6444988145403793E9, 0.0, 2022-02-11 00:13:34.540
234.0, -9082.65371115848, -10688.939474694667, -10750.049144035476, -17066.562720127433, -2552.658623773888, -2383.701787436222, -6098.114681019149, -7510.8119858279215, -16420.753767580245, -15206.562305279054, -20505.222142365237, -12616.665675242624, -6540.656869489774, -10342.286269937309, -11679.92641686516, -12479.068336375754, 0.006, -0.026000000000000002, 0.986, 192.0, 0.0, 24.0, 127.5, 24.0, 15.0, 104.0, 0.0, 0.0, 0.0, 1.6444988145403855E9, 0.0, 2022-02-11 00:13:34.540
236.0, -9083.883057103521, -10705.435062102684, -10749.244481235086, -17062.31588868092, -2549.7976004836087, -2392.463671262702, -6096.930038563018, -7515.10352076334, -16424.084177504086, -15213.089014660003, -20518.655540782875, -12628.825024226311, -6535.135988609313, -10363.587482403218, -11681.826315143862, -12483.8963131781, 0.006, -0.026000000000000002, 0.986, 192.0, 0.0, 0.0, 0.0, 0.0, 0.0, 0.0, 0.0, 0.0, 0.0, 1.6444988145403924E9, 0.0, 2022-02-11 00:13:34.540
238.0, -9079.166839023452, -10693.007492185532, -10741.756646842558, -17065.24396720457, -2547.718888249265, -2387.725101438177, -6099.612247897655, -7505.045235758453, -16430.566183396124, -15215.72652050573, -20509.133697644913, -12622.722997990013, -6536.521796765542, -10357.686621867017, -11679.009995342494, -12482.778725955335, 0.006, -0.026000000000000002, 0.986, 192.0, 0.0, 0.0, 0.0, 0.0, 0.0, 0.0, 0.0, 0.0, 0.0, 1.6444988145403988E9, 0.0, 2022-02-11 00:13:34.540
240.0, -9081.446716957893, -10683.709166492124, -10752.619594647836, -17071.77067658552, -2563.879199490452, -2387.926267138275, -6116.756035894876, -7522.948983067154, -16434.902421820454, -15217.000569939682, -20517.806174493573, -12632.624820783714, -6542.91439567976, -10364.682717881527, -11685.849629145818, -12484.320996322751, 0.006, -0.026000000000000002, 0.986, 192.0, 0.0, 0.0, 0.0, 0.0, 0.0, 0.0, 0.0, 0.0, 0.0, 1.6444988150192373E9, 0.0, 2022-02-11 00:13:35.019
242.0, -9072.707184875868, -10693.387471841274, -10746.361106200351, -17074.497589409064, -2556.4360685868346, -2375.9010286213197, -6107.390654968101, -7516.15405275274, -16429.962686295832, -15199.320340075534, -20521.87419198444, -12641.185538910097, -6545.306032336478, -10362.201674246988, -11688.621245458275, -12480.700013720993, 0.006, -0.026000000000000002, 0.986, 192.0, 0.0, 0.0, 0.0, 0.0, 0.0, 0.0, 0.0, 0.0, 0.0, 1.6444988150194335E9, 0.0, 2022-02-11 00:13:35.019
244.0, -9092.46612697436, -10709.21250691563, -10750.540882413494, -17077.403316188254, -2565.130897179949, -2392.6871887072552, -6123.103931320183, -7537.052933818452, -16431.639067129978, -15218.58754379601, -20512.732328502218, -12622.097149145264, -6547.004764915081, -10354.602081132183, -11687.4589547466, -12482.979891655434, 0.006, -0.024, 0.99, 192.0, 0.0, 24.0, 127.5, 32.0, 15.0, 120.0, 0.0, 0.0, 0.0, 1.6444988150194407E9, 0.0, 2022-02-11 00:13:35.019
246.0, -9091.437946729417, -10697.83546898788, -10750.496178924583, -17070.697792851664, -2569.645949559921, -2391.3907875288473, -6121.516957463856, -7533.364895983326, -16438.4787009333, -15236.133663193425, -20526.948037975795, -12629.853204471256, -6548.703497493684, -10359.988851545913, -11691.728137937564, -12490.355967325684, 0.006, -0.024, 0.99, 192.0, 0.0, 0.0, 0.0, 0.0, 0.0, 0.0, 0.0, 0.0, 0.0, 1.6444988150194485E9, 0.0, 2022-02-11 00:13:35.019
248.0, -9077.736327378312, -10691.375814840296, -10744.215338732642, -17068.10499049485, -2557.6654145318766, -2379.56671471199, -6117.560698695266, -7523.328962722893, -16430.141500251473, -15220.755663008174, -20513.20171513578, -12619.571402021815, -6548.412924815765, -10350.846988063693, -11687.257789046502, -12482.37639455514, 0.006, -0.024, 0.99, 192.0, 0.0, 0.0, 0.0, 0.0, 0.0, 0.0, 0.0, 0.0, 0.0, 1.6444988150194554E9, 0.0, 2022-02-11 00:13:35.019
250.0, -9087.235818771818, -10696.941399209667, -10751.345545213884, -17076.75511559905, -2562.5604465675888, -2384.0594153475067, -6115.705503905476, -7528.805140114444, -16436.958782310343, -15221.15799440837, -20520.06370068356, -12630.568460293825, -6550.53634053902, -10346.33193568372, -11687.637768702241, -12482.488153277416, 0.006, -0.024, 0.99, 192.0, 0.0, 0.0, 0.0, 0.0, 0.0, 0.0, 0.0, 0.0, 0.0, 1.6444988150194623E9, 0.0, 2022-02-11 00:13:35.019
252.0, -9073.802420354179, -10690.615855528815, -10742.65071662077, -17070.742496340572, -2547.852998715997, -2385.8475549039313, -6104.462576444456, -7523.530128422992, -16431.572011896613, -15224.175479909836, -20520.2425146392, -12636.335210363295, -6545.149570125291, -10362.514598669362, -11686.676643690664, -12485.058603889776, 0.006, -0.024, 0.99, 192.0, 0.0, 0.0, 0.0, 0.0, 0.0, 0.0, 0.0, 0.0, 0.0, 1.6444988150194693E9, 0.0, 2022-02-11 00:13:35.019
254.0, -9076.037594799709, -10690.63820727327, -10746.584623644903, -17074.765810342527, -2556.614882542477, -2390.183793328261, -6121.963992352962, -7545.9712798561195, -16433.20368924185, -15219.705131018774, -20509.267808111646, -12620.73369273349, -6544.031982902526, -10358.67009862305, -11685.536704723443, -12484.343348067207, 0.004, -0.026000000000000002, 0.992, 192.0, 0.0, 16.0, 127.5, 24.0, 15.5, 0.0, 0.0, 0.0, 0.0, 1.644498815019488E9, 0.0, 2022-02-11 00:13:35.019
0.0, -9080.396184968495, -10693.633341030281, -10750.540882413494, -17071.74832484106, -2565.644987302421, -2386.8310316599645, -6121.40519874158, -7532.4708262051145, -16433.851889831054, -15228.10938693397, -20523.148241418392, -12629.8308527268, -6546.065991647958, -10361.776991102337, -11691.862248404295, -12487.986682413422, 0.004, -0.026000000000000002, 0.992, 192.0, 0.0, 0.0, 0.0, 0.0, 0.0, 0.0, 0.0, 0.0, 0.0, 1.6444988150194948E9, 0.0, 2022-02-11 00:13:35.019
2.0, -9071.902522075477, -10695.287370119973, -10741.197853231175, -17072.28476670799, -2550.9598911952844, -2380.9748746126743, -6119.952335351984, -7532.962564583131, -16432.242564230273, -15227.148261922392, -20510.743023245697, -12624.511137546437, -6547.116523637357, -10348.924738040536, -11691.92930363766, -12480.342385809707, 0.004, -0.026000000000000002, 0.992, 192.0, 0.0, 0.0, 0.0, 0.0, 0.0, 0.0, 0.0, 0.0, 0.0, 1.6444988150195012E9, 0.0, 2022-02-11 00:13:35.019
4.0, -9081.267903002252, -10682.502172291539, -10745.847016077878, -17075.995156287572, -2556.547827309111, -2395.503508508624, -6108.418835213046, -7544.943099611176, -16434.72360786481, -15227.684703789319, -20514.25224712518, -12628.73561724849, -6544.031982902526, -10363.229854491932, -11682.027480843959, -12485.706804478981, 0.004, -0.026000000000000002, 0.992, 192.0, 0.0, 0.0, 0.0, 0.0, 0.0, 0.0, 0.0, 0.0, 0.0, 1.644498815019508E9, 0.0, 2022-02-11 00:13:35.019
6.0, -9077.378699467028, -10687.374852582796, -10743.231861976608, -17068.619080617318, -2551.004594684195, -2377.197429799727, -6094.985436795407, -7499.926686278187, -16429.649761873457, -15221.515622319654, -20518.3426163605, -12632.937745206089, -6543.741410224607, -10356.725496855439, -11680.887541876738, -12482.443449788505, 0.004, -0.026000000000000002, 0.992, 192.0, 0.0, 0.0, 0.0, 0.0, 0.0, 0.0, 0.0, 0.0, 0.0, 1.644498815019526E9, 0.0, 2022-02-11 00:13:35.019
8.0, -9086.98994958281, -10699.400091099751, -10748.484521923605, -17072.3294701969, -2554.7373360082315, -2378.538534467046, -6111.7268933924315, -7525.810006357433, -16441.76440736823, -15225.87421248844, -20508.30668310007, -12619.97373342201, -6546.3342125814215, -10347.449522906485, -11678.4064982422, -12474.016842128854, 0.004, -0.024, 0.992, 192.0, 0.0, 16.0, 127.5, 32.0, 15.5, 0.0, 0.0, 0.0, 0.0, 1.6444988150195324E9, 0.0, 2022-02-11 00:13:35.019
10.0, -9076.618740155547, -10693.029843929988, -10748.708039368157, -17070.09429575137, -2560.191161655326, -2377.3091885220038, -6121.025219085839, -7524.647715645757, -16437.316410221625, -15230.992761968704, -20517.672064026843, -12626.925125947611, -6546.423619559243, -10348.544758384796, -11687.771879168973, -12478.889522420111, 0.004, -0.024, 0.992, 192.0, 0.0, 0.0, 0.0, 0.0, 0.0, 0.0, 0.0, 0.0, 0.0, 1.644498815019539E9, 0.0, 2022-02-11 00:13:35.019
12.0, -9070.22614124133, -10679.328224578885, -10745.198815488675, -17074.117609753324, -2553.1280104074494, -2368.6143599288894, -6092.34793094968, -7518.612744642824, -16436.936430565886, -15226.142433421903, -20509.379566833923, -12620.331361333296, -6548.077648648936, -10342.33097342622, -11682.183943055146, -12471.8934264056, 0.004, -0.024, 0.992, 192.0, 0.0, 0.0, 0.0, 0.0, 0.0, 0.0, 0.0, 0.0, 0.0, 1.6444988150195456E9, 0.0, 2022-02-11 00:13:35.019
14.0, -9084.777126881734, -10694.147431152753, -10754.228920248619, -17081.113705767835, -2564.728565779754, -2386.9651421266967, -6097.310018218758, -7524.982991812586, -16436.24352648777, -15228.846994500995, -20516.219200637246, -12629.875556215711, -6543.719058480151, -10338.844101291192, -11683.457992489099, -12474.933263651523, 0.004, -0.024, 0.992, 192.0, 0.0, 0.0, 0.0, 0.0, 0.0, 0.0, 0.0, 0.0, 0.0, 1.6444988150195522E9, 0.0, 2022-02-11 00:13:35.019
16.0, -9069.734402863312, -10683.664463003215, -10747.121065511832, -17074.564644642433, -2558.000690698706, -2379.142031567339, -6091.833840827208, -7522.837224344877, -16434.500090420257, -15216.53118330612, -20519.1919826498, -12643.577175566814, -6546.1553986257795, -10358.781857345326, -11686.967216368583, -12478.084859619721, 0.004, -0.024, 0.992, 192.0, 0.0, 0.0, 0.0, 0.0, 0.0, 0.0, 0.0, 0.0, 0.0, 1.644498815019559E9, 0.0, 2022-02-11 00:13:35.019
18.0, -9081.13379253552, -10683.575056025393, -10752.932519070211, -17078.99029004458, -2561.3311006225467, -2386.8086799155094, -6110.743416636398, -7536.762361140533, -16433.29309621967, -15221.828546742028, -20508.641959266897, -12618.654980499146, -6542.757933468572, -10356.770200344348, -11682.988605855538, -12476.721403207946, 0.006, -0.028, 0.988, 192.0, 0.0, 24.0, 127.5, 16.0, 15.0, 112.0, 0.0, 0.0, 0.0, 1.644498815019565E9, 0.0, 2022-02-11 00:13:35.019
20.0, -9077.266940744752, -10695.197963142153, -10753.759533615057, -17079.75024935606, -2565.712042535787, -2388.529764238568, -6109.5587741802665, -7537.20939602964, -16439.708046878346, -15236.334828893523, -20528.06562519856, -12633.407131839649, -6543.964927669159, -10360.212368990466, -11689.738832681041, -12487.13731612412, 0.006, -0.028, 0.988, 192.0, 0.0, 0.0, 0.0, 0.0, 0.0, 0.0, 0.0, 0.0, 0.0, 1.6444988150195718E9, 0.0, 2022-02-11 00:13:35.019
22.0, -9070.963748808355, -10697.097861420854, -10746.696382367181, -17081.09135402338, -2557.4418970873235, -2382.4500897467246, -6098.785233352809, -7521.451416188648, -16432.30961946364, -15232.87030850295, -20515.392186092402, -12630.859032971744, -6540.880386934327, -10350.422304919042, -11681.871018632773, -12478.777763697835, 0.006, -0.028, 0.988, 192.0, 0.0, 0.0, 0.0, 0.0, 0.0, 0.0, 0.0, 0.0, 0.0, 1.6444988150195785E9, 0.0, 2022-02-11 00:13:35.019
24.0, -9089.426289728439, -10695.44383233116, -10750.697344624681, -17075.52576965401, -2569.265969904181, -2391.5472497400347, -6110.16227128056, -7535.667125662223, -16441.049151545663, -15238.480596361233, -20519.974293705738, -12637.341038863784, -6540.925090423238, -10359.564168401263, -11682.832143644351, -12483.784554455824, 0.006, -0.028, 0.988, 192.0, 0.0, 0.0, 0.0, 0.0, 0.0, 0.0, 0.0, 0.0, 0.0, 1.644498815019585E9, 0.0, 2022-02-11 00:13:35.019
26.0, -9075.791725610701, -10683.73151823658, -10741.376667186818, -17068.775542828505, -2557.598359298511, -2376.526877466068, -6105.803681111775, -7539.533977452991, -16433.248392730762, -15230.545727079598, -20514.609875036465, -12627.550974792359, -6537.304107821478, -10357.485456166918, -11682.385108755245, -12478.218970086453, 0.006, -0.028, 0.988, 192.0, 0.0, 0.0, 0.0, 0.0, 0.0, 0.0, 0.0, 0.0, 0.0, 1.644498815019592E9, 0.0, 2022-02-11 00:13:35.019
28.0, -9080.217371012852, -10690.817021228913, -10746.606975389359, -17079.593787144877, -2569.780060026653, -2380.080804834462, -6122.969820853451, -7532.359067482837, -16435.34945670956, -15226.902392733384, -20507.233799366215, -12623.97469567951, -6541.729753223629, -10341.369848414643, -11679.41232674269, -12479.113039864666, 0.004, -0.028, 0.99, 192.0, 0.0, 16.0, 127.5, 16.0, 15.0, 120.0, 0.0, 0.0, 0.0, 1.6444988150195985E9, 0.0, 2022-02-11 00:13:35.019
30.0, -9078.9433215789, -10687.620721771804, -10747.45634167866, -17075.391659187277, -2566.6284640584545, -2380.3266740234703, -6115.236117271915, -7525.675895890701, -16440.73622712329, -15233.2949916476, -20526.72452053124, -12636.558727807847, -6544.7472387250955, -10355.987889288413, -11682.16159131069, -12480.208275342975, 0.004, -0.028, 0.99, 192.0, 0.0, 0.0, 0.0, 0.0, 0.0, 0.0, 0.0, 0.0, 0.0, 1.6444988150196052E9, 0.0, 2022-02-11 00:13:35.019
32.0, -9067.119248762041, -10689.766489239513, -10739.40971367475, -17070.98836552958, -2555.0949639195164, -2369.329615751459, -6105.4460532004905, -7513.762416096022, -16435.01418054273, -15230.612782312965, -20512.508811057665, -12630.389646338183, -6541.260366590067, -10349.751752585382, -11676.55130345241, -12474.46387701796, 0.004, -0.028, 0.99, 192.0, 0.0, 0.0, 0.0, 0.0, 0.0, 0.0, 0.0, 0.0, 0.0, 1.6444988150196133E9, 0.0, 2022-02-11 00:13:35.019
34.0, -9078.27276924524, -10689.095936905855, -10751.323193469429, -17071.681269607696, -2568.617769314977, -2379.0302728450624, -6124.243870287403, -7536.963526840631, -16435.707084620844, -15235.641924815409, -20510.318340101046, -12630.25553587145, -6538.756971211073, -10348.924738040536, -11679.41232674269, -12473.70391770648, 0.004, -0.028, 0.99, 192.0, 0.0, 0.0, 0.0, 0.0, 0.0, 0.0, 0.0, 0.0, 0.0, 1.6444988150196197E9, 0.0, 2022-02-11 00:13:35.019
36.0, -9067.74509760679, -10676.601311755338, -10744.863539321845, -17067.546196883464, -2556.592530798022, -2370.8942378633305, -6099.96987580894, -7508.889735804765, -16430.163851995927, -15229.651657301387, -20512.709976757764, -12631.037846927387, -6539.896910178293, -10352.81394157576, -11683.994434356027, -12474.910911907067, 0.005, -0.027000000000000003, 0.991, 192.0, 0.0, 24.0, 127.5, 24.0, 15.5, 0.0, 0.0, 0.0, 0.0, 1.6444988150196264E9, 0.0, 2022-02-11 00:13:35.019
38.0, -9071.075507530632, -10680.222294357098, -10746.294050966984, -17074.51994115352, -2552.1221819069606, -2370.0672233184846, -6079.5627331212445, -7513.382436440282, -16433.6283723865, -15217.626418784432, -20505.602122020977, -12622.588887523281, -6544.9260526807375, -10346.086066494712, -11675.143143551726, -12467.177208325531, 0.005, -0.027000000000000003, 0.991, 192.0, 0.0, 0.0, 0.0, 0.0, 0.0, 0.0, 0.0, 0.0, 0.0, 1.6444988150196362E9, 0.0, 2022-02-11 00:13:35.019
40.0, -9073.221274998341, -10681.116364135309, -10750.518530669038, -17069.826074817905, -2560.45938258879, -2377.3315402664593, -6089.084576259205, -7522.569003411413, -16435.26004973174, -15236.49129110471, -20519.884886727916, -12632.133082405697, -6541.729753223629, -10355.00441253238, -11678.920588364672, -12471.155818838575, 0.005, -0.027000000000000003, 0.991, 192.0, 0.0, 0.0, 0.0, 0.0, 0.0, 0.0, 0.0, 0.0, 0.0, 1.6444988150196428E9, 0.0, 2022-02-11 00:13:35.019
42.0, -9063.431210926916, -10674.455544287628, -10742.69542010968, -17068.46261840613, -2549.5070278056896, -2375.56575245449, -6102.562678165756, -7522.7254656226005, -16433.96364855333, -15226.075378188538, -20508.016110422148, -12622.857108456745, -6540.411000300765, -10348.500054895885, -11675.903102863205, -12466.506655991872, 0.005, -0.027000000000000003, 0.991, 192.0, 0.0, 0.0, 0.0, 0.0, 0.0, 0.0, 0.0, 0.0, 0.0, 1.6444988150196493E9, 0.0, 2022-02-11 00:13:35.019
44.0, -9064.191170238397, -10679.685852490169, -10751.233786491608, -17074.67640336471, -2559.4088505993905, -2385.8028514150205, -6109.44701545799, -7540.293936764471, -16431.77317759671, -15233.987895725715, -20508.53020054462, -12631.887213216689, -6543.093209635403, -10344.454389149474, -11681.31222502139, -12469.904121149078, 0.005, -0.027000000000000003, 0.991, 192.0, 0.0, 0.0, 0.0, 0.0, 0.0, 0.0, 0.0, 0.0, 0.0, 1.644498815019656E9, 0.0, 2022-02-11 00:13:35.019
46.0, -9055.786914323202, -10677.517733278006, -10742.985992787599, -17066.942699783172, -2548.5459027941115, -2370.402499485314, -6097.287666474303, -7526.9499453246535, -16421.804299569645, -15230.568078824053, -20509.35721508947, -12624.958172435543, -6538.019363644048, -10345.035534505312, -11679.546437209421, -12470.12763859363, 0.0045000000000000005, -0.027500000000000004, 0.9915, 192.0, 0.0, 16.0, 127.5, 16.0, 15.5, 0.0, 0.0, 0.0, 0.0, 1.6444988150196624E9, 0.0, 2022-02-11 00:13:35.019
48.0, -9061.151332992475, -10679.39527981225, -10746.182292244708, -17068.46261840613, -2555.7431645087204, -2370.670720418778, -6101.78036710982, -7520.780863854989, -16429.605058384546, -15225.024846199138, -20497.108459127958, -12623.147681134664, -6539.740447967106, -10353.819770076248, -11679.367623253778, -12460.382278011117, 0.0045000000000000005, -0.027500000000000004, 0.9915, 192.0, 0.0, 0.0, 0.0, 0.0, 0.0, 0.0, 0.0, 0.0, 0.0, 1.6444988150196693E9, 0.0, 2022-02-11 00:13:35.019
50.0, -9064.74996384978, -10671.952148908633, -10748.484521923605, -17066.719182338617, -2558.64889128791, -2374.7387379096435, -6105.870736345141, -7534.5271866950025, -16430.96851479632, -15226.053026444082, -20512.598218035488, -12633.496538817471, -6537.147645610291, -10354.423267176542, -11682.474515733065, -12468.406554270572, 0.0045000000000000005, -0.027500000000000004, 0.9915, 192.0, 0.0, 0.0, 0.0, 0.0, 0.0, 0.0, 0.0, 0.0, 0.0, 1.6444988150196767E9, 0.0, 2022-02-11 00:13:35.019
52.0, -9061.240739970295, -10673.427364042684, -10745.064705021943, -17065.355725926845, -2552.4798098182455, -2369.5307814515572, -6102.450919443479, -7514.589430640868, -16433.15898575294, -15216.844107728495, -20503.255188853167, -12619.839622955278, -6539.025192144536, -10355.80907533277, -11680.149934309715, -12463.533873979315, 0.0045000000000000005, -0.027500000000000004, 0.9915, 192.0, 0.0, 0.0, 0.0, 0.0, 0.0, 0.0, 0.0, 0.0, 0.0, 1.6444988150196831E9, 0.0, 2022-02-11 00:13:35.019
54.0, -9071.947225564389, -10680.73638447957, -10752.820760347935, -17068.842598061874, -2564.326234379558, -2376.4151187437915, -6108.061207301761, -7530.8838523487875, -16439.10454977805, -15242.97329699675, -20506.29502609909, -12621.11367238923, -6540.925090423238, -10349.796456074293, -11680.284044776447, -12466.081972847222, 0.0045000000000000005, -0.027500000000000004, 0.9915, 192.0, 0.0, 0.0, 0.0, 0.0, 0.0, 0.0, 0.0, 0.0, 0.0, 1.6444988150196896E9, 0.0, 2022-02-11 00:13:35.019
56.0, -9060.905463803467, -10679.417631556706, -10743.947117799178, -17068.373211428312, -2548.5459027941115, -2364.144011037828, -6089.464555914946, -7511.013151528019, -16433.740131108778, -15239.464073117266, -20509.379566833923, -12624.73465499099, -6538.1758258552345, -10350.623470619139, -11680.708727921097, -12466.75252518088, 0.00725, -0.027750000000000004, 0.99075, 192.0, 0.0, 40.0, 127.5, 16.0, 15.0, 120.0, 0.0, 0.0, 0.0, 1.6444988150196962E9, 0.0, 2022-02-11 00:13:35.019
58.0, -9064.168818493941, -10679.484686790072, -10745.869367822334, -17073.42470567521, -2552.45745807379, -2376.526877466068, -6094.739567606398, -7528.134587780784, -16435.528270665203, -15235.753683537685, -20501.399994063377, -12620.934858433588, -6539.382820055821, -10346.778970572826, -11672.63974817273, -12461.745734422891, 0.00725, -0.027750000000000004, 0.99075, 192.0, 0.0, 0.0, 0.0, 0.0, 0.0, 0.0, 0.0, 0.0, 0.0, 1.644498815019703E9, 0.0, 2022-02-11 00:13:35.019
60.0, -9078.965673323355, -10700.227105644597, -10753.51366442605, -17073.335298697388, -2556.7936964981195, -2377.152726310817, -6098.941695563995, -7516.288163219472, -16441.11620677903, -15242.883890018928, -20518.879058227427, -12638.97271620902, -6544.322555580445, -10348.053020006779, -11680.664024432186, -12468.853589159678, 0.00725, -0.027750000000000004, 0.99075, 192.0, 0.0, 0.0, 0.0, 0.0, 0.0, 0.0, 0.0, 0.0, 0.0, 1.644498815019709E9, 0.0, 2022-02-11 00:13:35.019
62.0, -9070.114382519054, -10689.319454350407, -10746.338754455895, -17070.72014459612, -2547.718888249265, -2376.593932699434, -6096.594762396188, -7516.668142875212, -16444.088988791584, -15234.077302703537, -20514.229895380726, -12638.056294686354, -6545.730715481129, -10352.81394157576, -11678.16062905319, -12461.142237322598, 0.00725, -0.027750000000000004, 0.99075, 192.0, 0.0, 0.0, 0.0, 0.0, 0.0, 0.0, 0.0, 0.0, 0.0, 1.6444988150197158E9, 0.0, 2022-02-11 00:13:35.019
64.0, -9084.79947862619, -10700.428271344696, -10758.922786584233, -17072.75415334155, -2557.0842691760386, -2388.552115983023, -6110.005809069373, -7530.637983159779, -16454.10257030756, -15232.892660247406, -20515.794517492595, -12636.938707463589, -6544.255500347078, -10364.95093881499, -11681.625149443764, -12466.618414714148, 0.00725, -0.027750000000000004, 0.99075, 192.0, 0.0, 0.0, 0.0, 0.0, 0.0, 0.0, 0.0, 0.0, 0.0, 1.6444988150197473E9, 0.0, 2022-02-11 00:13:35.019
66.0, -9077.535161678215, -10701.635265545281, -10750.965565558145, -17070.98836552958, -2555.4972953197116, -2383.500621736124, -6109.82699511373, -7526.9499453246535, -16448.671096404923, -15247.3989423989, -20526.858630997973, -12641.476111588016, -6541.841511945905, -10367.47668593844, -11688.64359720273, -12469.725307193436, 0.008625, -0.027875000000000004, 0.990375, 192.0, 0.0, 40.0, 127.5, 16.0, 15.0, 120.0, 0.0, 0.0, 0.0, 1.6444988150197551E9, 0.0, 2022-02-11 00:13:35.019
68.0, -9076.104650033076, -10703.736329524081, -10749.803274846468, -17072.776505086007, -2552.9044929628963, -2383.5453252250345, -6094.6501606285765, -7535.734180895589, -16449.073427805117, -15243.576794097042, -20512.82173548004, -12635.821120240822, -6544.389610813811, -10369.421287706053, -11682.541570966432, -12469.434734515517, 0.008625, -0.027875000000000004, 0.990375, 192.0, 0.0, 0.0, 0.0, 0.0, 0.0, 0.0, 0.0, 0.0, 0.0, 1.644498815019762E9, 0.0, 2022-02-11 00:13:35.019
70.0, -9085.8947141045, -10702.730501023592, -10755.882949338311, -17070.742496340572, -2557.643062787421, -2387.23336306016, -6099.724006619931, -7522.747817367055, -16448.626392916012, -15254.842073302518, -20522.47768908473, -12636.871652230222, -6540.433352045221, -10364.995642303902, -11682.832143644351, -12472.18399908352, 0.008625, -0.027875000000000004, 0.990375, 192.0, 0.0, 0.0, 0.0, 0.0, 0.0, 0.0, 0.0, 0.0, 0.0, 1.6444988150197716E9, 0.0, 2022-02-11 00:13:35.019
72.0, -9071.589597653103, -10704.07160569091, -10751.926690569722, -17071.100124251858, -2549.328213850047, -2379.2761420340707, -6112.889184104108, -7510.9237445501985, -16448.246413260273, -15250.237613944724, -20515.638055281408, -12641.07378018782, -6541.774456712539, -10363.855703336681, -11682.027480843959, -12464.696164690991, 0.008625, -0.027875000000000004, 0.990375, 192.0, 0.0, 0.0, 0.0, 0.0, 0.0, 0.0, 0.0, 0.0, 0.0, 1.6444988150197785E9, 0.0, 2022-02-11 00:13:35.019
74.0, -9081.13379253552, -10711.090053449876, -10759.973318573633, -17077.3809644438, -2557.911283720885, -2392.396616029336, -6087.743471591887, -7536.0471053179635, -16453.096741807072, -15246.862500531972, -20519.504907072176, -12634.345905106773, -6542.847340446394, -10361.285252724321, -11682.586274455343, -12469.568844982248, 0.008625, -0.027875000000000004, 0.990375, 192.0, 0.0, 0.0, 0.0, 0.0, 0.0, 0.0, 0.0, 0.0, 0.0, 1.6444988150197976E9, 0.0, 2022-02-11 00:13:35.019
76.0, -9066.783972595213, -10693.521582308005, -10747.612803889848, -17067.836769561385, -2541.952138179796, -2378.0020926001184, -6072.387823151091, -7516.846956830855, -16447.10647429305, -15247.041314487615, -20526.00926470867, -12641.766684265935, -6541.4615322901645, -10373.690470897016, -11678.473553475565, -12471.066411860755, 0.0113125, -0.0289375, 0.9911875, 192.0, 0.0, 56.0, 127.5, 8.0, 15.5, 0.0, 0.0, 0.0, 0.0, 1.644498815019804E9, 0.0, 2022-02-11 00:13:35.019
78.0, -9081.647882657991, -10700.182402155686, -10752.776056859024, -17069.647260862264, -2550.043469672617, -2381.444261246236, -6093.264352472348, -7508.040369515464, -16435.796491598667, -15233.876137003439, -20505.266845854145, -12625.11463464673, -6535.62772698733, -10353.730363098426, -11675.098440062815, -12462.483341989917, 0.0113125, -0.0289375, 0.9911875, 192.0, 0.0, 0.0, 0.0, 0.0, 0.0, 0.0, 0.0, 0.0, 0.0, 1.644498815019811E9, 0.0, 2022-02-11 00:13:35.019
80.0, -9089.336882750616, -10699.869477733313, -10756.866426094346, -17067.4791416501, -2553.329176107547, -2379.2537902896156, -6099.5228409198335, -7524.670067390212, -16467.670079191932, -15247.3989423989, -20534.704093301785, -12637.899832475166, -6547.7423724821065, -10365.465028937464, -11687.146030324226, -12468.741830437402, 0.0113125, -0.0289375, 0.9911875, 192.0, 0.0, 0.0, 0.0, 0.0, 0.0, 0.0, 0.0, 0.0, 0.0, 1.644498815019817E9, 0.0, 2022-02-11 00:13:35.019
82.0, -9084.330091992628, -10700.897657978256, -10749.9373853132, -17066.60742361634, -2545.394306825913, -2365.9321505942526, -6075.718233074932, -7484.056947714919, -16454.437846474393, -15231.842128258006, -20519.951941961284, -12627.774492236913, -6540.38864855631, -10352.81394157576, -11683.435640744645, -12459.75642916637, 0.0113125, -0.0289375, 0.9911875, 192.0, 0.0, 0.0, 0.0, 0.0, 0.0, 0.0, 0.0, 0.0, 0.0, 1.6444988150198238E9, 0.0, 2022-02-11 00:13:35.019
84.0, -9107.307685292684, -10710.844184260868, -10761.98497557461, -17074.00585103105, -2555.005556941695, -2370.9389413522413, -6090.626846626622, -7503.011227013019, -16469.59232921509, -15245.677858075842, -20528.26679089866, -12639.352695864762, -6545.686011992218, -10364.43684869252, -11682.474515733065, -12459.063525088255, 0.0113125, -0.0289375, 0.9911875, 192.0, 0.0, 0.0, 0.0, 0.0, 0.0, 0.0, 0.0, 0.0, 0.0, 1.6444988150198307E9, 0.0, 2022-02-11 00:13:35.019
86.0, -9090.119193806553, -10718.17555644221, -10757.492274939093, -17068.149693983756, -2549.3058621055916, -2365.149839538317, -6097.220611240937, -7501.804232812433, -16465.16668381294, -15232.15505268038, -20531.016055466658, -12634.681181273601, -6546.8035992149835, -10356.010241032869, -11689.850591403318, -12461.522216978337, 0.00765625, -0.02646875, 0.9905937499999999, 192.0, 0.0, 16.0, 127.5, 32.0, 15.0, 120.0, 0.0, 0.0, 0.0, 1.6444988150198371E9, 0.0, 2022-02-11 00:13:35.019
88.0, -9090.610932184569, -10722.422387888717, -10756.84407434989, -17065.914519538226, -2552.07747841805, -2372.950598353219, -6100.193393253493, -7504.754663080534, -16461.143369810983, -15238.078264961037, -20518.901409971884, -12623.550012534859, -6549.239939360612, -10355.965537543958, -11685.067318089881, -12458.884711132612, 0.00765625, -0.02646875, 0.9905937499999999, 192.0, 0.0, 0.0, 0.0, 0.0, 0.0, 0.0, 0.0, 0.0, 0.0, 1.6444988150198438E9, 0.0, 2022-02-11 00:13:35.019
90.0, -9099.70809217788, -10714.442815118173, -10761.828513363424, -17073.42470567521, -2556.592530798022, -2375.655159432311, -6087.743471591887, -7501.670122345701, -16463.266785534237, -15243.219166185758, -20531.261924655668, -12634.636477784692, -6547.384744570822, -10362.536950413818, -11685.26848378998, -12464.338536779707, 0.00765625, -0.02646875, 0.9905937499999999, 192.0, 0.0, 0.0, 0.0, 0.0, 0.0, 0.0, 0.0, 0.0, 0.0, 1.6444988150198505E9, 0.0, 2022-02-11 00:13:35.019
92.0, -9087.906371105477, -10702.238762645575, -10750.295013224484, -17074.60934813134, -2537.5264927776448, -2370.46955471868, -6082.624922111621, -7498.406767655226, -16459.511692465745, -15239.68759056182, -20522.611799551465, -12644.985335467498, -6547.7423724821065, -10354.602081132183, -11677.624187186264, -12459.868187888645, 0.00765625, -0.02646875, 0.9905937499999999, 192.0, 0.0, 0.0, 0.0, 0.0, 0.0, 0.0, 0.0, 0.0, 0.0, 1.6444988150198574E9, 0.0, 2022-02-11 00:13:35.019
94.0, -9094.924818864443, -10723.182347200198, -10756.329984227417, -17070.630737618296, -2546.556597537589, -2384.037063603051, -6087.609361125155, -7511.884869561776, -16461.143369810983, -15237.988857983215, -20524.422290852344, -12627.461567814538, -6546.1553986257795, -10372.841104607714, -11679.524085464966, -12462.304528034274, 0.00765625, -0.02646875, 0.9905937499999999, 192.0, 0.0, 0.0, 0.0, 0.0, 0.0, 0.0, 0.0, 0.0, 0.0, 1.644498815019864E9, 0.0, 2022-02-11 00:13:35.019
96.0, -9089.918028106455, -10718.376722142306, -10751.613766147348, -17068.261452706036, -2536.8559404439857, -2367.7426418951322, -6069.795020794275, -7491.164802451707, -16454.996640085774, -15244.202642941791, -20529.4961368437, -12630.143777149175, -6540.187482856212, -10363.162799258567, -11678.339443008834, -12460.874016389134, 0.006828125, -0.024234375, 0.990296875, 192.0, 0.0, 24.0, 127.5, 40.0, 15.0, 120.0, 0.0, 0.0, 0.0, 1.6444988150198705E9, 0.0, 2022-02-11 00:13:35.019
98.0, -9099.439871244416, -10722.422387888717, -10752.038449291998, -17069.28963295098, -2539.649908500899, -2368.6143599288894, -6079.763898821342, -7492.662369330213, -16453.67788716291, -15242.615669085464, -20514.408709336367, -12626.276925358407, -6544.300203835989, -10355.607909632672, -11676.12662030776, -12454.839045386201, 0.006828125, -0.024234375, 0.990296875, 192.0, 0.0, 0.0, 0.0, 0.0, 0.0, 0.0, 0.0, 0.0, 0.0, 1.6444988150198772E9, 0.0, 2022-02-11 00:13:35.019
100.0, -9101.94326662341, -10727.093902479875, -10755.994708060589, -17070.98836552958, -2550.64696677291, -2374.537572209546, -6092.8843728166075, -7502.608895612824, -16459.01995408773, -15242.772131296651, -20528.02092170965, -12634.8823469737, -6543.920224180249, -10346.287232194809, -11678.540608708932, -12459.55526346627, 0.006828125, -0.024234375, 0.990296875, 192.0, 0.0, 0.0, 0.0, 0.0, 0.0, 0.0, 0.0, 0.0, 0.0, 1.6444988150198836E9, 0.0, 2022-02-11 00:13:35.019
102.0, -9084.441850714904, -10714.286352906985, -10748.238652734597, -17064.3275456819, -2546.847170215508, -2371.5200867080794, -6092.973779794429, -7502.206564212628, -16455.644840674977, -15234.077302703537, -20519.14727916089, -12625.718131747024, -6546.110695136869, -10351.204615974977, -11681.960425610594, -12460.851664644679, 0.006828125, -0.024234375, 0.990296875, 192.0, 0.0, 0.0, 0.0, 0.0, 0.0, 0.0, 0.0, 0.0, 0.0, 1.6444988150198936E9, 0.0, 2022-02-11 00:13:35.019
104.0, -9091.348539751594, -10716.990913986077, -10755.190045260197, -17069.423743417712, -2550.8928359619185, -2385.04289210354, -6081.373224422125, -7518.925669065198, -16456.36009649755, -15236.893622504906, -20520.957770461773, -12624.131157890697, -6546.021288159048, -10359.340650956708, -11681.73690816604, -12465.791400169303, 0.006828125, -0.024234375, 0.990296875, 192.0, 0.0, 0.0, 0.0, 0.0, 0.0, 0.0, 0.0, 0.0, 0.0, 1.6444988154987617E9, 0.0, 2022-02-11 00:13:35.498
106.0, -9083.525429192237, -10704.026902201998, -10746.785789345002, -17064.282842192988, -2541.616862012966, -2370.626016929867, -6068.744488804876, -7493.064700730408, -16449.8333871166, -15228.82464275654, -20526.568058320056, -12632.848338228267, -6545.909529436771, -10351.696354352995, -11680.12758256526, -12463.869150146145, 0.008, -0.026000000000000002, 0.982, 192.0, 0.0, 32.0, 127.5, 24.0, 15.0, 88.0, 0.0, 0.0, 0.0, 1.6444988154988985E9, 0.0, 2022-02-11 00:13:35.498
108.0, -9099.462222988872, -10728.770283314025, -10747.70221086767, -17067.836769561385, -2548.143571393916, -2370.9389413522413, -6078.15457322056, -7477.284369144961, -16451.44271271738, -15238.413541127866, -20515.68275877032, -12619.303181088351, -6546.222453859145, -10350.824636319237, -11674.204370284602, -12453.386181996606, 0.008, -0.026000000000000002, 0.982, 192.0, 0.0, 0.0, 0.0, 0.0, 0.0, 0.0, 0.0, 0.0, 0.0, 1.644498815498906E9, 0.0, 2022-02-11 00:13:35.498
110.0, -9100.646865445002, -10724.612858845338, -10752.239614992097, -17061.243004947068, -2555.02790868615, -2380.9748746126743, -6101.132166520616, -7497.825622299389, -16456.60596568656, -15238.570003339053, -20527.797404265097, -12631.551937049859, -6549.530512038531, -10365.845008593204, -11681.044004087926, -12459.398801255084, 0.008, -0.026000000000000002, 0.982, 192.0, 0.0, 0.0, 0.0, 0.0, 0.0, 0.0, 0.0, 0.0, 0.0, 1.6444988154989126E9, 0.0, 2022-02-11 00:13:35.498
112.0, -9081.580827424625, -10706.709111536637, -10741.376667186818, -17061.28770843598, -2539.381687567435, -2368.368490739881, -6079.026291254318, -7496.238648443062, -16452.44854121787, -15234.054950959082, -20519.77312800564, -12622.11950088972, -6547.787075971017, -10349.304717696275, -11678.205332542102, -12455.442542486495, 0.008, -0.026000000000000002, 0.982, 192.0, 0.0, 0.0, 0.0, 0.0, 0.0, 0.0, 0.0, 0.0, 0.0, 1.6444988154989195E9, 0.0, 2022-02-11 00:13:35.498
114.0, -9091.28148451823, -10733.061818249444, -10747.143417256286, -17062.449999147655, -2548.6576615163876, -2380.1925635567386, -6086.961160535951, -7501.334846178872, -16451.465064461838, -15238.01120972767, -20517.068566926548, -12616.06217814233, -6546.378916070333, -10345.840197305704, -11674.494942962521, -12456.426019242528, 0.008, -0.026000000000000002, 0.982, 192.0, 0.0, 0.0, 0.0, 0.0, 0.0, 0.0, 0.0, 0.0, 0.0, 1.6444988154989264E9, 0.0, 2022-02-11 00:13:35.498
116.0, -9074.472972687838, -10718.9802192426, -10743.74595209908, -17060.28187993549, -2535.69364973231, -2372.6823774197555, -6069.39268939408, -7487.923799505687, -16451.01802957273, -15238.838224272517, -20525.182250163823, -12619.660808999635, -6545.686011992218, -10345.214348460955, -11679.434678487145, -12457.387144254106, 0.006, -0.026000000000000002, 0.988, 192.0, 0.0, 24.0, 127.5, 24.0, 15.0, 112.0, 0.0, 0.0, 0.0, 1.644498815498933E9, 0.0, 2022-02-11 00:13:35.498
118.0, -9082.050214058187, -10716.588582585882, -10743.231861976608, -17070.13899924028, -2534.5984142539996, -2373.0847088199507, -6068.856247527153, -7493.891715275254, -16449.45340746086, -15231.640962557909, -20515.369834347945, -12618.766739221424, -6544.05433464698, -10348.254185706877, -11672.59504468382, -12453.408533741062, 0.006, -0.026000000000000002, 0.988, 192.0, 0.0, 0.0, 0.0, 0.0, 0.0, 0.0, 0.0, 0.0, 0.0, 1.64449881549894E9, 0.0, 2022-02-11 00:13:35.498
120.0, -9088.688682161413, -10712.07353020591, -10747.188120745197, -17072.86591206383, -2546.176617881849, -2373.174115797772, -6076.008805752851, -7492.327093163382, -16451.39800922847, -15238.324134150045, -20524.95873271927, -12628.422692826116, -6546.401267814787, -10341.61571760365, -11676.193675541124, -12458.907062877068, 0.006, -0.026000000000000002, 0.988, 192.0, 0.0, 0.0, 0.0, 0.0, 0.0, 0.0, 0.0, 0.0, 0.0, 1.6444988154989464E9, 0.0, 2022-02-11 00:13:35.498
