%OpenBCI Raw EEG Data
%Number of channels = 16
%Sample Rate = 125 Hz
%Board = OpenBCI_GUI$BoardCytonSerialDaisy
Sample Index, EXG Channel 0, EXG Channel 1, EXG Channel 2, EXG Channel 3, EXG Channel 4, EXG Channel 5, EXG Channel 6, EXG Channel 7, EXG Channel 8, EXG Channel 9, EXG Channel 10, EXG Channel 11, EXG Channel 12, EXG Channel 13, EXG Channel 14, EXG Channel 15, Accel Channel 0, Accel Channel 1, Accel Channel 2, Other, Other, Other, Other, Other, Other, Other, Analog Channel 0, Analog Channel 1, Analog Channel 2, Timestamp, Other, Timestamp (Formatted)
0.0, -7653.773743364066, -8861.080868373021, -10370.583578417729, -15947.120302572288, -2445.571416088512, -2181.172630926684, -6695.062720187035, -7220.440473609027, 0.0, 0.0, 0.0, 0.0, 0.0, 0.0, 0.0, 0.0, 0.0, 0.0, 0.0, 192.0, 0.0, 0.0, 0.0, 0.0, 0.0, 0.0, 0.0, 0.0, 0.0, 1.6444984957775097E9, 0.0, 2022-02-11 00:08:15.777
254.0, -7669.196447038227, -8892.596828055004, -10385.715709413971, -15952.082389841366, -2461.2176372072267, -2195.9694857560976, -6702.014112712635, -7215.120758428665, -16871.163770099138, -15153.812188364529, -20547.82456729705, -10527.31401053834, -5700.477147159237, -10795.534944002027, -11128.911212552932, -11391.655968625066, 0.0, 0.0, 0.0, 192.0, 0.0, 0.0, 0.0, 0.0, 0.0, 0.0, 0.0, 0.0, 0.0, 1.644498495777518E9, 0.0, 2022-02-11 00:08:15.777
0.0, -7664.23435976915, -8880.638644771416, -10368.43781095002, -15950.45071249613, -2460.8376575514862, -2192.4155583877036, -6705.702150547761, -7214.070226439265, -16862.893624650675, -15150.437074951778, -20554.373628422454, -10539.428656033118, -5692.654036599879, -10794.104432356886, -11133.53802365518, -11391.834782580709, 0.0, 0.0, 0.0, 192.0, 0.0, 0.0, 0.0, 0.0, 0.0, 0.0, 0.0, 0.0, 0.0, 1.6444984957775257E9, 0.0, 2022-02-11 00:08:15.777
2.0, -7664.6590429138005, -8886.740671007714, -10370.00243306189, -15947.455578739116, -2461.7764308186092, -2200.8198143028994, -6701.723540034716, -7214.204336905997, -16867.90041540866, -15157.4778744552, -20533.34063689001, -10523.447158747573, -5696.342074435005, -10803.626275494848, -11128.687695108378, -11392.77355584783, 0.0, 0.0, 0.0, 192.0, 0.0, 0.0, 0.0, 0.0, 0.0, 0.0, 0.0, 0.0, 0.0, 1.6444984957775323E9, 0.0, 2022-02-11 00:08:15.777
4.0, -7662.982662079652, -8888.037072186122, -10376.551494187295, -15943.655782181715, -2465.9115035428413, -2200.015151502508, -6706.529165092607, -7215.858365995689, -16871.409639288144, -15162.037630324083, -20547.6010498525, -10537.618164732237, -5692.408167410871, -10811.203516865196, -11134.543852155668, -11396.372186705135, 0.006, -0.024, 0.988, 192.0, 0.0, 24.0, 127.5, 32.0, 15.0, 112.0, 0.0, 0.0, 0.0, 1.644498495777539E9, 0.0, 2022-02-11 00:08:15.777
6.0, -7653.170246263772, -8881.823287227546, -10364.772124859348, -15943.34285775934, -2450.689965568777, -2195.9694857560976, -6702.7070167907505, -7219.121720686165, -16866.04522061887, -15154.57214767601, -20536.760453791674, -10526.218775060031, -5690.441213898804, -10799.535906259527, -11131.504014909748, -11392.997073292385, 0.006, -0.024, 0.988, 192.0, 0.0, 0.0, 0.0, 0.0, 0.0, 0.0, 0.0, 0.0, 0.0, 1.6444984957775464E9, 0.0, 2022-02-11 00:08:15.777
8.0, -7670.80577263901, -8888.595865797504, -10377.087936054222, -15949.042552595443, -2466.984387276696, -2204.284334693472, -6717.99560999818, -7222.139206187631, -16871.968432899528, -15163.646955924864, -20537.63217182543, -10533.572498985828, -5695.135080234419, -10800.698196971201, -11133.046285277163, -11397.757994861364, 0.006, -0.024, 0.988, 192.0, 0.0, 0.0, 0.0, 0.0, 0.0, 0.0, 0.0, 0.0, 0.0, 1.6444984957775528E9, 0.0, 2022-02-11 00:08:15.777
10.0, -7656.858284098898, -8863.785429452113, -10375.05392730879, -15942.53819495895, -2459.921236028819, -2191.230915931573, -6728.076246747523, -7225.849595767212, -16866.29108980788, -15153.163987775326, -20543.77890155064, -10531.650248962671, -5687.736652819712, -10798.977112648143, -11137.181358001395, -11398.763823361853, 0.006, -0.024, 0.988, 192.0, 0.0, 0.0, 0.0, 0.0, 0.0, 0.0, 0.0, 0.0, 0.0, 1.6444984957775595E9, 0.0, 2022-02-11 00:08:15.777
12.0, -7654.399592208814, -8879.319891848552, -10372.43877320752, -15952.618831708292, -2460.211808706738, -2199.0093230020193, -6697.096728932468, -7226.2966306563185, -16862.737162439487, -15148.537176673077, -20529.742006032706, -10519.982638357002, -5689.211867953762, -10791.399871277794, -11133.58272714409, -11396.103965771672, 0.006, -0.025, 0.986, 192.0, 0.0, 24.0, 127.5, 24.0, 15.0, 96.0, 0.0, 0.0, 0.0, 1.644498495777566E9, 0.0, 2022-02-11 00:08:15.777
14.0, -7679.657063443311, -8886.271284374152, -10383.212314034978, -15956.977421877078, -2470.270093711626, -2206.117177738807, -6705.165708680834, -7222.474482354461, -16877.265796335436, -15148.47012143971, -20557.793445324118, -10535.85237692027, -5697.169088979851, -10811.985827921133, -11137.293116723671, -11400.239038495904, 0.006, -0.025, 0.986, 192.0, 0.0, 0.0, 0.0, 0.0, 0.0, 0.0, 0.0, 0.0, 0.0, 1.6444984957775726E9, 0.0, 2022-02-11 00:08:15.777
16.0, -7665.150781291817, -8889.735804764725, -10370.00243306189, -15955.25633755402, -2452.2322359361933, -2196.1706514561956, -6692.3134556190325, -7218.384113119139, -16874.360069556245, -15162.931700102294, -20545.790558551616, -10530.689123951093, -5694.062196500564, -10803.313351072473, -11131.660477120933, -11399.277913484326, 0.006, -0.025, 0.986, 192.0, 0.0, 0.0, 0.0, 0.0, 0.0, 0.0, 0.0, 0.0, 0.0, 1.6444984957775793E9, 0.0, 2022-02-11 00:08:15.777
18.0, -7673.37622325137, -8889.936970464823, -10381.267712267365, -15960.978384134578, -2460.792954062576, -2208.1064829953293, -6701.880002245904, -7230.901090014111, -16879.523322525423, -15171.62652869541, -20547.48929113022, -10534.600679230773, -5690.575324365535, -10807.850755196901, -11125.87137530701, -11401.758957118864, 0.006, -0.025, 0.986, 192.0, 0.0, 0.0, 0.0, 0.0, 0.0, 0.0, 0.0, 0.0, 0.0, 1.6444984957775857E9, 0.0, 2022-02-11 00:08:15.777
20.0, -7674.024423840574, -8878.694043003803, -10381.781802389838, -15958.452637011129, -2453.327471414503, -2207.5923928728575, -6699.04133070008, -7214.360799117184, -16872.683688722096, -15165.457447225745, -20554.150110977902, -10543.65313573517, -5687.691949330801, -10816.18795587873, -11132.129863754495, -11402.675378641532, 0.006, -0.025, 0.986, 192.0, 0.0, 0.0, 0.0, 0.0, 0.0, 0.0, 0.0, 0.0, 0.0, 1.6444984957775924E9, 0.0, 2022-02-11 00:08:15.777
22.0, -7675.142011063339, -8886.695967518803, -10383.592293690717, -15962.140674846254, -2460.0553464955506, -2204.8431283048544, -6702.461147601742, -7215.657200295592, -16876.394078301677, -15158.841330866973, -20541.141395704915, -10528.006914616457, -5687.60254235298, -10816.791452979023, -11126.63133461849, -11398.763823361853, 0.007, -0.0235, 0.98, 192.0, 0.0, 32.0, 127.5, 40.0, 15.0, 56.0, 0.0, 0.0, 0.0, 1.644498495777599E9, 0.0, 2022-02-11 00:08:15.777
24.0, -7684.194467567739, -8889.847563487001, -10388.57673270425, -15961.604232979327, -2474.3157594580366, -2206.0501225054413, -6721.974220511225, -7229.068246968776, -16881.803200459864, -15169.033726338594, -20555.625326111953, -10532.723132696527, -5690.597676109991, -10810.37650232035, -11132.800416088154, -11404.128242031127, 0.007, -0.0235, 0.98, 192.0, 0.0, 0.0, 0.0, 0.0, 0.0, 0.0, 0.0, 0.0, 0.0, 1.6444984957776062E9, 0.0, 2022-02-11 00:08:15.777
26.0, -7664.23435976915, -8883.454964572784, -10383.994625090912, -15964.755828947526, -2460.9270645293077, -2196.3047619229274, -6703.332865635499, -7223.882642255145, -16882.317290582334, -15165.546854203565, -20554.261869700178, -10542.267327578942, -5695.2021354677845, -10812.254048854596, -11135.460273678336, -11403.323579230737, 0.007, -0.0235, 0.98, 192.0, 0.0, 0.0, 0.0, 0.0, 0.0, 0.0, 0.0, 0.0, 0.0, 1.6444984957776153E9, 0.0, 2022-02-11 00:08:15.777
28.0, -7674.314996518493, -8894.496726333706, -10392.041253094823, -15972.266015084508, -2467.096145998972, -2208.084131250874, -6707.46793835973, -7235.282031927351, -16883.457229549556, -15166.23975828168, -20555.088884245026, -10548.391705559696, -5694.598638367491, -10819.540717547026, -11130.855814320543, -11405.983436820918, 0.007, -0.0235, 0.98, 192.0, 0.0, 0.0, 0.0, 0.0, 0.0, 0.0, 0.0, 0.0, 0.0, 1.64449849577764E9, 0.0, 2022-02-11 00:08:15.777
30.0, -7673.800906396021, -8892.395662354906, -10388.95671235999, -15967.370983048795, -2458.267206939126, -2205.9830672720755, -6705.143356936379, -7227.615383579181, -16876.930520168607, -15166.373868748411, -20557.68168660184, -10548.27994683742, -5686.708472574767, -10818.512537302082, -11139.058904535641, -11409.380901978124, 0.007, -0.0235, 0.98, 192.0, 0.0, 0.0, 0.0, 0.0, 0.0, 0.0, 0.0, 0.0, 0.0, 1.644498495777647E9, 0.0, 2022-02-11 00:08:15.777
32.0, -7671.610435439401, -8895.457851345283, -10389.91783737157, -15969.002660394033, -2455.5179423711234, -2206.921840539198, -6709.814871527537, -7227.011886478888, -16880.596206259277, -15174.398145007866, -20542.728369561242, -10537.260536820953, -5691.670559843846, -10811.42703430975, -11132.643953876968, -11402.429509452524, 0.0075, -0.02275, 0.982, 192.0, 0.0, 32.0, 127.5, 40.0, 15.0, 96.0, 0.0, 0.0, 0.0, 1.6444984957776537E9, 0.0, 2022-02-11 00:08:15.777
34.0, -7684.552095479024, -8895.055519945088, -10399.283218298342, -15974.68000348568, -2467.1855529767936, -2215.2590412210275, -6722.510662378152, -7235.706715072002, -16881.333813826303, -15180.500171244166, -20560.810930825584, -10548.145836370688, -5692.251705199684, -10815.539755289527, -11137.404875445947, -11410.5431926898, 0.0075, -0.02275, 0.982, 192.0, 0.0, 0.0, 0.0, 0.0, 0.0, 0.0, 0.0, 0.0, 0.0, 1.6444984957776608E9, 0.0, 2022-02-11 00:08:15.777
36.0, -7666.380127236859, -8883.499668061695, -10386.945055359014, -15969.986137150066, -2458.043689494573, -2208.6652766067123, -6710.619534327929, -7226.564851589782, -16886.29590109538, -15171.514769973133, -20559.02279126916, -10548.011725903956, -5701.393568681904, -10821.082987914442, -11138.500110924258, -11405.715215887454, 0.0075, -0.02275, 0.982, 192.0, 0.0, 0.0, 0.0, 0.0, 0.0, 0.0, 0.0, 0.0, 0.0, 1.644498495777668E9, 0.0, 2022-02-11 00:08:15.777
38.0, -7681.244037299638, -8888.037072186122, -10395.304607785298, -15975.283500585974, -2462.8940180413747, -2216.7789598439886, -6720.320191421532, -7234.142092960131, -16890.699194753077, -15170.173665305814, -20554.463035400277, -10547.028249147923, -5696.722054090746, -10814.109243644387, -11133.783892844189, -11405.983436820918, 0.0075, -0.02275, 0.982, 192.0, 0.0, 0.0, 0.0, 0.0, 0.0, 0.0, 0.0, 0.0, 0.0, 1.644498495777675E9, 0.0, 2022-02-11 00:08:15.777
40.0, -7674.449106985225, -8889.154659408887, -10387.637959437128, -15968.197997593643, -2449.9970614906624, -2207.2347649615726, -6707.825566271015, -7233.71740981548, -16884.19483711658, -15179.226121810214, -20565.102465761003, -10554.13610388471, -5690.865897043454, -10829.040208940532, -11137.047247534663, -11409.02327406684, 0.0075, -0.02275, 0.982, 192.0, 0.0, 0.0, 0.0, 0.0, 0.0, 0.0, 0.0, 0.0, 0.0, 1.644498495777682E9, 0.0, 2022-02-11 00:08:15.777
42.0, -7673.264464529093, -8900.263476403175, -10389.671968182562, -15969.337936560863, -2450.7123173132322, -2206.608916116824, -6694.548630064563, -7215.768959017869, -16889.693366252588, -15180.835447410995, -20555.558270878588, -10540.523891511428, -5692.564629622058, -10824.927487960755, -11126.899555551954, -11403.16711701955, 0.00775, -0.023375, 0.984, 192.0, 0.0, 32.0, 127.5, 32.0, 15.0, 104.0, 0.0, 0.0, 0.0, 1.6444984957776887E9, 0.0, 2022-02-11 00:08:15.777
44.0, -7673.711499418199, -8887.366519852463, -10394.187020562533, -15969.49439877205, -2460.949416273763, -2210.9004510522427, -6703.019941213124, -7227.660087068091, -16885.357127828258, -15182.19890382277, -20565.728314605753, -10552.236205606008, -5692.788147066611, -10822.982886193144, -11130.051151520152, -11406.743396132399, 0.00775, -0.023375, 0.984, 192.0, 0.0, 0.0, 0.0, 0.0, 0.0, 0.0, 0.0, 0.0, 0.0, 1.644498495777708E9, 0.0, 2022-02-11 00:08:15.777
46.0, -7660.702784145211, -8883.745537250703, -10386.274503025354, -15969.002660394033, -2451.718145813721, -2200.708055580623, -6699.398958611365, -7224.508491099893, -16877.086982379795, -15163.736362902686, -20558.195776724315, -10539.56276649985, -5692.7434435777, -10819.205441380196, -11127.368942185514, -11403.994131564396, 0.00775, -0.023375, 0.984, 192.0, 0.0, 0.0, 0.0, 0.0, 0.0, 0.0, 0.0, 0.0, 0.0, 1.6444984957777147E9, 0.0, 2022-02-11 00:08:15.777
48.0, -7684.552095479024, -8892.820345499558, -10386.29685476981, -15970.835503439368, -2461.552913374056, -2211.7498173415443, -6710.641886072384, -7229.962316746988, -16883.367822571734, -15183.182380578803, -20548.383360908432, -10538.445179277085, -5687.64724584189, -10811.069406398465, -11127.503052652246, -11406.676340899032, 0.00775, -0.023375, 0.984, 192.0, 0.0, 0.0, 0.0, 0.0, 0.0, 0.0, 0.0, 0.0, 0.0, 1.6444984957777212E9, 0.0, 2022-02-11 00:08:15.777
50.0, -7678.427717498269, -8881.286845360619, -10385.112212313677, -15964.48760801406, -2458.0213377501177, -2198.2717154349943, -6715.849842530471, -7223.837938766234, -16884.261892349947, -15177.594444464976, -20557.122892990457, -10549.397534060185, -5687.803708053078, -10817.797281479512, -11131.146386998462, -11407.235134510414, 0.00775, -0.023375, 0.984, 192.0, 0.0, 0.0, 0.0, 0.0, 0.0, 0.0, 0.0, 0.0, 0.0, 1.644498495777728E9, 0.0, 2022-02-11 00:08:15.777
52.0, -7665.307243503004, -8880.9962726827, -10383.659348924082, -15961.53717774596, -2453.2827679255925, -2203.949058526642, -6702.2376301571885, -7227.458921367994, -16884.53011328341, -15175.068697341527, -20544.67297132885, -10535.584155986806, -5688.36250166446, -10809.705949986692, -11126.20665147384, -11402.898896086084, 0.007875, -0.0236875, 0.984, 192.0, 0.0, 32.0, 127.5, 32.0, 15.0, 96.0, 0.0, 0.0, 0.0, 1.6444984957777348E9, 0.0, 2022-02-11 00:08:15.777
54.0, -7671.319862761482, -8888.126479163942, -10393.114136828677, -15959.704334700626, -2460.904712784852, -2211.9509830416423, -6713.435854129298, -7235.237328438441, -16881.937310926594, -15180.76839217763, -20552.853709799496, -10536.880557165214, -5682.416937639348, -10832.437674097739, -11132.040456776675, -11409.135032789116, 0.007875, -0.0236875, 0.984, 192.0, 0.0, 0.0, 0.0, 0.0, 0.0, 0.0, 0.0, 0.0, 0.0, 1.6444984957777414E9, 0.0, 2022-02-11 00:08:15.777
56.0, -7655.964214320686, -8879.029319170633, -10381.602988434195, -15955.278689298475, -2445.1243811994054, -2198.472881135092, -6686.122022404912, -7217.847671252212, -16875.544712012375, -15175.851008397462, -20543.287163172623, -10529.504481494962, -5681.679330072324, -10824.480453071648, -11129.134729997484, -11401.602494907678, 0.007875, -0.0236875, 0.984, 192.0, 0.0, 0.0, 0.0, 0.0, 0.0, 0.0, 0.0, 0.0, 0.0, 1.6444984957777483E9, 0.0, 2022-02-11 00:08:15.777
58.0, -7660.233397511649, -8876.436516813817, -10390.498982727408, -15958.9667271336, -2451.0028899911513, -2203.8149480599104, -6703.623438313418, -7218.920554986067, -16871.946081155074, -15173.168799062825, -20537.363950891966, -10529.772702428425, -5673.140963690396, -10821.485319314637, -11121.937468282875, -11396.863925083153, 0.007875, -0.0236875, 0.984, 192.0, 0.0, 0.0, 0.0, 0.0, 0.0, 0.0, 0.0, 0.0, 0.0, 1.6444984957777548E9, 0.0, 2022-02-11 00:08:15.777
60.0, -7651.985603807641, -8876.883551702924, -10379.457220966486, -15953.356439275318, -2446.331375399992, -2201.378607914282, -6696.604990554451, -7223.234441665941, -16867.72160145302, -15169.301947272057, -20543.30951491708, -10543.116693868244, -5670.88343750041, -10820.077159413953, -11128.330067197094, -11399.34496871769, 0.007875, -0.0236875, 0.984, 192.0, 0.0, 0.0, 0.0, 0.0, 0.0, 0.0, 0.0, 0.0, 0.0, 1.6444984957777631E9, 0.0, 2022-02-11 00:08:15.777
62.0, -7653.952557319708, -8868.099316131988, -10377.132639543133, -15960.263128312008, -2443.8056282765424, -2203.926706782187, -6693.475746330709, -7224.128511444153, -16873.756572455954, -15170.218368794725, -20530.367854877455, -10521.45785349105, -5672.828039268022, -10819.048979169009, -11122.898593294454, -11398.428547195024, 0.0099375, -0.021843750000000002, 0.986, 192.0, 0.0, 48.0, 127.5, 48.0, 15.0, 112.0, 0.0, 0.0, 0.0, 1.64449849577777E9, 0.0, 2022-02-11 00:08:15.777
64.0, -7656.902987587809, -8878.448173814795, -10383.189962290522, -15961.403067279229, -2451.0252417356064, -2203.949058526642, -6699.935400478292, -7221.043970709321, -16876.081153879306, -15170.173665305814, -20544.382398650934, -10540.345077555785, -5675.465545113748, -10816.590287278925, -11127.234831718783, -11399.859058840164, 0.0099375, -0.021843750000000002, 0.986, 192.0, 0.0, 0.0, 0.0, 0.0, 0.0, 0.0, 0.0, 0.0, 0.0, 1.6444984957777765E9, 0.0, 2022-02-11 00:08:15.777
66.0, -7644.698935115211, -8866.869970186946, -10371.410592962575, -15952.909404386211, -2435.0213927056066, -2190.6944740646454, -6704.830432514004, -7226.631906823148, -16869.57679624281, -15161.925871601805, -20533.58650607902, -10531.158510584655, -5670.034071211108, -10818.66899951327, -11124.262049706227, -11394.986378548907, 0.0099375, -0.021843750000000002, 0.986, 192.0, 0.0, 0.0, 0.0, 0.0, 0.0, 0.0, 0.0, 0.0, 0.0, 1.6444984957777832E9, 0.0, 2022-02-11 00:08:15.777
68.0, -7662.066240556985, -8872.748478978692, -10385.2016192915, -15956.709200943615, -2454.042727237073, -2205.178404471684, -6708.9878569826915, -7221.043970709321, -16875.745877712474, -15162.57407219101, -20526.76922402015, -10520.429673246106, -5673.208018923762, -10810.510612787082, -11124.10558749504, -11395.656930882566, 0.0099375, -0.021843750000000002, 0.986, 192.0, 0.0, 0.0, 0.0, 0.0, 0.0, 0.0, 0.0, 0.0, 0.0, 1.6444984957777898E9, 0.0, 2022-02-11 00:08:15.777
70.0, -7652.454990441202, -8877.844676714501, -10385.693357669516, -15955.211634065108, -2442.5762823315004, -2196.1930032006508, -6680.288217102077, -7211.700941527002, -16873.19777884457, -15170.419534494822, -20542.01311373867, -10534.153644341666, -5674.280902657617, -10821.418264081272, -11129.894689308965, -11396.662759383054, 0.0099375, -0.021843750000000002, 0.986, 192.0, 0.0, 0.0, 0.0, 0.0, 0.0, 0.0, 0.0, 0.0, 0.0, 1.6444984957778971E9, 0.0, 2022-02-11 00:08:15.777
72.0, -7655.248958498116, -8869.038089399111, -10372.796401118803, -15953.088218341854, -2429.232290891682, -2188.638113574757, -6692.224048641211, -7214.830185750746, -16870.828493932306, -15169.436057738789, -20523.237648396214, -10526.576402971317, -5671.062251456053, -10818.177261135252, -11119.903459537443, -11391.611265136155, 0.01196875, -0.023921875000000002, 0.986, 192.0, 0.0, 56.0, 127.5, 24.0, 15.0, 104.0, 0.0, 0.0, 0.0, 1.6444984957779057E9, 0.0, 2022-02-11 00:08:15.777
74.0, -7654.712516631189, -8868.859275443469, -10381.223008778454, -15950.406009007218, -2435.8707589949086, -2191.208564187117, -6688.804231739549, -7218.115892185676, -16866.179331085605, -15166.642089681876, -20530.47961359973, -10534.064237363844, -5655.103105914964, -10809.370673819862, -11119.232907203783, -11394.271122726337, 0.01196875, -0.023921875000000002, 0.986, 192.0, 0.0, 0.0, 0.0, 0.0, 0.0, 0.0, 0.0, 0.0, 0.0, 1.644498495777913E9, 0.0, 2022-02-11 00:08:15.777
76.0, -7635.467664655169, -8861.170275350843, -10372.103497040689, -15951.165968318699, -2424.0243344335954, -2171.673139533179, -6678.32126359001, -7198.491060553916, -16858.467979248522, -15157.410819221834, -20532.603029322985, -10518.17214705612, -5663.261492641151, -10793.545638745503, -11119.76934907071, -11388.079689512217, 0.01196875, -0.023921875000000002, 0.986, 192.0, 0.0, 0.0, 0.0, 0.0, 0.0, 0.0, 0.0, 0.0, 0.0, 1.64449849577792E9, 0.0, 2022-02-11 00:08:15.777
78.0, -7647.381144449848, -8858.778638694124, -10378.227875021443, -15951.59065146335, -2436.2283869061935, -2193.3543316548266, -6700.158917922845, -7219.412293364084, -16860.2784705494, -15149.788874362574, -20520.06370068356, -10518.552126711862, -5659.931082717309, -10800.295865571006, -11117.422415902904, -11389.800773835275, 0.01196875, -0.023921875000000002, 0.986, 192.0, 0.0, 0.0, 0.0, 0.0, 0.0, 0.0, 0.0, 0.0, 0.0, 1.6444984957779272E9, 0.0, 2022-02-11 00:08:15.777
80.0, -7635.9594030331855, -8855.090600859, -10371.38824121812, -15945.689790927148, -2427.9358897132743, -2188.1463751967403, -6687.619589283418, -7214.718427028469, -16854.444665246567, -15163.781066391597, -20524.757567019173, -10525.481167493006, -5653.40437333636, -10814.221002366663, -11121.624543860502, -11393.622922137132, 0.01196875, -0.023921875000000002, 0.986, 192.0, 0.0, 0.0, 0.0, 0.0, 0.0, 0.0, 0.0, 0.0, 0.0, 1.6444984957779343E9, 0.0, 2022-02-11 00:08:15.777
82.0, -7618.212117935672, -8840.427856496317, -10372.48347669643, -15945.86860488279, -2427.108875168428, -2187.766395541, -6683.015129925625, -7210.136319415131, -16854.601127457754, -15147.017258050117, -20506.138563887904, -10508.493841706973, -5653.605539036458, -10808.700121486203, -11112.885011778477, -11389.39844243508, 0.011984375, -0.0239609375, 0.99, 192.0, 0.0, 48.0, 127.5, 32.0, 15.5, 8.0, 0.0, 0.0, 0.0, 1.6444984957779415E9, 0.0, 2022-02-11 00:08:15.777
84.0, -7636.406437922292, -8848.630946711415, -10374.316319741765, -15950.24954679603, -2437.9941747181624, -2192.504965365525, -6690.391205595876, -7212.036217693832, -16849.884909377684, -15152.113455785926, -20519.236686138713, -10513.835908631792, -5646.296518599573, -10809.035397653031, -11119.322314181605, -11399.367320462146, 0.011984375, -0.0239609375, 0.99, 192.0, 0.0, 0.0, 0.0, 0.0, 0.0, 0.0, 0.0, 0.0, 0.0, 1.6444984957779486E9, 0.0, 2022-02-11 00:08:15.777
86.0, -7629.365638418871, -8848.988574622701, -10364.168627759056, -15945.48862522705, -2421.3197733545035, -2173.95301746762, -6679.148278134857, -7198.468708809461, -16847.985011098983, -15149.967688318216, -20509.267808111646, -10509.052635318356, -5642.541425531081, -10802.598095249903, -11109.778119299188, -11389.465497668445, 0.011984375, -0.0239609375, 0.99, 192.0, 0.0, 0.0, 0.0, 0.0, 0.0, 0.0, 0.0, 0.0, 0.0, 1.644498495777956E9, 0.0, 2022-02-11 00:08:15.777
88.0, -7630.974964019652, -8850.41908626784, -10371.05296505129, -15950.607174707315, -2426.304212368037, -2187.341712396349, -6704.830432514004, -7218.115892185676, -16852.589470456776, -15157.969612833216, -20507.993758677694, -10509.186745785088, -5641.781466219601, -10801.391101049318, -11105.553639597136, -11392.103003514172, 0.011984375, -0.0239609375, 0.99, 192.0, 0.0, 0.0, 0.0, 0.0, 0.0, 0.0, 0.0, 0.0, 0.0, 1.6444984957779627E9, 0.0, 2022-02-11 00:08:15.777
90.0, -7618.837966780421, -8845.278185043118, -10365.532084170829, -15944.885128126756, -2415.530671540579, -2179.563305325902, -6666.206618095233, -7197.038197164321, -16846.733313409488, -15153.029877308594, -20512.307645357567, -10508.404434729151, -5638.361649317939, -10796.630179480337, -11108.90640126543, -11390.381919191113, 0.011984375, -0.0239609375, 0.99, 192.0, 0.0, 0.0, 0.0, 0.0, 0.0, 0.0, 0.0, 0.0, 0.0, 1.64449849577797E9, 0.0, 2022-02-11 00:08:15.777
92.0, -7608.377350375337, -8835.97985934971, -10360.368831201653, -15945.220404293586, -2414.1001598954394, -2173.9753692120757, -6683.149240392357, -7207.007075191388, -16843.04527557436, -15134.835557321974, -20494.15802885986, -10488.801954841847, -5640.127437129908, -10784.202609563186, -11098.088156949063, -11380.703613841964, 0.004, -0.024, 0.994, 192.0, 0.0, 16.0, 127.5, 32.0, 15.5, 8.0, 0.0, 0.0, 0.0, 1.6444984957779815E9, 0.0, 2022-02-11 00:08:15.777
94.0, -7626.996353506608, -8839.55613846256, -10379.05488956629, -15942.62760193677, -2427.4665030797128, -2185.8441455178436, -6690.793536996071, -7208.974028703455, -16841.681819162586, -15149.833577851485, -20504.171610375837, -10501.520097436918, -5630.002096891653, -10802.195763849708, -11107.922924509397, -11388.213799978948, 0.004, -0.024, 0.994, 192.0, 0.0, 0.0, 0.0, 0.0, 0.0, 0.0, 0.0, 0.0, 0.0, 1.6444984957779884E9, 0.0, 2022-02-11 00:08:15.777
96.0, -7615.731074301133, -8843.981783864712, -10359.81003759027, -15941.554718202917, -2412.647296505844, -2178.177497169673, -6653.734344689173, -7195.942961686011, -16844.945173853062, -15151.66642089682, -20502.62934000842, -10511.690141164081, -5638.249890595662, -10802.911019672278, -11106.715930308812, -11385.35277668867, 0.004, -0.024, 0.994, 192.0, 0.0, 0.0, 0.0, 0.0, 0.0, 0.0, 0.0, 0.0, 0.0, 1.6444984957779953E9, 0.0, 2022-02-11 00:08:15.777
98.0, -7620.760216803577, -8834.705809915758, -10370.538874928818, -15942.605250192315, -2420.6715727652995, -2187.1628984407066, -6674.476763543697, -7203.944886201011, -16847.96265935453, -15152.158159274837, -20501.802325463574, -10505.856335861246, -5637.467579539726, -10805.503822029093, -11099.25044766074, -11384.68222435501, 0.004, -0.024, 0.994, 192.0, 0.0, 0.0, 0.0, 0.0, 0.0, 0.0, 0.0, 0.0, 0.0, 1.6444984957780023E9, 0.0, 2022-02-11 00:08:15.778
100.0, -7624.56001336098, -8843.355935019963, -10366.67202313805, -15941.889994369745, -2414.010752917618, -2173.997720956531, -6666.966577406714, -7200.61447627717, -16846.53214770939, -15152.515787186121, -20508.194924377793, -10511.287809763886, -5634.248928338162, -10797.367787047362, -11105.53128785268, -11384.056375510261, 0.004, -0.024, 0.994, 192.0, 0.0, 0.0, 0.0, 0.0, 0.0, 0.0, 0.0, 0.0, 0.0, 1.6444984957780104E9, 0.0, 2022-02-11 00:08:15.778
102.0, -7620.916679014765, -8845.635812954404, -10363.833351592226, -15947.321468272385, -2411.8873371943637, -2175.0482529459305, -6671.481629786686, -7201.396787333106, -16849.86255763323, -15143.888013826372, -20494.515656771142, -10513.500632464962, -5635.970012661221, -10792.293941056007, -11098.356377882526, -11379.5860266192, 0.006, -0.024, 0.992, 192.0, 0.0, 24.0, 127.5, 32.0, 15.5, 0.0, 0.0, 0.0, 0.0, 1.6444984957780173E9, 0.0, 2022-02-11 00:08:15.778
104.0, -7627.823368051454, -8850.441438012294, -10369.935377828524, -15947.835558394858, -2420.045723920551, -2183.7654332835, -6682.813964225526, -7213.869060739167, -16850.264889033424, -15159.869511111918, -20511.704148257275, -10514.573516198816, -5636.394695805871, -10803.067481883465, -11101.329159895082, -11388.034986023305, 0.006, -0.024, 0.992, 192.0, 0.0, 0.0, 0.0, 0.0, 0.0, 0.0, 0.0, 0.0, 0.0, 1.644498495778024E9, 0.0, 2022-02-11 00:08:15.778
106.0, -7619.217946436161, -8836.51630121664, -10362.604005647185, -15943.387561248252, -2408.042837148051, -2175.674101790679, -6678.142449634368, -7205.643618779614, -16852.18713905658, -15155.533272687588, -20508.016110422148, -10505.31989399432, -5634.87477718291, -10807.023740652054, -11101.575029084092, -11383.341119687691, 0.006, -0.024, 0.992, 192.0, 0.0, 0.0, 0.0, 0.0, 0.0, 0.0, 0.0, 0.0, 0.0, 1.6444984957780309E9, 0.0, 2022-02-11 00:08:15.778
108.0, -7625.610545350379, -8854.576510736528, -10373.355194730186, -15945.9133083717, -2416.4247413187913, -2184.1901164281508, -6691.329978862999, -7212.885583983134, -16856.43397050309, -15163.266976269124, -20503.188133619802, -10509.074987062811, -5638.518111529125, -10809.974170920155, -11100.613904072512, -11386.425660422525, 0.006, -0.024, 0.992, 192.0, 0.0, 0.0, 0.0, 0.0, 0.0, 0.0, 0.0, 0.0, 0.0, 1.6444984957780375E9, 0.0, 2022-02-11 00:08:15.778
110.0, -7628.5609756184795, -8854.554158992072, -10361.128790513134, -15943.544023459439, -2407.819319703498, -2173.215409900595, -6668.978234407692, -7203.430796078539, -16851.360124511735, -15160.607118678943, -20512.374700590935, -10516.294600521875, -5631.790236448078, -10804.430938295238, -11106.760633797721, -11387.230323222915, 0.006, -0.024, 0.992, 192.0, 0.0, 0.0, 0.0, 0.0, 0.0, 0.0, 0.0, 0.0, 0.0, 1.6444984957780445E9, 0.0, 2022-02-11 00:08:15.778
112.0, -7622.526004615546, -8849.972051378734, -10357.61956663365, -15943.00758159251, -2407.1934708587496, -2174.1765349121733, -6670.2746355861, -7205.263639123874, -16858.5797379708, -15161.76940939062, -20491.833447436507, -10505.118728294221, -5631.700829470257, -10803.402758050295, -11095.070671447596, -11385.084555755206, 0.008, -0.024, 0.992, 192.0, 0.0, 32.0, 127.5, 32.0, 15.5, 0.0, 0.0, 0.0, 0.0, 1.6444984957780511E9, 0.0, 2022-02-11 00:08:15.778
114.0, -7625.252917439094, -8843.51239723115, -10362.872226580648, -15938.000790834521, -2415.1506918848386, -2179.0715669478855, -6684.08801365948, -7221.021618964865, -16852.500063478954, -15159.958918089738, -20504.596293520488, -10513.344170253775, -5630.136207358385, -10803.022778394554, -11099.988055227765, -11387.319730200736, 0.008, -0.024, 0.992, 192.0, 0.0, 0.0, 0.0, 0.0, 0.0, 0.0, 0.0, 0.0, 0.0, 1.6444984957780583E9, 0.0, 2022-02-11 00:08:15.778
116.0, -7616.423978379247, -8846.865158899445, -10356.926662555536, -15942.851119381325, -2403.6395434903557, -2160.385508583249, -6669.313510574521, -7199.362778587673, -16851.181310556094, -15148.291307484069, -20504.126906886926, -10513.32181850932, -5624.369457288916, -10793.322121300951, -11096.210610414817, -11383.162305732048, 0.008, -0.024, 0.992, 192.0, 0.0, 0.0, 0.0, 0.0, 0.0, 0.0, 0.0, 0.0, 0.0, 1.6444984957780652E9, 0.0, 2022-02-11 00:08:15.778
0.0, -3819.2872785672284, -4694.3580739925, -5169.891437279158, -8105.614257528098, -1066.692300640619, -1010.8576429912619, -3069.8332869807828, -3585.4656798202614, -8426.04886603938, -7580.817649461944, -10253.54984444974, -5257.130295888222, -2815.4257315904774, -5407.222259905608, -5550.876921519866, -5693.883382544921, 0.008, -0.023, 0.988, 192.0, 0.0, 32.0, 127.5, 40.0, 15.0, 96.0, 0.0, 0.0, 0.0, 1.6444984963549669E9, 0.0, 2022-02-11 00:08:16.354
2.0, -7631.287888442027, -9387.419746806592, -10332.607964588162, -16211.340273778473, -2127.1708163226626, -2025.1798063730964, -6139.219539072459, -7167.824467161235, -16938.688390098618, -15533.970658060392, -20036.036674503885, -10825.24041238313, -5600.497794210648, -11048.959022636298, -11050.814217426088, -11544.13956929917, 0.008, -0.023, 0.988, 192.0, 0.0, 0.0, 0.0, 0.0, 0.0, 0.0, 0.0, 0.0, 0.0, 1.6444984963550973E9, 0.0, 2022-02-11 00:08:16.355
4.0, -7645.861225826887, -9395.511078299412, -10342.755656570871, -16218.291666304072, -2140.9171391626764, -2035.2157396335292, -6145.276861819847, -7183.537743513316, -16945.237451224024, -15543.783073876271, -20035.790805314875, -10827.52029031757, -5607.9185733698105, -11054.14462734993, -11049.89779590342, -11547.71584841202, 0.008, -0.023, 0.988, 192.0, 0.0, 0.0, 0.0, 0.0, 0.0, 0.0, 0.0, 0.0, 0.0, 1.6444984963551052E9, 0.0, 2022-02-11 00:08:16.355
6.0, -7640.452103668703, -9391.28659859736, -10338.218252446444, -16219.319846549017, -2133.921043148165, -2030.9465564425657, -6135.039762859316, -7176.6981097099915, -16942.376427933745, -15535.892908083548, -20047.748988598465, -10841.467778857683, -5617.820396163511, -11062.727697220767, -11057.072705873574, -11550.576871702298, 0.008, -0.023, 0.988, 192.0, 0.0, 0.0, 0.0, 0.0, 0.0, 0.0, 0.0, 0.0, 0.0, 1.6444984963551252E9, 0.0, 2022-02-11 00:08:16.355
8.0, -7638.865129812376, -9404.585886548268, -10334.28434542231, -16220.795061683068, -2132.602290225302, -2038.4343908350936, -6142.3711350406575, -7180.98964464541, -16946.310334957878, -15549.482768712374, -20031.543973868367, -10833.108226431397, -5619.005038619643, -11076.071688660586, -11046.656792957401, -11549.19106354607, 0.01, -0.028, 0.986, 192.0, 0.0, 40.0, 127.5, 16.0, 15.0, 104.0, 0.0, 0.0, 0.0, 1.6444984963551345E9, 0.0, 2022-02-11 00:08:16.355
10.0, -7648.632842139345, -9410.933781973576, -10339.559357113762, -16219.766881438123, -2136.960880394087, -2046.2127979055404, -6147.757905454387, -7197.753452986891, -16946.466797169065, -15550.26507976831, -20047.771340342922, -10837.690334044735, -5612.7912536610675, -11075.110563649007, -11051.015383126187, -11552.38736300318, 0.01, -0.028, 0.986, 192.0, 0.0, 0.0, 0.0, 0.0, 0.0, 0.0, 0.0, 0.0, 0.0, 1.6444984963551464E9, 0.0, 2022-02-11 00:08:16.355
12.0, -7640.9438420467195, -9405.122328415195, -10336.631278590117, -16220.549192494058, -2129.5624529793804, -2044.9611002160432, -6142.147617596104, -7186.5552290147825, -16945.192747735113, -15549.527472201285, -20042.317514695827, -10830.828348496956, -5609.080864081486, -11071.064897902597, -11053.161150593896, -11551.00155484695, 0.01, -0.028, 0.986, 192.0, 0.0, 0.0, 0.0, 0.0, 0.0, 0.0, 0.0, 0.0, 0.0, 1.6444984963551536E9, 0.0, 2022-02-11 00:08:16.355
14.0, -7651.762086363088, -9408.989180205963, -10343.493264137896, -16226.830032686, -2143.286424074939, -2062.194295191085, -6147.556739754288, -7191.494964539405, -16951.49593967151, -15555.2718705263, -20041.848128062265, -10838.651459056313, -5617.976858374698, -11088.85688648902, -11053.161150593896, -11552.230900791992, 0.01, -0.028, 0.986, 192.0, 0.0, 0.0, 0.0, 0.0, 0.0, 0.0, 0.0, 0.0, 0.0, 1.6444984963551612E9, 0.0, 2022-02-11 00:08:16.355
16.0, -7641.994374036119, -9415.851165753742, -10340.878110036625, -16225.466576274226, -2129.0707146013638, -2056.449896866071, -6143.734591452431, -7189.170383116053, -16943.806939578884, -15555.69655367095, -20046.139662997684, -10840.372543379372, -5611.763073416123, -11098.24461916025, -11057.51974076268, -11559.539921228878, 0.01, -0.028, 0.986, 192.0, 0.0, 0.0, 0.0, 0.0, 0.0, 0.0, 0.0, 0.0, 0.0, 1.6444984963551693E9, 0.0, 2022-02-11 00:08:16.355
18.0, -7636.495844900113, -9416.633476809679, -10339.537005369308, -16227.768805953123, -2130.2330053130395, -2067.893990027188, -6145.858007175685, -7198.669874509558, -16945.505672157487, -15564.994879364358, -20031.365159912726, -10834.672848543269, -5615.8757943959, -11089.348624867038, -11051.440066270838, -11556.4777322385, 0.008, -0.032, 0.994, 192.0, 0.0, 32.0, 127.5, 0.0, 15.5, 8.0, 0.0, 0.0, 0.0, 1.6444984963551774E9, 0.0, 2022-02-11 00:08:16.355
20.0, -7643.447237425714, -9417.125215187694, -10346.2425287059, -16225.466576274226, -2139.5983862398134, -2075.8512110532774, -6147.377925798646, -7197.239362864419, -16945.17039599066, -15566.045411353758, -20049.648886877167, -10841.490130602138, -5635.0982946274635, -11088.14163066645, -11057.273871573672, -11562.602110219254, 0.008, -0.032, 0.994, 192.0, 0.0, 0.0, 0.0, 0.0, 0.0, 0.0, 0.0, 0.0, 0.0, 1.6444984963551843E9, 0.0, 2022-02-11 00:08:16.355
22.0, -7639.89331005732, -9417.996933221451, -10337.99473500189, -16225.824204185512, -2131.4399995136264, -2063.513048113948, -6135.956184381984, -7190.4891360389165, -16944.253974467993, -15564.972527619902, -20045.20088973056, -10837.265650900084, -5629.465655024726, -11085.034738187163, -11055.03869712814, -11554.756647915441, 0.008, -0.032, 0.994, 192.0, 0.0, 0.0, 0.0, 0.0, 0.0, 0.0, 0.0, 0.0, 0.0, 1.6444984963551912E9, 0.0, 2022-02-11 00:08:16.355
24.0, -7656.813580609987, -9426.20002343655, -10346.801322317282, -16234.429625800805, -2148.4943805330254, -2082.1096995007633, -6152.608234001188, -7208.951676959, -16949.05959952588, -15571.208664322934, -20039.92587803911, -10838.740866034135, -5630.180910847296, -11104.637218074467, -11058.547921007625, -11560.635156707187, 0.008, -0.032, 0.994, 192.0, 0.0, 0.0, 0.0, 0.0, 0.0, 0.0, 0.0, 0.0, 0.0, 1.6444984963551984E9, 0.0, 2022-02-11 00:08:16.355
26.0, -7648.342269461426, -9424.367180391215, -10341.28044143682, -16233.490852533681, -2141.833560685344, -2082.713196601057, -6143.891053663619, -7203.609610034181, -16947.293811713913, -15571.342774789666, -20047.190194987084, -10849.447351628227, -5626.045838123065, -11110.33691291057, -11062.8618076875, -11566.223092821014, 0.008, -0.028, 0.994, 192.0, 0.0, 32.0, 127.5, 32.0, 15.5, 8.0, 0.0, 0.0, 0.0, 1.6444984963552053E9, 0.0, 2022-02-11 00:08:16.355
28.0, -7647.55995840549, -9431.363276405726, -10343.493264137896, -16231.188622854785, -2138.9501856506095, -2087.5635251478584, -6148.6519752325985, -7204.749549001402, -16950.847739082306, -15576.75189694785, -20035.455529148046, -10839.500825345616, -5629.175082346807, -11117.44476764736, -11058.167941351885, -11563.540883486377, 0.008, -0.028, 0.994, 192.0, 0.0, 0.0, 0.0, 0.0, 0.0, 0.0, 0.0, 0.0, 0.0, 1.644498496355219E9, 0.0, 2022-02-11 00:08:16.355
30.0, -7656.232435254149, -9432.05618048384, -10344.253223449377, -16231.83682344399, -2145.700412476112, -2092.927943817132, -6154.731649724442, -7214.718427028469, -16951.004201293494, -15579.523513260308, -20049.87240432172, -10847.547453349525, -5629.5774137470025, -11111.186279199872, -11060.961909408798, -11562.982089874995, 0.008, -0.028, 0.994, 192.0, 0.0, 0.0, 0.0, 0.0, 0.0, 0.0, 0.0, 0.0, 0.0, 1.6444984963552256E9, 0.0, 2022-02-11 00:08:16.355
32.0, -7644.363658948381, -9422.377875134693, -10333.122054710633, -16228.282896075594, -2135.485665260037, -2087.5858768923135, -6175.585827301244, -7211.656238038092, -16943.11403550077, -15570.694574200461, -20040.68583735059, -10839.389066623338, -5627.6998672127565, -11104.90543900793, -11056.648022728923, -11560.09871484026, 0.008, -0.028, 0.994, 192.0, 0.0, 0.0, 0.0, 0.0, 0.0, 0.0, 0.0, 0.0, 0.0, 1.6444984963552325E9, 0.0, 2022-02-11 00:08:16.355
34.0, -7657.662946899289, -9433.039657239873, -10344.029706004823, -16235.189585112284, -2152.6741567461677, -2102.9191735886543, -6164.4993620514115, -7213.645543294614, -16947.763198347475, -15573.89087365757, -20041.199927473062, -10839.567880578981, -5630.11385561393, -11107.431186131382, -11058.503217518713, -11560.322232284812, 0.008, -0.028, 0.994, 192.0, 0.0, 0.0, 0.0, 0.0, 0.0, 0.0, 0.0, 0.0, 0.0, 1.64449849635524E9, 0.0, 2022-02-11 00:08:16.355
36.0, -7650.331574717949, -9431.452683383546, -10343.202691459977, -16234.11670137843, -2145.5663020093803, -2101.063978798864, -6125.137940065616, -7212.572659560759, -16952.568823405367, -15581.937501661481, -20056.10854102475, -10854.141217963841, -5640.596823763469, -11122.228040960794, -11062.437124542848, -11566.96070038804, 0.008, -0.028999999999999998, 0.99, 192.0, 0.0, 32.0, 127.5, 8.0, 15.0, 104.0, 0.0, 0.0, 0.0, 1.6444984963552468E9, 0.0, 2022-02-11 00:08:16.355
38.0, -7634.238318710127, -9415.918220987109, -10338.218252446444, -16232.373265310916, -2141.0736013738633, -2102.8744700997436, -6133.028105858339, -7214.517261328371, -16947.047942524903, -15570.98514687838, -20037.601296615758, -10837.355057877905, -5642.094390641974, -11120.10462523754, -11055.239862828239, -11563.160903830636, 0.008, -0.028999999999999998, 0.99, 192.0, 0.0, 0.0, 0.0, 0.0, 0.0, 0.0, 0.0, 0.0, 0.0, 1.6444984963552568E9, 0.0, 2022-02-11 00:08:16.355
40.0, -7647.2246822386605, -9427.921107759608, -10351.428133419531, -16236.195413612773, -2155.5575317809025, -2116.352572006294, -6151.691812478521, -7227.056589967799, -16929.412416149666, -15568.012364865825, -20043.613915874233, -10840.529005590559, -5629.264489324629, -11119.746997326256, -11060.447819286326, -11566.983052132495, 0.008, -0.028999999999999998, 0.99, 192.0, 0.0, 0.0, 0.0, 0.0, 0.0, 0.0, 0.0, 0.0, 0.0, 1.6444984963552637E9, 0.0, 2022-02-11 00:08:16.355
42.0, -7657.03709805454, -9445.243709712471, -10342.845063548692, -16242.096274148975, -2155.2446073585284, -2113.737417905023, -6155.31279508028, -7229.828206280256, -16957.821483352363, -15588.151286620056, -20051.77230260042, -10855.48232263116, -5645.894187199377, -11133.20274748835, -11062.14655186493, -11568.055935866349, 0.008, -0.028999999999999998, 0.99, 192.0, 0.0, 0.0, 0.0, 0.0, 0.0, 0.0, 0.0, 0.0, 0.0, 1.6444984963552704E9, 0.0, 2022-02-11 00:08:16.355
44.0, -7664.301415002516, -9446.026020768408, -10347.494226395396, -16247.572451540525, -2162.3971655842265, -2131.1047233467966, -6165.5051905519, -7250.972956534977, -16963.87880609975, -15590.364109321132, -20047.01138103144, -10852.710706318701, -5656.243044882184, -11142.501073181758, -11060.693688475334, -11574.806162691852, 0.008, -0.028999999999999998, 0.99, 192.0, 0.0, 0.0, 0.0, 0.0, 0.0, 0.0, 0.0, 0.0, 0.0, 1.6444984963552773E9, 0.0, 2022-02-11 00:08:16.355
46.0, -7654.08666778644, -9440.683953843589, -10341.883938537114, -16246.052532917563, -2159.446735316126, -2121.4264179976485, -6159.559626526789, -7231.124607458664, -16953.529948416945, -15591.906379688548, -20053.806311345856, -10855.124694719874, -5642.630832508902, -11134.096817266562, -11066.594549011535, -11577.264854581936, 0.011, -0.028499999999999998, 0.987, 192.0, 0.0, 56.0, 127.5, 16.0, 15.0, 96.0, 0.0, 0.0, 0.0, 1.6444984963552852E9, 0.0, 2022-02-11 00:08:16.355
48.0, -7647.783475850043, -9436.906509030641, -10338.173548957533, -16247.483044562703, -2154.9763864250644, -2123.125150576252, -6152.004736900894, -7236.913709272589, -16954.759294361986, -15586.676071486007, -20041.043465261875, -10841.91481374679, -5665.630777553413, -11127.212479974329, -11062.079496631563, -11570.738145200987, 0.011, -0.028499999999999998, 0.987, 192.0, 0.0, 0.0, 0.0, 0.0, 0.0, 0.0, 0.0, 0.0, 0.0, 1.644498496355292E9, 0.0, 2022-02-11 00:08:16.355
50.0, -7654.444295697725, -9446.942442291074, -10347.337764184209, -16245.717256750735, -2163.157124895707, -2134.703354204101, -6158.486742792934, -7229.00119173541, -16953.753465861497, -15585.826705196705, -20054.230994490506, -10846.653383571314, -5651.8844547133995, -11140.958802814343, -11065.588720511047, -11572.548636501866, 0.011, -0.028499999999999998, 0.987, 192.0, 0.0, 0.0, 0.0, 0.0, 0.0, 0.0, 0.0, 0.0, 0.0, 1.6444984963553E9, 0.0, 2022-02-11 00:08:16.355
52.0, -7638.172225734262, -9437.062971241829, -10334.217290188944, -16242.833881716, -2150.059002644897, -2127.9084238896876, -6157.2797485923475, -7232.443360381528, -16946.489148913523, -15583.256254584343, -20042.29516295137, -10850.05084872852, -5656.35480360446, -11142.098741781563, -11060.291357075139, -11565.373726531712, 0.011, -0.028499999999999998, 0.987, 192.0, 0.0, 0.0, 0.0, 0.0, 0.0, 0.0, 0.0, 0.0, 0.0, 1.6444984963553073E9, 0.0, 2022-02-11 00:08:16.355
54.0, -7639.245109468116, -9435.878328785699, -10340.967517014447, -16243.54913753857, -2161.9724824395757, -2137.810246683389, -6160.319585838269, -7235.393790649628, -16948.344343703313, -15584.172676107011, -20035.58963961478, -10846.228700426664, -5644.68719299879, -11146.144407527972, -11060.045487886131, -11567.631252721698, 0.011, -0.028499999999999998, 0.987, 192.0, 0.0, 0.0, 0.0, 0.0, 0.0, 0.0, 0.0, 0.0, 0.0, 1.6444984963553147E9, 0.0, 2022-02-11 00:08:16.355
56.0, -7639.133350745839, -9431.698552572556, -10340.028743747323, -16240.35283808146, -2162.1736481396733, -2138.771371694967, -6157.547969525811, -7235.304383671807, -16939.113073243272, -15576.997766136858, -20041.892831551177, -10843.613546325392, -5634.584204504991, -11149.452465707358, -11063.107676876507, -11566.088982354282, 0.0125, -0.029249999999999998, 0.9884999999999999, 192.0, 0.0, 56.0, 127.5, 8.0, 15.0, 120.0, 0.0, 0.0, 0.0, 1.6444984963553221E9, 0.0, 2022-02-11 00:08:16.355
58.0, -7650.063353784484, -9452.10569526025, -10341.749828070382, -16253.093332420985, -2169.281502876461, -2149.6790229891567, -6175.451716834512, -7251.643508868637, -16953.30643097239, -15586.98899590838, -20035.92491578161, -10845.28992715954, -5660.914559473344, -11160.650689679467, -11063.308842576605, -11573.196837091069, 0.0125, -0.029249999999999998, 0.9884999999999999, 192.0, 0.0, 0.0, 0.0, 0.0, 0.0, 0.0, 0.0, 0.0, 0.0, 1.6444984963553293E9, 0.0, 2022-02-11 00:08:16.355
60.0, -7655.114848031384, -9455.63727088419, -10349.371772929642, -16257.966012712242, -2169.6838342766564, -2152.4953427905252, -6175.630530790154, -7252.381116435661, -16956.234509496036, -15598.65660651405, -20050.49825316647, -10864.95946228021, -5661.674518784824, -11156.40385823296, -11067.7121362343, -11579.187104605093, 0.0125, -0.029249999999999998, 0.9884999999999999, 192.0, 0.0, 0.0, 0.0, 0.0, 0.0, 0.0, 0.0, 0.0, 0.0, 1.644498496355336E9, 0.0, 2022-02-11 00:08:16.355
62.0, -7635.065333254974, -9458.386535452191, -10341.459255392463, -16256.557852811558, -2155.8704562032767, -2150.148409622718, -6153.189379357026, -7252.023488524376, -16945.3492099463, -15588.307748831243, -20045.469110664024, -10863.461895401704, -5658.388812349894, -11165.948053115375, -11065.298147833128, -11576.61665399273, 0.0125, -0.029249999999999998, 0.9884999999999999, 192.0, 0.0, 0.0, 0.0, 0.0, 0.0, 0.0, 0.0, 0.0, 0.0, 1.644498496355343E9, 0.0, 2022-02-11 00:08:16.355
64.0, -7655.114848031384, -9466.813143111844, -10347.158950228566, -16255.283803377606, -2171.337863366349, -2164.4088225852042, -6171.294292365825, -7262.886436329656, -16948.7019716146, -15595.639121012584, -20035.746101825967, -10851.794284796035, -5648.799913978567, -11174.844047408587, -11061.163075108896, -11577.398965048667, 0.0125, -0.029249999999999998, 0.9884999999999999, 192.0, 0.0, 0.0, 0.0, 0.0, 0.0, 0.0, 0.0, 0.0, 0.0, 1.6444984963553517E9, 0.0, 2022-02-11 00:08:16.355
66.0, -7652.052659041007, -9472.311672247848, -10346.488397894907, -16255.93200396681, -2168.3650813537934, -2168.834467987355, -6168.500324308911, -7267.155619520619, -16951.54064316042, -15602.74697574937, -20050.408846188646, -10863.506598890615, -5652.934986702799, -11172.363003774048, -11071.914264191899, -11582.428107551112, 0.01225, -0.026625, 0.99025, 192.0, 0.0, 48.0, 127.5, 32.0, 15.5, 0.0, 0.0, 0.0, 0.0, 1.644498496355359E9, 0.0, 2022-02-11 00:08:16.355
68.0, -7644.341307203926, -9465.24852099997, -10339.984040258412, -16257.74249526769, -2166.085203419352, -2174.6906250346456, -6168.500324308911, -7271.469506200494, -16953.30643097239, -15592.822801211216, -20038.182441971596, -10850.117903961886, -5666.748364776178, -11176.02868986472, -11069.23205485726, -11581.221113350524, 0.01225, -0.026625, 0.99025, 192.0, 0.0, 0.0, 0.0, 0.0, 0.0, 0.0, 0.0, 0.0, 0.0, 1.644498496355366E9, 0.0, 2022-02-11 00:08:16.355
70.0, -7652.030307296552, -9458.028907540907, -10345.214348460955, -16255.775541755624, -2166.7110522641005, -2183.5866193278575, -6175.205847645503, -7281.483087716471, -16948.970192548062, -15602.165830393533, -20049.268907221427, -10861.405534911817, -5665.586074064502, -11183.248303323782, -11073.747107237234, -11588.977168676516, 0.01225, -0.026625, 0.99025, 192.0, 0.0, 0.0, 0.0, 0.0, 0.0, 0.0, 0.0, 0.0, 0.0, 1.6444984963553882E9, 0.0, 2022-02-11 00:08:16.355
72.0, -7634.439484410225, -9453.066820271828, -10335.625450089628, -16254.076809177019, -2157.122153892774, -2169.2591511320056, -6167.65095801961, -7269.636663155158, -16938.867204054262, -15584.999690651857, -20033.645037847167, -10854.163569708297, -5656.175989648818, -11174.397012519481, -11070.081421146562, -11583.411584307145, 0.01225, -0.026625, 0.99025, 192.0, 0.0, 0.0, 0.0, 0.0, 0.0, 0.0, 0.0, 0.0, 0.0, 1.6444984963553948E9, 0.0, 2022-02-11 00:08:16.355
74.0, -7646.7552956050995, -9463.415677954636, -10346.868377550647, -16262.07873369202, -2169.6167790432905, -2181.217334415595, -6174.98233020095, -7273.749384134935, -16945.5503756464, -15578.2271120819, -20030.96282851253, -10856.801075554024, -5657.874722227421, -11179.202637577371, -11071.310767091605, -11584.10448838526, 0.01225, -0.026625, 0.99025, 192.0, 0.0, 0.0, 0.0, 0.0, 0.0, 0.0, 0.0, 0.0, 0.0, 1.6444984963554018E9, 0.0, 2022-02-11 00:08:16.355
76.0, -7642.664926369778, -9466.231997756006, -10342.778008315327, -16261.31877438054, -2160.273749860972, -2176.1434884242403, -6168.165048142082, -7268.004985809921, -16940.856509310783, -15567.2747572988, -20040.01528501693, -10861.00320351162, -5652.3538413469605, -11183.091841112595, -11071.534284536157, -11583.746860473975, 0.011125, -0.0293125, 0.993125, 192.0, 0.0, 40.0, 127.5, 0.0, 15.5, 16.0, 0.0, 0.0, 0.0, 1.6444984963554084E9, 0.0, 2022-02-11 00:08:16.355
78.0, -7642.664926369778, -9471.35054723627, -10342.487435637408, -16266.973765727731, -2156.1386771367406, -2178.535125080958, -6177.418670346578, -7264.428706697072, -16949.43957918162, -15577.623614981607, -20035.09790123676, -10857.382220909862, -5657.271225127128, -11190.914951671954, -11063.241787343239, -11579.276511582913, 0.011125, -0.0293125, 0.993125, 192.0, 0.0, 0.0, 0.0, 0.0, 0.0, 0.0, 0.0, 0.0, 0.0, 1.644498496355415E9, 0.0, 2022-02-11 00:08:16.355
80.0, -7644.922452559764, -9464.622672155223, -10347.38246767312, -16262.101085436474, -2166.9122179641986, -2184.391282128249, -6168.9026557091065, -7271.938892834055, -16947.6514396252, -15582.675109228507, -20048.508947909948, -10863.19367446824, -5658.187646649796, -11189.372681304536, -11066.6616042449, -11581.198761606069, 0.011125, -0.0293125, 0.993125, 192.0, 0.0, 0.0, 0.0, 0.0, 0.0, 0.0, 0.0, 0.0, 0.0, 1.644498496355422E9, 0.0, 2022-02-11 00:08:16.355
82.0, -7639.7144961016775, -9458.654756385655, -10338.508825124363, -16262.659879047857, -2156.965691681587, -2176.255247146517, -6165.795763229819, -7264.6298723971695, -16944.58925063482, -15573.197969579456, -20040.708189095043, -10853.850645285922, -5668.2012281657735, -11192.50192552828, -11066.415735055893, -11577.823648193318, 0.011125, -0.0293125, 0.993125, 192.0, 0.0, 0.0, 0.0, 0.0, 0.0, 0.0, 0.0, 0.0, 0.0, 1.6444984963554287E9, 0.0, 2022-02-11 00:08:16.355
84.0, -7660.792191123032, -9466.500218689469, -10346.197825216988, -16274.193379186796, -2169.370909854282, -2193.890773521754, -6171.137830154637, -7274.799916124334, -16957.709724630087, -15580.283472571788, -20038.96475302753, -10864.087744246453, -5676.985463736709, -11205.063605912163, -11067.265101345194, -11581.645796495175, 0.011125, -0.0293125, 0.993125, 192.0, 0.0, 0.0, 0.0, 0.0, 0.0, 0.0, 0.0, 0.0, 0.0, 1.6444984963554356E9, 0.0, 2022-02-11 00:08:16.355
86.0, -7650.152760762306, -9469.562407679845, -10344.923775783036, -16271.645280318891, -2165.861685974799, -2195.2542299335278, -6170.824905732264, -7273.861142857211, -16951.138311760227, -15585.424373796508, -20046.00555253095, -10876.33650020796, -5673.118611945941, -11211.36679784856, -11068.114467634496, -11582.539866273388, 0.0095625, -0.03165625, 0.9895625, 192.0, 0.0, 32.0, 127.0, 120.0, 15.0, 104.0, 0.0, 0.0, 0.0, 1.6444984963554423E9, 0.0, 2022-02-11 00:08:16.355
88.0, -7651.963252063186, -9499.245524316493, -10342.532139126319, -16269.924195995833, -2163.4700493180812, -2196.349465411838, -6154.530484024344, -7270.82130561129, -16956.435675196135, -15575.008460880335, -20041.691665851078, -10851.973098751676, -5686.909638274866, -11213.825489738643, -11062.012441398198, -11580.86348543924, 0.0095625, -0.03165625, 0.9895625, 192.0, 0.0, 0.0, 0.0, 0.0, 0.0, 0.0, 0.0, 0.0, 0.0, 1.6444984963554492E9, 0.0, 2022-02-11 00:08:16.355
90.0, -7663.832028368954, -9488.002596855475, -10349.282365951822, -16267.733725039212, -2171.114345921796, -2204.4184451602036, -6171.875437721663, -7278.286788259362, -16959.40845720869, -15598.835420469693, -20046.564346142335, -10864.333613435461, -5670.726975289223, -11221.246268897805, -11062.213607098294, -11582.986901162494, 0.0095625, -0.03165625, 0.9895625, 192.0, 0.0, 0.0, 0.0, 0.0, 0.0, 0.0, 0.0, 0.0, 0.0, 1.6444984963554564E9, 0.0, 2022-02-11 00:08:16.355
92.0, -7644.855397326398, -9481.945274108086, -10336.47481637893, -16266.54908258308, -2153.2776538464614, -2192.6837793211675, -6145.589786242222, -7265.143962519642, -16954.893404828716, -15591.03466165479, -20039.098863494262, -10861.561997123003, -5666.9718822207315, -11219.726350274845, -11061.766572209188, -11579.72354647202, 0.0095625, -0.03165625, 0.9895625, 192.0, 0.0, 0.0, 0.0, 0.0, 0.0, 0.0, 0.0, 0.0, 0.0, 1.6444984963554633E9, 0.0, 2022-02-11 00:08:16.355
94.0, -7643.871920570365, -9487.577913710824, -10344.946127527492, -16272.919329752844, -2169.5944272988354, -2209.8722708072987, -6161.16895212757, -7278.040919070354, -16954.87105308426, -15590.833495954694, -20036.5284128819, -10856.264633687095, -5675.197324180284, -11216.239478139816, -11053.652888971912, -11580.259988338947, 0.0095625, -0.03165625, 0.9895625, 192.0, 0.0, 0.0, 0.0, 0.0, 0.0, 0.0, 0.0, 0.0, 0.0, 1.6444984963554702E9, 0.0, 2022-02-11 00:08:16.355
96.0, -7627.063408739974, -9462.052221542863, -10333.747903555382, -16261.36347786945, -2155.2446073585284, -2202.9432300261533, -6157.927949181551, -7279.314968504306, -16938.688390098618, -15582.31748131722, -20034.427348903104, -10857.091648231943, -5668.625911310424, -11230.79046378022, -11061.811275698099, -11585.15502037466, 0.004, -0.028, 0.986, 192.0, 0.0, 16.0, 127.5, 16.0, 15.0, 104.0, 0.0, 0.0, 0.0, 1.6444984963554769E9, 0.0, 2022-02-11 00:08:16.355
98.0, -7648.096400272418, -9486.057995087862, -10333.770255299838, -16267.711373294756, -2151.3554038233046, -2211.43689291917, -6154.306966579791, -7289.037977342365, -16938.21900346506, -15577.109524859134, -20019.943418496063, -10843.635898069848, -5665.831943253511, -11225.850728255598, -11050.993031381731, -11581.556389517355, 0.004, -0.028, 0.986, 192.0, 0.0, 0.0, 0.0, 0.0, 0.0, 0.0, 0.0, 0.0, 0.0, 1.6444984963554835E9, 0.0, 2022-02-11 00:08:16.355
100.0, -7667.028327826063, -9504.319370307849, -10345.773142072338, -16275.154504198374, -2166.174610397173, -2217.047180777452, -6163.5605887842885, -7276.856276614222, -16952.814692594373, -15601.808202482249, -20042.518680395926, -10865.317090191495, -5665.161390919851, -11235.596088838112, -11058.614976240991, -11588.15015413167, 0.004, -0.028, 0.986, 192.0, 0.0, 0.0, 0.0, 0.0, 0.0, 0.0, 0.0, 0.0, 0.0, 1.6444984963554904E9, 0.0, 2022-02-11 00:08:16.355
102.0, -7653.438467197236, -9489.634274200711, -10337.10066522368, -16275.802704787578, -2164.0511946739193, -2222.478654680092, -6156.6315480031435, -7276.118669047198, -16955.005163550995, -15594.543885534275, -20047.190194987084, -10862.14314247884, -5680.606446338469, -11226.856556756087, -11061.721868720279, -11584.372709318723, 0.004, -0.028, 0.986, 192.0, 0.0, 0.0, 0.0, 0.0, 0.0, 0.0, 0.0, 0.0, 0.0, 1.6444984963554995E9, 0.0, 2022-02-11 00:08:16.355
104.0, -7678.964159365197, -9516.12109138025, -10345.057886249768, -16280.988309501208, -2184.5477443394357, -2229.675916394701, -6177.217504646481, -7288.970922108999, -16967.700954401607, -15606.770289751326, -20040.48467165049, -10866.032346014064, -5688.094280730997, -11256.89730130402, -11062.57123500958, -11588.999520420972, 0.004, -0.028, 0.986, 192.0, 0.0, 0.0, 0.0, 0.0, 0.0, 0.0, 0.0, 0.0, 0.0, 1.6444984963555064E9, 0.0, 2022-02-11 00:08:16.355
106.0, -7661.820371367976, -9513.997675656996, -10338.218252446444, -16275.579187343024, -2173.304816878416, -2225.7196576261113, -6171.450754577012, -7289.2838465313735, -16958.000297308005, -15601.204705381955, -20045.62557287521, -10877.163514752809, -5673.900923001876, -11240.781693551742, -11068.986185668253, -11589.424203565623, 0.002, -0.022, 0.988, 192.0, 0.0, 8.0, 127.5, 40.0, 15.0, 112.0, 0.0, 0.0, 0.0, 1.644498496355513E9, 0.0, 2022-02-11 00:08:16.355
108.0, -7652.119714274373, -9510.734320966521, -10338.195900701989, -16279.557797856069, -2180.0997471928295, -2229.407695461237, -6183.855972749708, -7301.8455269152555, -16949.26076522598, -15591.995786666368, -20032.840375046777, -10866.077049502976, -5661.518056573636, -11247.218995954872, -11060.313708819594, -11589.20068612107, 0.002, -0.022, 0.988, 192.0, 0.0, 0.0, 0.0, 0.0, 0.0, 0.0, 0.0, 0.0, 0.0, 1.64449849635552E9, 0.0, 2022-02-11 00:08:16.355
110.0, -7678.964159365197, -9519.160928626172, -10346.577804872728, -16284.072850236042, -2194.538974110958, -2241.2094165336393, -6192.751967042919, -7297.665750702114, -16955.966288562573, -15602.702272260462, -20047.592526387278, -10876.649424630335, -5678.080699215019, -11248.448341899913, -11070.327290335572, -11596.06267166885, 0.002, -0.022, 0.988, 192.0, 0.0, 0.0, 0.0, 0.0, 0.0, 0.0, 0.0, 0.0, 0.0, 1.6444984963555276E9, 0.0, 2022-02-11 00:08:16.355
112.0, -7660.7251358896665, -9515.607001257778, -10339.089970480201, -16284.452829891781, -2175.025901201475, -2234.481541452592, -6175.31760636778, -7300.34796003675, -16960.257823497992, -15601.361167593142, -20044.172709485618, -10871.888503061355, -5679.913542260354, -11235.998420238308, -11073.14361013694, -11595.749747246475, 0.002, -0.022, 0.988, 192.0, 0.0, 0.0, 0.0, 0.0, 0.0, 0.0, 0.0, 0.0, 0.0, 1.6444984963555343E9, 0.0, 2022-02-11 00:08:16.355
114.0, -7669.129391804861, -9519.473853048547, -10346.600156617184, -16290.398393916894, -2183.7654332835, -2254.1957800621726, -6177.150449413115, -7307.6569804736355, -16965.465779956077, -15601.651740271061, -20041.088168750783, -10870.457991416215, -5681.478164372225, -11249.588280867134, -11067.779191467667, -11600.175392648625, 0.002, -0.022, 0.988, 192.0, 0.0, 0.0, 0.0, 0.0, 0.0, 0.0, 0.0, 0.0, 0.0, 1.6444984963555415E9, 0.0, 2022-02-11 00:08:16.355
116.0, -7664.502580702613, -9510.644913988699, -10345.124941483135, -16281.144771712396, -2184.6595030617123, -2247.512608470036, -6168.969710942472, -7292.927180877588, -16959.74373337552, -15611.307693875755, -20053.739256112487, -10883.779631111578, -5676.896056758887, -11267.201455497916, -11073.076554903575, -11596.53205830241, 0.012, -0.024, 0.986, 192.0, 0.0, 48.0, 127.5, 32.0, 15.0, 104.0, 0.0, 0.0, 0.0, 1.6444984963555481E9, 0.0, 2022-02-11 00:08:16.355
118.0, -7658.288795744038, -9514.936448924118, -10330.95393549847, -16280.65303333438, -2169.2591511320056, -2246.5291317140022, -6160.118420138171, -7295.6764454455915, -16957.419151952166, -15607.083214173701, -20034.15912796964, -10869.273348960085, -5668.156524676862, -11253.119856491072, -11065.566368766591, -11590.698252999575, 0.012, -0.024, 0.986, 192.0, 0.0, 0.0, 0.0, 0.0, 0.0, 0.0, 0.0, 0.0, 0.0, 1.6444984963555555E9, 0.0, 2022-02-11 00:08:16.355
120.0, -7663.764973135588, -9523.206594372583, -10338.419418146541, -16277.255568177174, -2179.6750640481787, -2258.442611508681, -6170.93666445454, -7305.4218060281055, -16956.815654851875, -15609.653664786061, -20040.082340250297, -10867.507561148115, -5675.443193369293, -11264.094563018629, -11068.650909501423, -11597.91786645864, 0.012, -0.024, 0.986, 192.0, 0.0, 0.0, 0.0, 0.0, 0.0, 0.0, 0.0, 0.0, 0.0, 1.6444984968357277E9, 0.0, 2022-02-11 00:08:16.835
122.0, -7644.6542316263, -9503.648817974188, -10330.216327931445, -16275.22155943174, -2165.5264098079697, -2248.0714020814185, -6166.622777774665, -7299.58800072527, -16943.15873898968, -15594.499182045363, -20033.06389249133, -10859.05860174401, -5661.763925762645, -11246.682554087944, -11070.349642080027, -11592.598151278276, 0.012, -0.024, 0.986, 192.0, 0.0, 0.0, 0.0, 0.0, 0.0, 0.0, 0.0, 0.0, 0.0, 1.6444984968359065E9, 0.0, 2022-02-11 00:08:16.835
124.0, -7653.147894519317, -9510.890783177709, -10335.156063456066, -16282.932911268821, -2182.759604783011, -2256.1403818297845, -6179.519734325378, -7309.087492118775, -16947.673791369652, -15597.60607452465, -20023.609104586736, -10859.10330523292, -5666.457792098259, -11255.019754769773, -11067.890950189943, -11594.207476879059, 0.012, -0.024, 0.986, 192.0, 0.0, 0.0, 0.0, 0.0, 0.0, 0.0, 0.0, 0.0, 0.0, 1.6444984968359146E9, 0.0, 2022-02-11 00:08:16.835
126.0, -7653.304356730504, -9513.908268679175, -10329.366961642143, -16278.395507144394, -2173.5953895563352, -2249.211341048639, -6179.564437814288, -7313.937820665577, -16950.244241982015, -15611.37474910912, -20036.483709392993, -10873.430773428772, -5684.339187662505, -11258.730144349354, -11070.95313918032, -11597.24731412498, 0.008, -0.028, 0.988, 192.0, 0.0, 32.0, 127.5, 16.0, 15.0, 112.0, 0.0, 0.0, 0.0, 1.6444984968359218E9, 0.0, 2022-02-11 00:08:16.835
128.0, -7637.613432122878, -9511.360169811269, -10319.643952804083, -16280.965957756755, -2175.271770390483, -2250.9324253716977, -6174.959978456495, -7309.176899096597, -16941.72822734454, -15594.94621693447, -20015.42836611609, -10855.728191820168, -5662.479181585215, -11249.208301211394, -11062.303014076117, -11595.280360612913, 0.008, -0.028, 0.988, 192.0, 0.0, 0.0, 0.0, 0.0, 0.0, 0.0, 0.0, 0.0, 0.0, 1.6444984968359296E9, 0.0, 2022-02-11 00:08:16.835
130.0, -7665.396650480825, -9510.711969222066, -10330.372790142632, -16284.050498491586, -2183.43015711667, -2271.1384023592955, -6178.871533736174, -7326.8794807052, -16943.06933201186, -15597.471964057919, -20029.979351756498, -10870.033308271564, -5655.952472204265, -11262.932272306953, -11063.331194321061, -11599.34837810378, 0.008, -0.028, 0.988, 192.0, 0.0, 0.0, 0.0, 0.0, 0.0, 0.0, 0.0, 0.0, 0.0, 1.6444984968359375E9, 0.0, 2022-02-11 00:08:16.835
132.0, -7651.113885773884, -9511.494280278002, -10319.621601059629, -16273.500475108682, -2169.706186021112, -2265.5504662454687, -6168.097992908716, -7316.4635677890265, -16946.667962869164, -15600.958836192947, -20033.399168658158, -10864.691241346747, -5676.046690469586, -11286.625121429577, -11065.320499577583, -11601.24827638248, 0.008, -0.028, 0.988, 192.0, 0.0, 0.0, 0.0, 0.0, 0.0, 0.0, 0.0, 0.0, 0.0, 1.6444984968359451E9, 0.0, 2022-02-11 00:08:16.835
134.0, -7654.42194395327, -9517.305733836381, -10329.970458742435, -16277.009698988164, -2178.1327936807625, -2270.043166880985, -6187.32049314028, -7324.577251026303, -16947.4502739251, -15592.778097722305, -20023.854973775742, -10850.564938850992, -5668.916483988343, -11271.783563111254, -11058.771438452177, -11599.326026359324, 0.008, -0.028, 0.988, 192.0, 0.0, 0.0, 0.0, 0.0, 0.0, 0.0, 0.0, 0.0, 0.0, 1.6444984968359687E9, 0.0, 2022-02-11 00:08:16.835
136.0, -7653.8631503418865, -9519.071521648351, -10331.490377365397, -16282.776449057634, -2171.5390290664473, -2269.4843732696027, -6152.07179213426, -7313.602544498747, -16948.03141928094, -15606.256199628855, -20036.886040793186, -10867.060526259009, -5662.233312396206, -11265.860350830597, -11065.365203066493, -11600.644779282187, 0.01, -0.026000000000000002, 0.994, 192.0, 0.0, 40.0, 127.5, 24.0, 15.5, 8.0, 0.0, 0.0, 0.0, 1.6444984968359764E9, 0.0, 2022-02-11 00:08:16.835
138.0, -7644.60952813739, -9506.241620331004, -10324.717798795438, -16283.357594413472, -2163.1347731512515, -2266.086908112396, -6157.503266036901, -7313.78135845439, -16949.50663441499, -15605.51859206183, -20021.552744096847, -10860.869093044888, -5676.560780592058, -11265.94975780842, -11056.782133195655, -11598.3872530922, 0.01, -0.026000000000000002, 0.994, 192.0, 0.0, 0.0, 0.0, 0.0, 0.0, 0.0, 0.0, 0.0, 0.0, 1.6444984968359845E9, 0.0, 2022-02-11 00:08:16.835
140.0, -7654.690164886733, -9513.394178556702, -10334.418455889041, -16286.59859735949, -2173.1036511783186, -2278.2686088405385, -6170.333167354246, -7332.69093426358, -16949.88661407073, -15607.396138596076, -20028.05710173334, -10868.558093137515, -5666.211922909251, -11266.910882819997, -11062.57123500958, -11600.331854859813, 0.01, -0.026000000000000002, 0.994, 192.0, 0.0, 0.0, 0.0, 0.0, 0.0, 0.0, 0.0, 0.0, 0.0, 1.6444984968359916E9, 0.0, 2022-02-11 00:08:16.835
142.0, -7637.971060034163, -9515.696408235599, -10322.549679583273, -16282.843504291, -2166.062851674897, -2262.7117946996445, -6160.230178860447, -7310.294486319362, -16950.646573382208, -15595.147382634566, -20028.995875000463, -10861.182017467263, -5687.468431886248, -11267.51437992029, -11058.6596797299, -11598.521363558933, 0.01, -0.026000000000000002, 0.994, 192.0, 0.0, 0.0, 0.0, 0.0, 0.0, 0.0, 0.0, 0.0, 0.0, 1.6444984968359983E9, 0.0, 2022-02-11 00:08:16.835
144.0, -7657.104153287906, -9520.479681549035, -10338.464121635452, -16287.22444620424, -2182.1337559382628, -2276.659283239756, -6170.802553987808, -7322.520890536415, -16949.171358248157, -15593.672167500517, -20022.647979575155, -10861.316127933995, -5680.517039360648, -11271.872970089074, -11053.42937152736, -11597.135555402703, 0.01, -0.026000000000000002, 0.994, 192.0, 0.0, 0.0, 0.0, 0.0, 0.0, 0.0, 0.0, 0.0, 0.0, 1.6444984968360057E9, 0.0, 2022-02-11 00:08:16.836
146.0, -7659.674603900266, -9526.201728129594, -10339.38054315812, -16285.70452758128, -2179.7197675370894, -2273.5523907604684, -6170.22140863197, -7315.904774177644, -16957.240337996525, -15602.32229260472, -20040.23880246148, -10866.702898347725, -5677.0078154811645, -11275.493952690835, -11063.085325132051, -11600.041282181894, 0.01, -0.028, 0.992, 192.0, 0.0, 40.0, 127.5, 16.0, 15.5, 0.0, 0.0, 0.0, 0.0, 1.6444984968360124E9, 0.0, 2022-02-11 00:08:16.836
148.0, -7648.9904700506295, -9525.061789162373, -10335.781912300816, -16294.309949196571, -2173.327168622872, -2276.9945594065857, -6159.000832915406, -7322.699704492057, -16958.31322173038, -15605.809164739749, -20028.124156966707, -10863.81952331299, -5676.136097447407, -11277.03622305825, -11054.189330838839, -11597.269665869435, 0.01, -0.028, 0.992, 192.0, 0.0, 0.0, 0.0, 0.0, 0.0, 0.0, 0.0, 0.0, 0.0, 1.6444984968360195E9, 0.0, 2022-02-11 00:08:16.836
150.0, -7659.361679477893, -9527.095797907807, -10345.1919967165, -16295.874571308445, -2183.8771920057766, -2293.087815414407, -6167.762716741886, -7330.7239807515125, -16957.754428118995, -15614.258124143855, -20042.473976907015, -10877.409383941816, -5684.540353362603, -11273.817571856687, -11058.972604152275, -11603.908133972662, 0.01, -0.028, 0.992, 192.0, 0.0, 0.0, 0.0, 0.0, 0.0, 0.0, 0.0, 0.0, 0.0, 1.6444984968360271E9, 0.0, 2022-02-11 00:08:16.836
152.0, -7640.966193791175, -9511.807204700375, -10333.882014022114, -16287.380908415427, -2171.248456388528, -2285.7787949775216, -6161.7948009723195, -7329.539338295382, -16954.02168679496, -15600.064766414735, -20032.549802368856, -10864.110095990909, -5683.64628358439, -11301.891362892553, -11060.112543119496, -11604.601038050776, 0.01, -0.028, 0.992, 192.0, 0.0, 0.0, 0.0, 0.0, 0.0, 0.0, 0.0, 0.0, 0.0, 1.6444984968360343E9, 0.0, 2022-02-11 00:08:16.836
154.0, -7658.333499232948, -9520.054998404385, -10340.676944336528, -16297.349786442493, -2184.078357705874, -2297.8487369833874, -6178.849181991718, -7338.636498288692, -16954.35696296179, -15600.780022237304, -20025.06196797633, -10862.523122134582, -5693.5034028891805, -11297.71158667941, -11059.598452997025, -11606.25506714047, 0.01, -0.028, 0.992, 192.0, 0.0, 0.0, 0.0, 0.0, 0.0, 0.0, 0.0, 0.0, 0.0, 1.6444984968360472E9, 0.0, 2022-02-11 00:08:16.836
156.0, -7660.233397511649, -9528.012219430473, -10337.346534412687, -16296.522771897648, -2178.870401247788, -2294.697141015189, -6165.5051905519, -7335.283736620395, -16953.127617016748, -15612.157060165056, -20040.194098972574, -10880.896256076843, -5678.728899804223, -11291.207229042915, -11064.38172631046, -11610.68071254262, 0.006, -0.03, 0.988, 192.0, 0.0, 24.0, 127.5, 8.0, 15.0, 112.0, 0.0, 0.0, 0.0, 1.644498496836068E9, 0.0, 2022-02-11 00:08:16.836
158.0, -7649.37044970637, -9522.290172849915, -10334.798435544782, -16299.31673995456, -2176.702282035623, -2290.9643996911527, -6171.964844699484, -7321.06802714682, -16956.5027304295, -15604.848039728171, -20031.499270379456, -10873.274311217585, -5679.98059749372, -11299.790298913753, -11057.251519829217, -11606.411529351655, 0.006, -0.03, 0.988, 192.0, 0.0, 0.0, 0.0, 0.0, 0.0, 0.0, 0.0, 0.0, 0.0, 1.6444984968360744E9, 0.0, 2022-02-11 00:08:16.836
160.0, -7654.891330586831, -9525.866451962764, -10342.643897848595, -16297.752117842689, -2183.8995437502317, -2295.434748582214, -6168.276806864358, -7324.30903009284, -16958.55909091939, -15606.524420562318, -20037.19896521556, -10874.458953673715, -5675.286731158106, -11296.90692387902, -11057.720906462779, -11603.550506061376, 0.006, -0.03, 0.988, 192.0, 0.0, 0.0, 0.0, 0.0, 0.0, 0.0, 0.0, 0.0, 0.0, 1.6444984968360813E9, 0.0, 2022-02-11 00:08:16.836
162.0, -7639.178054234751, -9517.216326858561, -10329.1881476865, -16294.064080007563, -2161.413688828193, -2281.6884257422003, -6148.6519752325985, -7315.25657358844, -16948.344343703313, -15601.808202482249, -20028.437081389082, -10870.882674560866, -5679.3547486489715, -11295.52111572279, -11052.311784304595, -11600.331854859813, 0.006, -0.03, 0.988, 192.0, 0.0, 0.0, 0.0, 0.0, 0.0, 0.0, 0.0, 0.0, 0.0, 1.6444984968360877E9, 0.0, 2022-02-11 00:08:16.836
164.0, -7644.60952813739, -9519.02681815944, -10334.485511122408, -16295.159315485875, -2172.8130785003996, -2286.047015910985, -6161.012489916384, -7325.292506848873, -16946.1985762356, -15596.42143206852, -20024.324360409304, -10859.81856105549, -5674.862048013455, -11284.926388850974, -11048.132008091452, -11597.739052502997, 0.008, -0.028999999999999998, 0.989, 192.0, 0.0, 40.0, 127.5, 16.0, 15.0, 120.0, 0.0, 0.0, 0.0, 1.6444984968360944E9, 0.0, 2022-02-11 00:08:16.836
166.0, -7638.373391434359, -9513.662399490166, -10328.204670930467, -16286.464486892759, -2164.4088225852042, -2291.9925799360967, -6162.264187605881, -7328.891137706178, -16938.57663137634, -15597.963702435936, -20026.224258688006, -10859.90796803331, -5690.284751687616, -11295.14113606705, -11055.776304695166, -11602.63408453871, 0.008, -0.028999999999999998, 0.989, 192.0, 0.0, 0.0, 0.0, 0.0, 0.0, 0.0, 0.0, 0.0, 0.0, 1.6444984968361032E9, 0.0, 2022-02-11 00:08:16.836
168.0, -7637.099342000407, -9511.449576789091, -10324.807205773259, -16287.023280504141, -2151.8471422013217, -2293.534850303513, -6144.494550763911, -7318.654038745647, -16940.07419825485, -15589.827667454205, -20006.062985189317, -10847.48039811616, -5678.371271892938, -11299.209153557917, -11047.617917968979, -11594.900380957173, 0.008, -0.028999999999999998, 0.989, 192.0, 0.0, 0.0, 0.0, 0.0, 0.0, 0.0, 0.0, 0.0, 0.0, 1.6444984968361096E9, 0.0, 2022-02-11 00:08:16.836
170.0, -7647.425847938758, -9517.149271625194, -10331.937412254503, -16292.7453270847, -2161.637206272746, -2308.8457952553986, -6153.859931690685, -7331.752160996457, -16940.655343610688, -15601.741147248882, -20021.53039235239, -10864.28890994655, -5672.179838678818, -11297.398662257036, -11046.768551679677, -11601.136517660203, 0.008, -0.028999999999999998, 0.989, 192.0, 0.0, 0.0, 0.0, 0.0, 0.0, 0.0, 0.0, 0.0, 0.0, 1.6444984968361175E9, 0.0, 2022-02-11 00:08:16.836
172.0, -7634.126559987851, -9504.699349963588, -10320.605077815662, -16289.683138094324, -2148.248511344017, -2300.2627253845603, -6148.920196166062, -7328.824082472812, -16939.87303255475, -15606.256199628855, -20022.6256278307, -10859.371526166384, -5671.21871366724, -11305.110014094116, -11045.382743523449, -11600.331854859813, 0.008, -0.028999999999999998, 0.989, 192.0, 0.0, 0.0, 0.0, 0.0, 0.0, 0.0, 0.0, 0.0, 0.0, 1.6444984968361244E9, 0.0, 2022-02-11 00:08:16.836
174.0, -7646.017688038074, -9513.193012856605, -10325.857737762659, -16296.343957942005, -2157.9044649487096, -2303.8166527529543, -6158.039707903828, -7335.328440109306, -16944.276326212446, -15604.579818794708, -20012.9249707371, -10855.728191820168, -5675.242027669195, -11288.636778430555, -11042.298202788616, -11602.701139772074, 0.009000000000000001, -0.0275, 0.9864999999999999, 192.0, 0.0, 40.0, 127.5, 24.0, 15.0, 96.0, 0.0, 0.0, 0.0, 1.644498496836131E9, 0.0, 2022-02-11 00:08:16.836
176.0, -7639.468626912669, -9505.235791830515, -10326.394179629586, -16289.750193327689, -2151.534217778947, -2301.961457963164, -6153.547007268311, -7333.316783108328, -16938.57663137634, -15593.828629711705, -20021.798613285853, -10866.322918691983, -5670.592864822491, -11302.673673948488, -11050.277775559161, -11604.310465372857, 0.009000000000000001, -0.0275, 0.9864999999999999, 192.0, 0.0, 0.0, 0.0, 0.0, 0.0, 0.0, 0.0, 0.0, 0.0, 1.6444984968361385E9, 0.0, 2022-02-11 00:08:16.836
178.0, -7631.1984814642055, -9500.787794683909, -10322.66143830555, -16288.543199127103, -2146.3933165542267, -2306.5882690654125, -6151.7588677118865, -7339.508216322448, -16936.095587741806, -15595.773231479316, -20010.44392710256, -10849.022668483576, -5673.476239857226, -11305.735862938865, -11044.488673745236, -11598.499011814478, 0.009000000000000001, -0.0275, 0.9864999999999999, 192.0, 0.0, 0.0, 0.0, 0.0, 0.0, 0.0, 0.0, 0.0, 0.0, 1.6444984968361452E9, 0.0, 2022-02-11 00:08:16.836
180.0, -7645.257728726594, -9519.138576881716, -10328.47289186393, -16298.93676029882, -2156.2951393479275, -2306.2529928985828, -6162.063021905783, -7348.4489141045715, -16933.25691619598, -15599.170696636522, -20014.19902017105, -10859.282119188561, -5668.022414210131, -11316.732921210876, -11046.925013890865, -11603.215229894548, 0.009000000000000001, -0.0275, 0.9864999999999999, 192.0, 0.0, 0.0, 0.0, 0.0, 0.0, 0.0, 0.0, 0.0, 0.0, 1.6444984968361528E9, 0.0, 2022-02-11 00:08:16.836
182.0, -7642.441408925225, -9515.651704746688, -10321.096816193678, -16289.817248561056, -2145.767467709478, -2303.50372833058, -6151.624757245155, -7334.501425564459, -16934.083930740828, -15596.980225679903, -20015.540124838368, -10868.714555348703, -5664.960225219754, -11307.971037384395, -11047.684973202346, -11602.321160116335, 0.009000000000000001, -0.0275, 0.9864999999999999, 192.0, 0.0, 0.0, 0.0, 0.0, 0.0, 0.0, 0.0, 0.0, 0.0, 1.6444984968361597E9, 0.0, 2022-02-11 00:08:16.836
184.0, -7651.94090031873, -9524.435940317624, -10327.578822085718, -16291.471277650748, -2161.7936684839333, -2309.8069202669767, -6160.140771882627, -7334.255556375451, -16942.130558744735, -15604.065728672234, -20006.264150889416, -10850.989621995643, -5674.0126817241535, -11311.703778708432, -11044.913356889887, -11601.494145571489, 0.0105, -0.02375, 0.98725, 192.0, 0.0, 48.0, 127.5, 48.0, 15.0, 112.0, 0.0, 0.0, 0.0, 1.6444984968361664E9, 0.0, 2022-02-11 00:08:16.836
186.0, -7646.08474327144, -9514.467062290558, -10322.683790050005, -16282.754097313178, -2162.0618894173967, -2297.736978261111, -6161.325414338758, -7325.404265571149, -16936.74378833101, -15602.65756877155, -20014.064909704317, -10859.729154077668, -5675.756117791667, -11329.205194616938, -11051.820045926577, -11600.376558348724, 0.0105, -0.02375, 0.98725, 192.0, 0.0, 0.0, 0.0, 0.0, 0.0, 0.0, 0.0, 0.0, 0.0, 1.6444984968361735E9, 0.0, 2022-02-11 00:08:16.836
188.0, -7640.630917624345, -9513.371826812247, -10315.263010890843, -16285.637472347913, -2147.4438485436262, -2295.3006381154823, -6149.322527566258, -7321.11273063573, -16933.771006318453, -15593.046318655768, -20001.61498804271, -10849.804979539513, -5676.180800936318, -11303.098357093138, -11041.42648475486, -11591.949950689072, 0.0105, -0.02375, 0.98725, 192.0, 0.0, 0.0, 0.0, 0.0, 0.0, 0.0, 0.0, 0.0, 0.0, 1.6444984968361802E9, 0.0, 2022-02-11 00:08:16.836
190.0, -7654.131371275351, -9522.334876338826, -10327.154138941067, -16290.063117750064, -2156.183380625651, -2310.6562865562782, -6152.943510168017, -7335.797826742867, -16936.810843564373, -15598.32133034722, -20014.91427599362, -10849.760276050602, -5676.113745702952, -11303.277171048781, -11043.773417922666, -11597.560238547354, 0.0105, -0.02375, 0.98725, 192.0, 0.0, 0.0, 0.0, 0.0, 0.0, 0.0, 0.0, 0.0, 0.0, 1.644498496836187E9, 0.0, 2022-02-11 00:08:16.836
192.0, -7640.027420524052, -9516.970457669551, -10317.118205680634, -16290.152524727884, -2143.1076101192966, -2304.0848736864177, -6130.189434312515, -7330.612222029236, -16934.195689463104, -15605.049205428268, -20015.6742353051, -10858.611566854903, -5670.0787747000195, -11312.061406619718, -11043.907528389398, -11597.91786645864, 0.0105, -0.02375, 0.98725, 192.0, 0.0, 0.0, 0.0, 0.0, 0.0, 0.0, 0.0, 0.0, 0.0, 1.644498496836194E9, 0.0, 2022-02-11 00:08:16.836
194.0, -7644.028382781552, -9518.378617570235, -10322.594383072184, -16293.773507329644, -2149.1649328666845, -2308.6893330442113, -6142.818169929764, -7336.311916865339, -16935.894422041707, -15607.46319382944, -20008.476973590492, -10858.790380810546, -5679.3547486489715, -11309.870935663097, -11035.346810263016, -11598.320197858835, 0.01025, -0.022875, 0.986625, 192.0, 0.0, 40.0, 127.5, 40.0, 15.0, 104.0, 0.0, 0.0, 0.0, 1.6444984968362005E9, 0.0, 2022-02-11 00:08:16.836
196.0, -7643.961327548186, -9519.630315259734, -10324.51663309534, -16288.476143893737, -2144.8063426978997, -2306.834138254421, -6144.36044029718, -7336.133102909697, -16932.25108769549, -15601.51762980433, -20020.211639429526, -10863.48424714616, -5678.035995726108, -11305.534697238767, -11038.431350997847, -11600.555372304365, 0.01025, -0.022875, 0.986625, 192.0, 0.0, 0.0, 0.0, 0.0, 0.0, 0.0, 0.0, 0.0, 0.0, 1.6444984968362072E9, 0.0, 2022-02-11 00:08:16.836
198.0, -7646.621185138368, -9517.663361747665, -10319.33102838171, -16287.93970202681, -2139.352517050805, -2313.964344735664, -6143.175797841049, -7335.484902320493, -16931.424073150643, -15601.472926315419, -20002.151429909638, -10853.314203418995, -5665.2060944087625, -11321.650304991044, -11031.077627072053, -11596.889686213695, 0.01025, -0.022875, 0.986625, 192.0, 0.0, 0.0, 0.0, 0.0, 0.0, 0.0, 0.0, 0.0, 0.0, 1.6444984968362267E9, 0.0, 2022-02-11 00:08:16.836
200.0, -7654.734868375644, -9528.280440363937, -10328.539947097295, -16290.554856128081, -2149.8801886892547, -2322.525062862046, -6154.977518913451, -7345.722001281024, -16937.3472854313, -15605.764461250837, -20012.96967422601, -10853.649479585825, -5667.329510132016, -11334.949592941952, -11038.386647508938, -11605.58451480681, 0.01025, -0.022875, 0.986625, 192.0, 0.0, 0.0, 0.0, 0.0, 0.0, 0.0, 0.0, 0.0, 0.0, 1.6444984968362334E9, 0.0, 2022-02-11 00:08:16.836
202.0, -7636.562900133479, -9509.661437232666, -10317.364074869642, -16284.855161291976, -2140.9394909071316, -2308.0634841994624, -6148.9425479105175, -7339.418809344627, -16927.266648681958, -15596.42143206852, -20008.499325334946, -10845.513444604094, -5660.2216553952285, -11317.537584011268, -11038.252537042206, -11602.030587438416, 0.01025, -0.022875, 0.986625, 192.0, 0.0, 0.0, 0.0, 0.0, 0.0, 0.0, 0.0, 0.0, 0.0, 1.64449849683624E9, 0.0, 2022-02-11 00:08:16.836
204.0, -7648.699897372711, -9518.579783270334, -10324.091949950689, -16293.549989885092, -2152.4953427905252, -2319.149949449295, -6152.943510168017, -7346.079629192309, -16931.379369661736, -15600.42239432602, -20002.799630498845, -10838.025610211565, -5670.235236911206, -11301.019644858796, -11035.547975963114, -11604.19870665058, 0.012125, -0.0224375, 0.9873125, 192.0, 0.0, 56.0, 127.5, 40.0, 15.0, 112.0, 0.0, 0.0, 0.0, 1.6444984968362465E9, 0.0, 2022-02-11 00:08:16.836
206.0, -7650.666850884778, -9495.535134736912, -10324.583688328707, -16291.024242761641, -2150.5283892784582, -2311.148024934295, -6159.894902693618, -7340.044658189376, -16934.978000519037, -15593.60511226715, -20021.7762615414, -10859.125656977374, -5674.258550913161, -11326.701799237944, -11042.812292911089, -11604.645741539687, 0.012125, -0.0224375, 0.9873125, 192.0, 0.0, 0.0, 0.0, 0.0, 0.0, 0.0, 0.0, 0.0, 0.0, 1.6444984968362532E9, 0.0, 2022-02-11 00:08:16.836
208.0, -7643.983679292641, -9512.83538494532, -10321.610906316151, -16293.125306740441, -2146.907406676699, -2310.2539551560826, -6148.920196166062, -7333.294431363873, -16931.78170106193, -15591.213475610433, -20004.990101455463, -10864.490075646649, -5665.250797897673, -11321.493842779857, -11033.156339306395, -11599.616599037243, 0.012125, -0.0224375, 0.9873125, 192.0, 0.0, 0.0, 0.0, 0.0, 0.0, 0.0, 0.0, 0.0, 0.0, 1.64449849683626E9, 0.0, 2022-02-11 00:08:16.836
210.0, -7656.187731765239, -9530.828539231843, -10329.836348275703, -16293.549989885092, -2157.1445056372295, -2320.0887227164176, -6145.299213564303, -7335.283736620395, -16937.21317496457, -15608.558429307752, -20012.567342825812, -10851.10138071792, -5663.015623452142, -11322.05263639124, -11035.503272474203, -11602.72349151653, 0.012125, -0.0224375, 0.9873125, 192.0, 0.0, 0.0, 0.0, 0.0, 0.0, 0.0, 0.0, 0.0, 0.0, 1.6444984968362668E9, 0.0, 2022-02-11 00:08:16.836
212.0, -7647.582310149945, -9523.385408328224, -10321.432092360508, -16295.047556763597, -2143.5993484973133, -2307.2811731435268, -6125.45086448799, -7325.78424522689, -16930.01591324996, -15607.37378685162, -20006.241799144962, -10845.111113203897, -5666.9718822207315, -11299.991464613851, -11031.479958472248, -11599.080157170316, 0.012125, -0.0224375, 0.9873125, 192.0, 0.0, 0.0, 0.0, 0.0, 0.0, 0.0, 0.0, 0.0, 0.0, 1.6444984968362732E9, 0.0, 2022-02-11 00:08:16.836
214.0, -7656.813580609987, -9527.609888030278, -10327.668229063538, -16295.047556763597, -2152.8753224462657, -2303.727245775133, -6136.224405315448, -7333.182672641597, -16937.5484511314, -15607.396138596076, -20001.5702845538, -10849.760276050602, -5668.0894694434965, -11302.5172117373, -11023.410978723881, -11595.705043757564, 0.013062500000000001, -0.02321875, 0.98665625, 192.0, 0.0, 56.0, 127.5, 32.0, 15.0, 104.0, 0.0, 0.0, 0.0, 1.64449849683628E9, 0.0, 2022-02-11 00:08:16.836
216.0, -7660.300452745016, -9526.358190340781, -10329.009333730857, -16286.486838637215, -2149.611967755791, -2306.3647516208594, -6129.161254067571, -7325.873652204711, -16939.247183710002, -15602.255237371355, -20015.361310882727, -10853.33655516345, -5656.265396626639, -11323.326685825192, -11028.41776948187, -11595.079194912816, 0.013062500000000001, -0.02321875, 0.98665625, 192.0, 0.0, 0.0, 0.0, 0.0, 0.0, 0.0, 0.0, 0.0, 0.0, 1.6444984968362865E9, 0.0, 2022-02-11 00:08:16.836
218.0, -7667.6094731819, -9545.98302197254, -10324.829557517714, -16287.515018882159, -2140.961842651587, -2306.856489998876, -6133.341030280713, -7322.945573681066, -16942.667000611666, -15602.411699582542, -20005.750060766943, -10848.508578361105, -5653.829056481011, -11323.505499780835, -11022.248688012205, -11591.368805333233, 0.013062500000000001, -0.02321875, 0.98665625, 192.0, 0.0, 0.0, 0.0, 0.0, 0.0, 0.0, 0.0, 0.0, 0.0, 1.6444984968362932E9, 0.0, 2022-02-11 00:08:16.836
220.0, -7695.52680200658, -9563.953824514607, -10328.450540119475, -16292.32064394005, -2147.868531688277, -2312.9138127462643, -6137.744323938408, -7328.153530139152, -16950.043076281916, -15619.242563157388, -20019.786956284875, -10856.711668576201, -5667.530675832114, -11317.291714822259, -11023.746254890711, -11594.229828623513, 0.013062500000000001, -0.02321875, 0.98665625, 192.0, 0.0, 0.0, 0.0, 0.0, 0.0, 0.0, 0.0, 0.0, 0.0, 1.6444984968363E9, 0.0, 2022-02-11 00:08:16.836
222.0, -7705.070996888995, -9583.399842190724, -10320.560374326751, -16289.929007283332, -2134.211615826084, -2302.3861411078146, -6124.9367743655175, -7322.207966114041, -16944.857471568284, -15618.795528268281, -20021.5750958413, -10860.757334322612, -5652.3538413469605, -11311.234392074872, -11020.617010666969, -11588.328968087313, 0.013062500000000001, -0.02321875, 0.98665625, 192.0, 0.0, 0.0, 0.0, 0.0, 0.0, 0.0, 0.0, 0.0, 0.0, 1.6444984968363063E9, 0.0, 2022-02-11 00:08:16.836
224.0, -7756.748230069666, -9616.838051895864, -10332.451502376975, -16294.533466641125, -2142.772333952467, -2318.8146732824653, -6132.938698880518, -7330.276945862406, -16974.272367271467, -15618.527307334818, -20030.940476768075, -10859.215063955196, -5659.3946408503825, -11329.115787639117, -11018.828871110543, -11590.184162877104, 0.01453125, -0.026609374999999998, 0.987328125, 192.0, 0.0, 64.0, 127.5, 8.0, 15.0, 112.0, 0.0, 0.0, 0.0, 1.6444984968363132E9, 0.0, 2022-02-11 00:08:16.836
226.0, -7788.487707196201, -9660.356898350346, -10331.84800527668, -16299.428498676838, -2142.638223485735, -2315.953649992186, -6133.944527381007, -7322.16326262513, -16985.962329621594, -15643.449502402485, -20055.34858171327, -10883.422003200294, -5657.74061176069, -11337.274174365304, -11022.606315923491, -11594.743918745986, 0.01453125, -0.026609374999999998, 0.987328125, 192.0, 0.0, 0.0, 0.0, 0.0, 0.0, 0.0, 0.0, 0.0, 0.0, 1.6444984968363197E9, 0.0, 2022-02-11 00:08:16.836
228.0, -7808.045483594595, -9675.220808413125, -10328.115263952644, -16300.948417299798, -2126.2767465444504, -2299.949800962186, -6124.266222031859, -7319.481053290493, -16986.677585444162, -15640.409665156563, -20046.318476953325, -10879.733965365169, -5649.693983756779, -11316.822328188699, -11015.766682120167, -11589.066575654339, 0.01453125, -0.026609374999999998, 0.987328125, 192.0, 0.0, 0.0, 0.0, 0.0, 0.0, 0.0, 0.0, 0.0, 0.0, 1.6444984968363264E9, 0.0, 2022-02-11 00:08:16.836
230.0, -7832.542995517611, -9691.358767909858, -10331.557432598762, -16298.735594598724, -2142.99585139702, -2301.1120916738623, -6132.446960502501, -7324.890175448678, -17012.829126456872, -15643.874185547136, -20068.49140745299, -10887.244151502151, -5670.794030522589, -11317.224659588894, -11014.626743152947, -11587.300787842369, 0.01453125, -0.026609374999999998, 0.987328125, 192.0, 0.0, 0.0, 0.0, 0.0, 0.0, 0.0, 0.0, 0.0, 0.0, 1.6444984968363347E9, 0.0, 2022-02-11 00:08:16.836
232.0, -7833.9511554182955, -9696.857297045863, -10325.433054618008, -16298.266207965162, -2135.1727408376623, -2298.02755093903, -6126.881376133129, -7329.896966206667, -17003.530800763467, -15639.895575034092, -20065.384514973703, -10887.15474452433, -5663.909693230355, -11300.483202991869, -11012.257458240683, -11584.082136640804, 0.01453125, -0.026609374999999998, 0.987328125, 192.0, 0.0, 0.0, 0.0, 0.0, 0.0, 0.0, 0.0, 0.0, 0.0, 1.6444984968363416E9, 0.0, 2022-02-11 00:08:16.836
234.0, -7838.510911287179, -9695.002102256072, -10332.116226210144, -16294.689928852313, -2148.226159599562, -2312.176205179239, -6124.199166798493, -7329.293469106373, -17008.425832799177, -15646.2434704594, -20046.6314013757, -10872.357889694917, -5662.88151298541, -11330.38983707307, -11010.89400182891, -11590.854715210762, 0.014, -0.03, 0.992, 192.0, 0.0, 56.0, 127.5, 8.0, 15.5, 0.0, 0.0, 0.0, 0.0, 1.6444984968363483E9, 0.0, 2022-02-11 00:08:16.836
236.0, -7813.611067963966, -9684.92146550673, -10329.344609897687, -16293.661748607368, -2150.4389823006372, -2308.376408621837, -6127.060190088772, -7318.430521301094, -17006.525934520476, -15658.827502587737, -20059.193081759582, -10881.835029343967, -5670.525809589125, -11322.164395113516, -11016.839565854021, -11589.871238454729, 0.014, -0.03, 0.992, 192.0, 0.0, 0.0, 0.0, 0.0, 0.0, 0.0, 0.0, 0.0, 0.0, 1.6444984968363547E9, 0.0, 2022-02-11 00:08:16.836
238.0, -7788.286541496103, -9658.05466867145, -10323.354342383665, -16294.019376518652, -2132.7140489475787, -2305.3142196314598, -6115.057303316272, -7315.882422433188, -16998.255789072013, -15650.870281561647, -20044.731503097, -10873.386069939861, -5649.761038990145, -11331.663886507022, -11009.195269250307, -11586.563180275343, 0.014, -0.03, 0.992, 192.0, 0.0, 0.0, 0.0, 0.0, 0.0, 0.0, 0.0, 0.0, 0.0, 1.6444984968363616E9, 0.0, 2022-02-11 00:08:16.836
240.0, -7794.5897334325, -9644.28599408698, -10324.002542972868, -16293.102954995986, -2145.7898194539334, -2309.8069202669767, -6143.175797841049, -7329.941669695577, -16992.198466324626, -15638.934450022514, -20051.705247367056, -10881.835029343967, -5669.341167132994, -11316.911735166519, -11012.615086151969, -11588.798354720873, 0.014, -0.03, 0.992, 192.0, 0.0, 0.0, 0.0, 0.0, 0.0, 0.0, 0.0, 0.0, 0.0, 1.6444984973161335E9, 0.0, 2022-02-11 00:08:17.316
242.0, -7764.548988884568, -9628.95269739064, -10315.285362635299, -16288.7443648272, -2136.245624571517, -2307.7505597770883, -6120.086445818716, -7325.739541737979, -16975.88169287225, -15627.132728950111, -20038.182441971596, -10861.182017467263, -5651.21390237974, -11314.520098509802, -11016.817214109566, -11587.278436097913, 0.014, -0.03, 0.992, 192.0, 0.0, 0.0, 0.0, 0.0, 0.0, 0.0, 0.0, 0.0, 0.0, 1.64449849731615E9, 0.0, 2022-02-11 00:08:17.316
244.0, -7751.853198033953, -9612.971200105096, -10314.27953413481, -16293.527638140637, -2140.0454211289193, -2316.7806645370324, -6117.918326606551, -7333.137969152685, -16979.793248151927, -15631.848947030181, -20026.24661043246, -10863.126619234876, -5669.385870621904, -11335.95542144244, -11010.6481326399, -11588.977168676516, 0.014, -0.024, 0.99, 192.0, 0.0, 56.0, 127.5, 32.0, 15.0, 120.0, 0.0, 0.0, 0.0, 1.644498497316157E9, 0.0, 2022-02-11 00:08:17.316
246.0, -7732.00484895764, -9595.782708618965, -10313.206650400954, -16291.918312539854, -2133.4963600035144, -2309.2704784000493, -6131.843463402208, -7332.109788907742, -16962.671811899163, -15621.276571902821, -20030.851069790253, -10868.826314070979, -5658.299405372072, -11322.074988135695, -11014.93966757532, -11588.887761698696, 0.014, -0.024, 0.99, 192.0, 0.0, 0.0, 0.0, 0.0, 0.0, 0.0, 0.0, 0.0, 0.0, 1.6444984973161645E9, 0.0, 2022-02-11 00:08:17.316
248.0, -7707.6861509902665, -9573.565074630389, -10300.488507805885, -16286.442135148303, -2128.9142523901764, -2306.2529928985828, -6129.988268612417, -7335.015515686931, -16954.088742028325, -15614.727510777417, -20012.880267248187, -10861.092610489442, -5638.16048361784, -11323.661961992022, -11011.452795440293, -11586.831401208807, 0.014, -0.024, 0.99, 192.0, 0.0, 0.0, 0.0, 0.0, 0.0, 0.0, 0.0, 0.0, 0.0, 1.6444984973161712E9, 0.0, 2022-02-11 00:08:17.316
250.0, -7715.710427249722, -9564.89259778173, -10306.389368342087, -16289.571379372048, -2135.195092582118, -2320.6922198167113, -6121.785178397319, -7348.180693171107, -16946.69031461362, -15603.819859483227, -20011.069775947308, -10854.67765983077, -5651.25860586865, -11331.440369062468, -11008.994103550209, -11592.888723956195, 0.014, -0.024, 0.99, 192.0, 0.0, 0.0, 0.0, 0.0, 0.0, 0.0, 0.0, 0.0, 0.0, 1.644498497316178E9, 0.0, 2022-02-11 00:08:17.316
252.0, -7692.308150805015, -9566.054888493407, -10301.673150262017, -16288.878475293932, -2128.9366041346316, -2311.9973912235964, -6115.25846901637, -7316.910602678133, -16943.69518085661, -15610.480679330907, -20014.44488936006, -10858.119828476885, -5665.250797897673, -11327.975848671897, -11010.737539617723, -11588.574837276321, 0.014, -0.024, 0.99, 192.0, 0.0, 0.0, 0.0, 0.0, 0.0, 0.0, 0.0, 0.0, 0.0, 1.6444984973161848E9, 0.0, 2022-02-11 00:08:17.316
254.0, -7705.853307944931, -9574.101516497316, -10308.490432320885, -16290.08546949452, -2135.955051893598, -2322.569766350957, -6131.865815146663, -7331.171015640619, -16950.78068384894, -15616.225077655921, -20012.209714914527, -10853.872997030378, -5652.957338447254, -11339.732866255388, -11008.345902961006, -11589.021872165427, 0.014, -0.024, 0.988, 192.0, 0.0, 56.0, 127.5, 32.0, 15.0, 112.0, 0.0, 0.0, 0.0, 1.6444984973161917E9, 0.0, 2022-02-11 00:08:17.316
0.0, -7705.696845733744, -9564.89259778173, -10307.641066031583, -16290.42074566135, -2135.642127471224, -2320.803978538988, -6127.060190088772, -7324.420788815116, -16948.389047192224, -15621.991827725391, -20020.457508618536, -10866.613491369902, -5647.9505476892655, -11323.751368969843, -11016.817214109566, -11591.279398355413, 0.014, -0.024, 0.988, 192.0, 0.0, 0.0, 0.0, 0.0, 0.0, 0.0, 0.0, 0.0, 0.0, 1.6444984973161983E9, 0.0, 2022-02-11 00:08:17.316
2.0, -7677.243075042138, -9547.122960939761, -10294.833516458693, -16287.85029504899, -2127.37198202276, -2314.634897069323, -6115.012599827362, -7327.59473652777, -16937.79432032041, -15603.864562972138, -20000.273883375394, -10850.296717917528, -5646.654146510858, -11322.969057913908, -11004.903734314888, -11582.785735462396, 0.014, -0.024, 0.988, 192.0, 0.0, 0.0, 0.0, 0.0, 0.0, 0.0, 0.0, 0.0, 0.0, 1.644498497316206E9, 0.0, 2022-02-11 00:08:17.316
4.0, -7688.262485058604, -9538.942222469119, -10304.489470063385, -16286.59859735949, -2132.7587524364894, -2322.1897866952168, -6118.11949230665, -7339.6423267891805, -16937.369637175758, -15601.450574570963, -20004.654825288635, -10854.834122041955, -5645.536559288092, -11313.938953153964, -11000.165164490363, -11585.132668630204, 0.014, -0.024, 0.988, 192.0, 0.0, 0.0, 0.0, 0.0, 0.0, 0.0, 0.0, 0.0, 0.0, 1.6444984973162134E9, 0.0, 2022-02-11 00:08:17.316
6.0, -7667.631824926356, -9526.425245574146, -10294.65470250305, -16276.003870487675, -2119.861795885777, -2310.0080859670743, -6110.363436980658, -7304.550087994348, -16932.564012117866, -15601.003539681858, -20004.67717703309, -10844.977002737165, -5643.569605776025, -11317.984618900373, -10999.18168773433, -11579.678842983109, 0.014, -0.024, 0.988, 192.0, 0.0, 0.0, 0.0, 0.0, 0.0, 0.0, 0.0, 0.0, 0.0, 1.6444984973162386E9, 0.0, 2022-02-11 00:08:17.316
8.0, -7658.221740510672, -9512.678922734132, -10292.687748990984, -16277.814361788556, -2124.5556622213917, -2310.432769111725, -6132.983402369428, -7322.744407980968, -16926.663151581663, -15587.436030797486, -19988.718031492, -10837.62327881137, -5646.49768429967, -11301.533734981267, -10995.963036532765, -11578.918883671628, 0.012, -0.028, 0.988, 192.0, 0.0, 48.0, 127.5, 16.0, 15.0, 112.0, 0.0, 0.0, 0.0, 1.6444984973162456E9, 0.0, 2022-02-11 00:08:17.316
10.0, -7659.339327733437, -9514.467062290558, -10296.554600781752, -16270.952376240777, -2135.0609821153857, -2315.7077808031777, -6126.367286010657, -7333.987335441988, -16921.052863723384, -15583.211551095434, -19997.81519148531, -10842.205386424708, -5622.871890410411, -11323.90783118103, -11004.70256861479, -11583.992729662983, 0.012, -0.028, 0.988, 192.0, 0.0, 0.0, 0.0, 0.0, 0.0, 0.0, 0.0, 0.0, 0.0, 1.6444984973162527E9, 0.0, 2022-02-11 00:08:17.316
12.0, -7649.2810427285485, -9522.424283316646, -10292.665397246528, -16277.389678643905, -2138.5255025059587, -2317.562975592968, -6126.277879032837, -7333.294431363873, -16923.220982935545, -15591.235827354889, -19984.739420978956, -10824.212232138185, -5653.40437333636, -11315.078892121184, -11003.450870925293, -11583.635101751697, 0.012, -0.028, 0.988, 192.0, 0.0, 0.0, 0.0, 0.0, 0.0, 0.0, 0.0, 0.0, 0.0, 1.6444984973162608E9, 0.0, 2022-02-11 00:08:17.316
14.0, -7657.595891665923, -9516.232850102526, -10304.109490407645, -16283.51405662466, -2154.2387788580395, -2329.8340832989315, -6145.165103097571, -7348.784190271401, -16924.53973585841, -15589.492391287375, -19989.05330765883, -10826.983848450644, -5658.567626305536, -11322.81259570272, -11012.726844874245, -11590.608846021754, 0.012, -0.028, 0.988, 192.0, 0.0, 0.0, 0.0, 0.0, 0.0, 0.0, 0.0, 0.0, 0.0, 1.6444984973162677E9, 0.0, 2022-02-11 00:08:17.316
16.0, -7642.173187991762, -9502.218306329049, -10293.380653069098, -16278.104934466475, -2139.9783658955535, -2323.8661675293647, -6137.051419860294, -7345.342021625283, -16918.281247410923, -15587.74895521986, -19995.28944436186, -10829.017857196077, -5650.722164001723, -11309.870935663097, -11015.878440842444, -11592.620503022732, 0.012, -0.028, 0.988, 192.0, 0.0, 0.0, 0.0, 0.0, 0.0, 0.0, 0.0, 0.0, 0.0, 1.644498497316275E9, 0.0, 2022-02-11 00:08:17.316
18.0, -7652.142066018828, -9499.178469083128, -10295.302903092253, -16284.095201980497, -2150.7519067230114, -2336.2937374465155, -6145.075696119749, -7359.1330479542075, -16918.01302647746, -15581.110487116634, -19982.459543044515, -10822.513499559582, -5641.692059241779, -11324.466624792412, -11010.961057062275, -11595.749747246475, 0.008, -0.03, 0.986, 192.0, 0.0, 32.0, 127.5, 8.0, 15.0, 104.0, 0.0, 0.0, 0.0, 1.644498497316282E9, 0.0, 2022-02-11 00:08:17.316
20.0, -7644.2295484816495, -9501.279533061926, -10291.793679212771, -16279.423687389337, -2146.7956479544223, -2336.338440935426, -6146.282690320336, -7361.100001466275, -16920.583477089822, -15588.061879642235, -19992.406069327124, -10833.354095620405, -5641.870873197422, -11335.061351664228, -11018.940629832821, -11603.125822916725, 0.008, -0.03, 0.986, 192.0, 0.0, 0.0, 0.0, 0.0, 0.0, 0.0, 0.0, 0.0, 0.0, 1.6444984973162892E9, 0.0, 2022-02-11 00:08:17.316
22.0, -7632.0254960090515, -9494.126974836228, -10283.568237253217, -16276.048573976586, -2132.7811041809446, -2330.7505048215994, -6131.754056424386, -7355.713231052546, -16913.006235719473, -15586.407850552541, -19973.47414177348, -10820.345380347417, -5643.681364498301, -11330.680409750988, -11011.60925765148, -11595.10154665727, 0.008, -0.03, 0.986, 192.0, 0.0, 0.0, 0.0, 0.0, 0.0, 0.0, 0.0, 0.0, 0.0, 1.6444984973162963E9, 0.0, 2022-02-11 00:08:17.316
24.0, -7638.820426323466, -9483.711061920056, -10289.871429189614, -16277.970823999744, -2141.6547467297014, -2334.4161909122695, -6137.9678413829615, -7346.459608848048, -16908.78175601742, -15585.55848426324, -19974.34585980724, -10821.842947225923, -5637.512283028636, -11316.978790399884, -11009.664655883867, -11595.190953635092, 0.008, -0.03, 0.986, 192.0, 0.0, 0.0, 0.0, 0.0, 0.0, 0.0, 0.0, 0.0, 0.0, 1.6444984973163033E9, 0.0, 2022-02-11 00:08:17.316
26.0, -7624.336495916426, -9481.900570619175, -10275.119277849111, -16276.897940265888, -2125.159159321685, -2316.2218709256495, -6123.282745275825, -7335.775474998412, -16908.78175601742, -15570.135780589078, -19982.66070874461, -10822.938182704233, -5646.944719188777, -11295.185839555961, -11009.016455294664, -11585.132668630204, 0.008, -0.03, 0.986, 192.0, 0.0, 0.0, 0.0, 0.0, 0.0, 0.0, 0.0, 0.0, 0.0, 1.6444984973163104E9, 0.0, 2022-02-11 00:08:17.316
28.0, -7639.982717035141, -9485.901532876675, -10285.982225654392, -16275.713297809756, -2131.305889046894, -2330.571690865957, -6123.953297609484, -7346.169036170129, -16908.513535083956, -15573.645004468563, -19965.89690040313, -10813.796319222012, -5625.934079400788, -11324.488976536868, -11001.103937757485, -11585.512648285943, 0.006, -0.03, 0.99, 192.0, 0.0, 24.0, 127.5, 8.0, 15.0, 120.0, 0.0, 0.0, 0.0, 1.6444984973163176E9, 0.0, 2022-02-11 00:08:17.316
30.0, -7638.373391434359, -9491.333006779314, -10285.244618087367, -16269.74538204019, -2139.084296117341, -2325.1625687077726, -6139.68892570602, -7345.744353025479, -16911.665131052152, -15587.681899986495, -19984.15827562312, -10819.80893848049, -5638.451056295759, -11333.161453385526, -11011.050464040098, -11587.211380864546, 0.006, -0.03, 0.99, 192.0, 0.0, 0.0, 0.0, 0.0, 0.0, 0.0, 0.0, 0.0, 0.0, 1.6444984973163252E9, 0.0, 2022-02-11 00:08:17.316
32.0, -7623.263612182572, -9484.44866948708, -10273.241731314865, -16270.88532100741, -2126.187339566629, -2313.1820336797277, -6130.480006990434, -7335.26138487594, -16903.350282114778, -15573.689707957472, -19962.968821879487, -10806.509650529582, -5638.316945829028, -11315.19065084346, -11005.373120948449, -11580.483505783499, 0.006, -0.03, 0.99, 192.0, 0.0, 0.0, 0.0, 0.0, 0.0, 0.0, 0.0, 0.0, 0.0, 1.644498497316332E9, 0.0, 2022-02-11 00:08:17.316
34.0, -7630.885557041831, -9479.933617107108, -10285.244618087367, -16279.736611811712, -2132.3340692918387, -2318.948783749197, -6122.120454564149, -7339.754085511457, -16904.6913867821, -15579.501161515853, -19973.608252240214, -10817.551412290504, -5635.232405094195, -11304.528868738278, -11000.746309846201, -11582.159886617648, 0.006, -0.03, 0.99, 192.0, 0.0, 0.0, 0.0, 0.0, 0.0, 0.0, 0.0, 0.0, 0.0, 1.6444984973163395E9, 0.0, 2022-02-11 00:08:17.316
36.0, -7618.592097591412, -9477.899608361675, -10277.354452294643, -16274.863931520455, -2120.9123278751767, -2316.98183023713, -6118.275954517836, -7336.781303498901, -16898.745822756984, -15579.679975471494, -19979.643223243147, -10820.367732091872, -5631.499663770159, -11305.177069327483, -11001.394510435404, -11583.210418607046, 0.006, -0.03, 0.99, 192.0, 0.0, 0.0, 0.0, 0.0, 0.0, 0.0, 0.0, 0.0, 0.0, 1.6444984973163464E9, 0.0, 2022-02-11 00:08:17.316
38.0, -7629.075065740952, -9477.765497894943, -10280.930731407492, -16277.479085621726, -2128.735438434534, -2325.3190309189595, -6110.095216047194, -7345.744353025479, -16903.886723981705, -15581.043431883269, -19970.590766738747, -10813.259877355085, -5641.4908935416815, -11323.52785152529, -10999.136984245419, -11585.803220963862, 0.01, -0.024, 0.98, 192.0, 0.0, 40.0, 127.5, 32.0, 15.0, 80.0, 0.0, 0.0, 0.0, 1.644498497316359E9, 0.0, 2022-02-11 00:08:17.316
40.0, -7626.236394195127, -9474.613901926745, -10279.902551162548, -16275.914463509855, -2132.4905315030255, -2319.0381907270184, -6115.236117271915, -7338.792960499878, -16899.170505901635, -15577.534208003784, -19980.85021744373, -10825.888612972334, -5629.756227702645, -11312.597848486645, -11004.814327337066, -11586.67493899762, 0.01, -0.024, 0.98, 192.0, 0.0, 0.0, 0.0, 0.0, 0.0, 0.0, 0.0, 0.0, 0.0, 1.6444984973163664E9, 0.0, 2022-02-11 00:08:17.316
42.0, -7616.513385357069, -9478.190181039594, -10272.325309792199, -16276.070925721042, -2118.3642290072717, -2316.959478492675, -6116.420759728046, -7339.463512833538, -16900.57866580232, -15571.990975378869, -19968.892034160144, -10820.703008258703, -5630.426780036304, -11305.400586772035, -10997.013568522165, -11580.058822638848, 0.01, -0.024, 0.98, 192.0, 0.0, 0.0, 0.0, 0.0, 0.0, 0.0, 0.0, 0.0, 0.0, 1.644498497316373E9, 0.0, 2022-02-11 00:08:17.316
44.0, -7633.7242285876555, -9468.847151857275, -10284.015272142324, -16276.987347243708, -2131.931737891643, -2327.6212605978562, -6127.484873233423, -7350.482922850004, -16908.513535083956, -15584.217379595922, -19979.397354054137, -10824.927487960755, -5647.145884888874, -11336.849491220653, -11001.528620902136, -11587.747822731475, 0.01, -0.024, 0.98, 192.0, 0.0, 0.0, 0.0, 0.0, 0.0, 0.0, 0.0, 0.0, 0.0, 1.64449849731638E9, 0.0, 2022-02-11 00:08:17.316
46.0, -7616.513385357069, -9470.814105369343, -10273.398193526053, -16274.103972208975, -2116.061999328375, -2320.803978538988, -6129.988268612417, -7348.672431549125, -16903.953779215073, -15581.55752200574, -19983.33126107827, -10823.631086782347, -5640.283899341095, -11331.283906851282, -11005.864859326466, -11586.00438666396, 0.011, -0.024, 0.98, 192.0, 0.0, 48.0, 127.5, 32.0, 15.0, 80.0, 0.0, 0.0, 0.0, 1.644498497316387E9, 0.0, 2022-02-11 00:08:17.316
48.0, -7609.740806787111, -9477.698442661576, -10274.51578074882, -16280.273053678638, -2110.9434498481096, -2325.0955134744067, -6123.439207487012, -7352.449876362071, -16897.270607622937, -15581.13283886109, -19963.214691068493, -10813.61750526637, -5631.700829470257, -11316.822328188699, -11001.059234268574, -11586.00438666396, 0.011, -0.024, 0.98, 192.0, 0.0, 0.0, 0.0, 0.0, 0.0, 0.0, 0.0, 0.0, 0.0, 1.644498497316394E9, 0.0, 2022-02-11 00:08:17.316
50.0, -7619.9332022587305, -9480.179486296116, -10278.069708117213, -16279.624853089435, -2121.9181563756656, -2321.8992140172977, -6127.529576722333, -7347.912472237644, -16892.755555242962, -15589.09005988718, -19973.04945862883, -10823.496976315615, -5627.54340500157, -11306.272304805792, -11003.27205696965, -11586.473773297523, 0.011, -0.024, 0.98, 192.0, 0.0, 0.0, 0.0, 0.0, 0.0, 0.0, 0.0, 0.0, 0.0, 1.6444984973164015E9, 0.0, 2022-02-11 00:08:17.316
52.0, -7618.122710957851, -9473.093983303785, -10272.03473711428, -16278.820190289045, -2109.5576416918807, -2320.4239988832474, -6119.840576629708, -7336.8260069878115, -16899.841058235295, -15583.971510406915, -19963.95229863552, -10815.942086689722, -5637.2664138396285, -11324.086645136673, -11001.483917413225, -11581.489334283988, 0.011, -0.024, 0.98, 192.0, 0.0, 0.0, 0.0, 0.0, 0.0, 0.0, 0.0, 0.0, 0.0, 1.6444984973164086E9, 0.0, 2022-02-11 00:08:17.316
54.0, -7624.962344761175, -9470.836457113797, -10283.054147130746, -16285.74923107019, -2130.7917989244224, -2327.733019320133, -6134.458617503478, -7348.113637937741, -16904.222000148537, -15584.820876696216, -19971.730705705966, -10821.150043147809, -5637.4452277952705, -11318.923392167497, -11006.110728515474, -11587.077270397815, 0.011, -0.024, 0.98, 192.0, 0.0, 0.0, 0.0, 0.0, 0.0, 0.0, 0.0, 0.0, 0.0, 1.6444984973164167E9, 0.0, 2022-02-11 00:08:17.316
56.0, -7605.985713718619, -9449.53524464789, -10270.157190580034, -16279.490742622704, -2119.258298785484, -2316.534795348024, -6113.649143415588, -7327.058294660842, -16896.91297971165, -15576.282510314288, -19971.887167917153, -10826.805034495, -5629.599765491458, -11320.845642190652, -11007.340074460517, -11583.232770351502, 0.0115, -0.024, 0.982, 192.0, 0.0, 48.0, 127.5, 32.0, 15.0, 96.0, 0.0, 0.0, 0.0, 1.644498497316425E9, 0.0, 2022-02-11 00:08:17.316
58.0, -7603.348207872893, -9460.129971519706, -10269.173713824, -16281.256530434674, -2116.08435107283, -2323.8438157849096, -6116.174890539038, -7332.221547630018, -16895.81774423334, -15575.969585891913, -19963.706429446513, -10812.701083743703, -5629.040971880076, -11327.28294459378, -10998.13115574493, -11580.975244161516, 0.0115, -0.024, 0.982, 192.0, 0.0, 0.0, 0.0, 0.0, 0.0, 0.0, 0.0, 0.0, 0.0, 1.6444984973164322E9, 0.0, 2022-02-11 00:08:17.316
60.0, -7608.891440497809, -9469.473000702024, -10273.532303992784, -16278.373155399939, -2117.447807484604, -2321.563937850468, -6123.126283064638, -7340.268175633929, -16889.96158718605, -15579.143533604567, -19971.44013302805, -10827.81086299549, -5628.750399202157, -11319.750406712343, -11005.998969793198, -11585.311482585847, 0.0115, -0.024, 0.982, 192.0, 0.0, 0.0, 0.0, 0.0, 0.0, 0.0, 0.0, 0.0, 0.0, 1.644498497316439E9, 0.0, 2022-02-11 00:08:17.316
62.0, -7607.326818385937, -9465.114410533239, -10266.156228322534, -16277.41203038836, -2109.8482143697997, -2315.283097658527, -6117.873623117641, -7341.07283843432, -16894.230770377013, -15560.859806640126, -19959.72781893347, -10817.57376403496, -5629.979745147199, -11317.314066566714, -11001.372158690949, -11580.505857527955, 0.0115, -0.024, 0.982, 192.0, 0.0, 0.0, 0.0, 0.0, 0.0, 0.0, 0.0, 0.0, 0.0, 1.6444984973164456E9, 0.0, 2022-02-11 00:08:17.316
64.0, -7614.993466734108, -9464.689727388588, -10272.37001328111, -16278.909597266866, -2121.672287186657, -2333.186844967228, -6128.624812200644, -7341.765742512434, -16894.655453521664, -15575.880178914093, -19963.61702246869, -10816.322066345461, -5639.859216196444, -11315.592982243656, -11000.27692321264, -11584.14919187417, 0.0115, -0.024, 0.982, 192.0, 0.0, 0.0, 0.0, 0.0, 0.0, 0.0, 0.0, 0.0, 0.0, 1.6444984973164527E9, 0.0, 2022-02-11 00:08:17.316
66.0, -7602.722359028145, -9453.223282483015, -10263.719888176905, -16273.500475108682, -2106.9871910795205, -2302.7214172746444, -6107.278896245825, -7320.6880474910795, -16885.96062492855, -15572.527417245796, -19964.980478880465, -10815.204479122696, -5623.140111343874, -11313.581325242678, -11000.70160635729, -11577.287206326391, 0.00975, -0.026000000000000002, 0.987, 192.0, 0.0, 32.0, 127.5, 16.0, 15.5, 0.0, 0.0, 0.0, 0.0, 1.6444984973164597E9, 0.0, 2022-02-11 00:08:17.316
68.0, -7614.680542311734, -9473.317500748337, -10270.291301046766, -16279.960129256266, -2115.5702609503583, -2317.3171064039598, -6108.977628824428, -7332.959155197043, -16891.54856104238, -15574.650832969051, -19954.497510730926, -10815.47270005616, -5613.685323439279, -11299.164450069005, -10993.70551034278, -11574.783810947396, 0.00975, -0.026000000000000002, 0.987, 192.0, 0.0, 0.0, 0.0, 0.0, 0.0, 0.0, 0.0, 0.0, 0.0, 1.6444984973164666E9, 0.0, 2022-02-11 00:08:17.316
70.0, -7622.168376704261, -9471.596416425278, -10278.002652883846, -16273.902806508877, -2127.863720400777, -2321.8768622728426, -6117.605402184177, -7339.150588411163, -16897.427069834124, -15585.200856351956, -19973.831769684766, -10821.775891992556, -5640.663878996835, -11332.356790585136, -11003.741443603212, -11583.143363373681, 0.00975, -0.026000000000000002, 0.987, 192.0, 0.0, 0.0, 0.0, 0.0, 0.0, 0.0, 0.0, 0.0, 0.0, 1.644498497316488E9, 0.0, 2022-02-11 00:08:17.316
72.0, -7607.818556763954, -9463.572140165823, -10269.441934757464, -16273.7910477866, -2120.197072052607, -2311.9973912235964, -6117.583050439722, -7334.344963353273, -16897.11414541175, -15579.054126626746, -19963.460560257503, -10809.884763942333, -5634.427742293804, -11317.694046222454, -11001.975655791242, -11576.214322592536, 0.00975, -0.026000000000000002, 0.987, 192.0, 0.0, 0.0, 0.0, 0.0, 0.0, 0.0, 0.0, 0.0, 0.0, 1.6444984973164947E9, 0.0, 2022-02-11 00:08:17.316
74.0, -7617.250992924094, -9465.15911402215, -10279.880199418092, -16278.015527488653, -2133.0716768588636, -2323.083856473429, -6126.948431366495, -7348.40421061566, -16900.176334402124, -15577.601263237151, -19964.734609691455, -10815.673865756258, -5636.26058533914, -11323.416092803012, -11006.624818637947, -11581.66814823963, 0.00975, -0.026000000000000002, 0.987, 192.0, 0.0, 0.0, 0.0, 0.0, 0.0, 0.0, 0.0, 0.0, 0.0, 1.6444984973165011E9, 0.0, 2022-02-11 00:08:17.316
76.0, -7610.366655631859, -9457.939500563085, -10271.341833036166, -16274.103972208975, -2123.482778487537, -2319.217004682661, -6113.44797771549, -7336.446027332071, -16896.600055289276, -15572.594472479163, -19972.513016761903, -10818.892516957821, -5634.87477718291, -11324.377217814592, -11008.748234361201, -11578.158924360148, 0.008875000000000001, -0.026000000000000002, 0.9895, 192.0, 0.0, 32.0, 127.5, 24.0, 15.5, 0.0, 0.0, 0.0, 0.0, 1.644498497316508E9, 0.0, 2022-02-11 00:08:17.316
78.0, -7617.496862113102, -9464.175637266117, -10274.69459470446, -16277.881417021921, -2128.5789762233467, -2329.297641432004, -6120.645239430099, -7351.980489728509, -16899.036395434905, -15573.197969579456, -19962.36532477919, -10815.338589589428, -5632.416085292827, -11334.681372008488, -11004.680216870334, -11578.091869126782, 0.008875000000000001, -0.026000000000000002, 0.9895, 192.0, 0.0, 0.0, 0.0, 0.0, 0.0, 0.0, 0.0, 0.0, 0.0, 1.6444984973165145E9, 0.0, 2022-02-11 00:08:17.316
80.0, -7619.441463880714, -9458.520645918923, -10278.673205217507, -16280.988309501208, -2136.3797350382492, -2320.9827924946303, -6115.213765527459, -7351.131123439208, -16898.567008801343, -15575.276681813799, -19975.597557496734, -10820.323028602961, -5633.310155071039, -11312.173165341994, -11013.41974895236, -11583.992729662983, 0.008875000000000001, -0.026000000000000002, 0.9895, 192.0, 0.0, 0.0, 0.0, 0.0, 0.0, 0.0, 0.0, 0.0, 0.0, 1.6444984973165212E9, 0.0, 2022-02-11 00:08:17.316
82.0, -7604.354036373382, -9457.15718950715, -10265.776248666794, -16277.635547832913, -2116.218461539562, -2311.6844668012222, -6106.340122978702, -7316.642381744669, -16893.40375583217, -15562.737353174372, -19961.270089300884, -10812.410511065784, -5633.9807074046985, -11314.788319443265, -11003.875554069944, -11574.940273158583, 0.008875000000000001, -0.026000000000000002, 0.9895, 192.0, 0.0, 0.0, 0.0, 0.0, 0.0, 0.0, 0.0, 0.0, 0.0, 1.644498497316528E9, 0.0, 2022-02-11 00:08:17.316
84.0, -7621.27430692605, -9470.434125713602, -10273.88993190407, -16276.987347243708, -2126.8802436447436, -2317.607679081879, -6119.482948718423, -7333.987335441988, -16887.949930185074, -15572.147437590056, -19959.996039866932, -10816.366769834372, -5622.089579354475, -11309.088624607162, -11000.165164490363, -11572.459229524045, 0.008875000000000001, -0.026000000000000002, 0.9895, 192.0, 0.0, 0.0, 0.0, 0.0, 0.0, 0.0, 0.0, 0.0, 0.0, 1.6444984973165345E9, 0.0, 2022-02-11 00:08:17.316
86.0, -7609.964324231663, -9465.270872744426, -10270.246597557854, -16274.79687628709, -2113.9162318606654, -2311.5950598234012, -6100.662779887054, -7327.930012694599, -16887.301729595867, -15573.577949235196, -19964.354630035716, -10813.282229099541, -5618.245079308162, -11305.37823502758, -11005.149603503896, -11573.129781857704, 0.0074375000000000005, -0.025, 0.98975, 192.0, 0.0, 24.0, 127.5, 32.0, 15.0, 120.0, 0.0, 0.0, 0.0, 1.6444984973165412E9, 0.0, 2022-02-11 00:08:17.316
88.0, -7614.814652778466, -9467.64015765669, -10276.616844727618, -16285.011623503164, -2121.9405081201207, -2324.2684989295603, -6108.4411869575015, -7331.908623207644, -16897.158848900657, -15575.075516113702, -19956.978554365465, -10816.836156467934, -5630.784407947589, -11305.020607116296, -11002.355635446982, -11573.979148147006, 0.0074375000000000005, -0.025, 0.98975, 192.0, 0.0, 0.0, 0.0, 0.0, 0.0, 0.0, 0.0, 0.0, 0.0, 1.644498497316548E9, 0.0, 2022-02-11 00:08:17.316
90.0, -7620.201423192195, -9462.432201198602, -10280.729565707394, -16276.964995499255, -2123.505130231992, -2325.2296239411385, -6111.369265481147, -7333.786169741889, -16897.04709017838, -15579.277644071299, -19975.038763885354, -10828.749636262613, -5632.058457381542, -11322.81259570272, -11007.205963993783, -11576.259026081447, 0.0074375000000000005, -0.025, 0.98975, 192.0, 0.0, 0.0, 0.0, 0.0, 0.0, 0.0, 0.0, 0.0, 0.0, 1.6444984973165548E9, 0.0, 2022-02-11 00:08:17.316
92.0, -7618.03330398003, -9464.220340755028, -10269.374879524097, -16277.501437366182, -2113.670362671657, -2315.1266354473396, -6103.5685066662445, -7331.282774362895, -16893.739031998997, -15568.392344521564, -19961.80653116781, -10808.81188020848, -5629.420951535815, -11306.495822250346, -11000.232219723728, -11569.039412622382, 0.0074375000000000005, -0.025, 0.98975, 192.0, 0.0, 0.0, 0.0, 0.0, 0.0, 0.0, 0.0, 0.0, 0.0, 1.6444984973165612E9, 0.0, 2022-02-11 00:08:17.316
94.0, -7636.004106522097, -9472.848114114775, -10280.059013373735, -16282.79880080209, -2135.5303687489472, -2326.9060047752864, -6121.874585375141, -7352.248710661974, -16900.35514835777, -15582.138667361578, -19967.95326089302, -10822.960534448688, -5635.791198705578, -11322.343209069159, -11004.926086059342, -11577.600130748766, 0.0074375000000000005, -0.025, 0.98975, 192.0, 0.0, 0.0, 0.0, 0.0, 0.0, 0.0, 0.0, 0.0, 0.0, 1.644498497316568E9, 0.0, 2022-02-11 00:08:17.316
96.0, -7622.07896972644, -9462.29809073187, -10273.822876670703, -16281.904731023877, -2121.873452886755, -2320.0440192275073, -6105.133128778116, -7333.294431363873, -16898.946988457083, -15586.474905785908, -19973.384734795658, -10829.621354296369, -5642.653184253358, -11311.659075219522, -11006.691873871312, -11579.09769762727, 0.00871875, -0.026500000000000003, 0.9898750000000001, 192.0, 0.0, 40.0, 127.5, 16.0, 15.0, 120.0, 0.0, 0.0, 0.0, 1.6444984973165748E9, 0.0, 2022-02-11 00:08:17.316
98.0, -7626.616373850868, -9462.789829109888, -10279.23199882889, -16283.111725224464, -2128.355458778794, -2318.300583159993, -6116.443111472501, -7342.145722168175, -16900.757479757962, -15584.351490062654, -19964.75696143591, -10821.507671059093, -5639.680402240801, -11312.530793253278, -10997.438251666816, -11573.62152023572, 0.00871875, -0.026500000000000003, 0.9898750000000001, 192.0, 0.0, 0.0, 0.0, 0.0, 0.0, 0.0, 0.0, 0.0, 0.0, 1.6444984973165815E9, 0.0, 2022-02-11 00:08:17.316
100.0, -7620.2237749366495, -9447.34477369127, -10283.70234771995, -16280.608329845469, -2119.1688918076625, -2317.272402915049, -6119.97468709644, -7346.236091403496, -16897.739994256495, -15570.582815478185, -19980.604348254725, -10831.051865941508, -5635.54532951657, -11311.659075219522, -11007.18361224933, -11580.014119149939, 0.00871875, -0.026500000000000003, 0.9898750000000001, 192.0, 0.0, 0.0, 0.0, 0.0, 0.0, 0.0, 0.0, 0.0, 0.0, 1.644498497316588E9, 0.0, 2022-02-11 00:08:17.316
102.0, -7604.622257306845, -9440.415732910125, -10273.912283648526, -16279.557797856069, -2114.98911559452, -2312.0644464569627, -6121.427550486034, -7344.40324835816, -16891.369747086734, -15572.817989923715, -19965.42751376957, -10812.879897699344, -5628.795102691067, -11298.695063435443, -11001.394510435404, -11571.676918468109, 0.00871875, -0.026500000000000003, 0.9898750000000001, 192.0, 0.0, 0.0, 0.0, 0.0, 0.0, 0.0, 0.0, 0.0, 0.0, 1.6444984973165972E9, 0.0, 2022-02-11 00:08:17.316
104.0, -7639.803903079499, -9467.707212890055, -10283.635292486584, -16282.731745568723, -2124.488606988026, -2332.98567926713, -6132.223443057948, -7369.392498659194, -16899.997520446483, -15588.285397086787, -19966.075714358773, -10821.28415361454, -5635.299460327561, -11309.75917694082, -11000.343978446004, -11580.461154039045, 0.00871875, -0.026500000000000003, 0.9898750000000001, 192.0, 0.0, 0.0, 0.0, 0.0, 0.0, 0.0, 0.0, 0.0, 0.0, 1.644498497794594E9, 0.0, 2022-02-11 00:08:17.794
106.0, -7633.65717335429, -9467.148419278672, -10275.74512669386, -16278.574321100035, -2112.351609748794, -2306.2976963874935, -6109.06703580225, -7337.317745365828, -16899.77400300193, -15587.65954824204, -19971.462484772503, -10819.80893848049, -5629.957393402743, -11292.615388943601, -11002.243876724706, -11576.14726735917, 0.010359375, -0.026250000000000002, 0.9899375, 192.0, 0.0, 48.0, 127.5, 24.0, 15.0, 120.0, 0.0, 0.0, 0.0, 1.644498497794738E9, 0.0, 2022-02-11 00:08:17.794
108.0, -7628.516272129568, -9461.091096531283, -10272.682937703483, -16279.468390878248, -2117.358400506783, -2306.1635859207613, -6123.796835398297, -7343.442123346583, -16906.010139704962, -15580.238769082878, -19962.208862568004, -10808.051920896998, -5650.208073879251, -11289.463792975403, -10994.93485628782, -11567.81006667734, 0.010359375, -0.026250000000000002, 0.9899375, 192.0, 0.0, 0.0, 0.0, 0.0, 0.0, 0.0, 0.0, 0.0, 0.0, 1.6444984977947452E9, 0.0, 2022-02-11 00:08:17.794
110.0, -7634.886519299331, -9457.090134273783, -10277.645024972562, -16278.127286210929, -2129.0707146013638, -2297.1558329052727, -6130.480006990434, -7336.669544776624, -16903.77496525943, -15582.026908639302, -19979.844388943242, -10819.607772780391, -5633.73483821569, -11308.932162395975, -11002.668559869357, -11572.883912668696, 0.010359375, -0.026250000000000002, 0.9899375, 192.0, 0.0, 0.0, 0.0, 0.0, 0.0, 0.0, 0.0, 0.0, 0.0, 1.644498497794752E9, 0.0, 2022-02-11 00:08:17.794
112.0, -7620.6484580813, -9452.485674915992, -10269.46428650192, -16278.619024588947, -2110.518766703459, -2298.049902683485, -6085.754166335365, -7332.869748219222, -16899.617540790743, -15577.713021959427, -19969.00379288242, -10812.678731999247, -5636.864082439432, -11303.47833674888, -10995.180725476828, -11565.306671298345, 0.010359375, -0.026250000000000002, 0.9899375, 192.0, 0.0, 0.0, 0.0, 0.0, 0.0, 0.0, 0.0, 0.0, 0.0, 1.6444984977947588E9, 0.0, 2022-02-11 00:08:17.794
114.0, -7641.636746124834, -9456.576044151312, -10281.020138385313, -16285.570417114546, -2124.4662552435702, -2317.7194378041554, -6109.245849757892, -7362.798734044878, -16905.47369783803, -15586.98899590838, -19973.205920840017, -10810.600019764903, -5632.97487890421, -11311.770833941799, -10997.08062375553, -11576.61665399273, 0.010359375, -0.026250000000000002, 0.9899375, 192.0, 0.0, 0.0, 0.0, 0.0, 0.0, 0.0, 0.0, 0.0, 0.0, 1.644498497794767E9, 0.0, 2022-02-11 00:08:17.794
116.0, -7630.483225641636, -9448.663526614133, -10275.990995882868, -16282.17295195734, -2116.1514063061963, -2297.2228881386386, -6108.597649168689, -7326.901832449656, -16905.451346093578, -15585.98316740789, -19983.308909333817, -10823.921659460266, -5639.523940029614, -11301.243162303348, -11003.428519180838, -11576.124915614715, 0.0101796875, -0.025125, 0.98896875, 192.0, 0.0, 40.0, 127.5, 32.0, 15.0, 112.0, 0.0, 0.0, 0.0, 1.6444984977947736E9, 0.0, 2022-02-11 00:08:17.794
118.0, -7627.6222023513565, -9440.035753254384, -10275.23103657139, -16283.31289092456, -2114.407970238682, -2295.9264869602307, -6103.25558224387, -7329.204062128551, -16902.657378036663, -15579.992899893869, -19969.204958582515, -10815.42799656725, -5635.92530917231, -11270.867141588586, -10994.443117909805, -11567.944177144072, 0.0101796875, -0.025125, 0.98896875, 192.0, 0.0, 0.0, 0.0, 0.0, 0.0, 0.0, 0.0, 0.0, 0.0, 1.6444984977947807E9, 0.0, 2022-02-11 00:08:17.794
120.0, -7634.260670454582, -9448.775285336409, -10281.333062807687, -16275.400373387381, -2117.224290040051, -2302.922582974742, -6108.776463124331, -7337.541262810381, -16897.270607622937, -15569.576986977696, -19971.015449883398, -10808.320141830462, -5638.026373151109, -11308.015740873307, -10998.108804000474, -11573.442706280079, 0.0101796875, -0.025125, 0.98896875, 192.0, 0.0, 0.0, 0.0, 0.0, 0.0, 0.0, 0.0, 0.0, 0.0, 1.6444984977947874E9, 0.0, 2022-02-11 00:08:17.794
122.0, -7622.771873804555, -9439.320497431814, -10274.046394115257, -16275.556835598569, -2105.0872928008193, -2294.3171613594486, -6103.724968877432, -7325.359562082239, -16894.454287821565, -15580.216417338423, -19962.38767652365, -10810.957647676189, -5623.609497977436, -11302.271342548293, -10994.733690587724, -11566.625424221209, 0.0101796875, -0.025125, 0.98896875, 192.0, 0.0, 0.0, 0.0, 0.0, 0.0, 0.0, 0.0, 0.0, 0.0, 1.644498497794794E9, 0.0, 2022-02-11 00:08:17.794
124.0, -7631.444350653214, -9441.779189321898, -10281.80244944125, -16280.049536234086, -2112.0163335819643, -2300.5085945735686, -6112.710370148465, -7337.027172687909, -16900.422203591133, -15585.55848426324, -19966.85802541471, -10815.71856924517, -5638.249890595662, -11294.112955822106, -10995.158373732374, -11569.486447511488, 0.0101796875, -0.025125, 0.98896875, 192.0, 0.0, 0.0, 0.0, 0.0, 0.0, 0.0, 0.0, 0.0, 0.0, 1.6444984977948008E9, 0.0, 2022-02-11 00:08:17.794
126.0, -7619.195594691706, -9435.610107852233, -10271.23007431389, -16278.395507144394, -2112.5527754488917, -2293.825422981432, -6103.188527010504, -7330.947498196066, -16885.5359417839, -15580.238769082878, -19966.031010869865, -10815.629162267347, -5632.907823670844, -11286.245141773838, -10996.164202232863, -11566.357203287746, 0.014, -0.026000000000000002, 0.988, 192.0, 0.0, 56.0, 127.5, 24.0, 15.0, 112.0, 0.0, 0.0, 0.0, 1.6444984977948077E9, 0.0, 2022-02-11 00:08:17.794
128.0, -7624.6494203388, -9435.498349129957, -10270.805391169239, -16279.870722278443, -2109.490586458515, -2298.631048039323, -6105.557811922767, -7334.099094164264, -16896.041261677892, -15577.422449281508, -19956.62092645418, -10810.734130231634, -5625.621154978413, -11296.303426778726, -10993.660806853868, -11567.787714932885, 0.014, -0.026000000000000002, 0.988, 192.0, 0.0, 0.0, 0.0, 0.0, 0.0, 0.0, 0.0, 0.0, 0.0, 1.6444984977948148E9, 0.0, 2022-02-11 00:08:17.794
