%OpenBCI Raw EEG Data
%Number of channels = 16
%Sample Rate = 125 Hz
%Board = OpenBCI_GUI$BoardCytonSerialDaisy
Sample Index, EXG Channel 0, EXG Channel 1, EXG Channel 2, EXG Channel 3, EXG Channel 4, EXG Channel 5, EXG Channel 6, EXG Channel 7, EXG Channel 8, EXG Channel 9, EXG Channel 10, EXG Channel 11, EXG Channel 12, EXG Channel 13, EXG Channel 14, EXG Channel 15, Accel Channel 0, Accel Channel 1, Accel Channel 2, Other, Other, Other, Other, Other, Other, Other, Analog Channel 0, Analog Channel 1, Analog Channel 2, Timestamp, Other, Timestamp (Formatted)
188.0, -7924.8109966291195, -9895.76547095364, -9479.64304442919, -15619.466080601942, -2121.605231953291, -2272.5912657488902, -5531.296793377018, -6557.174808642246, -14716.924991241098, -11435.957126135485, -19548.992162822746, -11724.98753368706, -6164.521713795867, -9778.821143963474, -10508.560896940338, -10834.918717732276, 0.0, 0.0, 0.0, 192.0, 0.0, 0.0, 0.0, 0.0, 0.0, 0.0, 0.0, 0.0, 0.0, 1.6444987879860332E9, 0.0, 2022-02-11 00:13:07.986
190.0, -7902.727473107276, -9877.638206200387, -9468.221303012528, -15615.80039451127, -2106.808377123878, -2260.320158042927, -5523.361924095384, -6543.786113713517, -14711.582924316279, -11431.017390610861, -19541.750197619225, -11717.007960916515, -6162.107725394693, -9768.248768836114, -10506.146908539165, -10833.152929920308, 0.0, 0.0, 0.0, 192.0, 0.0, 0.0, 0.0, 0.0, 0.0, 0.0, 0.0, 0.0, 0.0, 1.6444987879860415E9, 0.0, 2022-02-11 00:13:07.986
192.0, -7900.112319006004, -9867.3787554954, -9470.054146057862, -15621.075406202723, -2111.3010777593945, -2260.275454554016, -5538.091723691431, -6546.557730025975, -14709.660674293124, -11428.268126042858, -19533.077720770565, -11708.804870701417, -6154.083449135238, -9756.581158230443, -10504.761100382937, -10836.975078222165, 0.01, -0.024, 0.99, 192.0, 0.0, 40.0, 127.5, 32.0, 15.0, 120.0, 0.0, 0.0, 0.0, 1.6444987879860485E9, 0.0, 2022-02-11 00:13:07.986
194.0, -7915.847947102541, -9889.484630761699, -9471.775230380921, -15614.213420654944, -2108.864737613766, -2257.3920795192817, -5520.769121738568, -6537.549977010486, -14709.52656382639, -11418.96980034945, -19541.705494130314, -11725.635734276264, -6151.222425844959, -9749.83093140494, -10507.59977192876, -10833.309392131496, 0.01, -0.024, 0.99, 192.0, 0.0, 0.0, 0.0, 0.0, 0.0, 0.0, 0.0, 0.0, 0.0, 1.6444987879860551E9, 0.0, 2022-02-11 00:13:07.986
196.0, -7919.826557615585, -9885.327206293012, -9473.675128659623, -15614.772214266326, -2108.9541445915875, -2257.1462103302733, -5528.078142175454, -6533.280793819523, -14718.891944753164, -11419.439186983012, -19533.703569615314, -11702.702844465119, -6157.637376503632, -9775.513085784089, -10511.287809763886, -10830.135444418842, 0.01, -0.024, 0.99, 192.0, 0.0, 0.0, 0.0, 0.0, 0.0, 0.0, 0.0, 0.0, 0.0, 1.644498787986062E9, 0.0, 2022-02-11 00:13:07.986
198.0, -7927.515557708211, -9889.417575528334, -9483.912227620152, -15619.935467235502, -2118.3642290072717, -2269.059690124952, -5537.599985313414, -6550.558692283475, -14724.904564011642, -11439.868681415162, -19553.082532058066, -11714.258696348512, -6157.615024759177, -9771.780344460052, -10519.334437767797, -10840.260784657095, 0.01, -0.024, 0.99, 192.0, 0.0, 0.0, 0.0, 0.0, 0.0, 0.0, 0.0, 0.0, 0.0, 1.6444987879860685E9, 0.0, 2022-02-11 00:13:07.986
200.0, -7907.734263865264, -9883.114383591937, -9474.435087971102, -15621.65655155856, -2102.60624916628, -2258.1520388307617, -5529.776874754057, -6549.731677738629, -14716.813232518822, -11436.158291835582, -19544.365351720495, -11713.02935040347, -6156.430382303046, -9769.522818270067, -10516.115786566234, -10841.825406768967, 0.01, -0.024, 0.99, 192.0, 0.0, 0.0, 0.0, 0.0, 0.0, 0.0, 0.0, 0.0, 0.0, 1.6444987879860752E9, 0.0, 2022-02-11 00:13:07.986
202.0, -7922.553470439133, -9880.09689809047, -9482.682881675111, -15629.502013862375, -2113.9385836051206, -2265.438707523192, -5534.493092834126, -6556.8395324754165, -14722.691741310568, -11428.983381865428, -19545.639401154447, -11711.934114925161, -6157.100934636705, -9758.838684420429, -10514.84173713228, -10844.753485292613, 0.012, -0.024, 0.988, 192.0, 0.0, 48.0, 127.5, 32.0, 15.0, 112.0, 0.0, 0.0, 0.0, 1.644498787986082E9, 0.0, 2022-02-11 00:13:07.986
204.0, -7926.934412352373, -9884.56724698153, -9478.97249209553, -15628.898516762081, -2105.936659090121, -2262.532980744002, -5543.0538109605095, -6550.893968450305, -14720.076587209296, -11432.559660978277, -19555.273003014685, -11728.452054077632, -6156.74330672542, -9756.02236461906, -10520.407321501652, -10847.793322538535, 0.012, -0.024, 0.988, 192.0, 0.0, 0.0, 0.0, 0.0, 0.0, 0.0, 0.0, 0.0, 0.0, 1.6444987879860892E9, 0.0, 2022-02-11 00:13:07.986
206.0, -7916.943182580851, -9889.372872039423, -9477.094945561284, -15627.266839416843, -2098.001789808487, -2256.788582418988, -5544.886654005844, -6558.292395865011, -14713.996912717452, -11429.810396410276, -19536.85516558351, -11715.17511787118, -6158.2185218594705, -9759.777457687553, -10514.908792365646, -10847.078066715965, 0.012, -0.024, 0.988, 192.0, 0.0, 0.0, 0.0, 0.0, 0.0, 0.0, 0.0, 0.0, 0.0, 1.644498787986096E9, 0.0, 2022-02-11 00:13:07.986
208.0, -7922.799339628142, -9886.556552238055, -9484.895704376186, -15628.585592339707, -2103.053284055386, -2268.1656203467396, -5535.565976567981, -6559.991128443615, -14717.886116252675, -11441.276841315848, -19553.171939035885, -11718.572583028386, -6154.485780535434, -9768.405231047302, -10517.814519144837, -10848.95561325021, 0.012, -0.024, 0.988, 192.0, 0.0, 0.0, 0.0, 0.0, 0.0, 0.0, 0.0, 0.0, 0.0, 1.6444987879861028E9, 0.0, 2022-02-11 00:13:07.986
210.0, -7913.61277265701, -9885.349558037467, -9475.01623332694, -15631.871298774637, -2088.278780970428, -2254.2181318066278, -5535.14129342333, -6550.2681196055555, -14715.270962151404, -11434.280745301336, -19548.142796533444, -11720.740702240551, -6152.205902600993, -9758.861036164884, -10517.591001700283, -10848.307412661006, 0.012, -0.024, 0.988, 192.0, 0.0, 0.0, 0.0, 0.0, 0.0, 0.0, 0.0, 0.0, 0.0, 1.6444987879861095E9, 0.0, 2022-02-11 00:13:07.986
212.0, -7933.684639177876, -9887.115345849437, -9486.996768354986, -15635.805205798772, -2104.4837957005257, -2263.918788900231, -5551.078087219964, -6559.901721465793, -14725.731578556488, -11429.430416754534, -19541.549031919127, -11719.041969661948, -6154.955167168995, -9756.31293729698, -10518.552126711862, -10850.095552217432, 0.012, -0.03, 0.984, 192.0, 0.0, 48.0, 127.5, 8.0, 15.0, 96.0, 0.0, 0.0, 0.0, 1.6444987879861162E9, 0.0, 2022-02-11 00:13:07.986
214.0, -7931.136540309971, -9892.166840096335, -9488.87431488923, -15635.022894742835, -2101.5557171768805, -2255.6262917073122, -5548.373526140872, -6549.1505323827905, -14726.715055312521, -11434.92894589054, -19559.139854805453, -11720.69599875164, -6159.760792226886, -9760.112733854381, -10527.202251816065, -10854.454142386216, 0.012, -0.03, 0.984, 192.0, 0.0, 0.0, 0.0, 0.0, 0.0, 0.0, 0.0, 0.0, 0.0, 1.644498787986123E9, 0.0, 2022-02-11 00:13:07.986
216.0, -7921.324124494091, -9894.066738375037, -9489.142535822695, -15638.040380244302, -2100.08050204283, -2255.179256818206, -5551.52512210907, -6553.799695229494, -14729.799596047354, -11449.994021653418, -19548.723941889282, -11717.007960916515, -6163.292367850825, -9749.518006982566, -10522.441330247084, -10851.14608420683, 0.012, -0.03, 0.984, 192.0, 0.0, 0.0, 0.0, 0.0, 0.0, 0.0, 0.0, 0.0, 0.0, 1.64449878798613E9, 0.0, 2022-02-11 00:13:07.986
218.0, -7939.272575291703, -9888.143526094382, -9499.31257954986, -15646.511691392863, -2106.3389904903165, -2266.39983253477, -5535.8565492459, -6558.91824470976, -14733.375875160204, -11455.69371648952, -19567.141779320453, -11730.307248867422, -6161.7948009723195, -9738.699762666198, -10521.055522090855, -10860.667927344792, 0.012, -0.03, 0.984, 192.0, 0.0, 0.0, 0.0, 0.0, 0.0, 0.0, 0.0, 0.0, 0.0, 1.644498787986137E9, 0.0, 2022-02-11 00:13:07.986
220.0, -7925.682714662876, -9893.932627908305, -9492.227076557527, -15638.353304666676, -2094.0008275509867, -2257.794410919477, -5523.227813628651, -6549.977546927637, -14731.408921648137, -11445.41191404008, -19566.605337453526, -11725.121644153793, -6169.327338853757, -9771.176847359759, -10522.46368199154, -10857.359869165406, 0.012, -0.03, 0.984, 192.0, 0.0, 0.0, 0.0, 0.0, 0.0, 0.0, 0.0, 0.0, 0.0, 1.6444987879861505E9, 0.0, 2022-02-11 00:13:07.986
222.0, -7936.165682812415, -9891.496287762677, -9496.809184170865, -15640.677886090029, -2104.1708712781515, -2259.1131638423403, -5541.086857448442, -6556.213683630667, -14730.760721058932, -11439.823977926253, -19555.54122394815, -11716.672684749687, -6164.991100429428, -9750.859111649885, -10523.715379681038, -10859.706802333212, 0.008, -0.032, 0.982, 192.0, 0.0, 32.0, 127.5, 0.0, 15.0, 88.0, 0.0, 0.0, 0.0, 1.6444987879861574E9, 0.0, 2022-02-11 00:13:07.986
224.0, -7933.662287433421, -9884.254322559158, -9492.271780046438, -15639.157967467067, -2097.6218101527465, -2255.11220158484, -5546.451276117716, -6559.253520876589, -14729.82194779181, -11442.729704705442, -19565.219529297297, -11723.534670297466, -6158.59850151521, -9746.031134847539, -10528.543356483384, -10861.472590145182, 0.008, -0.032, 0.982, 192.0, 0.0, 0.0, 0.0, 0.0, 0.0, 0.0, 0.0, 0.0, 0.0, 1.6444987879861653E9, 0.0, 2022-02-11 00:13:07.986
226.0, -7926.040342574161, -9883.76258418114, -9490.617750956744, -15640.1414442231, -2098.471176442048, -2249.4572102376474, -5561.069316991487, -6569.4012128592985, -14734.269944938416, -11432.134977833626, -19550.132101789965, -11704.960370655104, -6156.3409753252245, -9746.925204625752, -10523.60362095876, -10859.595043610936, 0.008, -0.032, 0.982, 192.0, 0.0, 0.0, 0.0, 0.0, 0.0, 0.0, 0.0, 0.0, 0.0, 1.644498787986172E9, 0.0, 2022-02-11 00:13:07.986
228.0, -7917.189051769859, -9874.173685809814, -9492.562352724357, -15641.124920979133, -2104.4614439560705, -2247.1102770698403, -5565.517314138093, -6553.643233018307, -14725.463357623024, -11438.706390703486, -19559.028096083177, -11715.577449271375, -6148.719030465964, -9735.548166698, -10527.55987972735, -10860.846741300433, 0.008, -0.032, 0.982, 192.0, 0.0, 0.0, 0.0, 0.0, 0.0, 0.0, 0.0, 0.0, 0.0, 1.6444987879861789E9, 0.0, 2022-02-11 00:13:07.986
230.0, -7905.454385930823, -9867.959900851238, -9489.097832333784, -15639.76146456736, -2085.3059989578724, -2236.7837711314883, -5531.207386399196, -6551.184541128224, -14704.832697490776, -11421.54025096181, -19546.377008721473, -11702.769899698485, -6146.081524620238, -9731.100169551393, -10523.089530836289, -10857.091648231943, 0.008, -0.032, 0.982, 192.0, 0.0, 0.0, 0.0, 0.0, 0.0, 0.0, 0.0, 0.0, 0.0, 1.6444987879861856E9, 0.0, 2022-02-11 00:13:07.986
232.0, -7955.343479555068, -9893.038558130092, -9507.761538953966, -15648.500996649385, -2101.734531132523, -2242.505817712047, -5541.8244650154675, -6552.9056254512825, -14740.997820019464, -11436.091236602217, -19562.805540896123, -11713.275219592479, -6165.639301018632, -9726.674524149243, -10522.240164546987, -10859.729154077668, 0.012, -0.03, 0.986, 192.0, 0.0, 48.0, 127.5, 8.0, 15.0, 104.0, 0.0, 0.0, 0.0, 1.6444987879861922E9, 0.0, 2022-02-11 00:13:07.986
234.0, -7948.012107373728, -9895.787822698096, -9505.593419741801, -15642.33191517972, -2098.672342142146, -2238.9518903436533, -5544.417267372282, -6564.2379598901225, -14743.232994464994, -11447.915309419073, -19579.144666092954, -11724.473443564588, -6167.606254530699, -9731.793073629507, -10530.107978595255, -10860.355002922417, 0.012, -0.03, 0.986, 192.0, 0.0, 0.0, 0.0, 0.0, 0.0, 0.0, 0.0, 0.0, 0.0, 1.644498787986199E9, 0.0, 2022-02-11 00:13:07.986
236.0, -7953.845912676563, -9907.678950748319, -9507.538021509412, -15650.914985050558, -2093.1067577727745, -2245.568006702424, -5549.491113363638, -6559.499390065598, -14753.20187249206, -11444.339030306224, -19575.009593368723, -11709.296609079434, -6172.881266222152, -9747.752219170598, -10529.45977800605, -10863.663061101803, 0.012, -0.03, 0.986, 192.0, 0.0, 0.0, 0.0, 0.0, 0.0, 0.0, 0.0, 0.0, 0.0, 1.6444987879862056E9, 0.0, 2022-02-11 00:13:07.986
238.0, -7963.121886625516, -9903.163898368348, -9512.701274478588, -15653.105456007179, -2102.896821844199, -2243.645756679268, -5557.604796600914, -6556.057221419481, -14756.219357993527, -11444.4507890285, -19587.21364584132, -11727.714446510607, -6168.36621384218, -9747.662812192775, -10531.51613849594, -10867.8651890594, 0.012, -0.03, 0.986, 192.0, 0.0, 0.0, 0.0, 0.0, 0.0, 0.0, 0.0, 0.0, 0.0, 1.6444987879862125E9, 0.0, 2022-02-11 00:13:07.986
240.0, -7947.81094167363, -9908.193040870792, -9505.056977874872, -15650.937336795014, -2101.443958454604, -2227.351334971349, -5586.416195203805, -6543.450837546688, -14748.083323011795, -11455.872530445164, -19574.406096268427, -11723.311152852912, -6168.589731286733, -9736.933974854228, -10535.85237692027, -10864.892407046844, 0.009000000000000001, -0.028, 0.986, 192.0, 0.0, 24.0, 127.5, 24.0, 15.0, 104.0, 0.0, 0.0, 0.0, 1.644498787986237E9, 0.0, 2022-02-11 00:13:07.986
242.0, -7954.382354543491, -9901.845145445484, -9513.461233790069, -15656.324107208742, -2104.662609656168, -2233.542768185469, -5555.615491344392, -6564.260311634578, -14746.809273577843, -11451.245719342915, -19567.67822118738, -11714.79513821544, -6171.227237132459, -9726.138082282316, -10538.758103699458, -10865.764125080601, 0.009000000000000001, -0.028, 0.986, 192.0, 0.0, 0.0, 0.0, 0.0, 0.0, 0.0, 0.0, 0.0, 0.0, 1.6444987879862447E9, 0.0, 2022-02-11 00:13:07.986
244.0, -7955.4775900218, -9902.046311145581, -9514.31060007937, -15652.680772862528, -2096.9736095635426, -2228.401866960748, -5544.797247028023, -6545.082514891925, -14745.267003210427, -11443.98140239494, -19584.35262255104, -11730.016676189503, -6168.589731286733, -9714.202250743181, -10540.814464189347, -10867.395802425839, 0.009000000000000001, -0.028, 0.986, 192.0, 0.0, 0.0, 0.0, 0.0, 0.0, 0.0, 0.0, 0.0, 0.0, 1.6444987879862516E9, 0.0, 2022-02-11 00:13:07.986
246.0, -7948.705011451842, -9897.464203532243, -9507.627428487234, -15652.881938562625, -2095.8783740852327, -2218.410637189226, -5552.128619209364, -6543.428485802232, -14756.085247526795, -11438.50522500339, -19577.177712580888, -11722.484138308066, -6173.998853444917, -9727.21096601617, -10534.310106552854, -10856.666965087292, 0.009000000000000001, -0.028, 0.986, 192.0, 0.0, 0.0, 0.0, 0.0, 0.0, 0.0, 0.0, 0.0, 0.0, 1.6444987879862592E9, 0.0, 2022-02-11 00:13:07.986
248.0, -7962.987776158783, -9908.81888971554, -9520.859661204775, -15651.987868784414, -2106.3389904903165, -2233.8780443522983, -5569.428869417771, -6561.466343577665, -14752.10663701375, -11439.131073848137, -19587.43716328587, -11726.37334184329, -6165.572245785266, -9730.966059084662, -10534.913603653145, -10864.735944835656, 0.009000000000000001, -0.028, 0.986, 192.0, 0.0, 0.0, 0.0, 0.0, 0.0, 0.0, 0.0, 0.0, 0.0, 1.644498787986267E9, 0.0, 2022-02-11 00:13:07.986
250.0, -7951.4766277643, -9901.688683234297, -9511.74014946701, -15654.826540330238, -2090.871583327244, -2227.1054657823406, -5551.592177342436, -6555.498427808097, -14753.134817258695, -11450.999850153907, -19587.191294096865, -11718.058492905915, -6167.159219641593, -9737.135140554326, -10540.166263600144, -10868.133409992864, 0.0055000000000000005, -0.028, 0.987, 192.0, 0.0, 8.0, 127.5, 16.0, 15.0, 112.0, 0.0, 0.0, 0.0, 1.6444987879862747E9, 0.0, 2022-02-11 00:13:07.986
252.0, -7966.653462249454, -9904.795575713584, -9522.133710638727, -15666.29298523581, -2107.4118742241712, -2239.734201399589, -5563.595064114937, -6563.857980234383, -14758.141608016684, -11448.36234430818, -19580.709288204824, -11722.260620863512, -6171.69662376602, -9727.903870094284, -10534.712437953049, -10873.542532151048, 0.0055000000000000005, -0.028, 0.987, 192.0, 0.0, 0.0, 0.0, 0.0, 0.0, 0.0, 0.0, 0.0, 0.0, 1.6444987879862835E9, 0.0, 2022-02-11 00:13:07.986
254.0, -7963.524218025711, -9907.254267603668, -9517.97628617004, -15660.503883421885, -2105.1096445452745, -2233.609823418835, -5572.9157415528, -6565.959044213181, -14761.762590618444, -11456.74424847892, -19592.756878466236, -11730.307248867422, -6171.271940621369, -9726.160434026771, -10547.542339270394, -10877.163514752809, 0.0055000000000000005, -0.028, 0.987, 192.0, 0.0, 0.0, 0.0, 0.0, 0.0, 0.0, 0.0, 0.0, 0.0, 1.6444987879862907E9, 0.0, 2022-02-11 00:13:07.986
0.0, -7953.130656853993, -9908.461261804256, -9514.60117275729, -15659.587461899218, -2100.5051851874814, -2233.766285630022, -5568.937131039755, -6573.44687860571, -14760.980279562507, -11455.067867644771, -19574.607261968526, -11718.594934772842, -6170.17670514306, -9724.416997959257, -10546.22358634753, -10877.319976963994, 0.0055000000000000005, -0.028, 0.987, 192.0, 0.0, 0.0, 0.0, 0.0, 0.0, 0.0, 0.0, 0.0, 0.0, 1.6444987879862974E9, 0.0, 2022-02-11 00:13:07.986
2.0, -7957.422191789412, -9898.358273310456, -9524.83827171782, -15664.594252657207, -2112.5974789378024, -2232.6486984072567, -5584.069262035998, -6565.891988979815, -14753.492445169979, -11452.631527499143, -19580.30695680463, -11722.931173197172, -6162.778277728353, -9709.106053007372, -10553.264385850953, -10881.857381088423, 0.0055000000000000005, -0.028, 0.987, 192.0, 0.0, 0.0, 0.0, 0.0, 0.0, 0.0, 0.0, 0.0, 0.0, 1.644498787986304E9, 0.0, 2022-02-11 00:13:07.986
4.0, -7945.329898039091, -9892.166840096335, -9517.305733836381, -15663.700182878994, -2102.092159043808, -2222.791579102466, -5572.155782241319, -6569.2223989036565, -14753.000706791963, -11447.624736741154, -19580.23990157126, -11729.122606411293, -6165.326376596257, -9710.245991974592, -10554.650194007183, -10880.113945020908, 0.006750000000000001, -0.028999999999999998, 0.9875, 192.0, 0.0, 32.0, 127.5, 8.0, 15.0, 112.0, 0.0, 0.0, 0.0, 1.644498787986311E9, 0.0, 2022-02-11 00:13:07.986
6.0, -7967.636939005487, -9907.05310190357, -9527.989867686018, -15667.38822071412, -2114.005638838487, -2233.0063263185416, -5578.05664277752, -6549.038773660514, -14764.042468552885, -11447.580033252243, -19583.436201028373, -11721.545365040942, -6172.74715575542, -9721.086588035416, -10551.520949783438, -10880.113945020908, 0.006750000000000001, -0.028999999999999998, 0.9875, 192.0, 0.0, 0.0, 0.0, 0.0, 0.0, 0.0, 0.0, 0.0, 0.0, 1.6444987879863176E9, 0.0, 2022-02-11 00:13:07.986
8.0, -7958.584482501088, -9908.282447848613, -9520.926716438142, -15665.62243290215, -2105.646086412202, -2226.2560994930386, -5571.574636885481, -6559.052355176492, -14765.5847389203, -11453.83852169973, -19599.082422147087, -11728.027370932981, -6169.528504553856, -9722.003009558084, -10554.091400395799, -10884.807811356523, 0.006750000000000001, -0.028999999999999998, 0.9875, 192.0, 0.0, 0.0, 0.0, 0.0, 0.0, 0.0, 0.0, 0.0, 0.0, 1.6444987879863243E9, 0.0, 2022-02-11 00:13:07.986
10.0, -7956.036383633183, -9900.4369855448, -9519.697370493099, -15676.060697562778, -2108.1718335356513, -2232.246367007061, -5569.272407206584, -6561.801619744494, -14763.841302852787, -11455.738419978432, -19580.150494593443, -11724.808719731418, -6170.757850498897, -9716.102149021883, -10550.738638727504, -10888.428793958283, 0.006750000000000001, -0.028999999999999998, 0.9875, 192.0, 0.0, 0.0, 0.0, 0.0, 0.0, 0.0, 0.0, 0.0, 0.0, 1.6444987879863315E9, 0.0, 2022-02-11 00:13:07.986
12.0, -7966.809924460641, -9895.653712231364, -9531.275574120948, -15679.43581097553, -2116.5313859619364, -2243.1763700457063, -5580.582389900969, -6579.9065327532935, -14767.30582324336, -11445.054286128794, -19593.896817433455, -11737.973897215594, -6173.954149956006, -9722.271230491548, -10555.432505063118, -10895.849573117444, 0.006750000000000001, -0.028999999999999998, 0.9875, 192.0, 0.0, 0.0, 0.0, 0.0, 0.0, 0.0, 0.0, 0.0, 0.0, 1.6444987879863381E9, 0.0, 2022-02-11 00:13:07.986
14.0, -7955.835217933085, -9900.81696520054, -9528.88393746423, -15677.15593304109, -2103.768539877956, -2225.674954137201, -5567.685433350258, -6544.72488698064, -14762.92488133012, -11454.978460666951, -19594.88029418949, -11744.925289741193, -6172.970673199973, -9706.043864016994, -10561.400420832684, -10894.8213928725, 0.0063750000000000005, -0.0275, 0.98975, 192.0, 0.0, 24.0, 127.5, 24.0, 15.5, 0.0, 0.0, 0.0, 0.0, 1.6444987879863448E9, 0.0, 2022-02-11 00:13:07.986
16.0, -7979.617474033532, -9923.369875355946, -9538.6516497912, -15683.615587188673, -2116.0396475839198, -2233.2968989964606, -5591.802965617534, -6565.020270946058, -14779.040489082396, -11465.573187538766, -19601.742279737267, -11738.219766404602, -6179.475030836467, -9724.841681103908, -10561.109848154765, -10891.714500393213, 0.0063750000000000005, -0.0275, 0.98975, 192.0, 0.0, 0.0, 0.0, 0.0, 0.0, 0.0, 0.0, 0.0, 0.0, 1.6444987879863515E9, 0.0, 2022-02-11 00:13:07.986
18.0, -7981.271503123225, -9925.180366656825, -9534.784798000432, -15688.801191902305, -2101.801586365889, -2226.3008029819493, -5585.522125425592, -6556.481904564132, -14779.532227460413, -11471.138771908138, -19614.281608376696, -11747.182815931179, -6172.8365627332405, -9715.722169366141, -10562.674470266636, -10898.487078963171, 0.0063750000000000005, -0.0275, 0.98975, 192.0, 0.0, 0.0, 0.0, 0.0, 0.0, 0.0, 0.0, 0.0, 0.0, 1.6444987879863584E9, 0.0, 2022-02-11 00:13:07.986
20.0, -7974.677738508909, -9920.598259043487, -9533.354286355292, -15691.86338089268, -2101.7792346214337, -2229.0947710388627, -5574.569770642492, -6559.521741810053, -14781.87916062822, -11479.587731312244, -19601.228189614798, -11742.578356573387, -6175.138792412137, -9718.4937856786, -10557.868845208746, -10898.665892918812, 0.0063750000000000005, -0.0275, 0.98975, 192.0, 0.0, 0.0, 0.0, 0.0, 0.0, 0.0, 0.0, 0.0, 0.0, 1.6444987879863653E9, 0.0, 2022-02-11 00:13:07.986
22.0, -7980.444488578379, -9919.167747398347, -9543.859606249287, -15693.562113471284, -2115.413798739171, -2234.4144862192256, -5593.926381340788, -6567.925997725249, -14785.410736252159, -11480.526504579366, -19616.606189800048, -11759.65508933724, -6177.0610424352935, -9722.606506658376, -10565.602548790283, -10908.120680823407, 0.0063750000000000005, -0.0275, 0.98975, 192.0, 0.0, 0.0, 0.0, 0.0, 0.0, 0.0, 0.0, 0.0, 0.0, 1.6444987879863725E9, 0.0, 2022-02-11 00:13:07.986
24.0, -7980.511543811745, -9923.548689311587, -9532.482568321535, -15690.969311114468, -2094.6713798846463, -2222.836282591377, -5571.217008974196, -6555.096096407902, -14781.700346672576, -11465.662594516587, -19611.197067641864, -11757.151693958247, -6175.250551134414, -9719.611372901365, -10565.110810412265, -10901.951599353742, 0.0071875, -0.02775, 0.992875, 192.0, 0.0, 32.0, 127.5, 16.0, 15.5, 16.0, 0.0, 0.0, 0.0, 1.6444987879863791E9, 0.0, 2022-02-11 00:13:07.986
26.0, -7989.429889849412, -9922.788730000108, -9541.13269342574, -15689.941130869525, -2105.1990515230955, -2227.06076229343, -5595.133375541374, -6573.245712905612, -14792.87621890023, -11482.22523715797, -19607.620788529013, -11749.529749098987, -6176.569304057277, -9706.848526817384, -10563.926167956135, -10902.01865458711, 0.0071875, -0.02775, 0.992875, 192.0, 0.0, 0.0, 0.0, 0.0, 0.0, 0.0, 0.0, 0.0, 0.0, 1.644498787986386E9, 0.0, 2022-02-11 00:13:07.986
28.0, -7982.254979879258, -9922.92284046684, -9543.859606249287, -15690.72344192546, -2095.163118262663, -2219.9976110455527, -5583.242247491151, -6546.736543981618, -14786.125992074729, -11470.244702129925, -19618.371977612016, -11753.150731700747, -6168.813248731286, -9697.930180779718, -10565.960176701568, -10901.124584808897, 0.0071875, -0.02775, 0.992875, 192.0, 0.0, 0.0, 0.0, 0.0, 0.0, 0.0, 0.0, 0.0, 0.0, 1.6444987879863963E9, 0.0, 2022-02-11 00:13:07.986
30.0, -7969.447430306367, -9913.19983162878, -9540.84212074782, -15695.193790816522, -2092.0338740389197, -2218.1424162557623, -5579.57656140048, -6553.799695229494, -14783.108506573262, -11472.50222831991, -19609.230114129798, -11747.428685120189, -6169.863780720685, -9701.193535470193, -10559.656984765172, -10896.050738817543, 0.0071875, -0.02775, 0.992875, 192.0, 0.0, 0.0, 0.0, 0.0, 0.0, 0.0, 0.0, 0.0, 0.0, 1.644498787986404E9, 0.0, 2022-02-11 00:13:07.986
32.0, -7988.178192159915, -9921.984067199715, -9551.36979238627, -15696.646654206117, -2110.0493800698973, -2231.3970007177595, -5598.888468609866, -6567.478962836142, -14787.332986275314, -11471.585806797244, -19613.722814765315, -11758.984537003582, -6175.027033689861, -9718.694951378699, -10569.491752325506, -10905.371416255406, 0.0071875, -0.02775, 0.992875, 192.0, 0.0, 0.0, 0.0, 0.0, 0.0, 0.0, 0.0, 0.0, 0.0, 1.644498787986411E9, 0.0, 2022-02-11 00:13:07.986
34.0, -7982.791421746186, -9922.431102088822, -9546.005373716996, -15698.68066295155, -2107.0542463128863, -2225.2949744814605, -5595.91568659731, -6552.480942306632, -14789.746974676487, -11479.453620845512, -19613.387538598483, -11752.077847966892, -6179.117402925182, -9708.591962884899, -10579.728851286036, -10908.858288390433, 0.006593750000000001, -0.027875, 0.9944375, 192.0, 0.0, 24.0, 127.5, 16.0, 15.5, 16.0, 0.0, 0.0, 0.0, 1.6444987879864182E9, 0.0, 2022-02-11 00:13:07.986
36.0, -7986.0324246922055, -9912.953962439771, -9549.93928074113, -15704.358006043198, -2108.6635719136684, -2239.6224426773124, -5585.656235892325, -6592.468213137176, -14794.910227645663, -11493.55757159681, -19611.331178108594, -11753.731877056585, -6183.721862282975, -9716.839756588908, -10578.723022785547, -10916.144957082863, 0.006593750000000001, -0.027875, 0.9944375, 192.0, 0.0, 0.0, 0.0, 0.0, 0.0, 0.0, 0.0, 0.0, 0.0, 1.6444987879864252E9, 0.0, 2022-02-11 00:13:07.986
38.0, -7985.5630380586435, -9931.72942778223, -9546.877091750752, -15706.034386877345, -2104.304981744883, -2227.3289832268933, -5587.600837659936, -6557.890064464816, -14781.11920131674, -11487.74611803843, -19622.104718936054, -11766.919406285217, -6173.238894133437, -9703.138137237804, -10576.71136578457, -10920.391788529372, 0.006593750000000001, -0.027875, 0.9944375, 192.0, 0.0, 0.0, 0.0, 0.0, 0.0, 0.0, 0.0, 0.0, 0.0, 1.6444987879864328E9, 0.0, 2022-02-11 00:13:07.986
40.0, -7997.342407386591, -9937.339715640512, -9548.017030717972, -15711.39880554662, -2104.193223022607, -2227.284279737983, -5591.19946851724, -6551.720982995151, -14795.625483468233, -11490.651844817621, -19609.811259485636, -11756.592900346865, -6183.118365182682, -9712.458814675667, -10569.737621514514, -10912.255753547639, 0.006593750000000001, -0.027875, 0.9944375, 192.0, 0.0, 0.0, 0.0, 0.0, 0.0, 0.0, 0.0, 0.0, 0.0, 1.6444987879864392E9, 0.0, 2022-02-11 00:13:07.986
42.0, -8001.72334929983, -9942.279451165134, -9558.61175758979, -15712.181116602555, -2120.1300168192406, -2242.930500856698, -5603.627038434392, -6571.368166371366, -14803.917980661152, -11499.100804221727, -19624.02696895921, -11781.179819247702, -6184.995911716928, -9719.11963452335, -10576.867827995757, -10921.107044351942, 0.006593750000000001, -0.027875, 0.9944375, 192.0, 0.0, 0.0, 0.0, 0.0, 0.0, 0.0, 0.0, 0.0, 0.0, 1.644498787986446E9, 0.0, 2022-02-11 00:13:07.986
44.0, -8005.746663301786, -9939.194910430302, -9551.615661575277, -15709.744776456926, -2111.144615548207, -2232.7604571295333, -5581.990549801654, -6565.512009324076, -14804.11914636125, -11482.068774946783, -19627.379730627505, -11769.84748480886, -6189.756833285908, -9720.30427697948, -10580.198237919598, -10920.525898996104, 0.006296875, -0.028937499999999998, 0.99321875, 192.0, 0.0, 24.0, 127.5, 8.0, 15.5, 0.0, 0.0, 0.0, 0.0, 1.644498787986454E9, 0.0, 2022-02-11 00:13:07.986
46.0, -8013.815643050152, -9950.370782657956, -9563.015051247485, -15719.311323083797, -2124.130979076741, -2238.3260414989045, -5613.685323439279, -6579.213628675178, -14811.450518542591, -11516.84808931924, -19626.64212306048, -11759.208054448136, -6196.149432200126, -9708.323741951435, -10576.867827995757, -10922.090521107975, 0.006296875, -0.028937499999999998, 0.99321875, 192.0, 0.0, 0.0, 0.0, 0.0, 0.0, 0.0, 0.0, 0.0, 0.0, 1.6444987879864607E9, 0.0, 2022-02-11 00:13:07.986
48.0, -7986.792384003686, -9914.943267696293, -9559.41642039018, -15715.913857926591, -2117.291345273417, -2226.9043000822426, -5656.734783260201, -6592.267047437078, -14803.895628916698, -11499.123155966183, -19636.476890620816, -11772.149714487758, -6186.739347784442, -9700.679445347721, -10590.368281646763, -10933.176986357807, 0.006296875, -0.028937499999999998, 0.99321875, 192.0, 0.0, 0.0, 0.0, 0.0, 0.0, 0.0, 0.0, 0.0, 0.0, 1.644498787986468E9, 0.0, 2022-02-11 00:13:07.986
50.0, -8000.96338998835, -9931.34944812649, -9555.393106388225, -15719.803061461815, -2110.474063214548, -2221.2940122239606, -5591.110061539419, -6576.911398996282, -14798.285341058416, -11487.880228505162, -19617.097928178064, -11766.382964418288, -6187.208734418004, -9702.713454093153, -10584.623883321749, -10925.108006609442, 0.006296875, -0.028937499999999998, 0.99321875, 192.0, 0.0, 0.0, 0.0, 0.0, 0.0, 0.0, 0.0, 0.0, 0.0, 1.6444987879864752E9, 0.0, 2022-02-11 00:13:07.986
52.0, -8026.265564711758, -9953.745896070706, -9567.887731538742, -15723.155823130111, -2119.481816230037, -2235.3532594863486, -5569.406517673317, -6544.456666047176, -14810.779966208931, -11515.03759801836, -19633.6829225639, -11784.689043127186, -6189.5109640969, -9715.789224599508, -10580.891141997712, -10922.537555997082, 0.006296875, -0.028937499999999998, 0.99321875, 192.0, 0.0, 0.0, 0.0, 0.0, 0.0, 0.0, 0.0, 0.0, 0.0, 1.644498787986482E9, 0.0, 2022-02-11 00:13:07.986
0.0, -4434.049658065994, -5333.170930525176, -5241.998164891978, -8399.13736571519, -1317.9259083182703, -1243.4945992820979, -3289.6626936987277, -3676.951369875833, -7404.9764758320425, -5746.477037248259, -9811.94642924624, -5884.16378309295, -3092.8108802808383, -4853.658956725473, -5290.613209082271, -5459.301824486473, 0.01, -0.032, 0.994, 192.0, 0.0, 40.0, 127.5, 0.0, 15.5, 8.0, 0.0, 0.0, 0.0, 1.644498788556311E9, 0.0, 2022-02-11 00:13:08.556
2.0, -8869.261606843664, -10678.791782711958, -10473.826286056792, -16796.93362676306, -2614.885880337463, -2475.455698425257, -6560.259349377078, -7346.169036170129, -15549.728637901384, -12827.86730860082, -20453.544909184566, -12535.640601592137, -6691.03940618508, -9880.454526001755, -11614.100529444282, -12065.091677319013, 0.01, -0.032, 0.994, 192.0, 0.0, 0.0, 0.0, 0.0, 0.0, 0.0, 0.0, 0.0, 0.0, 1.6444987885563214E9, 0.0, 2022-02-11 00:13:08.556
4.0, -8891.211019898776, -10681.898675191245, -10484.376309439696, -16809.09297574675, -2627.492264210256, -2489.9619805767516, -6570.407041359787, -7359.289510165395, -15556.79178914926, -12836.383323238293, -20445.878260836394, -12536.914651026089, -6688.379548594899, -9878.040537600582, -11608.15496541917, -12070.321985521554, 0.01, -0.032, 0.994, 192.0, 0.0, 0.0, 0.0, 0.0, 0.0, 0.0, 0.0, 0.0, 0.0, 1.6444987885563283E9, 0.0, 2022-02-11 00:13:08.556
6.0, -8888.864086730968, -10690.727614251091, -10481.336472193774, -16806.03078675637, -2626.32997349858, -2487.0562537975616, -6568.39538435881, -7356.6073008307585, -15561.865635140615, -12843.222957041617, -20462.262089522137, -12547.397619175628, -6685.473821815708, -9875.76065966614, -11612.737073032507, -12076.871046646958, 0.01, -0.032, 0.994, 192.0, 0.0, 0.0, 0.0, 0.0, 0.0, 0.0, 0.0, 0.0, 0.0, 1.6444987885563416E9, 0.0, 2022-02-11 00:13:08.556
8.0, -8893.692063533314, -10703.69162603517, -10480.55416113784, -16808.6682926021, -2622.70899089682, -2483.8599543404525, -6565.780230257539, -7349.611204816247, -15566.850074154148, -12846.374553009815, -20451.28738299458, -12542.413180162095, -6688.759528250638, -9880.745098679674, -11608.892572986195, -12073.495933234208, 0.008, -0.026000000000000002, 0.992, 192.0, 0.0, 32.0, 127.5, 24.0, 15.5, 0.0, 0.0, 0.0, 0.0, 1.644498788556348E9, 0.0, 2022-02-11 00:13:08.556
10.0, -8922.548165625116, -10720.589544843382, -10489.472507175507, -16811.395205425644, -2631.001488089739, -2483.725843873721, -6582.767556043573, -7357.07668746432, -15572.862693412626, -12851.180178067707, -20465.32427851251, -12552.851444822723, -6686.65846427184, -9881.236837057691, -11612.938238732606, -12077.116915835968, 0.008, -0.026000000000000002, 0.992, 192.0, 0.0, 0.0, 0.0, 0.0, 0.0, 0.0, 0.0, 0.0, 0.0, 1.6444987885563548E9, 0.0, 2022-02-11 00:13:08.556
12.0, -8921.519985380171, -10732.54772812697, -10476.486143646973, -16810.724653091987, -2612.941278569851, -2471.007701278651, -6549.86578820536, -7342.749219268468, -15572.661527712527, -12854.30942229145, -20464.13963605638, -12560.786314104356, -6686.3902433383755, -9874.28544453209, -11612.357093376768, -12069.33850876552, 0.008, -0.026000000000000002, 0.992, 192.0, 0.0, 0.0, 0.0, 0.0, 0.0, 0.0, 0.0, 0.0, 0.0, 1.6444987885563614E9, 0.0, 2022-02-11 00:13:08.556
14.0, -8974.761840672712, -10766.924711099233, -10490.9253705651, -16813.585676382267, -2626.3076217541247, -2472.4158611793355, -6547.96588992666, -7350.438219361094, -15587.614844753129, -12862.937195651199, -20466.263051779635, -12563.58028216127, -6685.786746238083, -9869.412764240833, -11605.383349106713, -12065.806933141583, 0.008, -0.026000000000000002, 0.992, 192.0, 0.0, 0.0, 0.0, 0.0, 0.0, 0.0, 0.0, 0.0, 0.0, 1.644498788556368E9, 0.0, 2022-02-11 00:13:08.556
16.0, -9006.300152099151, -10803.08983362792, -10493.875800833202, -16816.42434792809, -2619.2891739951583, -2472.7958408350755, -6557.420677831255, -7338.278870377407, -15607.396138596076, -12872.771963211533, -20496.795534705583, -12584.546218460348, -6690.212391640233, -9867.043479328571, -11615.531041089422, -12068.355032009487, 0.007, -0.030000000000000002, 0.991, 192.0, 0.0, 24.0, 127.0, 120.0, 15.0, 120.0, 0.0, 0.0, 0.0, 1.6444987885563743E9, 0.0, 2022-02-11 00:13:08.556
18.0, -9045.818036296134, -10842.294793402529, -10497.429728201596, -16821.27467647489, -2615.3329152265687, -2467.364366932436, -6547.049468403991, -7332.802692985856, -15620.226039913421, -12878.605768514368, -20496.10263062747, -12589.195381307052, -6690.525316062608, -9863.578958937998, -11613.653494555176, -12068.422087242852, 0.007, -0.030000000000000002, 0.991, 192.0, 0.0, 0.0, 0.0, 0.0, 0.0, 0.0, 0.0, 0.0, 0.0, 1.644498788556381E9, 0.0, 2022-02-11 00:13:08.556
20.0, -9079.256246001274, -10868.826314070979, -10509.499670207462, -16820.917048563606, -2629.7497904002416, -2473.466393168735, -6563.925035467749, -7338.569443055326, -15646.534043137319, -12896.889495478808, -20526.41159610887, -12598.58311397828, -6700.762415023139, -9879.605159712453, -11611.641837554198, -12068.466790731763, 0.007, -0.030000000000000002, 0.991, 192.0, 0.0, 0.0, 0.0, 0.0, 0.0, 0.0, 0.0, 0.0, 0.0, 1.644498788556388E9, 0.0, 2022-02-11 00:13:08.556
22.0, -9070.69552787489, -10875.755354852123, -10498.860239846736, -16816.983141539473, -2615.1764530153814, -2466.269131454126, -6566.20491340219, -7337.116579665731, -15643.293040191298, -12894.944893711197, -20528.959694976773, -12595.29740754335, -6698.214316155233, -9878.509924234144, -11610.591305564798, -12066.253968030689, 0.007, -0.030000000000000002, 0.991, 192.0, 0.0, 0.0, 0.0, 0.0, 0.0, 0.0, 0.0, 0.0, 0.0, 1.6444987885563948E9, 0.0, 2022-02-11 00:13:08.556
24.0, -9097.741138665813, -10857.784552310057, -10507.823289373313, -16819.24066772946, -2620.9432030848507, -2468.236084966193, -6557.934767953726, -7338.748257010968, -15648.009258271368, -12879.321024336938, -20524.95873271927, -12594.425689509593, -6699.175441166812, -9876.274749788612, -11602.29880837188, -12064.376421496443, 0.007, -0.030000000000000002, 0.991, 192.0, 0.0, 0.0, 0.0, 0.0, 0.0, 0.0, 0.0, 0.0, 0.0, 1.6444987885564013E9, 0.0, 2022-02-11 00:13:08.556
26.0, -9097.361159010072, -10885.992453812654, -10505.40930097214, -16815.306760705324, -2619.3785809729793, -2471.4323844233018, -6535.873596176338, -7331.841567974278, -15647.025781515335, -12885.847733717888, -20524.623456552443, -12598.761927933923, -6694.615685297929, -9876.05123234406, -11606.769157262941, -12065.71752616376, 0.0075, -0.032, 0.9915, 192.0, 0.0, 32.0, 127.0, 120.0, 15.5, 0.0, 0.0, 0.0, 0.0, 1.644498788556408E9, 0.0, 2022-02-11 00:13:08.556
28.0, -9080.552647179682, -10885.143087523353, -10501.676559648104, -16820.38060669668, -2616.942240827351, -2465.5538756315564, -6542.601471257386, -7337.027172687909, -15654.312450207764, -12897.045957689996, -20517.001511693183, -12580.701718414035, -6701.745891779172, -9858.57216818001, -11603.461099083555, -12067.259796531176, 0.0075, -0.032, 0.9915, 192.0, 0.0, 0.0, 0.0, 0.0, 0.0, 0.0, 0.0, 0.0, 0.0, 1.6444987885564144E9, 0.0, 2022-02-11 00:13:08.556
30.0, -9076.954016322377, -10864.95946228021, -10506.057501561345, -16819.24066772946, -2621.5690519295995, -2480.7977653500757, -6553.710288251673, -7341.4081146011495, -15641.95193552398, -12881.489143549103, -20523.081186185027, -12590.11180282972, -6698.7731097666165, -9882.600293469464, -11603.796375250386, -12073.317119278565, 0.0075, -0.032, 0.9915, 192.0, 0.0, 0.0, 0.0, 0.0, 0.0, 0.0, 0.0, 0.0, 0.0, 1.6444987885564215E9, 0.0, 2022-02-11 00:13:08.556
32.0, -9047.762638063747, -10834.605793309904, -10497.519135179416, -16814.367987438203, -2614.617659403999, -2466.20207622076, -6563.500352323098, -7335.037867431387, -15640.364961667654, -12893.804954743977, -20518.990816949703, -12581.931064359078, -6697.521412077119, -9873.167857309325, -11604.064596183849, -12064.935215107826, 0.0075, -0.032, 0.9915, 192.0, 0.0, 0.0, 0.0, 0.0, 0.0, 0.0, 0.0, 0.0, 0.0, 1.644498788556429E9, 0.0, 2022-02-11 00:13:08.556
34.0, -9045.84038804059, -10829.978982207655, -10508.516193451429, -16824.04629278735, -2628.0287060771834, -2474.4498699247683, -6554.134971396324, -7339.374105855716, -15635.894612776592, -12886.831210473922, -20507.85964821096, -12581.215808536508, -6701.589429567985, -9872.76552590913, -11607.082081685316, -12070.321985521554, 0.0075, -0.032, 0.9915, 192.0, 0.0, 0.0, 0.0, 0.0, 0.0, 0.0, 0.0, 0.0, 0.0, 1.644498788556435E9, 0.0, 2022-02-11 00:13:08.556
36.0, -9032.317582645128, -10820.61360128088, -10508.493841706973, -16821.05115903034, -2632.431999734879, -2474.9863117916957, -6558.314747609466, -7345.990222214487, -15628.09385396169, -12886.965320940653, -20516.73329075972, -12591.430555752582, -6691.128813162901, -9880.633339957398, -11614.05582595537, -12073.585340212028, 0.00775, -0.03, 0.99375, 192.0, 0.0, 32.0, 127.5, 16.0, 15.5, 16.0, 0.0, 0.0, 0.0, 1.644498788556442E9, 0.0, 2022-02-11 00:13:08.556
38.0, -8998.611152006526, -10804.81091795098, -10498.346149724264, -16823.75572010943, -2623.1113222970157, -2473.622855379922, -6566.540189569019, -7354.997975229976, -15624.94225799349, -12881.824419715933, -20497.846066694983, -12581.05934632532, -6695.889734731882, -9864.473028716211, -11614.279343399923, -12075.284072790631, 0.00775, -0.03, 0.99375, 192.0, 0.0, 0.0, 0.0, 0.0, 0.0, 0.0, 0.0, 0.0, 0.0, 1.6444987885564504E9, 0.0, 2022-02-11 00:13:08.556
40.0, -9011.932791701889, -10824.636915282836, -10508.583248684794, -16823.554554409333, -2634.6001189470435, -2484.5752101630223, -6556.817180730961, -7344.090323935786, -15621.969475980935, -12884.8419052174, -20506.67500575483, -12586.401413250138, -6694.235705642189, -9885.438965015288, -11613.139404432703, -12079.128572836946, 0.00775, -0.03, 0.99375, 192.0, 0.0, 0.0, 0.0, 0.0, 0.0, 0.0, 0.0, 0.0, 0.0, 1.6444987885564568E9, 0.0, 2022-02-11 00:13:08.556
42.0, -8996.554791516637, -10790.818725921956, -10494.434594444585, -16819.441833429555, -2622.32901124108, -2471.074756512017, -6555.498427808097, -7342.324536123817, -15617.47677534542, -12890.161620397761, -20502.96461617525, -12583.830962637778, -6692.112289918935, -9887.182401082802, -11611.507727087466, -12071.86425588897, 0.00775, -0.03, 0.99375, 192.0, 0.0, 0.0, 0.0, 0.0, 0.0, 0.0, 0.0, 0.0, 0.0, 1.6444987885564632E9, 0.0, 2022-02-11 00:13:08.556
44.0, -8992.30796007013, -10787.823592164945, -10500.491917191974, -16819.777109596387, -2632.0520200791384, -2482.5859049065, -6565.847285490905, -7363.469286378538, -15618.460252101453, -12876.415297557747, -20488.704203212765, -12572.968014832499, -6690.793536996071, -9882.086203346993, -11609.496070086489, -12073.384174511932, 0.00775, -0.03, 0.99375, 192.0, 0.0, 0.0, 0.0, 0.0, 0.0, 0.0, 0.0, 0.0, 0.0, 1.64449878855647E9, 0.0, 2022-02-11 00:13:08.556
46.0, -8977.935788385366, -10761.068554051943, -10496.133327023188, -16817.7207491065, -2625.0782758090827, -2477.556762404056, -6565.53436106853, -7356.115562452742, -15601.495278059874, -12870.290919576993, -20490.760563702654, -12569.10116304173, -6680.198810124256, -9883.315549292034, -11617.363884134757, -12078.189799569822, 0.007875, -0.028999999999999998, 0.992875, 192.0, 0.0, 32.0, 127.5, 16.0, 15.5, 0.0, 0.0, 0.0, 0.0, 1.6444987885564764E9, 0.0, 2022-02-11 00:13:08.556
48.0, -8964.636500434459, -10761.515588941049, -10491.350053709753, -16813.831545571273, -2618.775083872686, -2466.8055733210535, -6564.3497186124, -7334.92610870911, -15603.149307149568, -12870.335623065905, -20478.556511230054, -12567.134209529664, -6679.617664768418, -9880.81215391304, -11608.82551775283, -12069.047936087602, 0.007875, -0.028999999999999998, 0.992875, 192.0, 0.0, 0.0, 0.0, 0.0, 0.0, 0.0, 0.0, 0.0, 0.0, 1.6444987885564835E9, 0.0, 2022-02-11 00:13:08.556
50.0, -8970.246788292741, -10767.259987266063, -10505.386949227686, -16814.524449649387, -2632.0296683346833, -2467.096145998972, -6568.082459936436, -7333.339134852784, -15603.082251916201, -12870.44738178818, -20484.703240955263, -12570.598729920237, -6678.544781034563, -9876.833543399995, -11611.641837554198, -12066.701002919794, 0.007875, -0.028999999999999998, 0.992875, 192.0, 0.0, 0.0, 0.0, 0.0, 0.0, 0.0, 0.0, 0.0, 0.0, 1.64449878855649E9, 0.0, 2022-02-11 00:13:08.556
52.0, -8944.654040891415, -10735.006420017055, -10494.054614788845, -16813.85389731573, -2611.1531390134264, -2455.2273696932043, -6543.562596268964, -7328.712323750535, -15597.404908824554, -12867.184027097706, -20483.116267098936, -12573.571511932792, -6679.505906046142, -9857.320470490513, -11609.183145664114, -12063.57175869605, 0.007875, -0.028999999999999998, 0.992875, 192.0, 0.0, 0.0, 0.0, 0.0, 0.0, 0.0, 0.0, 0.0, 0.0, 1.6444987885564966E9, 0.0, 2022-02-11 00:13:08.556
54.0, -8952.208930517309, -10761.828513363424, -10500.961303825534, -16813.272751959892, -2619.0209530616944, -2466.783221576598, -6560.795791244005, -7348.694783293579, -15597.650778013562, -12878.605768514368, -20473.86264489444, -12558.506436169915, -6676.354310077943, -9870.485647974689, -11607.126785174225, -12070.143171565911, 0.007875, -0.028999999999999998, 0.992875, 192.0, 0.0, 0.0, 0.0, 0.0, 0.0, 0.0, 0.0, 0.0, 0.0, 1.6444987885565033E9, 0.0, 2022-02-11 00:13:08.556
56.0, -8936.62976463196, -10745.288222466495, -10497.899114835158, -16811.082281003273, -2623.5583571861216, -2465.6432826093774, -6564.819105245961, -7342.369239612728, -15593.60511226715, -12871.676727733224, -20486.133752600403, -12569.883474097667, -6673.426231554298, -9879.359290523445, -11611.77594802093, -12075.440535001819, 0.0079375, -0.0295, 0.9934375, 192.0, 0.0, 32.0, 127.5, 8.0, 15.5, 8.0, 0.0, 0.0, 0.0, 1.6444987885565095E9, 0.0, 2022-02-11 00:13:08.556
58.0, -8925.900927293413, -10714.912201751733, -10487.393794941163, -16808.154202479625, -2612.5389471696553, -2456.0990877269614, -6560.572273799453, -7337.496559321471, -15587.32427207521, -12855.695230447678, -20462.798531389064, -12555.287784968352, -6675.504943788642, -9872.542008464576, -11610.054863697871, -12070.791372155116, 0.0079375, -0.0295, 0.9934375, 192.0, 0.0, 0.0, 0.0, 0.0, 0.0, 0.0, 0.0, 0.0, 0.0, 1.6444987885565162E9, 0.0, 2022-02-11 00:13:08.556
60.0, -8931.332401196052, -10714.17459418471, -10498.03322530189, -16807.84127805725, -2622.2172525188034, -2455.003852248651, -6560.147590654802, -7337.541262810381, -15580.75285920535, -12868.659242231757, -20469.951089614762, -12555.354840201717, -6672.420403053809, -9860.04738331406, -11608.467889841544, -12067.77388665365, 0.0079375, -0.0295, 0.9934375, 192.0, 0.0, 0.0, 0.0, 0.0, 0.0, 0.0, 0.0, 0.0, 0.0, 1.6444987885565228E9, 0.0, 2022-02-11 00:13:08.556
62.0, -8917.250802189208, -10721.416559388228, -10487.483201918985, -16802.968597765994, -2615.9811158157727, -2450.488799868679, -6558.001823187092, -7342.436294846094, -15574.404963780042, -12855.404657769759, -20464.027877334105, -12542.837863306746, -6666.586597750974, -9854.414743711322, -11611.105395687271, -12068.064459331568, 0.0079375, -0.0295, 0.9934375, 192.0, 0.0, 0.0, 0.0, 0.0, 0.0, 0.0, 0.0, 0.0, 0.0, 1.6444987885565293E9, 0.0, 2022-02-11 00:13:08.556
64.0, -8928.605488372505, -10707.089091192376, -10500.31310323633, -16813.85389731573, -2630.800322389641, -2470.292445456081, -6571.032890204536, -7357.836646775801, -15582.205722594945, -12858.936233393697, -20460.60806043244, -12546.324735441773, -6668.777068707594, -9851.888996587873, -11612.446500354588, -12072.512456478174, 0.0079375, -0.0295, 0.9934375, 192.0, 0.0, 0.0, 0.0, 0.0, 0.0, 0.0, 0.0, 0.0, 0.0, 1.6444987885565357E9, 0.0, 2022-02-11 00:13:08.556
66.0, -8919.32951442355, -10714.398111629262, -10496.155678767644, -16806.299007689835, -2627.7381333992644, -2468.884285555397, -6579.817125775472, -7358.373088642727, -15582.585702250684, -12873.397812056282, -20475.159046072848, -12556.29361346884, -6669.93935941927, -9868.004604340149, -11619.375541135734, -12078.100392592001, 0.00696875, -0.02775, 0.99271875, 192.0, 0.0, 24.0, 127.5, 24.0, 15.5, 0.0, 0.0, 0.0, 0.0, 1.6444987885565424E9, 0.0, 2022-02-11 00:13:08.556
68.0, -8908.444214873816, -10709.368969126817, -10490.634797887184, -16807.215429212505, -2614.908232081918, -2468.72782334421, -6574.430355361743, -7356.4955421084815, -15582.161019106034, -12870.894416677287, -20454.95306908525, -12541.496758639427, -6672.599217009451, -9869.971557852215, -11613.228811410525, -12074.300596034598, 0.00696875, -0.02775, 0.99271875, 192.0, 0.0, 0.0, 0.0, 0.0, 0.0, 0.0, 0.0, 0.0, 0.0, 1.6444987885565493E9, 0.0, 2022-02-11 00:13:08.556
70.0, -8915.820290544068, -10703.490460335071, -10499.351978224753, -16808.71299609101, -2626.8664153655072, -2473.533448402101, -6587.461422379187, -7364.162190456652, -15582.004556894846, -12874.425992301225, -20462.262089522137, -12550.772732588379, -6667.435964040275, -9869.837447385484, -11613.698198044087, -12079.19562807031, 0.00696875, -0.02775, 0.99271875, 192.0, 0.0, 0.0, 0.0, 0.0, 0.0, 0.0, 0.0, 0.0, 0.0, 1.644498788556558E9, 0.0, 2022-02-11 00:13:08.556
72.0, -8895.99429321221, -10694.013320686021, -10492.154716510144, -16806.343711178746, -2613.544775670144, -2463.3187011860255, -6562.20395114469, -7347.823065259822, -15578.115353359623, -12868.994518398586, -20464.631374434397, -12546.503549397416, -6660.998661637147, -9867.177589795303, -11613.407625366168, -12073.808857656582, 0.00696875, -0.02775, 0.99271875, 192.0, 0.0, 0.0, 0.0, 0.0, 0.0, 0.0, 0.0, 0.0, 0.0, 1.644498788556565E9, 0.0, 2022-02-11 00:13:08.556
74.0, -8905.42672937235, -10694.438003830672, -10496.066271789823, -16810.90346704763, -2621.8819763519737, -2473.6675588688327, -6567.747183769606, -7359.445972376582, -15578.629443482096, -12866.781695697511, -20453.56726092902, -12547.218805219985, -6663.166780849312, -9862.975461837705, -11606.836212496306, -12072.713622178271, 0.00696875, -0.02775, 0.99271875, 192.0, 0.0, 0.0, 0.0, 0.0, 0.0, 0.0, 0.0, 0.0, 0.0, 1.6444987885565715E9, 0.0, 2022-02-11 00:13:08.556
76.0, -8897.581267068537, -10691.845201473858, -10493.808745599836, -16810.210562969514, -2624.675944408887, -2468.72782334421, -6572.575160571952, -7352.651042062169, -15572.929748645993, -12864.390059040792, -20462.396199988867, -12546.861177308701, -6659.188170336267, -9856.09112454547, -11613.184107921614, -12079.754421681693, 0.005484375, -0.026875000000000003, 0.991359375, 192.0, 0.0, 16.0, 127.5, 24.0, 15.0, 120.0, 0.0, 0.0, 0.0, 1.6444987885565782E9, 0.0, 2022-02-11 00:13:08.556
78.0, -8893.312083877574, -10677.741250722558, -10494.188725255577, -16813.250400215435, -2625.23473802027, -2471.655901867855, -6568.01540470307, -7366.397364902183, -15571.231016067388, -12860.210282827651, -20445.76650211412, -12540.982668516956, -6659.635205225373, -9855.174703022803, -11610.993636964993, -12076.312253035576, 0.005484375, -0.026875000000000003, 0.991359375, 192.0, 0.0, 0.0, 0.0, 0.0, 0.0, 0.0, 0.0, 0.0, 0.0, 1.6444987885565848E9, 0.0, 2022-02-11 00:13:08.556
80.0, -8907.773662540158, -10692.806326485435, -10505.811632372337, -16814.05506301583, -2637.9305288708842, -2482.0271112951173, -6593.898724782315, -7374.958083028565, -15573.756763190839, -12864.770038696533, -20455.690676652273, -12549.05164826532, -6661.93743490427, -9871.804400897552, -11621.588363836809, -12089.857410175493, 0.005484375, -0.026875000000000003, 0.991359375, 192.0, 0.0, 0.0, 0.0, 0.0, 0.0, 0.0, 0.0, 0.0, 0.0, 1.6444987885565913E9, 0.0, 2022-02-11 00:13:08.556
82.0, -8894.519078078161, -10695.376777097796, -10493.473469433007, -16812.155164737127, -2618.5962699170436, -2467.990215777185, -6547.675317248741, -7344.112675680241, -15573.823818424204, -12865.239425330094, -20458.663458664832, -12539.418046405084, -6662.719745960206, -9874.106630576449, -11614.458157355566, -12083.353052538998, 0.005484375, -0.026875000000000003, 0.991359375, 192.0, 0.0, 0.0, 0.0, 0.0, 0.0, 0.0, 0.0, 0.0, 0.0, 1.6444987885565977E9, 0.0, 2022-02-11 00:13:08.556
84.0, -8909.919430007867, -10700.025939944499, -10499.240219502475, -16815.865554316708, -2630.263880522714, -2477.199134492771, -6562.628634289341, -7351.68991705059, -15579.590568493673, -12881.332681337915, -20453.455502206743, -12542.368476673184, -6662.272711071099, -9867.110534561936, -11606.97032296304, -12081.833133916038, 0.005484375, -0.026875000000000003, 0.991359375, 192.0, 0.0, 0.0, 0.0, 0.0, 0.0, 0.0, 0.0, 0.0, 0.0, 1.6444987885566041E9, 0.0, 2022-02-11 00:13:08.556
86.0, -8905.583191583537, -10691.085242162377, -10496.1780305121, -16816.156126994625, -2634.2201392913034, -2470.851239067464, -6569.647082048307, -7360.451800877071, -15577.780077192794, -12882.606730771868, -20464.47491222321, -12555.19837799053, -6660.417516281309, -9863.578958937998, -11614.949895733584, -12088.695119463817, 0.008, -0.028, 0.994, 192.0, 0.0, 32.0, 127.5, 16.0, 15.5, 8.0, 0.0, 0.0, 0.0, 1.6444987885566108E9, 0.0, 2022-02-11 00:13:08.556
88.0, -8894.832002500534, -10685.251436859542, -10491.662978132126, -16816.558458394822, -2624.318316497602, -2470.046576267073, -6574.2738931505555, -7359.915359010143, -15577.757725448339, -12877.622291758335, -20451.063865550026, -12545.34125868574, -6665.714879717217, -9864.80830488304, -11613.385273621712, -12085.945854895814, 0.008, -0.028, 0.994, 192.0, 0.0, 0.0, 0.0, 0.0, 0.0, 0.0, 0.0, 0.0, 0.0, 1.6444987885566175E9, 0.0, 2022-02-11 00:13:08.556
90.0, -8906.432557872839, -10681.205771113131, -10501.609504414739, -16815.150298494136, -2631.1803020453817, -2480.104861271961, -6578.654835063796, -7367.202027702574, -15575.187274835978, -12882.763192983055, -20455.198938274258, -12548.738723842946, -6661.93743490427, -9863.914235104829, -11614.793433522396, -12090.527962509152, 0.008, -0.028, 0.994, 192.0, 0.0, 0.0, 0.0, 0.0, 0.0, 0.0, 0.0, 0.0, 0.0, 1.644498788556624E9, 0.0, 2022-02-11 00:13:08.556
92.0, -8886.025415185144, -10686.816058971413, -10489.964245553523, -16808.444775157546, -2618.6633251504095, -2467.6325878658995, -6555.453724319187, -7350.997012972476, -15569.88991140007, -12873.509570778559, -20457.590574930975, -12547.44232266454, -6658.517618002608, -9861.76846763712, -11612.446500354588, -12086.884628162936, 0.008, -0.028, 0.994, 192.0, 0.0, 0.0, 0.0, 0.0, 0.0, 0.0, 0.0, 0.0, 0.0, 1.6444987885566306E9, 0.0, 2022-02-11 00:13:08.556
94.0, -8894.407319355883, -10689.632378772782, -10496.870934590213, -16814.27858046038, -2632.2084822903257, -2479.9036955718634, -6558.20298888719, -7361.524684610926, -15571.074553856202, -12873.576626011924, -20445.85590909194, -12537.585203359748, -6660.50692325913, -9860.717935647719, -11609.026683452927, -12085.901151406902, 0.008, -0.028, 0.994, 192.0, 0.0, 0.0, 0.0, 0.0, 0.0, 0.0, 0.0, 0.0, 0.0, 1.6444987885566373E9, 0.0, 2022-02-11 00:13:08.556
96.0, -8888.70762451978, -10681.339881579863, -10494.948684567056, -16814.725615349485, -2630.5321014561778, -2471.924122801319, -6572.753974527594, -7367.514952124948, -15570.448705011453, -12881.958530182665, -20459.13284529839, -12552.538520400349, -6660.7974959370495, -9856.068772801014, -11617.96738123505, -12094.104241622, 0.004, -0.03, 0.992, 192.0, 0.0, 16.0, 127.5, 8.0, 15.5, 0.0, 0.0, 0.0, 0.0, 1.6444987885566435E9, 0.0, 2022-02-11 00:13:08.556
98.0, -8880.035147671122, -10674.92493092119, -10488.913713564125, -16808.444775157546, -2618.3056972391246, -2474.53927690259, -6572.262236149578, -7358.238978175996, -15568.660565455028, -12868.078096875919, -20441.989057301173, -12541.966145272989, -6662.943263404759, -9864.785953138586, -11612.15592767667, -12086.48229676274, 0.004, -0.03, 0.992, 192.0, 0.0, 0.0, 0.0, 0.0, 0.0, 0.0, 0.0, 0.0, 0.0, 1.6444987885566502E9, 0.0, 2022-02-11 00:13:08.556
100.0, -8895.346092623007, -10671.259244830519, -10494.74751886696, -16807.79657456834, -2623.580708930577, -2477.2885414705925, -6556.1913318862125, -7367.045565491387, -15572.348603290155, -12883.053765660974, -20454.371923729414, -12540.043895249832, -6657.3329755464765, -9871.290310775079, -11606.813860751852, -12087.063442118579, 0.004, -0.03, 0.992, 192.0, 0.0, 0.0, 0.0, 0.0, 0.0, 0.0, 0.0, 0.0, 0.0, 1.6444987885566568E9, 0.0, 2022-02-11 00:13:08.556
102.0, -8882.404432583384, -10673.293253575952, -10485.426841429096, -16806.746042578943, -2613.94710707034, -2461.1282302294053, -6541.305070078978, -7348.940652482588, -15566.313632287221, -12867.519303264537, -20454.66249640733, -12539.954488272011, -6651.0521353545355, -9862.260206015135, -11600.06363392635, -12082.414279271876, 0.004, -0.03, 0.992, 192.0, 0.0, 0.0, 0.0, 0.0, 0.0, 0.0, 0.0, 0.0, 0.0, 1.644498788556665E9, 0.0, 2022-02-11 00:13:08.556
104.0, -8886.964188452266, -10666.431268028173, -10491.193591498566, -16810.545839136343, -2634.398953246946, -2471.9911780346847, -6570.831724504438, -7370.197161459585, -15568.146475332556, -12884.461925561658, -20443.866603835417, -12536.802892303813, -6655.589539478963, -9861.94728159276, -11598.119032158736, -12082.39192752742, 0.004, -0.03, 0.992, 192.0, 0.0, 0.0, 0.0, 0.0, 0.0, 0.0, 0.0, 0.0, 0.0, 1.6444987885566716E9, 0.0, 2022-02-11 00:13:08.556
106.0, -8877.487048803217, -10676.400146055239, -10490.79126009837, -16806.589580367756, -2634.845988136052, -2467.8337535659975, -6573.580989072441, -7351.779324028412, -15565.419562509009, -12883.210227872161, -20458.886976109385, -12550.280994210363, -6660.3281093034875, -9859.577996680498, -11609.116090430749, -12085.699985706806, 0.006, -0.026000000000000002, 0.988, 192.0, 0.0, 24.0, 127.5, 24.0, 15.0, 112.0, 0.0, 0.0, 0.0, 1.644498788556678E9, 0.0, 2022-02-11 00:13:08.556
108.0, -8881.823287227546, -10678.523561778495, -10486.589132140773, -16807.014263512407, -2627.1346362989707, -2467.3196634435253, -6557.845360975905, -7359.937710754599, -15567.766495676817, -12878.494009792092, -20444.17952825779, -12543.642526107136, -6663.546760505053, -9862.774296137608, -11602.477622327522, -12082.369575782965, 0.006, -0.026000000000000002, 0.988, 192.0, 0.0, 0.0, 0.0, 0.0, 0.0, 0.0, 0.0, 0.0, 0.0, 1.6444987885566847E9, 0.0, 2022-02-11 00:13:08.556
110.0, -8899.324703136052, -10681.719861235602, -10501.274228247908, -16810.434080414067, -2639.8974823829512, -2476.796803092576, -6571.055241948991, -7367.202027702574, -15572.259196312332, -12879.902169692776, -20452.404970217343, -12530.834976534246, -6660.551626748041, -9856.04642105656, -11608.490241586, -12092.852543932504, 0.006, -0.026000000000000002, 0.988, 192.0, 0.0, 0.0, 0.0, 0.0, 0.0, 0.0, 0.0, 0.0, 0.0, 1.6444987885566912E9, 0.0, 2022-02-11 00:13:08.556
112.0, -8890.071080931555, -10673.561474509415, -10496.043920045367, -16812.155164737127, -2629.61567993351, -2473.578151891011, -6553.218549873656, -7353.768629284934, -15575.835475425181, -12878.628120258823, -20458.57405168701, -12548.850482565224, -6665.714879717217, -9847.686868630275, -11612.401796865679, -12091.645549731917, 0.006, -0.026000000000000002, 0.988, 192.0, 0.0, 0.0, 0.0, 0.0, 0.0, 0.0, 0.0, 0.0, 0.0, 1.6444987885566976E9, 0.0, 2022-02-11 00:13:08.556
114.0, -8901.582229326037, -10695.35442535334, -10500.804841614348, -16812.691606604054, -2640.7244969277976, -2486.631570652911, -6576.196143173712, -7371.515914382448, -15580.439934782975, -12897.202419901183, -20451.75676962814, -12538.456921393505, -6670.475801286198, -9869.993909596671, -11616.000427722982, -12092.919599165869, 0.006, -0.026000000000000002, 0.988, 192.0, 0.0, 0.0, 0.0, 0.0, 0.0, 0.0, 0.0, 0.0, 0.0, 1.6444987885567043E9, 0.0, 2022-02-11 00:13:08.556
116.0, -8904.33149389404, -10688.581846783381, -10500.536620680883, -16814.367987438203, -2637.7293631707867, -2486.273942741626, -6561.7122127666735, -7352.047544961875, -15579.94819640496, -12903.058576948473, -20466.128941312905, -12552.203244233518, -6668.285330329577, -9870.552703208054, -11621.208384181069, -12097.814631201582, 0.008, -0.024, 0.986, 192.0, 0.0, 32.0, 127.5, 32.0, 15.0, 104.0, 0.0, 0.0, 0.0, 1.6444987885567107E9, 0.0, 2022-02-11 00:13:08.556
118.0, -8896.173107167853, -10679.73055597908, -10495.999216556456, -16817.3184177063, -2627.201691532337, -2476.7744513481202, -6558.001823187092, -7347.6889547930905, -15582.116315617122, -12897.090661178907, -20456.85296736395, -12553.834921578757, -6668.46414428522, -9869.077488074005, -11612.245334654492, -12090.505610764696, 0.008, -0.024, 0.986, 192.0, 0.0, 0.0, 0.0, 0.0, 0.0, 0.0, 0.0, 0.0, 0.0, 1.6444987885567176E9, 0.0, 2022-02-11 00:13:08.556
120.0, -8912.176956197853, -10701.389396356273, -10505.677521905603, -16819.866516574206, -2636.1200375700046, -2484.530506674112, -6570.116468681868, -7362.105829966764, -15584.709117973938, -12905.651379305289, -20463.46908372272, -12549.208110476507, -6668.777068707594, -9869.211598540736, -11613.184107921614, -12093.880724177448, 0.008, -0.024, 0.986, 192.0, 0.0, 0.0, 0.0, 0.0, 0.0, 0.0, 0.0, 0.0, 0.0, 1.6444987890359864E9, 0.0, 2022-02-11 00:13:09.035
122.0, -8891.27807513214, -10684.625588014793, -10493.920504322114, -16814.47974616048, -2622.0831420520717, -2477.780279848609, -6560.214645888168, -7353.902739751666, -15578.048298126258, -12893.156754154774, -20461.412723232836, -12555.310136712807, -6663.882036671882, -9864.249511271657, -11613.027645710426, -12092.986654399236, 0.008, -0.024, 0.986, 192.0, 0.0, 0.0, 0.0, 0.0, 0.0, 0.0, 0.0, 0.0, 0.0, 1.644498789036166E9, 0.0, 2022-02-11 00:13:09.036
124.0, -8880.19160988231, -10672.019204142, -10498.234391001986, -16813.250400215435, -2628.9898310887615, -2474.651035624866, -6573.826858261449, -7368.341966669795, -15569.778152677794, -12881.891474949298, -20447.308772481534, -12545.855348808213, -6660.998661637147, -9862.796647882062, -11611.86535499875, -12095.44534628932, 0.008, -0.024, 0.986, 192.0, 0.0, 0.0, 0.0, 0.0, 0.0, 0.0, 0.0, 0.0, 0.0, 1.644498789036173E9, 0.0, 2022-02-11 00:13:09.036
126.0, -8875.050708657589, -10663.883169160268, -10499.128460780199, -16811.059929258816, -2632.8566828795297, -2477.199134492771, -6571.435221604732, -7367.514952124948, -15550.734466401873, -12868.97216665413, -20452.516728939623, -12532.489005623938, -6652.08031559948, -9848.357420963934, -11619.4425963691, -12098.127555623956, 0.008, -0.026000000000000002, 0.988, 192.0, 0.0, 32.0, 127.5, 24.0, 15.0, 112.0, 0.0, 0.0, 0.0, 1.6444987890361803E9, 0.0, 2022-02-11 00:13:09.036
128.0, -8889.981673953733, -10688.671253761204, -10498.189687513077, -16820.00062704094, -2626.039400820661, -2479.0543292825614, -6571.524628582553, -7359.825952032323, -15570.314594544721, -12914.212097431673, -20443.508975924135, -12542.301421439817, -6660.7974959370495, -9861.209674025737, -11617.475642857033, -12095.311235822588, 0.008, -0.026000000000000002, 0.988, 192.0, 0.0, 0.0, 0.0, 0.0, 0.0, 0.0, 0.0, 0.0, 0.0, 1.6444987890361867E9, 0.0, 2022-02-11 00:13:09.036
130.0, -8880.571589538049, -10673.337957064863, -10503.129423037699, -16821.341731708257, -2631.6943921678535, -2485.3128177300478, -6584.488640366631, -7375.561580128859, -15577.444801025964, -12923.532774869534, -20452.6284876619, -12552.046782022331, -6661.378641292888, -9862.640185670876, -11621.163680692158, -12103.514326037684, 0.008, -0.026000000000000002, 0.988, 192.0, 0.0, 0.0, 0.0, 0.0, 0.0, 0.0, 0.0, 0.0, 0.0, 1.6444987890361936E9, 0.0, 2022-02-11 00:13:09.036
132.0, -8869.038089399111, -10668.152352351231, -10498.100280535255, -16817.18430723957, -2618.3056972391246, -2478.361425204447, -6567.143686669313, -7360.161228199152, -15558.89285312806, -12904.60084731589, -20444.6265631469, -12545.251851707919, -6652.527350488585, -9857.387525723878, -11621.878936514728, -12101.457965547797, 0.008, -0.026000000000000002, 0.988, 192.0, 0.0, 0.0, 0.0, 0.0, 0.0, 0.0, 0.0, 0.0, 0.0, 1.6444987890362003E9, 0.0, 2022-02-11 00:13:09.036
134.0, -8871.362670822462, -10673.293253575952, -10506.102205050256, -16823.576906153787, -2627.1569880434263, -2486.944495075285, -6572.038718705025, -7369.481905637015, -15575.008460880335, -12915.150870698795, -20443.3748654574, -12548.023468020376, -6665.379603550387, -9878.24170330068, -11617.386235879212, -12101.815593459081, 0.008, -0.026000000000000002, 0.988, 192.0, 0.0, 0.0, 0.0, 0.0, 0.0, 0.0, 0.0, 0.0, 0.0, 1.6444987890362127E9, 0.0, 2022-02-11 00:13:09.036
136.0, -8861.70671721777, -10653.355497521818, -10500.737786380982, -16818.100728762238, -2626.642897920954, -2487.324474731025, -6590.389500902832, -7368.811353303356, -15565.307803786733, -12913.966228242663, -20453.075522551004, -12560.29457572634, -6657.534141246574, -9876.721784677718, -11624.292924915902, -12107.559991784095, 0.008, -0.026000000000000002, 0.99, 192.0, 0.0, 32.0, 127.5, 24.0, 15.0, 120.0, 0.0, 0.0, 0.0, 1.6444987890362196E9, 0.0, 2022-02-11 00:13:09.036
138.0, -8847.558062977561, -10648.460465486105, -10492.154716510144, -16818.167783995603, -2610.8178628465967, -2480.328378716514, -6553.8443987184055, -7352.896911251178, -15555.026001337292, -12900.957512969675, -20432.154289740836, -12545.251851707919, -6653.51082724462, -9865.90354036135, -11613.407625366168, -12100.049805647113, 0.008, -0.026000000000000002, 0.99, 192.0, 0.0, 0.0, 0.0, 0.0, 0.0, 0.0, 0.0, 0.0, 0.0, 1.6444987890362265E9, 0.0, 2022-02-11 00:13:09.036
140.0, -8865.953548664278, -10671.147486108242, -10505.588114927783, -16824.448624187546, -2631.493226467756, -2495.102881801472, -6567.456611091687, -7373.482867894515, -15563.31849853021, -12905.494917094102, -20444.246583491156, -12556.897110569134, -6657.847065668949, -9878.152296322858, -11615.531041089422, -12103.581381271051, 0.008, -0.026000000000000002, 0.99, 192.0, 0.0, 0.0, 0.0, 0.0, 0.0, 0.0, 0.0, 0.0, 0.0, 1.6444987890362327E9, 0.0, 2022-02-11 00:13:09.036
142.0, -8860.834999184013, -10666.297157561441, -10501.69891139256, -16822.90635382013, -2616.6963716383425, -2489.1573177763603, -6559.253520876589, -7360.004765987965, -15566.447742753953, -12910.702873552189, -20450.90740333884, -12555.377191946172, -6660.596330236952, -9879.76162192364, -11618.481471357522, -12107.515288295184, 0.008, -0.026000000000000002, 0.99, 192.0, 0.0, 0.0, 0.0, 0.0, 0.0, 0.0, 0.0, 0.0, 0.0, 1.6444987890362391E9, 0.0, 2022-02-11 00:13:09.036
144.0, -8866.713507975759, -10653.623718455281, -10508.359731240242, -16823.308685220323, -2622.3066594966244, -2489.626704409922, -6569.53532332603, -7364.810391045856, -15571.923920145504, -12899.750518769088, -20444.04541779106, -12559.109933270209, -6656.930644146281, -9889.082299361504, -11616.715683545552, -12106.084776650045, 0.008, -0.026000000000000002, 0.99, 192.0, 0.0, 0.0, 0.0, 0.0, 0.0, 0.0, 0.0, 0.0, 0.0, 1.6444987890362465E9, 0.0, 2022-02-11 00:13:09.036
146.0, -8867.004080653678, -10670.700451219136, -10506.03514981689, -16817.56428689531, -2626.061752565116, -2485.9610183192517, -6582.074651965458, -7369.8395335483, -15568.07942009919, -12924.203327203195, -20454.818958618518, -12546.43649416405, -6655.790705179061, -9886.95888363825, -11621.387198136712, -12105.503631294207, 0.006, -0.024, 0.986, 192.0, 0.0, 24.0, 127.5, 32.0, 15.0, 104.0, 0.0, 0.0, 0.0, 1.6444987890362532E9, 0.0, 2022-02-11 00:13:09.036
148.0, -8851.737839190702, -10658.406991768717, -10496.245085745464, -16819.687702618565, -2619.2221187617924, -2479.7025298717654, -6572.150477427302, -7369.303091681372, -15566.693611942961, -12922.504594624592, -20441.072635778506, -12537.786369059846, -6653.644937711351, -9866.238816528179, -11616.335703889812, -12103.179049870856, 0.006, -0.024, 0.986, 192.0, 0.0, 0.0, 0.0, 0.0, 0.0, 0.0, 0.0, 0.0, 0.0, 1.6444987890362604E9, 0.0, 2022-02-11 00:13:09.036
150.0, -8855.112952603455, -10644.660668928704, -10504.403472471651, -16823.353388709234, -2626.844063621052, -2490.856050354964, -6585.136840955835, -7383.049414521386, -15563.340850274666, -12914.614428831868, -20442.212574745725, -12552.784389589357, -6648.816960909005, -9866.797610139563, -11620.157852191669, -12112.566782542084, 0.006, -0.024, 0.986, 192.0, 0.0, 0.0, 0.0, 0.0, 0.0, 0.0, 0.0, 0.0, 0.0, 1.6444987890362668E9, 0.0, 2022-02-11 00:13:09.036
152.0, -8839.533786718106, -10646.694677674137, -10492.422937443607, -16815.865554316708, -2613.94710707034, -2474.293407713581, -6579.6159600753745, -7368.140800969697, -15553.93076585898, -12905.919600238753, -20439.105682266436, -12548.381095931662, -6643.005507350625, -9862.841351370973, -11621.722474303542, -12106.576515028062, 0.006, -0.024, 0.986, 192.0, 0.0, 0.0, 0.0, 0.0, 0.0, 0.0, 0.0, 0.0, 0.0, 1.6444987890362737E9, 0.0, 2022-02-11 00:13:09.036
154.0, -8846.0381443546, -10644.280689272964, -10497.675597390604, -16819.6206473852, -2618.7303803837754, -2484.5752101630223, -6572.888084994327, -7371.27004519344, -15556.79178914926, -12896.844791989899, -20427.214554216214, -12539.798026060824, -6641.731457916672, -9862.886054859884, -11616.939200990106, -12107.738805739738, 0.006, -0.025, 0.989, 192.0, 0.0, 24.0, 127.5, 24.0, 15.5, 0.0, 0.0, 0.0, 0.0, 1.64449878903628E9, 0.0, 2022-02-11 00:13:09.036
156.0, -8845.680516443315, -10636.301116502418, -10495.820402600813, -16817.81015608432, -2614.595307659544, -2485.335169474503, -6582.812259532483, -7367.872580036233, -15556.389457749065, -12912.35690264188, -20444.76067361363, -12547.688191853547, -6639.205710793222, -9863.646014171365, -11622.951820248583, -12110.264552863187, 0.006, -0.025, 0.989, 192.0, 0.0, 0.0, 0.0, 0.0, 0.0, 0.0, 0.0, 0.0, 0.0, 1.6444987890362866E9, 0.0, 2022-02-11 00:13:09.036
158.0, -8840.561966963049, -10653.243738799541, -10492.512344421428, -16814.792670582854, -2608.4932814232448, -2484.4634514407458, -6588.511954368586, -7367.559655613859, -15556.143588560057, -12905.047882204997, -20428.242734461157, -12534.992401002932, -6638.9598416042145, -9869.613929940931, -11618.01208472396, -12106.531811539151, 0.006, -0.025, 0.989, 192.0, 0.0, 0.0, 0.0, 0.0, 0.0, 0.0, 0.0, 0.0, 0.0, 1.6444987890362933E9, 0.0, 2022-02-11 00:13:09.036
160.0, -8855.962318892756, -10654.58484346686, -10504.470527705018, -16821.766414852907, -2618.0598280501163, -2494.4993847011788, -6570.295282637511, -7378.646120863691, -15562.022097351803, -12921.252896935093, -20436.311714209525, -12543.307249940306, -6641.865568383404, -9876.990005611182, -11622.527137103933, -12111.516250552684, 0.006, -0.025, 0.989, 192.0, 0.0, 0.0, 0.0, 0.0, 0.0, 0.0, 0.0, 0.0, 0.0, 1.6444987890362997E9, 0.0, 2022-02-11 00:13:09.036
162.0, -8841.344278018985, -10651.992041110045, -10497.675597390604, -16819.12890900718, -2609.0520750346277, -2480.708358372254, -6567.9930529586145, -7368.163152714152, -15561.284489784777, -12918.168356200262, -20440.111510766925, -12547.15174998662, -6640.323298015988, -9868.183418295792, -11623.287096415414, -12109.906924951903, 0.006, -0.025, 0.989, 192.0, 0.0, 0.0, 0.0, 0.0, 0.0, 0.0, 0.0, 0.0, 0.0, 1.6444987890363061E9, 0.0, 2022-02-11 00:13:09.036
164.0, -8843.445341997784, -10648.147541063732, -10500.961303825534, -16820.13473750767, -2617.813958861108, -2490.163146276849, -6593.54109687103, -7373.773440572434, -15559.138722317068, -12910.054672962986, -20427.28160944958, -12535.148863214119, -6636.568204947496, -9867.579921195498, -11618.101491701782, -12109.124613895967, 0.008, -0.0245, 0.9915, 192.0, 0.0, 40.0, 127.5, 32.0, 15.5, 8.0, 0.0, 0.0, 0.0, 1.6444987890363128E9, 0.0, 2022-02-11 00:13:09.036
166.0, -8848.005097866666, -10652.886110888257, -10504.98461782749, -16815.060891516317, -2618.9315460838734, -2478.7414048601872, -6567.501314580598, -7360.02711773242, -15561.21743455141, -12911.731053797133, -20445.05124629155, -12547.308212197806, -6633.058981068013, -9867.557569451043, -11620.58253533632, -12110.286904607643, 0.008, -0.0245, 0.9915, 192.0, 0.0, 0.0, 0.0, 0.0, 0.0, 0.0, 0.0, 0.0, 0.0, 1.6444987890363216E9, 0.0, 2022-02-11 00:13:09.036
168.0, -8839.17615880682, -10642.425494483174, -10497.608542157239, -16816.916086306108, -2604.4029121879234, -2472.907599557352, -6547.96588992666, -7348.605376315758, -15559.652812439539, -12912.736882297622, -20431.61784787391, -12532.779578301857, -6638.468103226198, -9856.314641990024, -11607.752634018974, -12098.887514935437, 0.008, -0.0245, 0.9915, 192.0, 0.0, 0.0, 0.0, 0.0, 0.0, 0.0, 0.0, 0.0, 0.0, 1.644498789036328E9, 0.0, 2022-02-11 00:13:09.036
170.0, -8852.9895368802, -10642.067866571888, -10509.186745785088, -16822.794595097854, -2626.777008387686, -2485.8045561080644, -6574.2738931505555, -7364.318652667839, -15562.938518874469, -12919.040074234019, -20437.22813573219, -12557.210034991507, -6638.848082881937, -9861.030860070094, -11609.943104975595, -12106.174183627867, 0.008, -0.0245, 0.9915, 192.0, 0.0, 0.0, 0.0, 0.0, 0.0, 0.0, 0.0, 0.0, 0.0, 1.6444987890363345E9, 0.0, 2022-02-11 00:13:09.036
172.0, -8840.740780918692, -10642.850177627824, -10499.731957880493, -16819.106557262727, -2616.450502449334, -2478.20496299326, -6576.218494918167, -7357.702536309068, -15563.430257252487, -12911.686350308222, -20441.4749671787, -12543.776636573868, -6640.099780571435, -9857.76750537962, -11620.20255568058, -12107.761157484194, 0.008, -0.0245, 0.9915, 192.0, 0.0, 0.0, 0.0, 0.0, 0.0, 0.0, 0.0, 0.0, 0.0, 1.644498789036341E9, 0.0, 2022-02-11 00:13:09.036
174.0, -8845.077019343022, -10656.127113834276, -10505.65517016115, -16825.47680443249, -2620.2055955178257, -2486.1845357638044, -6562.941558711715, -7362.731678811512, -15563.385553763575, -12912.513364853068, -20430.61201937342, -12533.606592846703, -6641.3067747720215, -9867.199941539759, -11615.240468411503, -12107.716453995283, 0.009000000000000001, -0.02425, 0.99075, 192.0, 0.0, 40.0, 127.5, 32.0, 15.0, 120.0, 0.0, 0.0, 0.0, 1.644498789036348E9, 0.0, 2022-02-11 00:13:09.036
176.0, -8843.89237688689, -10642.559604949905, -10509.186745785088, -16826.81790909981, -2627.648726421443, -2477.82498333752, -6577.336082140932, -7361.904664266666, -15558.356411261131, -12924.51625162557, -20443.933659068785, -12547.308212197806, -6638.557510204018, -9856.493455945667, -11621.901288259183, -12112.49972730872, 0.009000000000000001, -0.02425, 0.99075, 192.0, 0.0, 0.0, 0.0, 0.0, 0.0, 0.0, 0.0, 0.0, 0.0, 1.6444987890363548E9, 0.0, 2022-02-11 00:13:09.036
178.0, -8839.444379740284, -10639.273898514975, -10500.156641025143, -16828.76251086742, -2620.4961681957448, -2477.199134492771, -6563.969738956659, -7356.294376408384, -15561.150379318045, -12909.250010162594, -20431.819013574008, -12542.77080807338, -6644.547777718041, -9866.127057805903, -11618.079139957326, -12107.06825340608, 0.009000000000000001, -0.02425, 0.99075, 192.0, 0.0, 0.0, 0.0, 0.0, 0.0, 0.0, 0.0, 0.0, 0.0, 1.6444987890363612E9, 0.0, 2022-02-11 00:13:09.036
180.0, -8843.914728631345, -10649.421590497685, -10510.46079521904, -16830.03656030137, -2628.1851682883703, -2486.7433293751874, -6583.1922391882235, -7365.860923035255, -15568.973489877402, -12909.518231096057, -20441.89965032335, -12550.571566888282, -6646.894710885848, -9864.473028716211, -11618.459119613066, -12113.34909359802, 0.009000000000000001, -0.02425, 0.99075, 192.0, 0.0, 0.0, 0.0, 0.0, 0.0, 0.0, 0.0, 0.0, 0.0, 1.6444987890363677E9, 0.0, 2022-02-11 00:13:09.036
182.0, -8844.65233619837, -10656.641203956748, -10502.727091637504, -16823.75572010943, -2612.9859820587617, -2481.267151983637, -6558.515913309564, -7356.6073008307585, -15561.820931651704, -12918.973019000652, -20444.693618380265, -12542.033200506354, -6641.798513150038, -9863.757772893641, -11617.900326001683, -12109.661055762894, 0.009000000000000001, -0.02425, 0.99075, 192.0, 0.0, 0.0, 0.0, 0.0, 0.0, 0.0, 0.0, 0.0, 0.0, 1.6444987890363743E9, 0.0, 2022-02-11 00:13:09.036
184.0, -8847.714525188747, -10654.20486381112, -10502.235353259488, -16823.800423598343, -2616.785778616164, -2485.7375008746985, -6569.155343670291, -7366.263254435451, -15565.84424565366, -12920.202364945695, -20432.176641485294, -12537.115816726187, -6644.033687595569, -9869.792743896574, -11613.072349199338, -12109.594000529529, 0.0085, -0.024125, 0.991375, 192.0, 0.0, 32.0, 127.5, 32.0, 15.5, 0.0, 0.0, 0.0, 0.0, 1.6444987890363808E9, 0.0, 2022-02-11 00:13:09.036
186.0, -8851.447266512783, -10648.72868641957, -10501.430690459096, -16825.297990476847, -2620.8537961070297, -2486.0951287859834, -6572.821029760961, -7390.0678622803525, -15562.89381538556, -12930.059484250485, -20443.307810224036, -12548.068171509287, -6639.116303815402, -9863.62366242691, -11617.654456812676, -12114.913715709892, 0.0085, -0.024125, 0.991375, 192.0, 0.0, 0.0, 0.0, 0.0, 0.0, 0.0, 0.0, 0.0, 0.0, 1.6444987890363874E9, 0.0, 2022-02-11 00:13:09.036
188.0, -8838.349144261974, -10636.278764757964, -10495.798050856358, -16826.23676374397, -2617.2998687386357, -2475.902733314363, -6568.39538435881, -7355.802638030367, -15560.07749558419, -12923.08573998043, -20429.60619087293, -12542.122607484176, -6639.1386555598565, -9857.05224955705, -11615.262820155958, -12116.031302932657, 0.0085, -0.024125, 0.991375, 192.0, 0.0, 0.0, 0.0, 0.0, 0.0, 0.0, 0.0, 0.0, 0.0, 1.644498789036394E9, 0.0, 2022-02-11 00:13:09.036
190.0, -8855.872911914934, -10656.238872556552, -10511.019588830422, -16833.009342313926, -2633.840159635563, -2478.160259504349, -6575.838515262427, -7345.319669880828, -15570.113428844623, -12925.097396981408, -20441.85494683444, -12556.830055335768, -6646.067696341002, -9852.71601113272, -11617.676808557131, -12108.074081906567, 0.0085, -0.024125, 0.991375, 192.0, 0.0, 0.0, 0.0, 0.0, 0.0, 0.0, 0.0, 0.0, 0.0, 1.6444987890364003E9, 0.0, 2022-02-11 00:13:09.036
192.0, -8840.070228585033, -10642.447846227627, -10498.882591591191, -16824.76154860992, -2621.3455344850463, -2468.9066372998523, -6579.660663564285, -7364.408059645661, -15563.631422952585, -12931.735865084633, -20444.246583491156, -12549.990421532444, -6647.252338797133, -9853.073639044003, -11624.516442360455, -12108.96815168478, 0.0085, -0.024125, 0.991375, 192.0, 0.0, 0.0, 0.0, 0.0, 0.0, 0.0, 0.0, 0.0, 0.0, 1.644498789036407E9, 0.0, 2022-02-11 00:13:09.036
194.0, -8853.525978747128, -10654.450733000129, -10500.849545103258, -16831.779996368885, -2622.3737147299903, -2490.654884654866, -6565.087326179425, -7357.5460740978815, -15567.0735915987, -12931.311181939982, -20430.701426351243, -12540.513281883394, -6646.022992852091, -9866.372926994913, -11616.760387034463, -12110.041035418635, 0.00825, -0.0270625, 0.9906874999999999, 192.0, 0.0, 32.0, 127.5, 8.0, 15.0, 120.0, 0.0, 0.0, 0.0, 1.6444987890364137E9, 0.0, 2022-02-11 00:13:09.036
196.0, -8856.834036926513, -10664.956052894122, -10507.309199250842, -16832.405845213634, -2631.716743912309, -2488.39735846488, -6570.58585531543, -7366.129143968719, -15571.745106189861, -12929.992429017118, -20449.454539949245, -12556.67359312458, -6645.777123663083, -9873.011395098138, -11618.794395779896, -12116.67950352186, 0.00825, -0.0270625, 0.9906874999999999, 192.0, 0.0, 0.0, 0.0, 0.0, 0.0, 0.0, 0.0, 0.0, 0.0, 1.64449878903642E9, 0.0, 2022-02-11 00:13:09.036
198.0, -8845.613461209949, -10654.674250444681, -10503.352940482253, -16829.969505068006, -2629.3474590000465, -2482.0271112951173, -6574.966797228671, -7362.821085789334, -15572.46036201243, -12937.122635498363, -20440.08915902247, -12549.901014554622, -6652.348536532943, -9865.076525816505, -11621.901288259183, -12112.902058708914, 0.00825, -0.0270625, 0.9906874999999999, 192.0, 0.0, 0.0, 0.0, 0.0, 0.0, 0.0, 0.0, 0.0, 0.0, 1.6444987890364285E9, 0.0, 2022-02-11 00:13:09.036
200.0, -8863.51720851865, -10656.574148723383, -10512.94183885358, -16838.016133071917, -2638.8469503935517, -2495.9969515796843, -6588.556657857497, -7380.41190867566, -15576.729545203394, -12936.072103508963, -20441.966705556715, -12548.716372098492, -6654.9860423786695, -9865.769429894619, -11627.265706928458, -12119.428768089863, 0.00825, -0.0270625, 0.9906874999999999, 192.0, 0.0, 0.0, 0.0, 0.0, 0.0, 0.0, 0.0, 0.0, 0.0, 1.644498789036435E9, 0.0, 2022-02-11 00:13:09.036
202.0, -8854.487103758705, -10642.20197703862, -10503.576457926805, -16834.976295825996, -2634.197787546848, -2488.598524164978, -6590.814184047483, -7367.805524802867, -15575.611957980629, -12939.469568666169, -20447.197013759258, -12565.904863584623, -6650.091010342957, -9869.323357263012, -11629.299715673891, -12121.596887302028, 0.00825, -0.0270625, 0.9906874999999999, 192.0, 0.0, 0.0, 0.0, 0.0, 0.0, 0.0, 0.0, 0.0, 0.0, 1.6444987890364413E9, 0.0, 2022-02-11 00:13:09.036
204.0, -8862.131400362421, -10658.518750490994, -10507.51036495094, -16838.172595283104, -2632.90138636844, -2493.9405910897963, -6590.568314858475, -7384.301112210884, -15582.853923184148, -12945.32572571346, -20440.84911833395, -12554.281956467863, -6656.684774957273, -9866.439982228278, -11627.77979705093, -12122.043922191135, 0.007125, -0.030531250000000003, 0.98934375, 192.0, 0.0, 24.0, 127.0, 120.0, 15.0, 112.0, 0.0, 0.0, 0.0, 1.644498789036448E9, 0.0, 2022-02-11 00:13:09.036
206.0, -8867.9428539208, -10680.177590868187, -10511.51132720844, -16836.764435382418, -2632.096723568049, -2494.7676056346427, -6579.571256586463, -7374.756917328467, -15586.586664508184, -12947.583251903445, -20458.439941220277, -12552.15854074461, -6652.616757466407, -9873.86076138744, -11625.455215627577, -12127.900079238425, 0.007125, -0.030531250000000003, 0.98934375, 192.0, 0.0, 0.0, 0.0, 0.0, 0.0, 0.0, 0.0, 0.0, 0.0, 1.6444987890364544E9, 0.0, 2022-02-11 00:13:09.036
208.0, -8844.697039687282, -10659.502227247027, -10500.178992769599, -16839.647810417155, -2624.2512612642363, -2481.2448002391816, -6574.2738931505555, -7365.078611979319, -15584.239731340378, -12950.287812982539, -20443.777196857598, -12545.855348808213, -6651.387411521365, -9864.741249649675, -11620.135500447215, -12122.669771035884, 0.007125, -0.030531250000000003, 0.98934375, 192.0, 0.0, 0.0, 0.0, 0.0, 0.0, 0.0, 0.0, 0.0, 0.0, 1.644498789036461E9, 0.0, 2022-02-11 00:13:09.036
210.0, -8851.84959791298, -10654.62954695577, -10507.420957973118, -16838.977258083494, -2635.7624096587197, -2492.174803277827, -6584.7792130445505, -7389.687882624613, -15578.18240859299, -12941.838853578432, -20439.46331017772, -12554.39371519014, -6644.391315506854, -9861.455543214744, -11619.599058580287, -12124.390855358943, 0.007125, -0.030531250000000003, 0.98934375, 192.0, 0.0, 0.0, 0.0, 0.0, 0.0, 0.0, 0.0, 0.0, 0.0, 1.6444987890364678E9, 0.0, 2022-02-11 00:13:09.036
212.0, -8848.85446415597, -10655.814189411902, -10504.135251538188, -16832.13762428017, -2631.0461915786495, -2481.0883380279947, -6598.302018440011, -7378.288492952406, -15575.835475425181, -12930.350056928404, -20443.79954860205, -12553.879625067668, -6641.105609071924, -9866.529389206098, -11627.086892972815, -12125.173166414877, 0.007125, -0.030531250000000003, 0.98934375, 192.0, 0.0, 0.0, 0.0, 0.0, 0.0, 0.0, 0.0, 0.0, 0.0, 1.6444987890364752E9, 0.0, 2022-02-11 00:13:09.036
214.0, -8848.921519389334, -10656.663555701203, -10509.767891140926, -16836.786787126875, -2631.6273369344876, -2487.4362334533016, -6585.539172356031, -7366.777344557923, -15582.295129572765, -12937.636725620834, -20439.753882855643, -12556.718296613491, -6649.286347542567, -9874.061927087538, -11626.34928540579, -12120.25578263471, 0.0085625, -0.031265625000000005, 0.991671875, 192.0, 0.0, 40.0, 127.5, 0.0, 15.5, 8.0, 0.0, 0.0, 0.0, 1.644498789036482E9, 0.0, 2022-02-11 00:13:09.036
216.0, -8862.869007929447, -10659.658689458214, -10511.846603375268, -16836.876194104694, -2629.7274386557865, -2491.526602688623, -6561.175770899746, -7359.848303776777, -15580.976376649902, -12946.867996080875, -20453.366095228925, -12567.223616507485, -6641.999678850136, -9870.172723552314, -11624.181166193624, -12122.87093673598, 0.0085625, -0.031265625000000005, 0.991671875, 192.0, 0.0, 0.0, 0.0, 0.0, 0.0, 0.0, 0.0, 0.0, 0.0, 1.6444987890364888E9, 0.0, 2022-02-11 00:13:09.036
218.0, -8853.682440958315, -10653.891939388746, -10505.252838760953, -16835.557441181834, -2615.3552669710243, -2489.224373009726, -6564.103849423391, -7371.381803915716, -15581.691632472472, -12944.431655935246, -20440.75971135613, -12549.67749711007, -6643.609004450918, -9871.759697408641, -11621.63306732572, -12119.004084945213, 0.0085625, -0.031265625000000005, 0.991671875, 192.0, 0.0, 0.0, 0.0, 0.0, 0.0, 0.0, 0.0, 0.0, 0.0, 1.6444987890364952E9, 0.0, 2022-02-11 00:13:09.036
220.0, -8866.892321931402, -10665.425439527684, -10519.960286612546, -16841.43594997358, -2629.3921624889567, -2496.5110417021565, -6587.081442723446, -7380.925998798132, -15585.51378077433, -12952.299469983516, -20446.548813170055, -12546.458845908504, -6645.084219584968, -9868.004604340149, -11627.377465650734, -12124.949648970325, 0.0085625, -0.031265625000000005, 0.991671875, 192.0, 0.0, 0.0, 0.0, 0.0, 0.0, 0.0, 0.0, 0.0, 0.0, 1.644498789036502E9, 0.0, 2022-02-11 00:13:09.036
222.0, -8860.432667783818, -10660.306890047419, -10515.244068532476, -16846.353333753745, -2621.2561275072253, -2488.0173788091397, -6564.036794190025, -7366.151495713174, -15586.474905785908, -12952.56769091698, -20457.52351969761, -12557.567662902793, -6648.660498697817, -9864.964767094227, -11625.96930575005, -12122.82623324707, 0.0085625, -0.031265625000000005, 0.991671875, 192.0, 0.0, 0.0, 0.0, 0.0, 0.0, 0.0, 0.0, 0.0, 0.0, 1.6444987890365083E9, 0.0, 2022-02-11 00:13:09.036
224.0, -8861.125571861932, -10657.714087690603, -10521.569612213329, -16850.689572178075, -2629.6380316779655, -2492.040692811095, -6570.652910548796, -7364.117486967742, -15588.888894187081, -12945.884519324842, -20449.119263782413, -12559.109933270209, -6653.1084958444235, -9863.534255449087, -11617.96738123505, -12121.842756491036, 0.008, -0.026000000000000002, 0.994, 192.0, 0.0, 32.0, 127.5, 24.0, 15.5, 8.0, 0.0, 0.0, 0.0, 1.6444987890365148E9, 0.0, 2022-02-11 00:13:09.036
226.0, -8868.948682421289, -10658.854026657824, -10523.044827347378, -16841.77122614041, -2635.8518166365407, -2493.135928289405, -6595.373939916366, -7376.36624292925, -15590.60997851014, -12954.17701651776, -20463.782008145095, -12564.496703683937, -6651.543873732552, -9875.827714899508, -11625.432863883123, -12126.603678060017, 0.008, -0.026000000000000002, 0.994, 192.0, 0.0, 0.0, 0.0, 0.0, 0.0, 0.0, 0.0, 0.0, 0.0, 1.6444987890365214E9, 0.0, 2022-02-11 00:13:09.036
228.0, -8859.18097009432, -10665.96188139461, -10515.847565632768, -16841.90533660714, -2629.861549122518, -2486.519811930634, -6587.72964331265, -7379.137859241708, -15586.586664508184, -12948.678487381756, -20450.035685305083, -12555.801875090823, -6652.2814812995775, -9872.698470675763, -11622.974171993039, -12119.96520995679, 0.008, -0.026000000000000002, 0.994, 192.0, 0.0, 0.0, 0.0, 0.0, 0.0, 0.0, 0.0, 0.0, 0.0, 1.644498789036528E9, 0.0, 2022-02-11 00:13:09.036
230.0, -8878.85050521499, -10672.712108220114, -10527.51517623844, -16848.275583776904, -2637.4387904928676, -2504.512966217156, -6587.841402034927, -7399.790871118412, -15589.313577331732, -12962.290699755038, -20456.696505152762, -12554.885453568157, -6650.247472554144, -9869.010432840638, -11623.734131304518, -12128.458872849807, 0.008, -0.026000000000000002, 0.994, 192.0, 0.0, 0.0, 0.0, 0.0, 0.0, 0.0, 0.0, 0.0, 0.0, 1.6444987890365362E9, 0.0, 2022-02-11 00:13:09.036
232.0, -8867.249949842686, -10667.593558739849, -10519.870879634724, -16850.42135124461, -2627.648726421443, -2496.913373102352, -6575.637349562329, -7384.055243021875, -15588.978301164903, -12961.843664865932, -20463.49143546718, -12562.507398427415, -6649.152237075835, -9872.47495323121, -11626.3939888947, -12130.224660661777, 0.008, -0.026000000000000002, 0.994, 192.0, 0.0, 0.0, 0.0, 0.0, 0.0, 0.0, 0.0, 0.0, 0.0, 1.644498789036543E9, 0.0, 2022-02-11 00:13:09.036
234.0, -8867.764039965157, -10656.194169067641, -10522.79895815837, -16852.790636156875, -2631.8955578679515, -2500.981390593218, -6583.169887443768, -7371.068879493342, -15582.026908639302, -12959.94376658723, -20447.264068992623, -12558.931119314566, -6648.660498697817, -9870.820924141517, -11623.309448159867, -12127.944782727336, 0.012, -0.024, 0.988, 192.0, 0.0, 48.0, 127.5, 32.0, 15.0, 112.0, 0.0, 0.0, 0.0, 1.644498789036549E9, 0.0, 2022-02-11 00:13:09.036
236.0, -8892.842697244012, -10676.958939666622, -10532.454911763061, -16859.138531582183, -2636.8799968814847, -2499.662637670355, -6590.657721836295, -7382.535324398915, -15598.455440813952, -12963.050659066517, -20471.783932660095, -12573.8173811218, -6652.84027491096, -9868.4292874848, -11633.099512231292, -12132.2139659183, 0.012, -0.024, 0.988, 192.0, 0.0, 0.0, 0.0, 0.0, 0.0, 0.0, 0.0, 0.0, 0.0, 1.6444987890365558E9, 0.0, 2022-02-11 00:13:09.036
238.0, -8875.385984824417, -10671.30394831943, -10524.94472562608, -16856.94806062556, -2629.548624700144, -2498.4109399808576, -6589.897762524815, -7379.897818553188, -15600.824725726216, -12969.532664958557, -20467.023011091114, -12582.132230059175, -6658.048231369046, -9867.71403166223, -11631.959573264072, -12128.995314716734, 0.012, -0.024, 0.988, 192.0, 0.0, 0.0, 0.0, 0.0, 0.0, 0.0, 0.0, 0.0, 0.0, 1.6444987890365624E9, 0.0, 2022-02-11 00:13:09.036
240.0, -8900.24112465872, -10690.25822761753, -10537.037019376401, -16853.70705767954, -2644.3007760406467, -2512.045504098595, -6588.623713090863, -7377.394423174193, -15603.059900171746, -12971.924301615276, -20470.62164194842, -12578.287730012862, -6661.870379670904, -9882.935569636295, -11634.284154687424, -12128.682390294362, 0.012, -0.024, 0.988, 192.0, 0.0, 0.0, 0.0, 0.0, 0.0, 0.0, 0.0, 0.0, 0.0, 1.6444987895163937E9, 0.0, 2022-02-11 00:13:09.516
242.0, -8889.825211742545, -10681.004605413033, -10529.325667539319, -16850.846034389262, -2636.656479436932, -2501.3390185045027, -6577.626654818851, -7372.186466716107, -15602.590513538184, -12975.18765630575, -20477.751848429663, -12568.162389774609, -6665.9607489062255, -9885.170744081825, -11639.000372767494, -12125.128462925966, 0.012, -0.024, 0.988, 192.0, 0.0, 0.0, 0.0, 0.0, 0.0, 0.0, 0.0, 0.0, 0.0, 1.6444987895165725E9, 0.0, 2022-02-11 00:13:09.516
244.0, -8886.248932629696, -10678.25534084503, -10527.068141349333, -16853.640002446176, -2638.8693021380072, -2502.590716194, -6590.724777069661, -7382.021234276443, -15601.405871082054, -12966.582234690457, -20463.402028489356, -12561.72508737148, -6669.1346966188785, -9888.188229583291, -11631.646648841697, -12126.044884448635, 0.006, -0.026000000000000002, 0.99, 192.0, 0.0, 24.0, 127.5, 24.0, 15.0, 120.0, 0.0, 0.0, 0.0, 1.6444987895165808E9, 0.0, 2022-02-11 00:13:09.516
246.0, -8883.074984917044, -10667.481800017573, -10526.039961104389, -16848.275583776904, -2636.812941648119, -2499.4614719702568, -6605.275762710066, -7402.897763597699, -15589.782963965294, -12976.394650506336, -20468.67704018081, -12570.308157242318, -6656.707126701728, -9865.56826419452, -11639.313297189869, -12130.716399039793, 0.006, -0.026000000000000002, 0.99, 192.0, 0.0, 0.0, 0.0, 0.0, 0.0, 0.0, 0.0, 0.0, 0.0, 1.6444987895165896E9, 0.0, 2022-02-11 00:13:09.516
248.0, -8876.61533076946, -10664.754887194025, -10521.211984302043, -16850.3766477557, -2623.8265781195855, -2493.5606114340558, -6553.0844394069245, -7363.782210800911, -15590.386461065587, -12971.23139753716, -20459.870452865416, -12570.799895620334, -6656.662423212818, -9864.070697316016, -11626.05871272787, -12123.697951280827, 0.006, -0.026000000000000002, 0.99, 192.0, 0.0, 0.0, 0.0, 0.0, 0.0, 0.0, 0.0, 0.0, 0.0, 1.6444987895165973E9, 0.0, 2022-02-11 00:13:09.516
250.0, -8890.0487291871, -10669.515808763004, -10528.722170439027, -16852.611822201234, -2639.673964938398, -2500.0202655816397, -6584.868620022371, -7376.679167351624, -15599.528324547808, -12975.120601072384, -20463.75965640064, -12571.381040976172, -6661.244530826156, -9868.988081096182, -11625.142291205204, -12127.385989115954, 0.006, -0.026000000000000002, 0.99, 192.0, 0.0, 0.0, 0.0, 0.0, 0.0, 0.0, 0.0, 0.0, 0.0, 1.6444987895166044E9, 0.0, 2022-02-11 00:13:09.516
252.0, -8877.62115926995, -10673.181494853676, -10519.200327301065, -16843.46995871901, -2627.648726421443, -2494.2535155121705, -6579.817125775472, -7375.382766173216, -15596.868466957625, -12970.42673473677, -20468.297060525067, -12569.8164188643, -6658.0929348579575, -9868.13871480688, -11631.646648841697, -12127.631858304961, 0.006, -0.026000000000000002, 0.99, 192.0, 0.0, 0.0, 0.0, 0.0, 0.0, 0.0, 0.0, 0.0, 0.0, 1.6444987895166132E9, 0.0, 2022-02-11 00:13:09.516
254.0, -8880.102202904487, -10669.471105274095, -10516.808690644348, -16849.281412277393, -2622.3066594966244, -2493.650018411877, -6567.434259347232, -7379.5625423863585, -15592.733394233393, -12974.740621416644, -20450.348609727458, -12550.19158723254, -6655.343670289954, -9862.595482181965, -11619.911983002661, -12125.262573392698, 0.004, -0.022, 0.992, 192.0, 0.0, 16.0, 127.5, 40.0, 15.5, 0.0, 0.0, 0.0, 0.0, 1.64449878951662E9, 0.0, 2022-02-11 00:13:09.516
0.0, -8882.315025605563, -10657.334108034864, -10522.910716880646, -16845.10163606425, -2628.587499688566, -2502.3895504939023, -6579.504201353097, -7395.097004782797, -15592.308711088743, -12964.458818967203, -20464.229043034204, -12568.832942108267, -6651.141542332357, -9864.4283252273, -11625.25404992748, -12127.453044349319, 0.004, -0.022, 0.992, 192.0, 0.0, 0.0, 0.0, 0.0, 0.0, 0.0, 0.0, 0.0, 0.0, 1.6444987895166273E9, 0.0, 2022-02-11 00:13:09.516
2.0, -8875.18481912432, -10659.39046852475, -10521.79312965788, -16844.18521454158, -2624.5418339421553, -2494.4099777233578, -6583.169887443768, -7375.472173151037, -15595.460307056941, -12963.743563144633, -20457.836444119985, -12561.345107715739, -6655.254263312133, -9869.591578196476, -11624.11411096026, -12127.430692604863, 0.004, -0.022, 0.992, 192.0, 0.0, 0.0, 0.0, 0.0, 0.0, 0.0, 0.0, 0.0, 0.0, 1.6444987895166337E9, 0.0, 2022-02-11 00:13:09.516
4.0, -8878.224656370241, -10661.87151215929, -10530.152682084166, -16844.65460117514, -2638.4893224822667, -2500.333190004014, -6615.468158181687, -7385.083423266819, -15596.354376835154, -12963.18476953325, -20465.056057579048, -12563.133247272164, -6657.265920313111, -9878.912255634339, -11629.456177885078, -12127.788320516149, 0.004, -0.022, 0.992, 192.0, 0.0, 0.0, 0.0, 0.0, 0.0, 0.0, 0.0, 0.0, 0.0, 1.6444987895166411E9, 0.0, 2022-02-11 00:13:09.516
6.0, -8879.118726148454, -10668.219407584598, -10524.005952358955, -16841.637115673675, -2623.580708930577, -2488.4197102093353, -6565.310843623977, -7363.871617778733, -15592.442821555474, -12975.500580728125, -20470.442827992778, -12559.646375137136, -6656.193036579256, -9864.025993827105, -11630.663172085664, -12124.25674489221, 0.004, -0.022, 0.992, 192.0, 0.0, 0.0, 0.0, 0.0, 0.0, 0.0, 0.0, 0.0, 0.0, 1.6444987895166595E9, 0.0, 2022-02-11 00:13:09.516
8.0, -8881.040976171611, -10656.149465578732, -10524.184766314598, -16842.307668007335, -2618.775083872686, -2483.234105495704, -6558.135933653824, -7365.279777679418, -15595.862638457136, -12974.584159205457, -20456.204766774747, -12553.521997156382, -6660.395164536854, -9856.627566412399, -11620.761349291963, -12120.009913445701, 0.006, -0.028, 0.988, 192.0, 0.0, 24.0, 127.5, 16.0, 15.0, 112.0, 0.0, 0.0, 0.0, 1.6444987895166664E9, 0.0, 2022-02-11 00:13:09.516
10.0, -8877.844676714501, -10657.423515012684, -10525.79409191538, -16841.458301718034, -2623.42424671939, -2488.330303231514, -6564.439125590221, -7378.4449551635935, -15588.598321509162, -12975.053545839019, -20466.28540352409, -12565.189607762053, -6653.153199333335, -9853.721839633208, -11620.224907425036, -12120.568707057084, 0.006, -0.028, 0.988, 192.0, 0.0, 0.0, 0.0, 0.0, 0.0, 0.0, 0.0, 0.0, 0.0, 1.644498789516673E9, 0.0, 2022-02-11 00:13:09.516
12.0, -8870.468601044251, -10659.34576503584, -10521.949591869068, -16846.800368642853, -2619.199767017337, -2485.2234107522263, -6561.198122644201, -7367.134972469208, -15587.234865097389, -12975.299415028026, -20454.99777257416, -12558.059401280809, -6655.678946456784, -9848.08920003047, -11618.43676786861, -12122.937991969347, 0.006, -0.028, 0.988, 192.0, 0.0, 0.0, 0.0, 0.0, 0.0, 0.0, 0.0, 0.0, 0.0, 1.6444987895166805E9, 0.0, 2022-02-11 00:13:09.516
14.0, -8883.253798872685, -10658.831674913368, -10531.627897218215, -16852.65652569014, -2643.9207963849067, -2500.243783026193, -6573.290416394522, -7374.60045511728, -15596.309673346243, -12983.346043031937, -20462.329144755502, -12567.737706629958, -6662.920911660303, -9856.627566412399, -11623.220041182047, -12129.419997861385, 0.006, -0.028, 0.988, 192.0, 0.0, 0.0, 0.0, 0.0, 0.0, 0.0, 0.0, 0.0, 0.0, 1.6444987895166874E9, 0.0, 2022-02-11 00:13:09.516
16.0, -8866.288824831108, -10645.73355266256, -10521.211984302043, -16844.989877341974, -2633.3707730020014, -2496.309876002059, -6586.947332256715, -7378.601417374781, -15589.023004653813, -12966.604586434913, -20464.47491222321, -12578.8688753687, -6663.703222716239, -9882.063851602537, -11631.981925008527, -12135.074989208579, 0.006, -0.028, 0.988, 192.0, 0.0, 0.0, 0.0, 0.0, 0.0, 0.0, 0.0, 0.0, 0.0, 1.6444987895166943E9, 0.0, 2022-02-11 00:13:09.516
18.0, -8868.300481832086, -10656.194169067641, -10519.043865089878, -16846.263926775926, -2627.1793397878814, -2498.9250301033294, -6571.614035560374, -7375.785097573412, -15586.027870896802, -12971.432563237258, -20448.202842259747, -12552.046782022331, -6658.517618002608, -9862.148447292859, -11627.645686584197, -12128.391817616442, 0.012, -0.026000000000000002, 0.988, 192.0, 0.0, 48.0, 127.5, 24.0, 15.0, 112.0, 0.0, 0.0, 0.0, 1.644498789516702E9, 0.0, 2022-02-11 00:13:09.516
20.0, -8875.676557502336, -10663.72670694908, -10530.040923361888, -16845.503967464443, -2630.4650462228115, -2502.3895504939023, -6562.338061611422, -7369.88423703721, -15586.184333107989, -12989.269255312593, -20464.89959536786, -12564.317889728296, -6657.422382524298, -9861.008508325638, -11623.980000493528, -12130.06819845059, 0.012, -0.026000000000000002, 0.988, 192.0, 0.0, 0.0, 0.0, 0.0, 0.0, 0.0, 0.0, 0.0, 0.0, 1.6444987895167103E9, 0.0, 2022-02-11 00:13:09.516
22.0, -8877.308234847575, -10665.984233139066, -10517.568649955827, -16844.319325008313, -2618.0598280501163, -2496.5110417021565, -6560.706384266185, -7363.692803823091, -15582.429240039497, -12991.6161884804, -20455.198938274258, -12563.334412972263, -6664.12790586089, -9860.80734262554, -11622.795358037396, -12124.994352459235, 0.012, -0.026000000000000002, 0.988, 192.0, 0.0, 0.0, 0.0, 0.0, 0.0, 0.0, 0.0, 0.0, 0.0, 1.6444987895167186E9, 0.0, 2022-02-11 00:13:09.516
24.0, -8878.76109823717, -10664.598424982838, -10522.821309902825, -16847.58267969879, -2626.0170490762057, -2499.30500975907, -6570.608207059885, -7387.787984345911, -15586.31844357472, -12986.542342489045, -20455.62362141891, -12564.63081415067, -6659.054059869535, -9859.488589702678, -11617.475642857033, -12128.771797272182, 0.012, -0.026000000000000002, 0.988, 192.0, 0.0, 0.0, 0.0, 0.0, 0.0, 0.0, 0.0, 0.0, 0.0, 1.6444987895167272E9, 0.0, 2022-02-11 00:13:09.516
26.0, -8878.582284281527, -10651.545006220938, -10517.769815655925, -16847.783845398884, -2623.714819397309, -2485.7598526191537, -6556.638366775319, -7362.105829966764, -15585.670242985518, -12976.729926673166, -20464.251394778657, -12566.754229873924, -6658.718783702706, -9845.541101162566, -11621.923640003639, -12130.381122872965, 0.012, -0.026000000000000002, 0.988, 192.0, 0.0, 0.0, 0.0, 0.0, 0.0, 0.0, 0.0, 0.0, 0.0, 1.644498789516734E9, 0.0, 2022-02-11 00:13:09.516
28.0, -8882.203266883287, -10660.709221447614, -10520.27321103492, -16840.988915084472, -2627.358153743524, -2501.204908037771, -6574.765631528572, -7376.947388285088, -15590.006481409846, -12989.068089612496, -20449.029856804595, -12556.360668702206, -6657.020051124103, -9854.884130344884, -11617.833270768318, -12126.648381548928, 0.01, -0.026000000000000002, 0.986, 192.0, 0.0, 40.0, 127.5, 24.0, 15.0, 104.0, 0.0, 0.0, 0.0, 1.6444987895167425E9, 0.0, 2022-02-11 00:13:09.516
30.0, -8885.801897740592, -10629.48383444355, -10528.02926636091, -16841.61476392922, -2635.069505580605, -2504.6694284283435, -6593.943428271226, -7386.156307000674, -15588.106583131146, -12976.729926673166, -20461.949165099762, -12564.072020539286, -6653.734344689173, -9860.00267982515, -11629.053846484881, -12133.175090929877, 0.01, -0.026000000000000002, 0.986, 192.0, 0.0, 0.0, 0.0, 0.0, 0.0, 0.0, 0.0, 0.0, 0.0, 1.6444987895167496E9, 0.0, 2022-02-11 00:13:09.516
32.0, -8878.13524939242, -10636.949317091623, -10525.391760515186, -16845.19104304207, -2620.160892028915, -2498.008608580662, -6562.561579055975, -7370.085402737308, -15593.314539589232, -12983.27898779857, -20461.926813355305, -12566.463657196005, -6664.574940749996, -9873.436078242788, -11626.908079017172, -12128.838852505549, 0.01, -0.026000000000000002, 0.986, 192.0, 0.0, 0.0, 0.0, 0.0, 0.0, 0.0, 0.0, 0.0, 0.0, 1.6444987895167575E9, 0.0, 2022-02-11 00:13:09.516
34.0, -8886.494801818706, -10646.672325929681, -10533.013705374446, -16842.397074985158, -2634.443656735856, -2503.484785972212, -6587.394367145821, -7384.2564087219735, -15597.784888480293, -13001.47330778519, -20461.323316255013, -12560.741610615447, -6663.9043884163375, -9856.448752456756, -11623.577669093333, -12127.58715481605, 0.01, -0.026000000000000002, 0.986, 192.0, 0.0, 0.0, 0.0, 0.0, 0.0, 0.0, 0.0, 0.0, 0.0, 1.644498789516765E9, 0.0, 2022-02-11 00:13:09.516
36.0, -8877.285883103119, -10629.86381409929, -10528.900984394668, -16839.67016216161, -2626.061752565116, -2493.404149222869, -6546.870654448349, -7363.513989867448, -15592.80044946676, -12989.291607057048, -20467.00065934666, -12563.446171694539, -6661.758620948627, -9847.70922037473, -11628.852680784785, -12123.87676523647, 0.01, -0.026000000000000002, 0.986, 192.0, 0.0, 0.0, 0.0, 0.0, 0.0, 0.0, 0.0, 0.0, 0.0, 1.6444987895167732E9, 0.0, 2022-02-11 00:13:09.516
38.0, -8884.237275628719, -10642.067866571888, -10529.325667539319, -16842.709999407532, -2626.911118854418, -2494.365274234447, -6555.453724319187, -7378.243789463496, -15599.99771118137, -12988.576351234478, -20456.76356038613, -12559.95929955951, -6667.145391362356, -9849.989098309172, -11624.248221426991, -12121.708646024304, 0.012, -0.024, 0.984, 192.0, 0.0, 48.0, 127.5, 32.0, 15.0, 96.0, 0.0, 0.0, 0.0, 1.6444987895167842E9, 0.0, 2022-02-11 00:13:09.516
40.0, -8886.561857052071, -10638.983325837056, -10534.80184493087, -16845.10163606425, -2627.7604851437195, -2505.518794717645, -6571.792849516017, -7383.295283710395, -15598.61190302514, -12988.799868679032, -20469.727572170206, -12568.140038030153, -6663.79262969406, -9847.70922037473, -11629.500881373988, -12127.967134471792, 0.012, -0.024, 0.984, 192.0, 0.0, 0.0, 0.0, 0.0, 0.0, 0.0, 0.0, 0.0, 0.0, 1.6444987895167916E9, 0.0, 2022-02-11 00:13:09.516
42.0, -8873.754307479181, -10635.205881024109, -10527.693990194082, -16837.5243946939, -2612.963630314306, -2496.756910891165, -6562.58393080043, -7382.512972654459, -15594.141554134078, -12973.064240582496, -20457.747037142162, -12557.902939069621, -6659.881074414382, -9872.296139275568, -11626.215174939058, -12126.044884448635, 0.012, -0.024, 0.984, 192.0, 0.0, 0.0, 0.0, 0.0, 0.0, 0.0, 0.0, 0.0, 0.0, 1.6444987895167992E9, 0.0, 2022-02-11 00:13:09.516
44.0, -8894.80965075608, -10661.893863903746, -10535.584155986806, -16838.70903715003, -2629.9956595892504, -2509.6091639529664, -6572.105773938391, -7384.099946510786, -15598.097812902668, -12998.85815368392, -20458.19407203127, -12562.082715282764, -6664.396126794354, -9870.597406696965, -11627.958611006572, -12130.649343806428, 0.012, -0.024, 0.984, 192.0, 0.0, 0.0, 0.0, 0.0, 0.0, 0.0, 0.0, 0.0, 0.0, 1.6444987895168073E9, 0.0, 2022-02-11 00:13:09.516
46.0, -8886.651264029893, -10640.816168882391, -10528.386894272197, -16839.737217394973, -2623.781874630675, -2497.673332413832, -6577.447840863209, -7376.276835951428, -15597.22609486891, -13006.614209009911, -20465.19016804578, -12559.646375137136, -6664.194961094256, -9863.668365915819, -11632.11603547526, -12129.755274028215, 0.012, -0.024, 0.987, 192.0, 0.0, 48.0, 127.5, 32.0, 15.0, 120.0, 0.0, 0.0, 0.0, 1.6444987895168157E9, 0.0, 2022-02-11 00:13:09.516
48.0, -8884.349034350997, -10648.996907353034, -10528.789225672392, -16847.09094132077, -2624.3406682420577, -2493.6723701563324, -6595.440995149732, -7392.370091959249, -15602.143478649079, -13002.277970585583, -20457.14354004187, -12558.752305358925, -6669.469972785709, -9856.448752456756, -11630.35024766329, -12129.375294372476, 0.012, -0.024, 0.987, 192.0, 0.0, 0.0, 0.0, 0.0, 0.0, 0.0, 0.0, 0.0, 0.0, 1.644498789516824E9, 0.0, 2022-02-11 00:13:09.516
50.0, -8895.368444367463, -10660.999794125533, -10533.75131294147, -16846.5768511983, -2630.487397967267, -2505.7646639066534, -6580.487678109131, -7397.242772250506, -15603.931618205503, -13007.061243899017, -20474.488493739187, -12578.086564312765, -6664.820809939005, -9865.367098494424, -11633.814768053862, -12141.2664224227, 0.012, -0.024, 0.987, 192.0, 0.0, 0.0, 0.0, 0.0, 0.0, 0.0, 0.0, 0.0, 0.0, 1.6444987895168328E9, 0.0, 2022-02-11 00:13:09.516
52.0, -8889.959322209277, -10655.411858011706, -10523.60362095876, -16845.995705842462, -2615.869357093496, -2493.2923905005923, -6557.577140042441, -7362.642271833691, -15603.305769360753, -13004.28962758656, -20463.402028489356, -12572.968014832499, -6667.659481484829, -9872.206732297747, -11630.238488941013, -12134.985582230758, 0.012, -0.024, 0.987, 192.0, 0.0, 0.0, 0.0, 0.0, 0.0, 0.0, 0.0, 0.0, 0.0, 1.6444987895168402E9, 0.0, 2022-02-11 00:13:09.516
54.0, -8893.177973410842, -10648.415761997196, -10531.292621051387, -16849.840205888773, -2625.5253106981886, -2498.1203673029386, -6565.243788390611, -7382.3788621877275, -15605.876219973115, -13010.704578245233, -20463.580842444997, -12581.551084703337, -6667.41361229582, -9870.217427041225, -11626.438692383612, -12133.286849652153, 0.012, -0.024, 0.987, 192.0, 0.0, 0.0, 0.0, 0.0, 0.0, 0.0, 0.0, 0.0, 0.0, 1.6444987895168476E9, 0.0, 2022-02-11 00:13:09.516
56.0, -8885.913656462868, -10650.136846320254, -10525.145891326178, -16850.80133090035, -2620.3397059845574, -2492.6441899113884, -6567.925997725249, -7380.9707022870425, -15598.477792558408, -12995.99713039364, -20467.224176791213, -12575.270244511396, -6663.010318638125, -9852.447790199256, -11630.864337785762, -12136.0137624757, 0.012, -0.024, 0.9875, 192.0, 0.0, 48.0, 127.5, 32.0, 15.0, 112.0, 0.0, 0.0, 0.0, 1.6444987895168545E9, 0.0, 2022-02-11 00:13:09.516
58.0, -8887.18770589682, -10646.426456740674, -10528.498652994473, -16849.01319134393, -2627.1793397878814, -2501.137852804405, -6579.884181008838, -7387.251542478984, -15601.115298404135, -12995.728909460177, -20454.99777257416, -12563.267357738896, -6665.93839716177, -9875.559493966042, -11627.980962751028, -12138.87478576598, 0.012, -0.024, 0.9875, 192.0, 0.0, 0.0, 0.0, 0.0, 0.0, 0.0, 0.0, 0.0, 0.0, 1.6444987895168624E9, 0.0, 2022-02-11 00:13:09.516
60.0, -8892.507421077184, -10645.331221262362, -10532.32080129633, -16846.95683085404, -2636.1200375700046, -2498.7909196365977, -6595.9327335277485, -7389.620827391247, -15607.016158940336, -13012.448014312748, -20473.505016983156, -12575.538465444859, -6666.787763451071, -9879.381642267901, -11638.240413456013, -12143.523948612685, 0.012, -0.024, 0.9875, 192.0, 0.0, 0.0, 0.0, 0.0, 0.0, 0.0, 0.0, 0.0, 0.0, 1.6444987895168705E9, 0.0, 2022-02-11 00:13:09.516
62.0, -8883.052633172589, -10657.088238845854, -10519.155623812154, -16848.834377388284, -2613.812996603608, -2495.1475852903827, -6565.087326179425, -7381.976530787531, -15600.265932114833, -13010.771633478598, -20458.171720286813, -12574.420878222094, -6661.378641292888, -9874.419554998822, -11631.356076163778, -12137.667791565395, 0.012, -0.024, 0.9875, 192.0, 0.0, 0.0, 0.0, 0.0, 0.0, 0.0, 0.0, 0.0, 0.0, 1.6444987895168784E9, 0.0, 2022-02-11 00:13:09.516
64.0, -8890.361653609474, -10647.901671874723, -10527.649286705171, -16851.38247625619, -2633.169607301904, -2502.7918818940975, -6591.797660803517, -7397.354530972783, -15597.539019291286, -13008.536459033068, -20455.891842352372, -12572.92331134359, -6659.054059869535, -9868.161066551336, -11630.618468596753, -12140.126483455479, 0.012, -0.024, 0.9875, 192.0, 0.0, 0.0, 0.0, 0.0, 0.0, 0.0, 0.0, 0.0, 0.0, 1.644498789516886E9, 0.0, 2022-02-11 00:13:09.516
66.0, -8882.158563394376, -10646.53821546295, -10520.519080223929, -16843.112330807726, -2620.809092618119, -2499.4614719702568, -6572.977491972148, -7397.13101352823, -15598.343682091676, -12995.639502482356, -20464.184339545292, -12578.623006179692, -6659.165818591812, -9865.970595594716, -11638.910965789672, -12144.26155617971, 0.013000000000000001, -0.027, 0.98775, 192.0, 0.0, 56.0, 127.5, 8.0, 15.0, 112.0, 0.0, 0.0, 0.0, 1.6444987895168939E9, 0.0, 2022-02-11 00:13:09.516
68.0, -8881.353900593986, -10639.34095374834, -10518.060388333844, -16849.214357044024, -2619.2891739951583, -2500.7355214042095, -6570.138820426324, -7387.5421151569035, -15598.768365236327, -13009.989322422663, -20449.14161552687, -12556.092447768742, -6653.153199333335, -9864.383621738389, -11628.62916334023, -12140.037076477656, 0.013000000000000001, -0.027, 0.98775, 192.0, 0.0, 0.0, 0.0, 0.0, 0.0, 0.0, 0.0, 0.0, 0.0, 1.6444987895169013E9, 0.0, 2022-02-11 00:13:09.516
70.0, -8891.948627465801, -10641.777293893969, -10524.855318648259, -16853.394133257167, -2626.5087874542223, -2510.5479372200894, -6569.200047159201, -7382.870600565744, -15598.589551280684, -13005.563677020513, -20464.54196745658, -12577.237198023462, -6653.153199333335, -9857.812208868529, -11633.859471542773, -12142.674582323383, 0.013000000000000001, -0.027, 0.98775, 192.0, 0.0, 0.0, 0.0, 0.0, 0.0, 0.0, 0.0, 0.0, 0.0, 1.6444987895169137E9, 0.0, 2022-02-11 00:13:09.516
72.0, -8879.744574993203, -10645.688849173648, -10517.0322080889, -16846.48744422048, -2615.7352466267644, -2506.457567984768, -6568.82006750346, -7387.564466901358, -15598.433089069498, -13003.708482230722, -20459.266955765124, -12571.15752353162, -6657.534141246574, -9871.491476475177, -11631.981925008527, -12140.908794511413, 0.013000000000000001, -0.027, 0.98775, 192.0, 0.0, 0.0, 0.0, 0.0, 0.0, 0.0, 0.0, 0.0, 0.0, 1.6444987895169206E9, 0.0, 2022-02-11 00:13:09.516
74.0, -8896.374272867952, -10658.183474324165, -10528.543356483384, -16846.934479109583, -2633.750752657742, -2507.128120318427, -6589.786003802539, -7402.22721126404, -15605.473888572918, -13009.7211014892, -20459.445769720765, -12566.977747318477, -6656.148333090346, -9873.167857309325, -11631.847814541796, -12144.283907924166, 0.013000000000000001, -0.027, 0.98775, 192.0, 0.0, 0.0, 0.0, 0.0, 0.0, 0.0, 0.0, 0.0, 0.0, 1.6444987895169272E9, 0.0, 2022-02-11 00:13:09.516
76.0, -8888.685272775325, -10649.980384109067, -10521.904888380157, -16846.75566515394, -2620.9432030848507, -2493.2253352672265, -6571.323462882455, -7374.93573128411, -15603.797507738771, -13013.498546302146, -20466.77714190211, -12566.754229873924, -6653.130847588879, -9860.606176925443, -11633.25597444248, -12140.30529741112, 0.013500000000000002, -0.028499999999999998, 0.9858750000000001, 192.0, 0.0, 56.0, 127.5, 8.0, 15.0, 96.0, 0.0, 0.0, 0.0, 1.6444987895169344E9, 0.0, 2022-02-11 00:13:09.516
78.0, -8891.456889087784, -10648.68398293066, -10523.827138403314, -16853.930575124094, -2619.065656550605, -2492.7112451447542, -6561.82397148895, -7372.432335905116, -15605.60799903965, -13007.709444488222, -20452.583784172988, -12570.285805497862, -6654.0472691115465, -9856.247586756657, -11624.985828994017, -12135.946707242336, 0.013500000000000002, -0.028499999999999998, 0.9858750000000001, 192.0, 0.0, 0.0, 0.0, 0.0, 0.0, 0.0, 0.0, 0.0, 0.0, 1.6444987895169413E9, 0.0, 2022-02-11 00:13:09.516
80.0, -8895.703720534291, -10631.696657144626, -10531.069103606833, -16852.075380334303, -2631.292060767658, -2496.0863585575057, -6577.134916440835, -7376.7462225849895, -15608.871353730126, -13000.75805196262, -20469.258185536648, -12580.880532369678, -6655.477780756686, -9857.029897812594, -11628.472701129043, -12138.606564832517, 0.013500000000000002, -0.028499999999999998, 0.9858750000000001, 192.0, 0.0, 0.0, 0.0, 0.0, 0.0, 0.0, 0.0, 0.0, 0.0, 1.6444987895169485E9, 0.0, 2022-02-11 00:13:09.516
82.0, -8881.912694205368, -10658.675212702181, -10518.306257522852, -16842.3747232407, -2619.6915053953535, -2485.625742152422, -6567.009576202581, -7377.5061818964705, -15607.105565918157, -13008.022368910595, -20463.04440057807, -12560.182817004064, -6655.075449356491, -9856.33699373448, -11630.082026729826, -12134.69500955284, 0.013500000000000002, -0.028499999999999998, 0.9858750000000001, 192.0, 0.0, 0.0, 0.0, 0.0, 0.0, 0.0, 0.0, 0.0, 0.0, 1.644498789516956E9, 0.0, 2022-02-11 00:13:09.516
84.0, -8895.547258323104, -10645.040648584443, -10529.236260561498, -16851.605993700745, -2634.845988136052, -2490.856050354964, -6585.270951422567, -7386.871562823244, -15608.08904267419, -13007.597685765944, -20460.18337728779, -12556.315965213296, -6658.182341835778, -9847.150426763348, -11630.014971496461, -12140.439407877851, 0.013500000000000002, -0.028499999999999998, 0.9858750000000001, 192.0, 0.0, 0.0, 0.0, 0.0, 0.0, 0.0, 0.0, 0.0, 0.0, 1.6444987895169632E9, 0.0, 2022-02-11 00:13:09.516
86.0, -8881.510362805171, -10635.429398468661, -10522.597792458271, -16846.062761075827, -2620.295002495647, -2478.517887415634, -6560.3487563549, -7376.36624292925, -15600.981187937403, -12977.556941218012, -20466.486569224187, -12570.084639797764, -6656.148333090346, -9849.117380275415, -11634.552375620888, -12136.617259575994, 0.012750000000000001, -0.03125, 0.9849375, 192.0, 0.0, 48.0, 127.0, 120.0, 15.0, 96.0, 0.0, 0.0, 0.0, 1.6444987895169704E9, 0.0, 2022-02-11 00:13:09.516
88.0, -8886.450098329795, -10643.028991583466, -10524.184766314598, -16844.498138963954, -2620.8537961070297, -2485.357521218958, -6572.753974527594, -7376.008615017965, -15600.489449559385, -13005.586028764967, -20451.421493461312, -12566.798933362834, -6655.835408667971, -9856.828732112495, -11623.689427815609, -12133.666829307895, 0.012750000000000001, -0.03125, 0.9849375, 192.0, 0.0, 0.0, 0.0, 0.0, 0.0, 0.0, 0.0, 0.0, 0.0, 1.6444987895169787E9, 0.0, 2022-02-11 00:13:09.516
90.0, -8907.997179984712, -10661.692698203648, -10535.003010630968, -16847.29210702087, -2636.9470521148505, -2497.203945780271, -6579.995939731114, -7397.354530972783, -15607.530249062807, -13021.031084183585, -20470.085200081492, -12562.596805405237, -6659.992833136658, -9864.182456038292, -11634.418265154156, -12142.40636138992, 0.012750000000000001, -0.03125, 0.9849375, 192.0, 0.0, 0.0, 0.0, 0.0, 0.0, 0.0, 0.0, 0.0, 0.0, 1.6444987895169864E9, 0.0, 2022-02-11 00:13:09.516
92.0, -8900.911676992378, -10653.802532410924, -10527.112844838244, -16848.476749477, -2625.257089764725, -2485.8045561080644, -6546.0436399035025, -7383.585856388314, -15609.407795597053, -13015.554906792035, -20463.53613895609, -12569.34703223074, -6665.625472739395, -9859.265072258124, -11632.63012559773, -12140.662925322405, 0.012750000000000001, -0.03125, 0.9849375, 192.0, 0.0, 0.0, 0.0, 0.0, 0.0, 0.0, 0.0, 0.0, 0.0, 1.6444987895169933E9, 0.0, 2022-02-11 00:13:09.516
94.0, -8913.115729464977, -10654.003698111022, -10536.835853676303, -16851.985973356484, -2637.550549215144, -2492.3759689779245, -6560.214645888168, -7390.671359380646, -15615.666284044539, -13021.947505706252, -20469.124075069914, -12572.58803517676, -6668.911179174326, -9855.599386167454, -11630.77493080794, -12140.2158904333, 0.012750000000000001, -0.03125, 0.9849375, 192.0, 0.0, 0.0, 0.0, 0.0, 0.0, 0.0, 0.0, 0.0, 0.0, 1.644498789517E9, 0.0, 2022-02-11 00:13:09.517
96.0, -8910.031188730143, -10642.760770650002, -10531.873766407225, -16853.014153601427, -2630.219177033803, -2492.197155022282, -6560.594625543908, -7381.685958109612, -15616.09096718919, -13018.304171360038, -20479.3835257749, -12581.215808536508, -6665.424307039298, -9855.420572211811, -11637.97219252255, -12145.580309102574, 0.0073750000000000005, -0.029625, 0.98646875, 192.0, 0.0, 8.0, 127.5, 16.0, 15.0, 112.0, 0.0, 0.0, 0.0, 1.644498789517007E9, 0.0, 2022-02-11 00:13:09.517
98.0, -8917.340209167029, -10667.63826222876, -10530.84558616228, -16860.457284505046, -2626.7546566432306, -2498.366236491947, -6566.495486080109, -7388.860868079766, -15624.897554504581, -13024.964991207718, -20468.18530180279, -12576.544293945348, -6671.0122431531245, -9862.416668226322, -11632.585422108821, -12145.557957358118, 0.0073750000000000005, -0.029625, 0.98646875, 192.0, 0.0, 0.0, 0.0, 0.0, 0.0, 0.0, 0.0, 0.0, 0.0, 1.6444987895170147E9, 0.0, 2022-02-11 00:13:09.517
100.0, -8935.690991364836, -10687.933646194178, -10540.590946744795, -16864.927633396106, -2638.4669707378116, -2499.5732306925333, -6590.165983458279, -7397.421586206149, -15626.506880105362, -13035.649125057356, -20483.87622641042, -12588.390718506662, -6668.441792540764, -9867.043479328571, -11638.799207067395, -12154.02926850668, 0.0073750000000000005, -0.029625, 0.98646875, 192.0, 0.0, 0.0, 0.0, 0.0, 0.0, 0.0, 0.0, 0.0, 0.0, 1.6444987895170224E9, 0.0, 2022-02-11 00:13:09.517
102.0, -8943.603508902015, -10704.429233602195, -10534.310106552854, -16863.027735117405, -2623.0219153191942, -2486.9891985641957, -6561.958081955681, -7385.709272111568, -15628.85381327317, -13043.226366427705, -20481.95397638726, -12589.977692362989, -6668.084164629479, -9859.242720513668, -11639.268593700957, -12149.201291704332, 0.0073750000000000005, -0.029625, 0.98646875, 192.0, 0.0, 0.0, 0.0, 0.0, 0.0, 0.0, 0.0, 0.0, 0.0, 1.6444987895170326E9, 0.0, 2022-02-11 00:13:09.517
104.0, -8982.897875654446, -10737.487463651594, -10544.547205513383, -16870.5826247433, -2631.202653789837, -2496.2875242576033, -6568.440087847721, -7402.6295426642355, -15639.783816311816, -13066.762753339142, -20491.319357314034, -12606.562686748826, -6665.692527972762, -9868.541046207076, -11632.54071861991, -12152.241128950254, 0.0073750000000000005, -0.029625, 0.98646875, 192.0, 0.0, 0.0, 0.0, 0.0, 0.0, 0.0, 0.0, 0.0, 0.0, 1.6444987899957728E9, 0.0, 2022-02-11 00:13:09.995
106.0, -9009.094120156065, -10760.822684862935, -10543.742542712993, -16864.36883978472, -2628.252223521736, -2486.363349719447, -6553.889102207316, -7382.132992998719, -15646.981078026425, -13060.571320125024, -20508.597255777986, -12609.669579228113, -6669.2241035967, -9860.85204611445, -11642.263727457968, -12153.850454551037, 0.004687500000000001, -0.0308125, 0.989234375, 192.0, 0.0, 8.0, 127.5, 0.0, 15.5, 0.0, 0.0, 0.0, 0.0, 1.6444987899959548E9, 0.0, 2022-02-11 00:13:09.995
108.0, -9048.857873542056, -10808.498955786104, -10544.569557257839, -16874.62829048971, -2620.9655548293063, -2485.938666574796, -6556.660718519774, -7372.968777772043, -15667.567034669763, -13079.056212789561, -20509.379566833923, -12611.54712576236, -6676.555475778041, -9859.354479235946, -11634.150044220693, -12146.049695736134, 0.004687500000000001, -0.0308125, 0.989234375, 192.0, 0.0, 0.0, 0.0, 0.0, 0.0, 0.0, 0.0, 0.0, 0.0, 1.6444987899959948E9, 0.0, 2022-02-11 00:13:09.995
110.0, -9092.08614731862, -10840.752523035113, -10553.71142074006, -16889.760421485953, -2625.346496742546, -2489.3808352209135, -6556.638366775319, -7381.015405775954, -15678.094706308211, -13093.920122852342, -20533.005360723182, -12648.36044888025, -6670.431097797286, -9851.151389020848, -11638.598041367299, -12155.616242363007, 0.004687500000000001, -0.0308125, 0.989234375, 192.0, 0.0, 0.0, 0.0, 0.0, 0.0, 0.0, 0.0, 0.0, 0.0, 1.6444987899960048E9, 0.0, 2022-02-11 00:13:09.996
112.0, -9106.458319003383, -10869.854494315923, -10546.782379958913, -16877.064630635337, -2613.388313458957, -2491.9736375777293, -6548.502331793587, -7372.857019049767, -15688.220046546467, -13110.21454456026, -20539.800291037594, -12649.701553547568, -6671.571036764507, -9877.772316667119, -11632.853643042285, -12151.056486494123, 0.004687500000000001, -0.0308125, 0.989234375, 192.0, 0.0, 0.0, 0.0, 0.0, 0.0, 0.0, 0.0, 0.0, 0.0, 1.6444987899960115E9, 0.0, 2022-02-11 00:13:09.996
114.0, -9118.70707496489, -10865.764125080601, -10553.51025503996, -16882.361994071245, -2624.295964753147, -2502.881288871919, -6565.668471535262, -7385.932789556121, -15696.646654206117, -13119.825794676042, -20542.370741649956, -12646.795826768379, -6675.661405999828, -9892.166840096335, -11633.3453814203, -12157.158512730422, 0.004687500000000001, -0.0308125, 0.989234375, 192.0, 0.0, 0.0, 0.0, 0.0, 0.0, 0.0, 0.0, 0.0, 0.0, 1.6444987899960186E9, 0.0, 2022-02-11 00:13:09.996
116.0, -9104.401958513494, -10870.882674560866, -10551.699763739081, -16873.644813733677, -2620.3173542401023, -2488.330303231514, -6556.683070264229, -7376.36624292925, -15680.195770287011, -13110.438062004812, -20546.394055651912, -12654.685992561102, -6670.98989140867, -9880.320415535023, -11638.530986133932, -12154.275137695688, -0.002, -0.034, 0.994, 192.0, 127.5, 120.0, 127.0, 120.0, 15.5, 8.0, 0.0, 0.0, 0.0, 1.6444987899960258E9, 0.0, 2022-02-11 00:13:09.996
118.0, -9111.979199883843, -10890.954541081732, -10555.164284129654, -16881.95966267105, -2622.105493796527, -2488.2185445092377, -6552.235073117623, -7377.8414580633, -15691.14812507011, -13115.757777185176, -20540.001456737693, -12635.374085351717, -6679.483554301686, -9859.130961791392, -11635.20057621009, -12148.59779460404, -0.002, -0.034, 0.994, 192.0, 0.0, 0.0, 0.0, 0.0, 0.0, 0.0, 0.0, 0.0, 0.0, 1.6444987899960327E9, 0.0, 2022-02-11 00:13:09.996
120.0, -9111.308647550184, -10865.808828569512, -10559.411115576162, -16882.92078768263, -2630.6215084339988, -2496.108710301961, -6559.499390065598, -7391.811298347867, -15689.717613424971, -13120.719864454255, -20543.48832887272, -12655.535358850404, -6679.841182212971, -9884.522543492621, -11637.994544267005, -12154.49865514024, -0.002, -0.034, 0.994, 192.0, 0.0, 0.0, 0.0, 0.0, 0.0, 0.0, 0.0, 0.0, 0.0, 1.6444987899960396E9, 0.0, 2022-02-11 00:13:09.996
122.0, -9082.452545458382, -10842.898290502822, -10545.75419971397, -16881.24440684848, -2620.786740873664, -2484.5752101630223, -6554.604358029886, -7375.740394084501, -15680.463991220475, -13109.253419548682, -20528.69147404331, -12642.683105788603, -6678.388318823376, -9872.05027008656, -11634.440616898612, -12150.654155093927, -0.002, -0.034, 0.994, 192.0, 0.0, 0.0, 0.0, 0.0, 0.0, 0.0, 0.0, 0.0, 0.0, 1.6444987899960468E9, 0.0, 2022-02-11 00:13:09.996
124.0, -9081.044385557698, -10836.393932866327, -10557.84649346429, -16880.596206259277, -2635.2036160473367, -2496.1757655353267, -6556.303090608489, -7380.836591820311, -15683.34736625521, -13112.941457383808, -20526.97038972025, -12637.385742352693, -6681.137583391379, -9870.552703208054, -11631.534890119421, -12150.765913816203, -0.002, -0.034, 0.994, 192.0, 0.0, 0.0, 0.0, 0.0, 0.0, 0.0, 0.0, 0.0, 0.0, 1.644498789996054E9, 0.0, 2022-02-11 00:13:09.996
126.0, -9057.731516090813, -10810.532964531538, -10557.354755086275, -16875.254139334458, -2629.906252611429, -2485.625742152422, -6548.614090515864, -7373.326405683328, -15680.799267387303, -13104.492497979702, -20538.72740730374, -12644.068913944831, -6681.450507813753, -9873.793706154074, -11635.558204121377, -12150.475341138284, 0.01, -0.036000000000000004, 0.99, 192.0, 0.0, 40.0, 127.0, 112.0, 15.0, 120.0, 0.0, 0.0, 0.0, 1.644498789996061E9, 0.0, 2022-02-11 00:13:09.996
