%OpenBCI Raw EEG Data
%Number of channels = 16
%Sample Rate = 125 Hz
%Board = OpenBCI_GUI$BoardCytonSerialDaisy
Sample Index, EXG Channel 0, EXG Channel 1, EXG Channel 2, EXG Channel 3, EXG Channel 4, EXG Channel 5, EXG Channel 6, EXG Channel 7, EXG Channel 8, EXG Channel 9, EXG Channel 10, EXG Channel 11, EXG Channel 12, EXG Channel 13, EXG Channel 14, EXG Channel 15, Accel Channel 0, Accel Channel 1, Accel Channel 2, Other, Other, Other, Other, Other, Other, Other, Analog Channel 0, Analog Channel 1, Analog Channel 2, Timestamp, Other, Timestamp (Formatted)
0.0, -8426.00416255047, -10764.354260486873, -10101.155650753457, -15778.007004023435, -4021.637621121123, -3286.734615175082, -5919.568946310156, -6908.097196590566, 0.0, 0.0, 0.0, 0.0, 0.0, 0.0, 0.0, 0.0, 0.0, 0.0, 0.0, 192.0, 0.0, 0.0, 0.0, 0.0, 0.0, 0.0, 0.0, 0.0, 0.0, 1.6444987539642346E9, 0.0, 2022-02-11 00:12:33.964
190.0, -8400.389063404687, -10735.855786306356, -10088.482211647299, -15760.393829392653, -4024.096313011207, -3291.8531646553474, -5892.299818074682, -6902.419853498919, -15847.543281023894, -14157.03614438011, -19816.654302675048, -11868.843361001416, -7639.267461212571, -11562.512703241433, -11354.976755973907, -10958.859140736955, 0.0, 0.0, 0.0, 192.0, 0.0, 0.0, 0.0, 0.0, 0.0, 0.0, 0.0, 0.0, 0.0, 1.6444987539642427E9, 0.0, 2022-02-11 00:12:33.964
192.0, -8375.064536936825, -10713.705207551147, -10063.60472006854, -15741.193680905544, -4006.2372691914165, -3281.750176161549, -5864.851875883565, -6881.230399755287, -15799.643492656172, -14099.927437296801, -19788.602863383636, -11842.28948858851, -7619.083835969429, -11548.788732145875, -11337.922374954507, -10936.26152709264, 0.005, -0.014, 0.496, 192.0, 0.0, 40.0, 127.5, 16.0, 15.5, 0.0, 0.0, 0.0, 0.0, 1.6444987539642496E9, 0.0, 2022-02-11 00:12:33.964
194.0, -8386.03924346438, -10721.908297766246, -10057.569749065608, -15730.755416244916, -4016.2508507073944, -3289.4391762541745, -5875.178381821916, -6878.637597398472, -15814.619161441227, -14128.783539388603, -19786.63590987157, -11858.270985874056, -7629.075065740952, -11558.757610172941, -11323.125520125095, -10915.273239049106, 0.005, -0.014, 0.496, 192.0, 0.0, 0.0, 0.0, 0.0, 0.0, 0.0, 0.0, 0.0, 0.0, 1.6444987539642568E9, 0.0, 2022-02-11 00:12:33.964
196.0, -8355.216187860511, -10697.053157931943, -10038.883690700972, -15702.793383931326, -4008.025408747841, -3274.1505830467445, -5866.461201484347, -6869.316919960609, -15778.0740592568, -14102.78846058708, -19774.25304344333, -11838.355581564378, -7617.809786535477, -11547.805255389841, -11317.403473544535, -10897.481250462683, 0.005, -0.014, 0.496, 192.0, 0.0, 0.0, 0.0, 0.0, 0.0, 0.0, 0.0, 0.0, 0.0, 1.6444987539642646E9, 0.0, 2022-02-11 00:12:33.964
198.0, -8327.902356136126, -10674.29908207644, -10022.231641081768, -15681.715688909972, -3996.4472051199923, -3256.403297949231, -5842.097800028062, -6813.68342801135, -15749.30736414282, -14064.1199426794, -19744.324057617672, -11815.24387779759, -7605.002236962586, -11519.150318998138, -11299.007987857818, -10863.640709357347, 0.005, -0.014, 0.496, 192.0, 0.0, 0.0, 0.0, 0.0, 0.0, 0.0, 0.0, 0.0, 0.0, 1.6444987539642713E9, 0.0, 2022-02-11 00:12:33.964
200.0, -8308.098710548724, -10653.511959733005, -10009.424091508878, -15658.76044735437, -3995.3743213861376, -3266.9533213321356, -5844.44473319587, -6828.726152029772, -15726.977971431968, -14037.051980144022, -19737.216202880885, -11806.169069548736, -7594.094585668396, -11529.834452847774, -11284.546409195234, -10843.993525981132, 0.005, -0.014, 0.496, 192.0, 0.0, 0.0, 0.0, 0.0, 0.0, 0.0, 0.0, 0.0, 0.0, 1.6444987539642777E9, 0.0, 2022-02-11 00:12:33.964
202.0, -8278.907332290093, -10630.91434608869, -9984.032509807648, -15632.653609830573, -3972.9331699530094, -3247.7531728450267, -5822.338857929571, -6795.0420731356235, -15694.925569883058, -14005.133689061844, -19714.640940981026, -11783.392641948778, -7578.604826760868, -11525.14058651216, -11266.41914444198, -10823.42992108225, 0.012, -0.024, 0.994, 192.0, 0.0, 48.0, 127.5, 32.0, 15.5, 8.0, 0.0, 0.0, 0.0, 1.644498753964285E9, 0.0, 2022-02-11 00:12:33.964
204.0, -8259.573073336252, -10608.562601633383, -9967.849846822006, -15611.933542720502, -3971.9943966858864, -3244.065135009901, -5798.646008806945, -6786.101375353501, -15670.495113193407, -13978.088078270923, -19685.986004589322, -11765.108914984336, -7563.584454486901, -11509.159089226616, -11241.765170307777, -10794.350301545895, 0.012, -0.024, 0.994, 192.0, 0.0, 0.0, 0.0, 0.0, 0.0, 0.0, 0.0, 0.0, 0.0, 1.644498753964291E9, 0.0, 2022-02-11 00:12:33.964
206.0, -8238.450674825988, -10585.316787399863, -9952.002460003194, -15586.586664508184, -3960.25973084685, -3229.1788732026666, -5787.626598790479, -6775.439593248319, -15640.76729306785, -13946.95209824468, -19674.743077128303, -11758.09046722537, -7550.598090958369, -11496.575057098276, -11236.400751638503, -10775.239560036607, 0.012, -0.024, 0.994, 192.0, 0.0, 0.0, 0.0, 0.0, 0.0, 0.0, 0.0, 0.0, 0.0, 1.6444987539642978E9, 0.0, 2022-02-11 00:12:33.964
208.0, -8213.595534991686, -10561.825103977335, -9935.126892939435, -15566.626556709596, -3942.423038771515, -3212.2586026499994, -5755.238921074739, -6741.196720742789, -15615.688635788994, -13912.329246083409, -19647.69746633738, -11737.213937904113, -7538.617555930324, -11471.809324241796, -11215.747739761799, -10744.50591141056, 0.012, -0.024, 0.994, 192.0, 0.0, 0.0, 0.0, 0.0, 0.0, 0.0, 0.0, 0.0, 0.0, 1.6444987539643044E9, 0.0, 2022-02-11 00:12:33.964
210.0, -8209.214593078446, -10568.172999402643, -9919.681837520819, -15542.017286064302, -3943.808846927744, -3217.935945741647, -5754.121333851974, -6737.843959074493, -15596.399080324065, -13897.375929042808, -19645.372884914028, -11724.60755403132, -7527.151111024751, -11477.509019077901, -11200.056815154174, -10723.897603022768, 0.012, -0.024, 0.994, 192.0, 0.0, 0.0, 0.0, 0.0, 0.0, 0.0, 0.0, 0.0, 0.0, 1.644498753964311E9, 0.0, 2022-02-11 00:12:33.964
212.0, -8166.90274082455, -10532.27609780742, -9893.10561336346, -15510.300160682222, -3927.6708874310125, -3207.140053169734, -5733.334211508538, -6723.672953089828, -15564.145513075056, -13873.45956247563, -19620.74126252428, -11701.540553753443, -7511.728407350589, -11467.808361984296, -11183.315358557149, -10697.321378865407, 0.008, -0.02, 0.992, 192.0, 0.0, 32.0, 127.5, 48.0, 15.5, 0.0, 0.0, 0.0, 0.0, 1.6444987539643173E9, 0.0, 2022-02-11 00:12:33.964
214.0, -8155.503351152343, -10512.092472564278, -9880.610988212942, -15491.368233128576, -3923.334649006683, -3213.6667625506834, -5728.327420750549, -6726.668086846839, -15539.938573829959, -13839.440207414653, -19591.035794143176, -11674.517294706977, -7502.810061312922, -11451.469236787467, -11166.395088004481, -10676.243683844052, 0.008, -0.02, 0.992, 192.0, 0.0, 0.0, 0.0, 0.0, 0.0, 0.0, 0.0, 0.0, 0.0, 1.644498753964324E9, 0.0, 2022-02-11 00:12:33.964
216.0, -8138.337211410668, -10490.008949042434, -9863.489551960178, -15473.308023608688, -3915.578593680691, -3200.166308899678, -5717.665638645368, -6708.876098260414, -15516.379835174064, -13813.668646057684, -19583.59266323956, -11671.455105716599, -7488.169668694695, -11449.815207697775, -11154.593366932078, -10658.317584790897, 0.008, -0.02, 0.992, 192.0, 0.0, 0.0, 0.0, 0.0, 0.0, 0.0, 0.0, 0.0, 0.0, 1.6444987539643304E9, 0.0, 2022-02-11 00:12:33.964
218.0, -8112.565650053699, -10464.97499525249, -9838.679115614786, -15452.364439054065, -3908.2472214993504, -3187.2917040934212, -5704.656923372379, -6673.3591763209315, -15490.094183694624, -13780.968043919569, -19552.188462279853, -11651.047963028905, -7477.731404034067, -11434.012524367872, -11139.77416035821, -10626.242831497531, 0.008, -0.02, 0.992, 192.0, 0.0, 0.0, 0.0, 0.0, 0.0, 0.0, 0.0, 0.0, 0.0, 1.644498753964337E9, 0.0, 2022-02-11 00:12:33.964
220.0, -8094.997178911827, -10452.882701502169, -9824.262240441114, -15431.174985310434, -3909.588326166669, -3183.3801488137424, -5705.2380687282175, -6676.354310077943, -15465.306099093688, -13756.62699420774, -19537.48101442826, -11636.787550066418, -7464.767392249989, -11413.091291557705, -11124.06088400613, -10605.723930087559, 0.008, -0.02, 0.992, 192.0, 0.0, 0.0, 0.0, 0.0, 0.0, 0.0, 0.0, 0.0, 0.0, 1.6444987539643471E9, 0.0, 2022-02-11 00:12:33.964
222.0, -8057.870931371562, -10419.086863885745, -9797.909533728307, -15402.028310540714, -3885.4037386660266, -3165.0517183603906, -5657.7853152496, -6634.869472368893, -15436.04766560169, -13728.62025840524, -19518.86201129699, -11622.996523737494, -7451.266938598984, -11402.697730385988, -11106.291247164161, -10580.600569319793, 0.004, -0.028, 0.992, 192.0, 0.0, 16.0, 127.5, 16.0, 15.5, 0.0, 0.0, 0.0, 0.0, 1.6444987539643538E9, 0.0, 2022-02-11 00:12:33.964
224.0, -8041.084771285627, -10399.43968050953, -9780.385766075346, -15377.687260828885, -3877.2230001953844, -3159.374375268743, -5642.049687153064, -6620.340838472944, -15408.800889110673, -13694.71266206654, -19488.106010926487, -11594.900380957173, -7434.838406424333, -11390.806602335764, -11078.642139272946, -10548.481112537518, 0.004, -0.028, 0.992, 192.0, 0.0, 0.0, 0.0, 0.0, 0.0, 0.0, 0.0, 0.0, 0.0, 1.6444987539643607E9, 0.0, 2022-02-11 00:12:33.964
226.0, -8024.298611199691, -10378.652558166094, -9763.778419945053, -15356.90013848545, -3867.008252979309, -3134.42982845662, -5642.87670169791, -6599.620771362874, -15379.721269574318, -13667.935272209083, -19477.42187707685, -11583.232770351502, -7420.890917884221, -11367.91841601353, -11066.035755400153, -10522.150757569165, 0.004, -0.028, 0.992, 192.0, 0.0, 0.0, 0.0, 0.0, 0.0, 0.0, 0.0, 0.0, 0.0, 1.6444987539643679E9, 0.0, 2022-02-11 00:12:33.964
228.0, -7990.569828816632, -10339.291136180298, -9736.218719031658, -15327.2170218488, -3848.389249848038, -3125.042095785391, -5618.4238932638045, -6579.817125775472, -15350.284022126678, -13631.680742702574, -19443.51428073815, -11564.211435820036, -7403.992999076009, -11358.910662998042, -11046.589737724034, -10489.919542064614, 0.004, -0.028, 0.992, 192.0, 0.0, 0.0, 0.0, 0.0, 0.0, 0.0, 0.0, 0.0, 0.0, 1.6444987539643743E9, 0.0, 2022-02-11 00:12:33.964
230.0, -7984.780727002708, -10349.170607229544, -9730.20609977318, -15304.150021570924, -3846.265834124784, -3127.500787675475, -5580.1577067563185, -6563.7685732565615, -15328.55812651612, -13605.529201689864, -19430.505565465162, -11540.630345419688, -7392.124222770241, -11355.66966005202, -11027.903679359399, -10467.277224931388, 0.004, -0.028, 0.992, 192.0, 0.0, 0.0, 0.0, 0.0, 0.0, 0.0, 0.0, 0.0, 0.0, 1.644498753964381E9, 0.0, 2022-02-11 00:12:33.964
232.0, -7953.890616165473, -10316.671170791527, -9706.535602395012, -15277.663204391385, -3825.23284259234, -3103.025627496914, -5560.398764657827, -6545.507198036576, -15300.238466291246, -13575.73432633094, -19414.389957712887, -11524.537089411866, -7376.992091773998, -11333.00499117434, -11007.965923305264, -10441.818587996791, 0.008, -0.026000000000000002, 0.996, 192.0, 0.0, 32.0, 127.5, 24.0, 15.5, 16.0, 0.0, 0.0, 0.0, 1.6444987539643877E9, 0.0, 2022-02-11 00:12:33.964
234.0, -7932.388237999468, -10289.223228600411, -9691.224657443126, -15256.607861114486, -3821.164825101474, -3094.6437233261736, -5544.707840050201, -6525.10005534888, -15273.326965967057, -13535.38942758911, -19384.88565503188, -11501.335978667257, -7363.26812067844, -11320.085682879173, -10988.229332951229, -10412.046064382323, 0.008, -0.026000000000000002, 0.996, 192.0, 0.0, 0.0, 0.0, 0.0, 0.0, 0.0, 0.0, 0.0, 0.0, 1.6444987539643943E9, 0.0, 2022-02-11 00:12:33.964
236.0, -7906.32610396458, -10260.210664297421, -9668.96231996564, -15233.652619558887, -3798.6789701794355, -3081.1209179307125, -5532.928470722255, -6497.719168391129, -15239.77699753964, -13518.647970992086, -19374.93912874927, -11490.540086095345, -7346.236091403496, -11296.929275623474, -10972.985443232708, -10388.464973981974, 0.008, -0.026000000000000002, 0.996, 192.0, 0.0, 0.0, 0.0, 0.0, 0.0, 0.0, 0.0, 0.0, 0.0, 1.6444987539644012E9, 0.0, 2022-02-11 00:12:33.964
238.0, -7872.08323145905, -10227.443006925942, -9642.788427208476, -15204.304779089069, -3779.1658972699524, -3067.218132879512, -5507.045150643009, -6480.217752482624, -15200.236761598202, -13480.00180482886, -19334.39306430734, -11465.260263116392, -7323.817291714823, -11276.164505024493, -10947.63856502039, -10355.563206143763, 0.008, -0.026000000000000002, 0.996, 192.0, 0.0, 0.0, 0.0, 0.0, 0.0, 0.0, 0.0, 0.0, 0.0, 1.6444987539644077E9, 0.0, 2022-02-11 00:12:33.964
240.0, -7864.930673233352, -10210.276867184266, -9634.585336993377, -15179.896674143873, -3780.7752228707345, -3058.7691734754058, -5488.962589378666, -6468.550141876954, -15177.125057831414, -13454.029077771793, -19321.11612810089, -11453.83852169973, -7308.327532807295, -11260.630042628056, -10933.40050380236, -10331.535080854306, 0.008, -0.026000000000000002, 0.996, 192.0, 0.0, 0.0, 0.0, 0.0, 0.0, 0.0, 0.0, 0.0, 0.0, 1.6444987539644144E9, 0.0, 2022-02-11 00:12:33.964
242.0, -7838.354449075991, -10185.242913394322, -9610.870136126297, -15155.265051754124, -3757.976443526321, -3034.7410481859506, -5457.245463996585, -6431.245080381046, -15150.459426696234, -13422.580173323176, -19304.15115405931, -11430.615059210666, -7295.251762300941, -11241.407542396491, -10915.966143127222, -10302.678978762506, 0.008, -0.022, 0.994, 192.0, 0.0, 32.0, 127.5, 40.0, 15.5, 8.0, 0.0, 0.0, 0.0, 1.6444987539644208E9, 0.0, 2022-02-11 00:12:33.964
244.0, -7817.388512776914, -10163.159389872479, -9594.910990585207, -15138.903574812839, -3748.5440073661816, -3034.003440618925, -5454.093868028387, -6422.259679110012, -15124.263182194612, -13392.762946219797, -19276.189121745723, -11410.811413623263, -7276.006910324921, -11215.859498484077, -10893.68145390528, -10276.1251063496, 0.008, -0.022, 0.994, 192.0, 0.0, 0.0, 0.0, 0.0, 0.0, 0.0, 0.0, 0.0, 0.0, 1.6444987539644275E9, 0.0, 2022-02-11 00:12:33.964
246.0, -7783.100936782473, -10131.643430190496, -9568.759449572499, -15106.56060058601, -3728.0921611895756, -3025.755646914917, -5447.187178991697, -6415.196527862136, -15084.521780553077, -13352.5521579447, -19261.1463977273, -11400.507259429367, -7251.062363512799, -11218.318190374159, -10876.023575785586, -10259.160132308023, 0.008, -0.022, 0.994, 192.0, 0.0, 0.0, 0.0, 0.0, 0.0, 0.0, 0.0, 0.0, 0.0, 1.644498753964434E9, 0.0, 2022-02-11 00:12:33.964
248.0, -7756.412953902835, -10097.668778618428, -9547.190016173126, -15081.973681685173, -3712.4906435597713, -3008.343637984233, -5429.395190405273, -6366.35796622729, -15047.686105690731, -13314.710654581864, -19220.62268502983, -11362.285776410792, -7229.7611510468905, -11207.924629202442, -10854.297680175028, -10226.50423365882, 0.008, -0.022, 0.994, 192.0, 0.0, 0.0, 0.0, 0.0, 0.0, 0.0, 0.0, 0.0, 0.0, 1.6444987539644403E9, 0.0, 2022-02-11 00:12:33.964
250.0, -7749.998003244163, -10092.863153560538, -9541.087989936828, -15067.109771622394, -3715.619887783514, -3009.148300784624, -5406.238783149574, -6368.749602884007, -15032.665733416765, -13301.836049775608, -19208.21746685713, -11353.412133862035, -7222.76505503238, -11195.631169752023, -10837.779741022558, -10206.298256671222, 0.008, -0.022, 0.994, 192.0, 0.0, 0.0, 0.0, 0.0, 0.0, 0.0, 0.0, 0.0, 0.0, 1.6444987539644473E9, 0.0, 2022-02-11 00:12:33.964
252.0, -7722.505357564135, -10080.323824921112, -9517.328085580837, -15041.181748054238, -3682.1593263339196, -2988.5399923968307, -5361.624701216781, -6346.844893317806, -15008.905829060774, -13278.143200652981, -19192.79476318297, -11350.349944871657, -7210.404540348594, -11177.950939887874, -10818.691351257725, -10180.660805780984, 0.006, -0.024, 0.994, 192.0, 0.0, 24.0, 127.5, 32.0, 15.5, 8.0, 0.0, 0.0, 0.0, 1.6444987539644556E9, 0.0, 2022-02-11 00:12:33.964
254.0, -7701.42766254278, -10049.992507695259, -9501.88303016222, -15022.741558878608, -3672.369262262495, -2987.78003308535, -5359.34482328234, -6340.631108359231, -14979.937968246695, -13248.929470649895, -19163.692791902162, -11323.438444547468, -7188.522182526849, -11159.622509434523, -10793.90326665679, -10154.397506045998, 0.006, -0.024, 0.994, 192.0, 0.0, 0.0, 0.0, 0.0, 0.0, 0.0, 0.0, 0.0, 0.0, 1.644498753964462E9, 0.0, 2022-02-11 00:12:33.964
0.0, -7682.406328011314, -10034.212176109813, -9484.895704376186, -14996.411203910257, -3669.4858872277605, -2979.3981289146104, -5359.233064560064, -6325.521329107443, -14955.932194701696, -13225.884822116474, -19154.729742375584, -11316.822328188699, -7174.507638753372, -11157.364983244537, -10779.665205438758, -10137.43253200442, 0.006, -0.024, 0.994, 192.0, 0.0, 0.0, 0.0, 0.0, 0.0, 0.0, 0.0, 0.0, 0.0, 1.6444987539644687E9, 0.0, 2022-02-11 00:12:33.964
2.0, -7654.667813142278, -10003.83615539505, -9466.656680900656, -14972.427782109713, -3656.991262077244, -2956.9346257370266, -5344.860892875301, -6290.384386823701, -14926.271429809503, -13184.89172278544, -19122.1632507042, -11287.787412141253, -7159.017879845844, -11138.969497557819, -10759.191007517697, -10105.603647900063, 0.006, -0.024, 0.994, 192.0, 0.0, 0.0, 0.0, 0.0, 0.0, 0.0, 0.0, 0.0, 0.0, 1.6444987539644768E9, 0.0, 2022-02-11 00:12:33.964
4.0, -7641.457932169192, -9979.74097487223, -9456.866616829231, -14953.182930133693, -3653.660852153403, -2954.9676722249596, -5314.462520416084, -6286.428128055111, -14906.020749332994, -13155.901510226908, -19108.640445308738, -11280.590150426646, -7150.479513463916, -11108.258200676228, -10740.035562519499, -10078.468630131321, 0.006, -0.024, 0.994, 192.0, 0.0, 0.0, 0.0, 0.0, 0.0, 0.0, 0.0, 0.0, 0.0, 1.6444987539644835E9, 0.0, 2022-02-11 00:12:33.964
6.0, -7604.8457747513985, -9952.717715825764, -9433.039657239873, -14922.516336741011, -3629.297450697118, -2936.5274830493313, -5299.173927208653, -6262.198837065558, -14877.052888518918, -13110.058082349073, -19084.63467176374, -11251.331716934648, -7132.7322283664025, -11103.586686085067, -10722.780015800003, -10055.714554275817, 0.004, -0.032, 0.992, 192.0, 0.0, 16.0, 127.5, 0.0, 15.5, 0.0, 0.0, 0.0, 0.0, 1.64449875396449E9, 0.0, 2022-02-11 00:12:33.964
8.0, -7583.388100074304, -9908.170689126337, -9413.705398286033, -14900.499868452534, -3621.563747115582, -2932.2582998583675, -5285.6064183242825, -6254.375726506201, -14847.682696304644, -13090.902637350875, -19051.039999847413, -11233.69619055941, -7113.062693245733, -11097.685825548868, -10703.177535912697, -10026.836100439561, 0.004, -0.032, 0.992, 192.0, 0.0, 0.0, 0.0, 0.0, 0.0, 0.0, 0.0, 0.0, 0.0, 1.6444987539644964E9, 0.0, 2022-02-11 00:12:33.964
10.0, -7562.645681219778, -9905.689645491797, -9395.6675405106, -14875.309452451404, -3609.0691219650653, -2909.3924652805886, -5260.617168023249, -6212.153281230126, -14817.5972482678, -13060.168988724827, -19034.96909558405, -11218.809928752176, -7094.264876158819, -11075.244674115738, -10684.513829292517, -9999.589323948541, 0.004, -0.032, 0.992, 192.0, 0.0, 0.0, 0.0, 0.0, 0.0, 0.0, 0.0, 0.0, 0.0, 1.6444987539645247E9, 0.0, 2022-02-11 00:12:33.964
12.0, -7530.481520948591, -9880.499229490666, -9367.481990752458, -14847.816806771376, -3579.698929750792, -2889.2758952708123, -5243.5180835149395, -6188.102804196215, -14786.751840919476, -13028.541270320567, -19000.770926567428, -11186.623416736535, -7074.237713126864, -11046.8579586575, -10656.372983023284, -9959.356183928989, 0.004, -0.032, 0.992, 192.0, 0.0, 0.0, 0.0, 0.0, 0.0, 0.0, 0.0, 0.0, 0.0, 1.644498753964532E9, 0.0, 2022-02-11 00:12:33.964
14.0, -7519.01507604302, -9852.872473343907, -9356.75315341391, -14828.393140839713, -3571.3617290689626, -2887.733624903396, -5207.576478430806, -6180.436155848045, -14763.416619708136, -12997.874676927886, -18986.555217093854, -11169.144352572484, -7052.400058794029, -11035.391513751927, -10635.027067068466, -9939.820759275051, 0.005, -0.03, 0.992, 192.0, 0.0, 24.0, 127.5, 16.0, 15.5, 0.0, 0.0, 0.0, 0.0, 1.6444987539645386E9, 0.0, 2022-02-11 00:12:33.964
16.0, -7480.614779068802, -9820.954182261728, -9329.349914711704, -14795.424317768136, -3546.864217145946, -2863.2584647248345, -5180.106184495233, -6140.180664084037, -14735.365180416726, -12961.776609632565, -18966.103370917248, -11151.888805852986, -7033.87046264058, -11018.47124319926, -10613.189412735632, -9910.852898460973, 0.005, -0.03, 0.992, 192.0, 0.0, 0.0, 0.0, 0.0, 0.0, 0.0, 0.0, 0.0, 0.0, 1.6444987539645455E9, 0.0, 2022-02-11 00:12:33.964
18.0, -7446.908348430199, -9783.872638210374, -9308.31692317926, -14771.463247712047, -3527.664068658837, -2845.08649648267, -5182.050786262845, -6134.168044825559, -14696.33903459776, -12913.742710798111, -18923.523297729887, -11115.47781413529, -7006.154299515999, -10978.17104794634, -10586.568485089361, -9877.10176433346, 0.005, -0.03, 0.992, 192.0, 0.0, 0.0, 0.0, 0.0, 0.0, 0.0, 0.0, 0.0, 0.0, 1.6444987539645522E9, 0.0, 2022-02-11 00:12:33.964
20.0, -7421.427359751148, -9751.484960494634, -9287.216876413451, -14744.842320065776, -3511.1014260174547, -2837.285737667768, -5147.673803290582, -6112.643314915099, -14661.000926613919, -12872.97312891163, -18906.64773066613, -11103.877258762986, -6977.275845679742, -10977.120515956942, -10567.815371491359, -9855.062944300525, 0.005, -0.03, 0.992, 192.0, 0.0, 0.0, 0.0, 0.0, 0.0, 0.0, 0.0, 0.0, 0.0, 1.6444987539645588E9, 0.0, 2022-02-11 00:12:33.964
22.0, -7394.4711559380485, -9725.981620071128, -9261.869998201133, -14717.997874974952, -3487.8109082950245, -2815.6492490350306, -5123.846843701225, -6071.761974306342, -14633.7541501229, -12846.419256498726, -18873.857721550194, -11080.095002662541, -6957.628662303528, -10954.366440101438, -10539.495711266483, -9819.344856660946, 0.005, -0.03, 0.992, 192.0, 0.0, 0.0, 0.0, 0.0, 0.0, 0.0, 0.0, 0.0, 0.0, 1.644498753964566E9, 0.0, 2022-02-11 00:12:33.964
24.0, -7371.27004519344, -9696.164392967748, -9246.246128826873, -14690.393470572648, -3474.7127860442147, -2802.2382023618466, -5110.279334816853, -6057.680375299499, -14601.947617762999, -12817.160823006729, -18853.405875373588, -11053.250557571717, -6934.114627136544, -10925.532689754093, -10517.680408678105, -9790.265237124591, 0.006500000000000001, -0.027, 0.993, 192.0, 0.0, 32.0, 127.5, 32.0, 15.5, 8.0, 0.0, 0.0, 0.0, 1.644498753964573E9, 0.0, 2022-02-11 00:12:33.964
26.0, -7334.680239520102, -9667.598863553865, -9218.30644825774, -14661.649127203123, -3445.9460909302347, -2778.5230014947656, -5078.070471056756, -6021.3364388151695, -14571.862169726155, -12770.088049183852, -18831.590572785208, -11036.889080630432, -6913.148690837466, -10903.24800053215, -10494.345187466764, -9757.229358819648, 0.006500000000000001, -0.027, 0.993, 192.0, 0.0, 0.0, 0.0, 0.0, 0.0, 0.0, 0.0, 0.0, 0.0, 1.6444987539645796E9, 0.0, 2022-02-11 00:12:33.964
28.0, -7316.105939877742, -9641.179101607693, -9204.090738784163, -14644.99707758392, -3436.066619880989, -2774.3432252816233, -5069.688566886016, -6021.247031837348, -14543.900137412566, -12739.264993579984, -18797.124182835127, -11008.480013427738, -6895.870792373514, -10878.974006053688, -10467.612501098216, -9731.435445718223, 0.006500000000000001, -0.027, 0.993, 192.0, 0.0, 0.0, 0.0, 0.0, 0.0, 0.0, 0.0, 0.0, 0.0, 1.6444987539645884E9, 0.0, 2022-02-11 00:12:33.964
30.0, -7300.057387358831, -9631.500796258546, -9190.05384326623, -14621.37128369466, -3428.019991877078, -2760.105164063593, -5052.388316677609, -5989.664016921999, -14518.7767766448, -12714.409853745683, -18787.11060131915, -10995.761870832666, -6878.056452042634, -10871.374412938883, -10452.50272184643, -9715.29748622149, 0.006500000000000001, -0.027, 0.993, 192.0, 0.0, 0.0, 0.0, 0.0, 0.0, 0.0, 0.0, 0.0, 0.0, 1.6444987539645953E9, 0.0, 2022-02-11 00:12:33.964
32.0, -7264.115782274697, -9596.006226063517, -9164.729316798368, -14594.504486859381, -3398.8509653629026, -2736.993460296805, -5027.466121609941, -5973.056670791706, -14490.323005953194, -12679.742298095502, -18750.163167734525, -10966.704603040767, -6859.526855889185, -10842.920642247278, -10426.999381422924, -9679.177067181716, 0.006500000000000001, -0.027, 0.993, 192.0, 0.0, 0.0, 0.0, 0.0, 0.0, 0.0, 0.0, 0.0, 0.0, 1.6444987539646018E9, 0.0, 2022-02-11 00:12:33.964
34.0, -7252.604633880214, -9569.094725739327, -9156.280357394262, -14573.69501277149, -3390.8490408479024, -2731.0478962716934, -5014.055074936757, -5951.889568792531, -14463.277395162273, -12646.147626179174, -18732.81821403721, -10952.131265655908, -6838.985602734757, -10821.485319314637, -10403.731215444948, -9657.093543659872, 0.00825, -0.026500000000000003, 0.9924999999999999, 192.0, 0.0, 40.0, 127.5, 24.0, 15.5, 0.0, 0.0, 0.0, 0.0, 1.644498753964609E9, 0.0, 2022-02-11 00:12:33.964
36.0, -7203.14022340062, -9525.799396729399, -9128.720656480868, -14538.714532698934, -3367.2455987030985, -2708.070302971638, -4998.542964284774, -5928.040257458718, -14435.337714593139, -12613.894058930167, -18713.41689985, -10925.085654864986, -6820.388951347942, -10821.865298970379, -10389.694319927015, -9627.119854345305, 0.00825, -0.026500000000000003, 0.9924999999999999, 192.0, 0.0, 0.0, 0.0, 0.0, 0.0, 0.0, 0.0, 0.0, 0.0, 1.6444987539646156E9, 0.0, 2022-02-11 00:12:33.964
38.0, -7183.761260957869, -9497.747957437989, -9106.27950504774, -14519.939067356476, -3350.839418272903, -2693.072282442127, -4984.371958300109, -5907.096672904096, -14400.46899324286, -12572.275110754385, -18678.16819884398, -10897.034215573576, -6793.9244859128585, -10783.979092118632, -10362.71576436946, -9596.408557463714, 0.00825, -0.026500000000000003, 0.9924999999999999, 192.0, 0.0, 0.0, 0.0, 0.0, 0.0, 0.0, 0.0, 0.0, 0.0, 1.6444987539646225E9, 0.0, 2022-02-11 00:12:33.964
40.0, -7164.963443870955, -9474.703308904565, -9085.738251893312, -14497.96730255691, -3327.481845317107, -2683.572791048621, -4947.916263093503, -5900.927591434431, -14375.904426086478, -12545.654183108114, -18662.097294580617, -10883.578465411481, -6772.958549613781, -10762.856693608368, -10342.040400748301, -9574.995586275529, 0.00825, -0.026500000000000003, 0.9924999999999999, 192.0, 0.0, 0.0, 0.0, 0.0, 0.0, 0.0, 0.0, 0.0, 0.0, 1.6444987539646292E9, 0.0, 2022-02-11 00:12:33.964
42.0, -7126.518443407827, -9439.231090453994, -9056.949205034876, -14466.898377764033, -3301.6655804712273, -2659.902293670451, -4913.181652209956, -5846.322279730115, -14340.70042856937, -12510.070205935264, -18619.87484930454, -10854.43179064176, -6744.504778922174, -10740.192024730686, -10310.926772466513, -9538.383428857736, 0.00825, -0.026500000000000003, 0.9924999999999999, 192.0, 0.0, 0.0, 0.0, 0.0, 0.0, 0.0, 0.0, 0.0, 0.0, 1.644498753964636E9, 0.0, 2022-02-11 00:12:33.964
44.0, -7111.40866415604, -9419.114520444218, -9046.063905485142, -14446.737104265345, -3297.5975629803615, -2650.6933749548643, -4914.254535943811, -5836.845140081065, -14311.352588099551, -12482.80107769979, -18599.087726961105, -10836.975078222165, -6726.4222176578305, -10718.823757031412, -10293.782984469293, -9510.868431433253, 0.008125, -0.026250000000000002, 0.99325, 192.0, 0.0, 32.0, 127.5, 24.0, 15.5, 8.0, 0.0, 0.0, 0.0, 1.6444987539646432E9, 0.0, 2022-02-11 00:12:33.964
46.0, -7071.77902123678, -9383.351729315726, -9019.062998183132, -14421.949019664411, -3269.1214405443, -2620.652630406932, -4888.259457142289, -5825.244584708761, -14282.96587264131, -12437.829367855713, -18578.792342995686, -10820.792415236523, -6708.652580815862, -10686.436079315672, -10273.219379570412, -9485.655663687667, 0.008125, -0.026250000000000002, 0.99325, 192.0, 0.0, 0.0, 0.0, 0.0, 0.0, 0.0, 0.0, 0.0, 0.0, 1.64449875396465E9, 0.0, 2022-02-11 00:12:33.964
48.0, -7047.169750591487, -9347.454827720503, -9004.132032886986, -14398.077356586142, -3252.0894112693563, -2617.9480693278397, -4861.191494606912, -5799.942409985353, -14253.841549616045, -12403.251219183352, -18543.968325134316, -10788.538847987515, -6684.199772381756, -10666.543026750449, -10246.88902460206, -9457.805390096353, 0.008125, -0.026250000000000002, 0.99325, 192.0, 0.0, 0.0, 0.0, 0.0, 0.0, 0.0, 0.0, 0.0, 0.0, 1.6444987539646566E9, 0.0, 2022-02-11 00:12:33.964
50.0, -7023.38749449104, -9337.7541706269, -8987.63644547897, -14365.063830025654, -3234.3421261718427, -2601.899516808929, -4845.500569999286, -5770.795735215633, -14225.76775858018, -12381.480620083883, -18528.500917971243, -10768.735202400114, -6657.623548224396, -10663.72670694908, -10226.459530169908, -9427.898756015153, 0.008125, -0.026250000000000002, 0.99325, 192.0, 0.0, 0.0, 0.0, 0.0, 0.0, 0.0, 0.0, 0.0, 0.0, 1.6444987539646635E9, 0.0, 2022-02-11 00:12:33.964
52.0, -6990.5080783972835, -9299.309170163771, -8960.456724221316, -14336.475948867315, -3210.1575386712, -2580.352435154013, -4825.138130800501, -5756.535322253147, -14194.274150642652, -12331.747988670826, -18489.675937852375, -10736.951021784667, -6638.557510204018, -10630.28849724394, -10205.247724681822, -9396.472203310992, 0.008125, -0.026250000000000002, 0.99325, 192.0, 0.0, 0.0, 0.0, 0.0, 0.0, 0.0, 0.0, 0.0, 0.0, 1.6444987539646707E9, 0.0, 2022-02-11 00:12:33.964
54.0, -6971.531447354728, -9264.663966258046, -8945.861035092, -14315.264143379229, -3198.691093765628, -2571.2105716717924, -4813.71638938384, -5742.274909290661, -14164.27810958363, -12305.775261613759, -18467.145379441426, -10719.002570987055, -6612.227155235667, -10609.590781878327, -10185.421727349965, -9371.415897776593, 0.009062500000000001, -0.027125000000000003, 0.992625, 192.0, 0.0, 40.0, 127.5, 16.0, 15.5, 0.0, 0.0, 0.0, 0.0, 1.644498753964677E9, 0.0, 2022-02-11 00:12:33.964
0.0, -3577.888438449912, -4731.909004677415, -4539.527540150588, -7288.769756408901, -1327.000716567125, -1374.7216909792055, -2703.6670093139423, -3024.950984114526, -7058.077401885677, -6127.596631955699, -9214.238430766873, -5343.162160296698, -3289.930914632191, -5285.76288053547, -5078.115174545667, -4667.088945757026, 0.012, -0.026000000000000002, 0.996, 192.0, 0.0, 48.0, 127.5, 24.0, 15.5, 16.0, 0.0, 0.0, 0.0, 1.6444987545271485E9, 0.0, 2022-02-11 00:12:34.527
2.0, -7163.42117350354, -9463.169808765628, -9081.93845533591, -14571.996280192887, -2661.2881018266803, -2761.3121582641793, -5404.741216271069, -6054.640538053577, -14063.538797323561, -11154.571015187623, -18681.476257023365, -10874.883636818366, -6152.094143878716, -10195.323550143667, -10083.006034255748, -9886.221276071225, 0.012, -0.026000000000000002, 0.996, 192.0, 0.0, 0.0, 0.0, 0.0, 0.0, 0.0, 0.0, 0.0, 0.0, 1.6444987545272405E9, 0.0, 2022-02-11 00:12:34.527
4.0, -7139.013068558344, -9449.87052081472, -9068.46035342936, -14557.35588757466, -2652.392107533468, -2746.5600069236766, -5396.046387677955, -6042.704706514443, -14047.222023871187, -11134.186224244384, -18675.620099976077, -10857.315165676495, -6142.97463214095, -10189.221523907367, -10078.826258042605, -9878.353462022957, 0.012, -0.026000000000000002, 0.996, 192.0, 0.0, 0.0, 0.0, 0.0, 0.0, 0.0, 0.0, 0.0, 0.0, 1.6444987545272558E9, 0.0, 2022-02-11 00:12:34.527
6.0, -7129.848853331668, -9448.194139980573, -9065.26405397225, -14563.323803344227, -2654.1578953454373, -2741.553216165688, -5403.757739515036, -6033.629898265588, -14035.15208186532, -11130.29702070916, -18651.54727119771, -10845.580499837459, -6139.711277450476, -10182.87362848206, -10070.399650382955, -9866.104706061447, 0.012, -0.026000000000000002, 0.996, 192.0, 0.0, 0.0, 0.0, 0.0, 0.0, 0.0, 0.0, 0.0, 0.0, 1.6444987545272624E9, 0.0, 2022-02-11 00:12:34.527
8.0, -7126.473739918917, -9442.181520722095, -9059.720821347335, -14554.383105562105, -2654.1578953454373, -2751.1421145370145, -5382.9706171716, -6036.602680278144, -14025.049093371523, -11134.521500411212, -18659.54919571271, -10857.225758698674, -6131.2176145574595, -10186.136983172535, -10072.053679472647, -9864.09304906047, 0.014, -0.024, 0.994, 192.0, 0.0, 56.0, 127.5, 32.0, 15.5, 8.0, 0.0, 0.0, 0.0, 1.6444987545272691E9, 0.0, 2022-02-11 00:12:34.527
10.0, -7117.086007247688, -9443.34381143377, -9044.298117673174, -14548.59400374818, -2645.172494074404, -2738.938062064417, -5362.898750650734, -6019.615354492111, -14012.241543798631, -11122.362151427526, -18639.186756513926, -10854.252976686117, -6122.388675497613, -10183.58888430463, -10055.446333342354, -9852.38073496589, 0.014, -0.024, 0.994, 192.0, 0.0, 0.0, 0.0, 0.0, 0.0, 0.0, 0.0, 0.0, 0.0, 1.6444987545272756E9, 0.0, 2022-02-11 00:12:34.527
12.0, -7117.26482120333, -9440.192215465571, -9048.567300864137, -14545.956497902454, -2664.5961600060655, -2757.3111960066794, -5388.692663752158, -6035.19452037746, -14013.113261832388, -11121.311619438127, -18635.297552978704, -10854.454142386216, -6126.747265666398, -10183.812401749183, -10058.128542676992, -9853.721839633208, 0.014, -0.024, 0.994, 192.0, 0.0, 0.0, 0.0, 0.0, 0.0, 0.0, 0.0, 0.0, 0.0, 1.6444987545272822E9, 0.0, 2022-02-11 00:12:34.527
14.0, -7096.1647744375205, -9420.612087322723, -9034.9327367464, -14536.009971619842, -2643.6302237069876, -2747.8787598465397, -5357.064945347899, -6021.023514392796, -13996.885895357836, -11104.145479696452, -18634.805814600684, -10848.732095805657, -6120.242908029903, -10182.158372659489, -10054.172283908401, -9846.077543029493, 0.014, -0.024, 0.994, 192.0, 0.0, 0.0, 0.0, 0.0, 0.0, 0.0, 0.0, 0.0, 0.0, 1.644498754527289E9, 0.0, 2022-02-11 00:12:34.527
16.0, -7097.952913993945, -9414.934744231075, -9035.022143724222, -14532.858375651644, -2652.392107533468, -2744.9506813228945, -5362.742288439547, -6010.697008454444, -13992.594360422418, -11096.85881100402, -18618.086709748117, -10840.126674190364, -6118.030085328828, -10173.597654533107, -10043.711667503318, -9835.952202791239, 0.013000000000000001, -0.023, 0.993, 192.0, 0.0, 48.0, 127.5, 40.0, 15.5, 0.0, 0.0, 0.0, 0.0, 1.644498754527295E9, 0.0, 2022-02-11 00:12:34.527
18.0, -7095.091890703666, -9420.925011745097, -9036.206786180352, -14522.10718656864, -2664.059718139138, -2747.096448790604, -5373.627587989282, -6012.57455498869, -13986.067651041467, -11087.96281671081, -18629.374340698047, -10848.396819638827, -6116.912498106062, -10179.431459835943, -10050.730115262284, -9829.045513754549, 0.013000000000000001, -0.023, 0.993, 192.0, 0.0, 0.0, 0.0, 0.0, 0.0, 0.0, 0.0, 0.0, 0.0, 1.6444987545273018E9, 0.0, 2022-02-11 00:12:34.527
20.0, -7078.573951551194, -9411.604334307234, -9019.867660983522, -14513.658227164535, -2653.1520668449484, -2735.1159137625596, -5365.402146029728, -6008.260668308815, -13973.19304623521, -11075.043508415642, -18609.905971277472, -10828.548470562515, -6113.179756782027, -10168.032070163736, -10048.852568728038, -9818.808414794019, 0.013000000000000001, -0.023, 0.993, 192.0, 0.0, 0.0, 0.0, 0.0, 0.0, 0.0, 0.0, 0.0, 0.0, 1.6444987545273097E9, 0.0, 2022-02-11 00:12:34.527
22.0, -7080.853829485635, -9404.34001735926, -9024.583879063592, -14509.567857929214, -2669.066508897127, -2755.903036105995, -5365.0221663739885, -6012.172223588494, -13965.682860098226, -11075.669357260389, -18601.971101995838, -10826.670924028269, -6108.240021257404, -10175.54225630072, -10043.666964014408, -9817.020275237594, 0.013000000000000001, -0.023, 0.993, 192.0, 0.0, 0.0, 0.0, 0.0, 0.0, 0.0, 0.0, 0.0, 0.0, 1.6444987545273163E9, 0.0, 2022-02-11 00:12:34.527
24.0, -7055.439896039951, -9395.332264343771, -9012.402178335451, -14496.849715334143, -2652.682680211387, -2739.1839312534253, -5352.907520879212, -5997.196554803438, -13953.188234947711, -11059.464342530293, -18598.4395263719, -10832.348267119916, -6104.060245044261, -10174.759945244783, -10039.218966867802, -9806.89493499934, 0.013000000000000001, -0.023, 0.993, 192.0, 0.0, 0.0, 0.0, 0.0, 0.0, 0.0, 0.0, 0.0, 0.0, 1.6444987545273228E9, 0.0, 2022-02-11 00:12:34.527
26.0, -7042.922919144979, -9389.297293340838, -9006.054282910143, -14491.999386787342, -2655.0519651236496, -2731.3608206940676, -5359.277768048974, -5996.078967580673, -13941.632383064316, -11043.393438266927, -18581.76512500824, -10807.113147629876, -6095.946561806984, -10167.182703874434, -10025.830271939072, -9792.500411570121, 0.0105, -0.0225, 0.9924999999999999, 192.0, 0.0, 32.0, 127.5, 40.0, 15.5, 0.0, 0.0, 0.0, 0.0, 1.6444987545273297E9, 0.0, 2022-02-11 00:12:34.527
28.0, -7051.237768082353, -9376.020357134385, -9007.93182944439, -14483.14809598304, -2665.333767573091, -2731.673745116442, -5359.8589134048125, -5995.90015362503, -13929.160109658254, -11038.721923675766, -18590.281139645715, -10809.9518191757, -6087.63171286961, -10148.541348998708, -10025.249126583234, -9788.342987101434, 0.0105, -0.0225, 0.9924999999999999, 192.0, 0.0, 0.0, 0.0, 0.0, 0.0, 0.0, 0.0, 0.0, 0.0, 1.644498754527336E9, 0.0, 2022-02-11 00:12:34.527
30.0, -7039.905433643513, -9363.659842450601, -8993.559657759626, -14474.028584245276, -2654.627281978999, -2728.902128803984, -5335.428456715162, -5989.060519821706, -13921.582868287906, -11025.959077591788, -18573.070296415128, -10806.867278440866, -6083.921323290029, -10156.63268049153, -10016.599001479031, -9774.574312516967, 0.0105, -0.0225, 0.9924999999999999, 192.0, 0.0, 0.0, 0.0, 0.0, 0.0, 0.0, 0.0, 0.0, 0.0, 1.6444987545273426E9, 0.0, 2022-02-11 00:12:34.527
32.0, -7041.15713133301, -9370.700641954023, -8995.236038593774, -14473.693308078446, -2661.6680814824203, -2736.5017219187885, -5345.8890731202455, -5996.771871658787, -13917.671313008228, -11028.596583437513, -18568.421133568423, -10805.861449940377, -6074.779459807809, -10151.022392633247, -10016.353132290022, -9773.590835760931, 0.0105, -0.0225, 0.9924999999999999, 192.0, 0.0, 0.0, 0.0, 0.0, 0.0, 0.0, 0.0, 0.0, 0.0, 1.6444987545273492E9, 0.0, 2022-02-11 00:12:34.527
34.0, -7028.1931195489315, -9363.27986279486, -8987.055300123131, -14465.199645185428, -2656.3483663020575, -2723.805931068174, -5338.311831749897, -5971.089717279639, -13904.796708201971, -11013.196231507807, -18566.253014356258, -10811.04705465401, -6064.967043991929, -10140.226500061333, -10015.548469489631, -9764.896007167818, 0.0105, -0.0225, 0.9924999999999999, 192.0, 0.0, 0.0, 0.0, 0.0, 0.0, 0.0, 0.0, 0.0, 0.0, 1.6444987545273557E9, 0.0, 2022-02-11 00:12:34.527
36.0, -7021.800520634713, -9354.361516757193, -8983.702538454836, -14456.504816592314, -2653.576749989599, -2723.2024339678806, -5335.584918926349, -5968.22869398936, -13897.644149976273, -11002.46739416926, -18543.498938500758, -10802.955723161189, -6064.855285269652, -10140.919404139448, -10007.613600207997, -9753.11663783987, 0.01025, -0.02425, 0.99225, 192.0, 0.0, 40.0, 127.5, 24.0, 15.5, 0.0, 0.0, 0.0, 0.0, 1.6444987545273643E9, 0.0, 2022-02-11 00:12:34.527
38.0, -7016.637267665537, -9352.7074876675, -8978.360471530017, -14442.311458863194, -2651.5427412441663, -2719.804968810674, -5318.374075695762, -5960.249121218815, -13887.854085904848, -11001.640379624412, -18550.49503451527, -10789.522324743548, -6053.72411653091, -10132.939831368903, -10002.293885027633, -9745.606451702888, 0.01025, -0.02425, 0.99225, 192.0, 0.0, 0.0, 0.0, 0.0, 0.0, 0.0, 0.0, 0.0, 0.0, 1.6444987545273707E9, 0.0, 2022-02-11 00:12:34.527
40.0, -6995.872497066557, -9338.201205516007, -8967.274006280186, -14433.95190643691, -2645.574825474599, -2712.0712652291377, -5309.321619191363, -5947.553330368201, -13875.448867732153, -10982.797859048589, -18536.122862830503, -10773.451420480184, -6051.6230525521105, -10124.24500277579, -9993.152021545413, -9730.764893384563, 0.01025, -0.02425, 0.99225, 192.0, 0.0, 0.0, 0.0, 0.0, 0.0, 0.0, 0.0, 0.0, 0.0, 1.644498754527378E9, 0.0, 2022-02-11 00:12:34.527
42.0, -6999.046444779211, -9331.294516479316, -8965.374108001484, -14430.9567726799, -2658.874113425507, -2717.167462964948, -5317.234136728542, -5954.169446726972, -13871.827885130393, -10974.773582789134, -18527.80801389313, -10772.266778024052, -6048.002069950351, -10119.573488184631, -9990.045129066126, -9727.546242183, 0.01025, -0.02425, 0.99225, 192.0, 0.0, 0.0, 0.0, 0.0, 0.0, 0.0, 0.0, 0.0, 0.0, 1.6444987545273843E9, 0.0, 2022-02-11 00:12:34.527
44.0, -6974.079546222633, -9314.977743026942, -8949.683183393858, -14419.311513818684, -2646.1112673415264, -2704.739893047797, -5300.157403964688, -5938.769094797265, -13847.419780185197, -10961.518998327136, -18520.767214389707, -10776.603016448382, -6033.182863376483, -10117.159499783456, -9984.926579585861, -9720.728960124132, 0.01025, -0.02425, 0.99225, 192.0, 0.0, 0.0, 0.0, 0.0, 0.0, 0.0, 0.0, 0.0, 0.0, 1.644498754527391E9, 0.0, 2022-02-11 00:12:34.527
46.0, -6965.719993796349, -9309.881545291131, -8940.094285022531, -14413.164784093475, -2647.2512063087474, -2701.4094831239563, -5298.302209174897, -5935.259870917782, -13838.45673065862, -10952.868873222933, -18497.40964143391, -10763.951929086677, -6031.059447653228, -10109.403444457466, -9975.11416376998, -9706.557954139465, 0.009125000000000001, -0.027125, 0.991125, 192.0, 0.0, 32.0, 127.5, 8.0, 15.0, 120.0, 0.0, 0.0, 0.0, 1.6444987545273976E9, 0.0, 2022-02-11 00:12:34.527
48.0, -6963.306005395175, -9299.420928886047, -8941.658907134402, -14397.160935063475, -2656.7954011911634, -2699.4425296118893, -5302.19141271012, -5932.55530983869, -13824.0622072294, -10940.217785861229, -18498.4154699344, -10762.052030807976, -6017.424883535491, -10095.2324384728, -9970.375593945455, -9694.53271562251, 0.009125000000000001, -0.027125, 0.991125, 192.0, 0.0, 0.0, 0.0, 0.0, 0.0, 0.0, 0.0, 0.0, 0.0, 1.6444987545274048E9, 0.0, 2022-02-11 00:12:34.527
50.0, -6947.793894743192, -9287.060414202264, -8925.72211333777, -14387.616740181058, -2643.7643341737194, -2690.121852174026, -5283.326540389841, -5924.285164390227, -13814.1603844357, -10926.560869999037, -18484.065649994096, -10748.819798090435, -6016.843738179653, -10081.866095288528, -9966.441686921322, -9680.67463406022, 0.009125000000000001, -0.027125, 0.991125, 192.0, 0.0, 0.0, 0.0, 0.0, 0.0, 0.0, 0.0, 0.0, 0.0, 1.6444987545274115E9, 0.0, 2022-02-11 00:12:34.527
52.0, -6941.691868506893, -9272.308262861761, -8925.588002871038, -14382.140562789507, -2645.9771568747947, -2692.9605237198502, -5294.636523084227, -5925.805083013187, -13804.929113975659, -10909.931172124288, -18472.17452194387, -10733.128873482809, -6009.311200298214, -10081.396708654966, -9961.434896163333, -9678.305349147959, 0.009125000000000001, -0.027125, 0.991125, 192.0, 0.0, 0.0, 0.0, 0.0, 0.0, 0.0, 0.0, 0.0, 0.0, 1.644498754527418E9, 0.0, 2022-02-11 00:12:34.527
54.0, -6896.206068540343, -9237.484245000393, -8908.33245615154, -14365.600271892581, -2623.8712816084962, -2676.5543432896548, -5265.8251244813355, -5900.838184456609, -13781.884465442237, -10890.887485848367, -18466.27366140767, -10730.536071125993, -5994.603752446622, -10081.3296534216, -9956.74102982772, -9668.805857754453, 0.009125000000000001, -0.027125, 0.991125, 192.0, 0.0, 0.0, 0.0, 0.0, 0.0, 0.0, 0.0, 0.0, 0.0, 1.6444987545274243E9, 0.0, 2022-02-11 00:12:34.527
56.0, -6889.142917292466, -9224.766102405323, -8896.24016240122, -14355.743152587791, -2613.455368692323, -2670.0946891420713, -5251.430601052118, -5900.033521656218, -13740.891366111204, -10860.511465133604, -18424.386492298425, -10708.206678415141, -5968.094583522628, -10050.730115262284, -9933.674029549842, -9648.510473789034, 0.006562500000000001, -0.0295625, 0.9925625, 192.0, 0.0, 16.0, 127.5, 0.0, 15.5, 8.0, 0.0, 0.0, 0.0, 1.6444987545274312E9, 0.0, 2022-02-11 00:12:34.527
58.0, -6911.427606514408, -9245.441466026481, -8900.151717680897, -14352.949184530877, -2625.592365931555, -2673.9168374439287, -5257.331461588319, -5895.987855909808, -13769.68041296964, -10874.637767629358, -18451.16388215588, -10732.011286260044, -5974.129554525561, -10053.881711230482, -9932.10940743797, -9641.6261364968, 0.006562500000000001, -0.0295625, 0.9925625, 192.0, 0.0, 0.0, 0.0, 0.0, 0.0, 0.0, 0.0, 0.0, 0.0, 1.6444987545274377E9, 0.0, 2022-02-11 00:12:34.527
60.0, -6876.938864819868, -9235.226718810407, -8878.403470325884, -14340.879242525012, -2611.0190285466947, -2666.8760379405066, -5247.362583561252, -5882.800326681177, -13751.128465071735, -10865.026517513576, -18431.784919713133, -10711.760605783535, -5964.250083476315, -10044.69514425935, -9924.822738745539, -9630.76318869152, 0.006562500000000001, -0.0295625, 0.9925625, 192.0, 0.0, 0.0, 0.0, 0.0, 0.0, 0.0, 0.0, 0.0, 0.0, 1.644498754527444E9, 0.0, 2022-02-11 00:12:34.527
62.0, -6871.149763005944, -9220.228698280895, -8877.554104036582, -14330.97741973131, -2617.9257175833845, -2668.619474008021, -5245.440333538096, -5869.813963152643, -13737.538604442909, -10852.889520274344, -18418.329169551038, -10701.635265545281, -5952.761286826288, -10035.262708099212, -9914.362122340455, -9623.342409532359, 0.006562500000000001, -0.0295625, 0.9925625, 192.0, 0.0, 0.0, 0.0, 0.0, 0.0, 0.0, 0.0, 0.0, 0.0, 1.6444987545274506E9, 0.0, 2022-02-11 00:12:34.527
64.0, -6853.581291864073, -9203.241372494862, -8869.909807432867, -14318.192221902875, -2603.0171040316945, -2650.648671465954, -5223.580327460805, -5846.6799076414, -13718.04788327788, -10834.561089820992, -18415.31168404957, -10699.556553310938, -5943.373554155059, -10026.389065550455, -9913.266886862146, -9609.909011114718, 0.006562500000000001, -0.0295625, 0.9925625, 192.0, 0.0, 0.0, 0.0, 0.0, 0.0, 0.0, 0.0, 0.0, 0.0, 1.6444987545274572E9, 0.0, 2022-02-11 00:12:34.527
66.0, -6833.867053254492, -9180.599055361636, -8863.18193235182, -14310.838497977078, -2598.32323769608, -2641.8197324061075, -5207.934106342091, -5845.20469250735, -13706.42497616112, -10812.410511065784, -18391.708241904766, -10679.976425168088, -5938.255004674793, -10017.537774746153, -9898.15710761036, -9598.733138887064, 0.00628125, -0.02978125, 0.99128125, 192.0, 0.0, 24.0, 127.5, 8.0, 15.0, 120.0, 0.0, 0.0, 0.0, 1.6444987545274637E9, 0.0, 2022-02-11 00:12:34.527
68.0, -6820.97009670378, -9154.916900982487, -8852.475446757728, -14302.434242061883, -2593.2270399602703, -2632.677868923887, -5215.198423290065, -5842.120151772518, -13684.967301484026, -10789.209400321175, -18386.63439591341, -10676.489553033061, -5922.474673089347, -9988.279341254156, -9894.804345942062, -9589.94890331613, 0.00628125, -0.02978125, 0.99128125, 192.0, 0.0, 0.0, 0.0, 0.0, 0.0, 0.0, 0.0, 0.0, 0.0, 1.6444987545274732E9, 0.0, 2022-02-11 00:12:34.527
70.0, -6789.543543999618, -9137.52724379626, -8830.235461024698, -14284.35168079754, -2569.847115260019, -2622.5301769411776, -5199.194574260066, -5837.850968581554, -13658.681650004584, -10759.973318573633, -18359.700543844767, -10656.350631278829, -5903.721559491344, -9999.522268715176, -9881.080374846504, -9571.41930716268, 0.00628125, -0.02978125, 0.99128125, 192.0, 0.0, 0.0, 0.0, 0.0, 0.0, 0.0, 0.0, 0.0, 0.0, 1.6444987545274796E9, 0.0, 2022-02-11 00:12:34.527
72.0, -6794.751500457704, -9140.075342664164, -8834.705809915758, -14276.819142916102, -2576.2397141742367, -2625.257089764725, -5195.417129447118, -5838.812093593132, -13645.695286476051, -10765.404792476273, -18346.82593903851, -10654.808360911413, -5895.585524509612, -9986.088870297537, -9868.675156673808, -9563.216216947581, 0.00628125, -0.02978125, 0.99128125, 192.0, 0.0, 0.0, 0.0, 0.0, 0.0, 0.0, 0.0, 0.0, 0.0, 1.6444987545274863E9, 0.0, 2022-02-11 00:12:34.527
74.0, -6778.05474734959, -9123.646810489514, -8824.736931888692, -14258.021325829188, -2568.550714081611, -2603.9335255543624, -5177.558085627328, -5792.588686059557, -13631.524280491387, -10755.41356270475, -18346.75888380514, -10649.466293986594, -5885.5048877602685, -9969.503875911698, -9863.757772893641, -9546.899443495207, 0.00628125, -0.02978125, 0.99128125, 192.0, 0.0, 0.0, 0.0, 0.0, 0.0, 0.0, 0.0, 0.0, 0.0, 1.6444987545274928E9, 0.0, 2022-02-11 00:12:34.527
76.0, -6761.357994241476, -9108.22410681535, -8816.109158528943, -14249.661773402904, -2561.2863971336365, -2598.166775484893, -5174.138268725666, -5795.494412838747, -13623.298838531833, -10734.60408861686, -18324.608305049933, -10623.784139607447, -5881.369815036037, -9951.935404769827, -9854.213578011224, -9529.465082820068, 0.006140625, -0.025890625, 0.9926406249999999, 192.0, 0.0, 24.0, 127.5, 40.0, 15.5, 8.0, 0.0, 0.0, 0.0, 1.6444987545274997E9, 0.0, 2022-02-11 00:12:34.527
78.0, -6746.4940841786965, -9093.091975819108, -8811.482347426694, -14239.24586048673, -2562.851019245508, -2591.125975981471, -5186.454079920541, -5794.443880849348, -13604.970408078481, -10719.06962622042, -18321.791985248565, -10619.559659905393, -5866.841181140087, -9949.990803002216, -9854.101819288948, -9520.524385037945, 0.006140625, -0.025890625, 0.9926406249999999, 192.0, 0.0, 0.0, 0.0, 0.0, 0.0, 0.0, 0.0, 0.0, 0.0, 1.644498754527506E9, 0.0, 2022-02-11 00:12:34.527
80.0, -6711.111272705945, -9067.968615051344, -8787.945960515257, -14227.57824988106, -2536.6994782327984, -2580.0842142205497, -5149.886625991658, -5783.111546410507, -13580.472896155465, -10699.310684121929, -18300.826048949486, -10603.466403897573, -5849.876207098509, -9929.91893648135, -9838.254432470136, -9506.509841264467, 0.006140625, -0.025890625, 0.9926406249999999, 192.0, 0.0, 0.0, 0.0, 0.0, 0.0, 0.0, 0.0, 0.0, 0.0, 1.6444987545275123E9, 0.0, 2022-02-11 00:12:34.527
82.0, -6728.56798512554, -9066.716917361846, -8791.231666950187, -14221.900906789411, -2544.45553355879, -2587.75086256872, -5160.704870308026, -5785.681997022867, -13572.247454195913, -10688.246570616553, -18282.139990584852, -10599.465441640074, -5837.515692414724, -9925.985029457215, -9824.686923585765, -9501.63716097321, 0.006140625, -0.025890625, 0.9926406249999999, 192.0, 0.0, 0.0, 0.0, 0.0, 0.0, 0.0, 0.0, 0.0, 0.0, 1.6444987545275192E9, 0.0, 2022-02-11 00:12:34.527
84.0, -6708.451415115764, -9054.781085822713, -8779.474649366695, -14194.296502387107, -2534.173731109349, -2564.6615105463875, -5170.651396590638, -5770.639273004445, -13556.668288310562, -10675.886055932768, -18280.016574861595, -10592.648159581204, -5829.469064410814, -9916.82081423054, -9823.859909040917, -9488.606093955766, 0.006140625, -0.025890625, 0.9926406249999999, 192.0, 0.0, 0.0, 0.0, 0.0, 0.0, 0.0, 0.0, 0.0, 0.0, 1.6444987545275257E9, 0.0, 2022-02-11 00:12:34.527
86.0, -6693.073414930513, -9049.416667153439, -8772.657367307827, -14183.277092370641, -2525.523606005145, -2552.680975518343, -5147.249120145932, -5759.463400776792, -13544.084256182225, -10659.412820269206, -18253.820330359977, -10567.368336602252, -5817.0638462381185, -9898.827659944018, -9813.980437991671, -9465.740259377988, 0.006, -0.022, 0.992, 192.0, 0.0, 24.0, 127.5, 40.0, 15.5, 0.0, 0.0, 0.0, 0.0, 1.644498754527532E9, 0.0, 2022-02-11 00:12:34.527
88.0, -6682.098708402957, -9019.01829469422, -8772.344442885453, -14176.23629286722, -2526.8870624169185, -2543.5391120361223, -5134.3968670841305, -5754.054278618608, -13536.685828767519, -10643.833654383858, -18263.09630430893, -10581.651101309193, -5809.57601184559, -9895.117270364437, -9810.024179223083, -9459.72764011951, 0.006, -0.022, 0.992, 192.0, 0.0, 0.0, 0.0, 0.0, 0.0, 0.0, 0.0, 0.0, 0.0, 1.6444987545275388E9, 0.0, 2022-02-11 00:12:34.527
90.0, -6655.947167390248, -9005.271971854207, -8754.552454299028, -14159.830112437025, -2506.368161006947, -2528.1834635953264, -5113.520337762873, -5722.113635791974, -13513.998808145381, -10625.214651252587, -18238.777606341555, -10564.999051689989, -5796.589648317057, -9868.451639229255, -9799.518859329088, -9438.135854975684, 0.006, -0.022, 0.992, 192.0, 0.0, 0.0, 0.0, 0.0, 0.0, 0.0, 0.0, 0.0, 0.0, 1.6444987545275452E9, 0.0, 2022-02-11 00:12:34.527
92.0, -6653.980213878181, -9000.8239747076, -8751.579672286472, -14155.158597845864, -2514.3477337774916, -2527.557614750578, -5095.661293943083, -5727.120426549963, -13505.013406874348, -10614.821090080868, -18225.27715269055, -10548.32465032633, -5785.078499922574, -9865.925892105806, -9784.69965275522, -9425.90945075863, 0.006, -0.022, 0.992, 192.0, 0.0, 0.0, 0.0, 0.0, 0.0, 0.0, 0.0, 0.0, 0.0, 1.644498754527552E9, 0.0, 2022-02-11 00:12:34.527
94.0, -6623.470082696686, -8980.506238997727, -8734.145311611332, -14133.678571424314, -2497.8744981139303, -2517.141701834405, -5102.657389957594, -5716.726865378245, -13480.068860062225, -10603.086424241832, -18219.465699132168, -10537.595812987784, -5768.4040985589145, -9849.877339586896, -9777.480039296155, -9414.755930275433, 0.006, -0.022, 0.992, 192.0, 0.0, 0.0, 0.0, 0.0, 0.0, 0.0, 0.0, 0.0, 0.0, 1.6444987545275583E9, 0.0, 2022-02-11 00:12:34.527
96.0, -6624.140635030346, -8974.381861016973, -8727.260974319099, -14129.923478355824, -2488.464413698246, -2513.7889401661087, -5084.597180437706, -5695.492708145704, -13471.463438446932, -10594.52570611545, -18194.25293138658, -10519.155623812154, -5762.547941511624, -9846.032839540583, -9759.866864665373, -9397.09805215574, 0.002, -0.026000000000000002, 0.986, 192.0, 0.0, 8.0, 127.5, 24.0, 15.0, 104.0, 0.0, 0.0, 0.0, 1.6444987545275648E9, 0.0, 2022-02-11 00:12:34.527
98.0, -6618.418588449787, -8955.226416018775, -8723.304715550508, -14116.288914238086, -2484.306989229559, -2509.363294763958, -5077.042290811813, -5704.232240227729, -13464.087362776681, -10584.087441454822, -18199.572646566947, -10522.687199436094, -5749.494522749726, -9840.936641804772, -9755.821198918962, -9388.939665429552, 0.002, -0.026000000000000002, 0.986, 192.0, 0.0, 0.0, 0.0, 0.0, 0.0, 0.0, 0.0, 0.0, 0.0, 1.6444987545275717E9, 0.0, 2022-02-11 00:12:34.527
100.0, -6590.814184047483, -8933.277002963663, -8701.601171684406, -14098.720443096214, -2461.48585814069, -2482.3176839730363, -5055.76343009036, -5663.283844385605, -13442.875557288595, -10566.921301713146, -18175.477466044125, -10504.090548049278, -5734.094170820019, -9820.015408994605, -9742.074876078948, -9372.33231929926, 0.002, -0.026000000000000002, 0.986, 192.0, 0.0, 0.0, 0.0, 0.0, 0.0, 0.0, 0.0, 0.0, 0.0, 1.64449875452758E9, 0.0, 2022-02-11 00:12:34.527
102.0, -6586.567352600975, -8923.9563255258, -8702.450537973707, -14090.070317992011, -2465.82209656502, -2475.6792158698104, -5057.1939417355, -5668.760021777156, -13431.99025773886, -10552.638537006205, -18162.133474604307, -10491.484164176485, -5723.633554414935, -9797.08251918346, -9727.97092532765, -9354.495627223925, 0.002, -0.026000000000000002, 0.986, 192.0, 0.0, 0.0, 0.0, 0.0, 0.0, 0.0, 0.0, 0.0, 0.0, 1.6444987545275867E9, 0.0, 2022-02-11 00:12:34.527
104.0, -6555.63253827483, -8897.38010136844, -8687.698386633205, -14071.764239283115, -2450.399392890858, -2461.2176372072267, -5046.196883463488, -5647.704678500257, -13408.051539427226, -10523.313048280841, -18154.466826256135, -10490.83596358728, -5708.166147251863, -9790.533458058055, -9716.929163566729, -9339.698772394511, 0.002, -0.026000000000000002, 0.986, 192.0, 0.0, 0.0, 0.0, 0.0, 0.0, 0.0, 0.0, 0.0, 0.0, 1.6444987545275931E9, 0.0, 2022-02-11 00:12:34.527
106.0, -6538.108770621869, -8886.897133218901, -8674.019119026556, -14059.78370425507, -2437.43538110678, -2446.2866719110816, -5040.89952002758, -5629.465655024726, -13390.684233985452, -10509.164394040632, -18128.829375365898, -10473.893341290157, -5697.102033746485, -9778.910550941295, -9699.517154636045, -9321.169176241061, 0.004, -0.03, 0.988, 192.0, 0.0, 16.0, 127.5, 8.0, 15.0, 112.0, 0.0, 0.0, 0.0, 1.6444987545275998E9, 0.0, 2022-02-11 00:12:34.527
108.0, -6533.280793819523, -8872.435554556318, -8668.520589890551, -14041.656439501816, -2435.267261894615, -2444.3867736323805, -5029.701296055472, -5630.426780036304, -13374.658033210997, -10504.001141071456, -18129.566982932924, -10465.131457463678, -5685.3450161629935, -9774.283739839047, -9693.906866777763, -9310.46269064697, 0.004, -0.03, 0.988, 192.0, 0.0, 0.0, 0.0, 0.0, 0.0, 0.0, 0.0, 0.0, 0.0, 1.6444987545276065E9, 0.0, 2022-02-11 00:12:34.527
110.0, -6507.084549317903, -8859.873874172436, -8647.241729169098, -14025.697293960726, -2419.0175436756067, -2419.0622471645174, -5008.08715916719, -5604.319942512506, -13355.390829490523, -10482.610521627728, -18107.036424521975, -10443.651431042128, -5671.710452045257, -9749.272137793558, -9685.681424818209, -9291.374300882138, 0.004, -0.03, 0.988, 192.0, 0.0, 0.0, 0.0, 0.0, 0.0, 0.0, 0.0, 0.0, 0.0, 1.6444987545276127E9, 0.0, 2022-02-11 00:12:34.527
112.0, -6502.345979493378, -8849.435609511806, -8643.62074656734, -14015.72841593366, -2424.4490175782466, -2421.498587310146, -5006.008446932847, -5605.281067524084, -13346.137207286027, -10469.870027288203, -18091.501962125538, -10431.313268102798, -5661.562760062548, -9737.82804463244, -9671.756288022552, -9280.332539121217, 0.004, -0.03, 0.988, 192.0, 0.0, 0.0, 0.0, 0.0, 0.0, 0.0, 0.0, 0.0, 0.0, 1.6444987545276194E9, 0.0, 2022-02-11 00:12:34.527
114.0, -6475.278016958001, -8815.50566142865, -8629.226223138121, -14001.1550785488, -2404.243040590649, -2404.6453719908445, -5002.879202709103, -5594.038140063065, -13321.751454085286, -10446.221881654488, -18082.136581198763, -10414.817680694781, -5639.54629177407, -9724.126425281338, -9669.118782176827, -9270.11779190514, 0.004, -0.03, 0.988, 192.0, 0.0, 0.0, 0.0, 0.0, 0.0, 0.0, 0.0, 0.0, 0.0, 1.644498754527626E9, 0.0, 2022-02-11 00:12:34.527
116.0, -6463.766868563517, -8809.403635192351, -8621.023132923023, -13992.683767400238, -2388.1944880717383, -2389.8038136725204, -4974.827763417693, -5577.4531456772265, -13307.87102077854, -10428.96633493499, -18056.38737158625, -10398.34444503122, -5627.029314879098, -9706.669712861743, -9649.96333717863, -9254.024535897319, 0.006, -0.024, 0.986, 192.0, 0.0, 24.0, 127.5, 32.0, 15.0, 104.0, 0.0, 0.0, 0.0, 1.6444987545276327E9, 0.0, 2022-02-11 00:12:34.527
118.0, -6459.184760950179, -8792.349254172952, -8617.491557299085, -13978.468057926662, -2386.607514215412, -2382.427738002269, -4986.6518362345505, -5578.034291033065, -13292.448317104378, -10418.930401674557, -18054.66628726319, -10403.798270678315, -5607.359779758427, -9682.641587572287, -9642.296688830458, -9242.334573547194, 0.006, -0.024, 0.986, 192.0, 0.0, 0.0, 0.0, 0.0, 0.0, 0.0, 0.0, 0.0, 0.0, 1.6444987545276394E9, 0.0, 2022-02-11 00:12:34.527
120.0, -6436.229519394579, -8773.082050452478, -8600.615990235328, -13959.178502461733, -2372.950598353219, -2364.3004732490153, -4950.352603239132, -5533.4872643336375, -13274.924549451418, -10400.512564243385, -18036.38256029875, -10380.999491333901, -5596.0050935751315, -9679.132363692805, -9633.311287559425, -9219.625201180603, 0.006, -0.024, 0.986, 192.0, 0.0, 0.0, 0.0, 0.0, 0.0, 0.0, 0.0, 0.0, 0.0, 1.6444987550080252E9, 0.0, 2022-02-11 00:12:35.008
122.0, -6427.065304167903, -8767.248245149642, -8603.029978636501, -13949.52254885704, -2375.0516623320177, -2366.3568337389033, -4959.516818465808, -5543.009107471598, -13264.57569176861, -10392.242418794922, -18024.491432248527, -10365.286214981821, -5590.551267928036, -9672.002157211562, -9620.123758330794, -9206.68354114098, 0.006, -0.024, 0.986, 192.0, 0.0, 0.0, 0.0, 0.0, 0.0, 0.0, 0.0, 0.0, 0.0, 1.644498755008212E9, 0.0, 2022-02-11 00:12:35.008
124.0, -6402.9924753895375, -8738.280384335565, -8582.086394081878, -13932.825795748926, -2352.6105108988895, -2338.5959671254122, -4929.967812295891, -5518.489243804127, -13241.061656601627, -10373.757526130383, -18018.590571712324, -10360.43588643502, -5570.993491529643, -9656.154770392748, -9616.391017006757, -9192.19961073394, 0.006, -0.024, 0.986, 192.0, 0.0, 0.0, 0.0, 0.0, 0.0, 0.0, 0.0, 0.0, 0.0, 1.6444987550082197E9, 0.0, 2022-02-11 00:12:35.008
126.0, -6388.910876382694, -8713.939334623736, -8569.859989864826, -13922.387531088298, -2335.086743245929, -2331.0857809884287, -4906.8784602735595, -5514.689447246725, -13222.174432536893, -10353.14921774259, -17982.783077094922, -10339.13467396911, -5555.682546577757, -9635.881738171785, -9596.676778397177, -9173.513552369304, 0.014, -0.028, 0.99, 192.0, 0.0, 56.0, 127.5, 16.0, 15.0, 120.0, 0.0, 0.0, 0.0, 1.6444987550082264E9, 0.0, 2022-02-11 00:12:35.008
128.0, -6385.647521692219, -8717.448558503218, -8564.875550851291, -13907.27775183651, -2332.0022025110966, -2326.6154320973674, -4911.795844053727, -5496.830403426934, -13208.383406207968, -10344.454389149474, -17981.821952083345, -10336.720685567938, -5537.063543446487, -9627.499834001044, -9587.937246315152, -9160.191912673941, 0.014, -0.028, 0.99, 192.0, 0.0, 0.0, 0.0, 0.0, 0.0, 0.0, 0.0, 0.0, 0.0, 1.6444987550082333E9, 0.0, 2022-02-11 00:12:35.008
130.0, -6360.032422546437, -8698.226058271654, -8546.569472142395, -13890.1786673282, -2307.527042332535, -2303.3472661193928, -4891.7910327662275, -5475.7303566611245, -13191.105507744016, -10321.320333638232, -17965.438123397606, -10320.09098769319, -5522.870185717366, -9610.08782507036, -9574.593254875334, -9140.656488020002, 0.014, -0.028, 0.99, 192.0, 0.0, 0.0, 0.0, 0.0, 0.0, 0.0, 0.0, 0.0, 0.0, 1.6444987550082402E9, 0.0, 2022-02-11 00:12:35.008
132.0, -6353.148085254203, -8685.574970909951, -8546.748286098038, -13879.941568367669, -2311.5950598234012, -2300.6203532958452, -4896.6637130574845, -5476.803240394979, -13178.588530849043, -10307.775176498315, -17949.07664645632, -10301.94137119548, -5509.928525677744, -9592.295836483936, -9560.176379701661, -9127.200737857907, 0.014, -0.028, 0.99, 192.0, 0.0, 0.0, 0.0, 0.0, 0.0, 0.0, 0.0, 0.0, 0.0, 1.6444987550082643E9, 0.0, 2022-02-11 00:12:35.008
134.0, -6336.026649001437, -8656.741220562604, -8531.929079524169, -13861.389620469765, -2293.177222392228, -2285.734091488611, -4884.370253607065, -5460.732336131613, -13162.383516118947, -10291.771327468316, -17946.260326654952, -10294.14061238058, -5495.176374337241, -9586.573789903377, -9554.052001720906, -9116.829528430644, 0.014, -0.028, 0.99, 192.0, 0.0, 0.0, 0.0, 0.0, 0.0, 0.0, 0.0, 0.0, 0.0, 1.644498755008271E9, 0.0, 2022-02-11 00:12:35.008
136.0, -6307.3717126097345, -8640.983240721613, -8513.980628726558, -13844.245832472543, -2277.821573951432, -2262.868256910832, -4872.277959856744, -5447.835379580901, -13143.161015887383, -10265.865655644615, -17910.11755587072, -10265.84330390016, -5479.373691007339, -9553.336745898336, -9532.12494041025, -9091.527353707237, 0.014, -0.026000000000000002, 0.99, 192.0, 0.0, 56.0, 127.5, 24.0, 15.0, 120.0, 0.0, 0.0, 0.0, 1.6444987550082777E9, 0.0, 2022-02-11 00:12:35.008
138.0, -6302.566087551843, -8631.304935372465, -8511.410178114198, -13830.432454399164, -2270.8031261924657, -2255.536884729491, -4854.664785225962, -5428.2999549269625, -13124.117329611461, -10250.420600225998, -17903.03205287839, -10254.55567295023, -5459.637100653303, -9549.738115041031, -9520.099701893294, -9078.004548311776, 0.014, -0.026000000000000002, 0.99, 192.0, 0.0, 0.0, 0.0, 0.0, 0.0, 0.0, 0.0, 0.0, 0.0, 1.644498755008284E9, 0.0, 2022-02-11 00:12:35.008
140.0, -6273.978206393505, -8606.762719960538, -8489.617227270273, -13811.433471612154, -2252.340585272382, -2238.7507246435553, -4835.822264650138, -5413.413693119728, -13104.02311134614, -10230.30403021622, -17883.407221246627, -10246.777265879782, -5443.633251623303, -9538.27167013546, -9505.392254041702, -9059.050269013676, 0.014, -0.026000000000000002, 0.99, 192.0, 0.0, 0.0, 0.0, 0.0, 0.0, 0.0, 0.0, 0.0, 0.0, 1.6444987550082908E9, 0.0, 2022-02-11 00:12:35.008
142.0, -6273.777040693408, -8601.286542568987, -8486.48798304653, -13802.1574976632, -2259.8507714093653, -2238.3260414989045, -4844.114761843057, -5412.609030319337, -13097.608160687467, -10221.11746324509, -17869.705601895526, -10231.108693016613, -5439.676992854714, -9530.828539231843, -9496.07157660384, -9045.348649662572, 0.014, -0.026000000000000002, 0.99, 192.0, 0.0, 0.0, 0.0, 0.0, 0.0, 0.0, 0.0, 0.0, 0.0, 1.6444987550082972E9, 0.0, 2022-02-11 00:12:35.008
144.0, -6258.8237236528075, -8587.540219728973, -8473.568674751363, -13788.321767845366, -2246.3950212472705, -2219.5282244119912, -4816.510357440753, -5391.777204486991, -13084.152410525372, -10204.82304153717, -17868.43155246157, -10228.560594148707, -5425.058951980943, -9509.326161065837, -9488.315521277847, -9032.451693111861, 0.014, -0.026000000000000002, 0.99, 192.0, 0.0, 0.0, 0.0, 0.0, 0.0, 0.0, 0.0, 0.0, 0.0, 1.644498755008304E9, 0.0, 2022-02-11 00:12:35.008
146.0, -6232.627479151187, -8557.097143780846, -8459.10709608878, -13772.764953704473, -2229.0724192944076, -2203.4573201486255, -4817.449130707876, -5376.578018257382, -13069.869645818431, -10179.498515069308, -17840.044837003334, -10205.359483404098, -5411.625553563304, -9495.6915969481, -9469.718869891032, -9010.144652145464, 0.01, -0.024, 0.99, 192.0, 0.0, 40.0, 127.5, 32.0, 15.0, 120.0, 0.0, 0.0, 0.0, 1.6444987550083103E9, 0.0, 2022-02-11 00:12:35.008
148.0, -6234.348563474246, -8543.797855829938, -8459.53177923343, -13763.690145455617, -2226.9043000822426, -2192.0802822208743, -4812.419988205432, -5379.215524103109, -13053.262299688138, -10164.947529428904, -17832.020560743877, -10197.670483311473, -5395.554649299937, -9482.057032830362, -9463.616843654734, -9002.25448635274, 0.01, -0.024, 0.99, 192.0, 0.0, 0.0, 0.0, 0.0, 0.0, 0.0, 0.0, 0.0, 0.0, 1.6444987550083172E9, 0.0, 2022-02-11 00:12:35.008
150.0, -6196.618818833687, -8526.20703294361, -8435.81657836635, -13743.037133578913, -2202.6526573482347, -2170.3320348658604, -4781.03813899018, -5348.213654543598, -13035.604421568445, -10146.037953619714, -17810.696996533516, -10173.731764999839, -5384.9822741725775, -9458.408887196647, -9449.848169070265, -8982.227323320785, 0.01, -0.024, 0.99, 192.0, 0.0, 0.0, 0.0, 0.0, 0.0, 0.0, 0.0, 0.0, 0.0, 1.6444987550083237E9, 0.0, 2022-02-11 00:12:35.008
152.0, -6196.440004878045, -8512.997151970525, -8432.217947509045, -13735.57165093084, -2194.851898533332, -2161.5030958060142, -4774.332615653589, -5344.279747519463, -13024.741473763166, -10127.396598743988, -17794.559037036783, -10160.074849137647, -5370.945378654645, -9451.39043943768, -9435.073665985306, -8970.246788292741, 0.01, -0.024, 0.99, 192.0, 0.0, 0.0, 0.0, 0.0, 0.0, 0.0, 0.0, 0.0, 0.0, 1.6444987550083313E9, 0.0, 2022-02-11 00:12:35.008
154.0, -6177.373966857668, -8492.947637194115, -8418.136348502201, -13718.941953056092, -2181.8878867492544, -2147.37679331026, -4762.732060281284, -5331.405142713206, -13004.624903753389, -10113.605572415063, -17792.99441492491, -10159.091372381614, -5346.112590564799, -9426.334133903281, -9423.830738524288, -8956.500465452727, 0.01, -0.027, 0.99, 192.0, 0.0, 40.0, 127.5, 8.0, 15.0, 120.0, 0.0, 0.0, 0.0, 1.6444987550083377E9, 0.0, 2022-02-11 00:12:35.008
156.0, -6159.6266817601545, -8485.973892924058, -8411.006142020959, -13707.967246528537, -2173.7518517675226, -2140.8724356737657, -4757.926435223393, -5318.731703607047, -12988.419889023291, -10086.738775579784, -17764.13831283311, -10123.999133586782, -5333.908538092201, -9423.741331546466, -9407.29044762736, -8940.250747233718, 0.01, -0.027, 0.99, 192.0, 0.0, 0.0, 0.0, 0.0, 0.0, 0.0, 0.0, 0.0, 0.0, 1.6444987550083444E9, 0.0, 2022-02-11 00:12:35.008
158.0, -6156.229216602947, -8470.752354949995, -8412.682522855106, -13692.924522510115, -2179.4962500925362, -2135.9774036380536, -4752.025574687192, -5315.8930320612235, -12981.04381335304, -10084.213028456334, -17765.300603544787, -10131.017581345748, -5322.017410041977, -9419.96388673352, -9403.468299325503, -8931.600622129516, 0.01, -0.027, 0.99, 192.0, 0.0, 0.0, 0.0, 0.0, 0.0, 0.0, 0.0, 0.0, 0.0, 1.6444987550083508E9, 0.0, 2022-02-11 00:12:35.008
160.0, -6120.667591174554, -8435.280136499421, -8387.89443825417, -13673.724374023006, -2152.2941770904276, -2104.7967201229003, -4725.918737163393, -5286.344025891308, -12958.781475875554, -10048.316126861111, -17741.83127186671, -10110.364569469044, -5306.57235462336, -9400.7190347575, -9392.851220709232, -8910.746444552713, 0.01, -0.027, 0.99, 192.0, 0.0, 0.0, 0.0, 0.0, 0.0, 0.0, 0.0, 0.0, 0.0, 1.6444987550083573E9, 0.0, 2022-02-11 00:12:35.008
162.0, -6109.223498013437, -8420.61739213674, -8380.138382928179, -13663.241405873467, -2143.644051986224, -2096.7277403745343, -4721.202519083324, -5284.041796212411, -12943.045847779018, -10034.569804021097, -17720.70887335645, -10097.311150707144, -5291.551982349394, -9372.935816399553, -9374.031051877862, -8889.489935575717, 0.01, -0.027, 0.99, 192.0, 0.0, 0.0, 0.0, 0.0, 0.0, 0.0, 0.0, 0.0, 0.0, 1.6444987550083644E9, 0.0, 2022-02-11 00:12:35.008
164.0, -6091.7667855938425, -8398.310351170343, -8368.738993255973, -13646.410542298621, -2120.934679619632, -2087.1388420032076, -4694.223963525768, -5272.441240840107, -12920.649399834801, -10023.528042260175, -17714.204515719954, -10081.307301677145, -5268.127354160232, -9359.569473215279, -9362.18462731655, -8877.844676714501, 0.011, -0.028499999999999998, 0.993, 192.0, 0.0, 48.0, 127.5, 8.0, 15.5, 16.0, 0.0, 0.0, 0.0, 1.6444987550083728E9, 0.0, 2022-02-11 00:12:35.008
166.0, -6081.484983144401, -8389.906095255148, -8358.054859406337, -13638.520376505898, -2110.7199324035564, -2070.9561790175653, -4686.1773355218575, -5246.312051571853, -12916.313161410471, -10006.250143796224, -17694.55733234374, -10065.99635672526, -5265.489848314506, -9343.140941040629, -9347.655993420602, -8855.112952603455, 0.011, -0.028499999999999998, 0.993, 192.0, 0.0, 0.0, 0.0, 0.0, 0.0, 0.0, 0.0, 0.0, 0.0, 1.6444987550083795E9, 0.0, 2022-02-11 00:12:35.008
168.0, -6076.053509241761, -8375.332757870288, -8353.740972726462, -13621.153071064124, -2107.8812608577327, -2067.223437693529, -4685.9985215662155, -5250.380069062719, -12901.873934492343, -9993.911980856894, -17691.964529986923, -10054.887539730971, -5248.301356828375, -9329.305211222794, -9341.643374162124, -8843.825321653525, 0.011, -0.028499999999999998, 0.993, 192.0, 0.0, 0.0, 0.0, 0.0, 0.0, 0.0, 0.0, 0.0, 0.0, 1.644498755008386E9, 0.0, 2022-02-11 00:12:35.008
170.0, -6045.208101893438, -8355.730277982984, -8334.250251561434, -13605.752719134418, -2089.0834437708195, -2036.8474169787667, -4678.622445895964, -5211.420978477118, -12880.259797604062, -9965.771134587661, -17669.769247742803, -10037.855510456027, -5229.74940893047, -9316.341199438715, -9328.120568766662, -8822.457053954251, 0.011, -0.028499999999999998, 0.993, 192.0, 0.0, 0.0, 0.0, 0.0, 0.0, 0.0, 0.0, 0.0, 0.0, 1.6444987550083923E9, 0.0, 2022-02-11 00:12:35.008
172.0, -6029.651287752544, -8332.59622247174, -8325.443664246042, -13595.649730640618, -2093.6208478952467, -2026.2973935958619, -4697.68848391634, -5215.220775034521, -12865.731163708111, -9949.432009390834, -17647.77513119878, -10022.879841670972, -5214.46081572304, -9280.533704821313, -9320.923307052053, -8810.834146837491, 0.011, -0.028499999999999998, 0.993, 192.0, 0.0, 0.0, 0.0, 0.0, 0.0, 0.0, 0.0, 0.0, 0.0, 1.644498755008399E9, 0.0, 2022-02-11 00:12:35.008
174.0, -6017.022552135295, -8323.811986900806, -8311.250306516922, -13579.802343821806, -2071.671434840135, -2028.4878645524818, -4618.4962533111875, -5201.496803938961, -12845.34637276487, -9932.958773727272, -17643.371837541086, -10014.967324133793, -5195.93121956959, -9292.98362648292, -9311.021484258352, -8799.658274609837, 0.0095, -0.028249999999999997, 0.9924999999999999, 192.0, 0.0, 32.0, 127.5, 16.0, 15.5, 0.0, 0.0, 0.0, 0.0, 1.6444987550084057E9, 0.0, 2022-02-11 00:12:35.008
176.0, -5995.52017396929, -8305.2600390029, -8297.839259843739, -13568.246491938413, -2050.996071218976, -2007.1195968532083, -4611.3883985744005, -5183.615408374716, -12832.091788302874, -9922.945192211293, -17616.885020361548, -9999.49991697072, -5183.905981052635, -9287.283931646816, -9285.02640545683, -8781.687472067772, 0.0095, -0.028249999999999997, 0.9924999999999999, 192.0, 0.0, 0.0, 0.0, 0.0, 0.0, 0.0, 0.0, 0.0, 0.0, 1.644498755008412E9, 0.0, 2022-02-11 00:12:35.008
178.0, -5992.681502423466, -8297.571038910275, -8296.811079598794, -13554.410762120577, -2050.526684585415, -1992.747425168446, -4609.108520639958, -5169.109126223222, -12822.43583469818, -9918.452491575777, -17616.885020361548, -9991.654454666908, -5170.293768679353, -9262.83112321271, -9272.129448906118, -8766.35417537143, 0.0095, -0.028249999999999997, 0.9924999999999999, 192.0, 0.0, 0.0, 0.0, 0.0, 0.0, 0.0, 0.0, 0.0, 0.0, 1.6444987550084188E9, 0.0, 2022-02-11 00:12:35.008
180.0, -5966.41820268848, -8272.559436864787, -8275.040480499325, -13538.786892746317, -2023.2352046054848, -1966.6405876446472, -4595.183383844303, -5153.373498126686, -12803.593314122358, -9893.709110463753, -17597.1037265186, -9966.888721810428, -5151.451248103529, -9243.318050303227, -9258.7854574663, -8747.355192584419, 0.0095, -0.028249999999999997, 0.9924999999999999, 192.0, 0.0, 0.0, 0.0, 0.0, 0.0, 0.0, 0.0, 0.0, 0.0, 1.6444987550084257E9, 0.0, 2022-02-11 00:12:35.008
182.0, -5965.412374187991, -8260.109515203181, -8277.387413667133, -13529.376808330633, -2026.1185796402194, -1958.415145685094, -4608.214450861747, -5140.275375875875, -12795.881962285277, -9883.270845803125, -17582.217464711364, -9956.87514029445, -5139.604823542217, -9232.186881564485, -9244.92737590401, -8733.363000555397, 0.0095, -0.028249999999999997, 0.9924999999999999, 192.0, 0.0, 0.0, 0.0, 0.0, 0.0, 0.0, 0.0, 0.0, 0.0, 1.644498755008433E9, 0.0, 2022-02-11 00:12:35.008
184.0, -5948.626214102056, -8238.920061459548, -8268.312605418278, -13509.751976698873, -2004.8173671743116, -1933.2694331728737, -4576.1173458239255, -5126.752570480415, -12781.91212200071, -9860.136790291881, -17581.368098422063, -9963.848884564506, -5123.600974512216, -9214.707817400435, -9242.401628780559, -8720.15311958231, 0.00775, -0.029124999999999998, 0.99325, 192.0, 0.0, 24.0, 127.5, 8.0, 15.5, 8.0, 0.0, 0.0, 0.0, 1.6444987550084395E9, 0.0, 2022-02-11 00:12:35.008
186.0, -5926.02860045774, -8224.257317096868, -8251.705259287985, -13492.295264279279, -1988.4335384885717, -1915.0527614417986, -4554.637319402375, -5107.619477226673, -12767.204674149118, -9845.250528484647, -17554.38954286451, -9927.974334713737, -5109.832299927748, -9190.545581644248, -9220.027532580798, -8696.035587315035, 0.00775, -0.029124999999999998, 0.99325, 192.0, 0.0, 0.0, 0.0, 0.0, 0.0, 0.0, 0.0, 0.0, 0.0, 1.6444987550084465E9, 0.0, 2022-02-11 00:12:35.008
188.0, -5919.121911421051, -8203.201973819969, -8250.2970993873, -13480.76176414034, -1979.4704889619934, -1906.492043315416, -4554.078525790993, -5103.998494624912, -12756.408781577204, -9837.002734780639, -17550.76856026275, -9918.340732853501, -5091.392110752119, -9173.222979691385, -9210.215116764917, -8683.67507263125, 0.00775, -0.029124999999999998, 0.99325, 192.0, 0.0, 0.0, 0.0, 0.0, 0.0, 0.0, 0.0, 0.0, 0.0, 1.644498755008453E9, 0.0, 2022-02-11 00:12:35.008
190.0, -5888.544725006191, -8180.850229364662, -8223.609116507663, -13468.513008178832, -1951.8660845596892, -1880.720481958447, -4538.119380249904, -5078.025767567846, -12727.530327740948, -9808.772481533586, -17522.94063841589, -9901.174593111826, -5070.537933175317, -9138.577775785658, -9195.194744490951, -8664.184351466221, 0.00775, -0.029124999999999998, 0.99325, 192.0, 0.0, 0.0, 0.0, 0.0, 0.0, 0.0, 0.0, 0.0, 0.0, 1.6444987550084596E9, 0.0, 2022-02-11 00:12:35.008
192.0, -5887.896524416987, -8172.513028682832, -8220.993962406394, -13455.481941161388, -1948.2003984690189, -1872.8079644212683, -4532.173816224792, -5072.013148309368, -12716.533269468937, -9801.955199474716, -17502.913475383935, -9891.496287762677, -5057.506866157873, -9144.679802021958, -9181.29195943975, -8649.968641992646, 0.00775, -0.029124999999999998, 0.99325, 192.0, 0.0, 0.0, 0.0, 0.0, 0.0, 0.0, 0.0, 0.0, 0.0, 1.6444987550084662E9, 0.0, 2022-02-11 00:12:35.008
194.0, -5868.852838141065, -8152.3294034396895, -8206.890011655094, -13432.951382750438, -1927.681497059047, -1852.1102490556539, -4509.1962229247365, -5051.941281788502, -12699.61299891627, -9786.13016440036, -17503.874600395513, -9881.57211322452, -5039.401953149075, -9130.70996173739, -9174.228808191874, -8634.836510996403, 0.006875, -0.0275625, 0.993625, 192.0, 0.0, 24.0, 127.5, 24.0, 15.5, 8.0, 0.0, 0.0, 0.0, 1.6444987550084732E9, 0.0, 2022-02-11 00:12:35.008
196.0, -5852.290195499682, -8134.939746253461, -8191.444956236477, -13420.836737255662, -1900.5017758013937, -1836.754600614858, -4478.082594642949, -5035.423342636031, -12688.548885410892, -9773.814353205486, -17477.343079727063, -9856.292290245568, -5024.649801808572, -9104.75958642478, -9150.401848602516, -8616.664542754239, 0.006875, -0.0275625, 0.993625, 192.0, 0.0, 0.0, 0.0, 0.0, 0.0, 0.0, 0.0, 0.0, 0.0, 1.644498755008482E9, 0.0, 2022-02-11 00:12:35.008
198.0, -5845.361154718537, -8114.957286710416, -8190.52853471381, -13412.164260407002, -1909.040142183321, -1833.3794872021065, -4496.813356496496, -5042.620604350639, -12667.135914222708, -9757.899911153307, -17475.778457615193, -9844.691734873264, -5006.500185310863, -9093.784879897223, -9138.913051952488, -8606.762719960538, 0.006875, -0.0275625, 0.993625, 192.0, 0.0, 0.0, 0.0, 0.0, 0.0, 0.0, 0.0, 0.0, 0.0, 1.6444987550084884E9, 0.0, 2022-02-11 00:12:35.008
200.0, -5815.856852037532, -8095.958303923405, -8168.981453058894, -13396.160411377003, -1885.3472930606954, -1807.1608909560314, -4472.852286440407, -4996.911286939537, -12640.82791099881, -9735.16818704226, -17455.617184116505, -9836.935679547272, -4991.658626992539, -9075.948187821888, -9127.491310535826, -8589.395414518764, 0.006875, -0.0275625, 0.993625, 192.0, 0.0, 0.0, 0.0, 0.0, 0.0, 0.0, 0.0, 0.0, 0.0, 1.644498755008495E9, 0.0, 2022-02-11 00:12:35.008
202.0, -5806.871450766498, -8083.955417150905, -8166.5898164021755, -13387.040899639238, -1880.0499296247876, -1803.3610943986291, -4459.865922911874, -4998.7441299848715, -12624.377027079705, -9723.344114225401, -17428.750387281227, -9815.992094992649, -4976.302978551743, -9060.547835892181, -9110.816909172167, -8568.78710613097, 0.006875, -0.0275625, 0.993625, 192.0, 0.0, 0.0, 0.0, 0.0, 0.0, 0.0, 0.0, 0.0, 0.0, 1.6444987550085015E9, 0.0, 2022-02-11 00:12:35.008
204.0, -5795.67322679439, -8070.0302803552495, -8156.486827908377, -13369.897111642018, -1866.460068995961, -1787.916038980012, -4440.1069808133825, -4979.186353586478, -12610.809518195334, -9700.858259303363, -17429.577401826074, -9810.068882711994, -4958.890969621059, -9055.853969556567, -9103.127909079541, -8558.617062403806, 0.0064375000000000005, -0.02578125, 0.9908125, 192.0, 0.0, 24.0, 127.5, 32.0, 15.0, 112.0, 0.0, 0.0, 0.0, 1.6444987550085084E9, 0.0, 2022-02-11 00:12:35.008
206.0, -5781.502220809725, -8055.456942970389, -8143.545167868754, -13355.435532979434, -1855.395955490584, -1765.8548672026238, -4439.637594179821, -4964.143629568056, -12603.746366947456, -9696.030282501017, -17407.471526559773, -9789.12529815737, -4950.754934639327, -9039.201919937363, -9085.335920493117, -8539.618079616796, 0.0064375000000000005, -0.02578125, 0.9908125, 192.0, 0.0, 0.0, 0.0, 0.0, 0.0, 0.0, 0.0, 0.0, 0.0, 1.644498755008515E9, 0.0, 2022-02-11 00:12:35.008
208.0, -5778.149459141428, -8037.8661200840625, -8143.545167868754, -13343.387942718024, -1849.428039721017, -1752.6673379739927, -4437.447123223201, -4957.862789376115, -12598.270189555908, -9694.689177833698, -17410.1090324055, -9781.70451899821, -4939.243786244844, -9020.69467552837, -9079.03272855672, -8529.358628911808, 0.0064375000000000005, -0.02578125, 0.9908125, 192.0, 0.0, 0.0, 0.0, 0.0, 0.0, 0.0, 0.0, 0.0, 0.0, 1.6444987550085216E9, 0.0, 2022-02-11 00:12:35.008
210.0, -5747.192293070829, -8020.58822162011, -8122.914507736506, -13331.206241989881, -1816.2133474604307, -1724.8617678715907, -4411.92143105524, -4938.841454844649, -12580.38879399166, -9669.632872299298, -17391.62413974096, -9770.349832814913, -4920.222451713378, -8988.441108279361, -9063.23004522682, -8511.432529858654, 0.0064375000000000005, -0.02578125, 0.9908125, 192.0, 0.0, 0.0, 0.0, 0.0, 0.0, 0.0, 0.0, 0.0, 0.0, 1.644498755008528E9, 0.0, 2022-02-11 00:12:35.008
212.0, -5739.436237744837, -8009.322942414635, -8115.426673343978, -13321.662047107464, -1806.9373735114782, -1715.5857939226382, -4403.383064673312, -4928.112617506101, -12566.083677540264, -9649.896281945263, -17365.405543494886, -9749.763876171575, -4901.312875904188, -8990.095137369053, -9043.985193250799, -8499.161422152689, 0.0064375000000000005, -0.02578125, 0.9908125, 192.0, 0.0, 0.0, 0.0, 0.0, 0.0, 0.0, 0.0, 0.0, 0.0, 1.644498755008535E9, 0.0, 2022-02-11 00:12:35.008
214.0, -5721.644249158412, -7985.33952061409, -8100.2051353699135, -13301.836049775608, -1794.2862861497745, -1701.593601893616, -4401.617276861343, -4920.870652302582, -12545.76594183039, -9643.727200475598, -17365.2490812837, -9744.868844135863, -4883.610294295585, -8974.068936594598, -9040.364210649039, -8490.556000537395, 0.009218750000000001, -0.025890625, 0.9884062499999999, 192.0, 0.0, 48.0, 127.5, 24.0, 15.0, 104.0, 0.0, 0.0, 0.0, 1.6444987550085416E9, 0.0, 2022-02-11 00:12:35.008
216.0, -5706.445062928804, -7968.754526228253, -8089.073966631171, -13287.329767624113, -1775.1978963849422, -1686.3273604306414, -4379.891381250784, -4893.78033802275, -12521.514299096383, -9626.896336900752, -17334.62719137993, -9713.978733298629, -4865.326567331143, -8951.24780550573, -9021.78991100668, -8470.484134016531, 0.009218750000000001, -0.025890625, 0.9884062499999999, 192.0, 0.0, 0.0, 0.0, 0.0, 0.0, 0.0, 0.0, 0.0, 0.0, 1.644498755008548E9, 0.0, 2022-02-11 00:12:35.008
218.0, -5709.060217030074, -7957.377488300502, -8089.833925942651, -13279.529008809212, -1774.102660906632, -1677.9231045154459, -4356.1091251503385, -4884.951398962903, -12524.688246809035, -9611.00424659303, -17334.940115802303, -9710.134233252315, -4853.904825914482, -8942.821197846079, -9011.463405068327, -8458.928282133136, 0.009218750000000001, -0.025890625, 0.9884062499999999, 192.0, 0.0, 0.0, 0.0, 0.0, 0.0, 0.0, 0.0, 0.0, 0.0, 1.6444987550085547E9, 0.0, 2022-02-11 00:12:35.008
220.0, -5669.721146788735, -7919.692447148854, -8064.554102963699, -13256.372601553512, -1744.3301372921633, -1647.27886286722, -4349.962395425128, -4870.959206933881, -12513.847650748212, -9573.788592074943, -17319.89739178388, -9702.355826181869, -4837.09631408409, -8924.246898203719, -8999.415814806916, -8439.728133646027, 0.009218750000000001, -0.025890625, 0.9884062499999999, 192.0, 0.0, 0.0, 0.0, 0.0, 0.0, 0.0, 0.0, 0.0, 0.0, 1.6444987550085611E9, 0.0, 2022-02-11 00:12:35.008
222.0, -5668.335338632505, -7915.736188380264, -8060.351975006101, -13247.677772960398, -1739.72567793437, -1643.9037494544684, -4332.170406838704, -4871.272131356255, -12497.977912184944, -9574.32503394187, -17294.058775193545, -9680.96520673814, -4818.432607463909, -8904.264438660675, -8983.30020705464, -8424.104264271768, 0.009218750000000001, -0.025890625, 0.9884062499999999, 192.0, 0.0, 0.0, 0.0, 0.0, 0.0, 0.0, 0.0, 0.0, 0.0, 1.644498755008568E9, 0.0, 2022-02-11 00:12:35.008
224.0, -5649.693983756779, -7892.043339257639, -8048.304384744691, -13225.95187734984, -1721.7772271367583, -1619.7415136982816, -4323.877909645786, -4838.035087351213, -12483.382223055629, -9559.7069930681, -17296.740984528184, -9671.376308366813, -4802.831089834105, -8890.026377442644, -8974.605378461525, -8410.80497632086, 0.012, -0.032, 0.986, 192.0, 0.0, 48.0, 127.5, 0.0, 15.0, 104.0, 0.0, 0.0, 0.0, 1.6444987550085747E9, 0.0, 2022-02-11 00:12:35.008
226.0, -5630.382076547394, -7873.424336126368, -8033.619288637554, -13216.072406300595, -1706.8462618406131, -1603.9164786239241, -4319.586374710367, -4829.653183180473, -12463.869150146145, -9537.131731168238, -17262.855739933937, -9639.703886473642, -4784.457955891843, -8868.211074854264, -8955.807561374613, -8390.062557466335, 0.012, -0.032, 0.986, 192.0, 0.0, 0.0, 0.0, 0.0, 0.0, 0.0, 0.0, 0.0, 0.0, 1.6444987550085816E9, 0.0, 2022-02-11 00:12:35.008
228.0, -5625.0623613670305, -7863.209588910293, -8036.189739249914, -13209.389234708457, -1698.5090611587837, -1598.5520599546505, -4299.916839589696, -4821.785369132205, -12454.146141308087, -9525.464120562568, -17264.241548090165, -9638.273374828503, -4771.672758063407, -8863.405449796373, -8948.655003148915, -8383.021757962913, 0.012, -0.032, 0.986, 192.0, 0.0, 0.0, 0.0, 0.0, 0.0, 0.0, 0.0, 0.0, 0.0, 1.64449875500859E9, 0.0, 2022-02-11 00:12:35.008
230.0, -5597.279143009084, -7842.623632266955, -8015.626134351031, -13194.65943511241, -1677.2302004373314, -1571.9087805639244, -4285.27644697147, -4800.886488066493, -12434.051923042765, -9502.97826564053, -17246.69542869275, -9618.872060641297, -4758.865208490516, -8826.949754589767, -8935.780398342658, -8367.688461266573, 0.012, -0.032, 0.986, 192.0, 0.0, 0.0, 0.0, 0.0, 0.0, 0.0, 0.0, 0.0, 0.0, 1.6444987550085964E9, 0.0, 2022-02-11 00:12:35.008
232.0, -5595.334541241472, -7828.78790244912, -8012.809814549663, -13184.332929174057, -1678.727767315837, -1563.3257106930866, -4289.791499351442, -4787.229572204301, -12425.535908405294, -9493.389367269203, -17226.444748216243, -9604.097557556339, -4746.392935084455, -8827.977934834711, -8923.509290636694, -8352.55633027033, 0.012, -0.032, 0.986, 192.0, 0.0, 0.0, 0.0, 0.0, 0.0, 0.0, 0.0, 0.0, 0.0, 1.644498755008603E9, 0.0, 2022-02-11 00:12:35.008
234.0, -5583.48811668016, -7807.576096961034, -8004.96435224585, -13172.374745890469, -1670.5693805896499, -1545.4219633843857, -4289.567981906889, -4787.2519239487565, -12416.394044923074, -9472.557541436856, -17230.579820940475, -9609.149051803239, -4735.038248901159, -8810.253001481653, -8922.14583422492, -8340.531091753375, 0.012, -0.028, 0.986, 192.0, 0.0, 48.0, 127.5, 16.0, 15.0, 104.0, 0.0, 0.0, 0.0, 1.6444987550086105E9, 0.0, 2022-02-11 00:12:35.008
236.0, -5562.164552469797, -7782.631550148911, -7987.351177615068, -13152.481693325246, -1650.9669007023456, -1524.5677858075842, -4275.553438133412, -4765.682490549385, -12407.989789007877, -9451.882177815698, -17203.444803171733, -9581.879923567763, -4724.465873773798, -8794.047986751555, -8910.634685830437, -8324.08020783427, 0.012, -0.028, 0.986, 192.0, 0.0, 0.0, 0.0, 0.0, 0.0, 0.0, 0.0, 0.0, 0.0, 1.6444987550086172E9, 0.0, 2022-02-11 00:12:35.008
238.0, -5564.287968193051, -7783.6373786494, -7989.876924738518, -13144.971507188262, -1646.5412553001947, -1517.5716897930731, -4267.909141529696, -4759.13342942398, -12391.360091133129, -9447.188311480084, -17198.16979148028, -9570.61464436229, -4706.070388087081, -8777.954730743735, -8898.229467657742, -8311.295010005833, 0.012, -0.028, 0.986, 192.0, 0.0, 0.0, 0.0, 0.0, 0.0, 0.0, 0.0, 0.0, 0.0, 1.644498755008624E9, 0.0, 2022-02-11 00:12:35.008
240.0, -5537.756447524602, -7757.731706825699, -7966.8993314384625, -13132.722751226755, -1621.7755224437146, -1490.414320279875, -4234.046248679906, -4740.872054203994, -12379.871294483102, -9434.134892718184, -17188.603244853406, -9557.471818622567, -4690.602980924008, -8762.889654980858, -8883.253798872685, -8296.364044709688, 0.012, -0.028, 0.986, 192.0, 0.0, 0.0, 0.0, 0.0, 0.0, 0.0, 0.0, 0.0, 0.0, 1.6444987554873204E9, 0.0, 2022-02-11 00:12:35.487
242.0, -5528.636935786836, -7742.152540940349, -7961.870188936018, -13122.30683831058, -1614.1535775844548, -1487.0839103560343, -4250.094801198817, -4736.491112290753, -12367.644890266049, -9416.789939020866, -17162.518759074064, -9539.769237013965, -4671.82751558155, -8742.817788459992, -8865.774734708635, -8281.63424511364, 0.012, -0.028, 0.986, 192.0, 0.0, 0.0, 0.0, 0.0, 0.0, 0.0, 0.0, 0.0, 0.0, 1.644498755487525E9, 0.0, 2022-02-11 00:12:35.487
244.0, -5513.8847844463335, -7727.445093088758, -7956.326956311102, -13105.744195669198, -1598.4850047212847, -1470.8118403925707, -4224.83732996432, -4714.429940513366, -12350.903433669024, -9400.137889401662, -17161.4011718513, -9540.953879470097, -4655.264872940168, -8733.497111022129, -8861.75142070668, -8271.486553130931, 0.012, -0.028, 0.986, 192.0, 0.0, 48.0, 127.5, 16.0, 15.0, 104.0, 0.0, 0.0, 0.0, 1.6444987554875326E9, 0.0, 2022-02-11 00:12:35.487
246.0, -5491.3989295242945, -7702.299380576537, -7940.323107281102, -13090.701471650777, -1582.794080113659, -1448.482447681719, -4220.143463628705, -4704.304600275112, -12341.806273675713, -9374.165162344594, -17134.53437501602, -9513.282419834426, -4642.814951278562, -8719.482567248651, -8845.412295509852, -8252.733439532929, 0.012, -0.028, 0.986, 192.0, 0.0, 0.0, 0.0, 0.0, 0.0, 0.0, 0.0, 0.0, 0.0, 1.6444987554875395E9, 0.0, 2022-02-11 00:12:35.487
248.0, -5492.628275469337, -7690.8999909043305, -7941.753618926242, -13082.140753524394, -1580.8941818349579, -1440.1675987443446, -4215.047265892896, -4705.198670053323, -12332.44089274894, -9358.608348203701, -17130.82398543644, -9504.632294730221, -4629.873291238939, -8694.158040780789, -8838.974993106722, -8244.485645828921, 0.012, -0.028, 0.986, 192.0, 0.0, 0.0, 0.0, 0.0, 0.0, 0.0, 0.0, 0.0, 0.0, 1.6444987554875493E9, 0.0, 2022-02-11 00:12:35.487
250.0, -5464.420373966739, -7659.9651765781855, -7924.498072206745, -13066.315718450036, -1554.8096960556145, -1414.574851343018, -4186.861716134753, -4683.070443042569, -12312.927819839457, -9344.414990474581, -17117.547049229986, -9497.16681208215, -4617.423369577333, -8674.175581237743, -8824.89339409988, -8229.62173576614, 0.012, -0.028, 0.986, 192.0, 0.0, 0.0, 0.0, 0.0, 0.0, 0.0, 0.0, 0.0, 0.0, 1.6444987554875565E9, 0.0, 2022-02-11 00:12:35.487
252.0, -5460.441763453694, -7659.9651765781855, -7918.32899073708, -13063.007660270652, -1549.087649475056, -1405.0083047161465, -4189.856849891764, -4682.556352920098, -12307.42929070345, -9330.311039723283, -17096.3352437419, -9472.110506547751, -4606.247497349679, -8652.159112949266, -8813.65046663886, -8219.384636805611, 0.012, -0.028, 0.986, 192.0, 0.0, 0.0, 0.0, 0.0, 0.0, 0.0, 0.0, 0.0, 0.0, 1.6444987554875636E9, 0.0, 2022-02-11 00:12:35.487
254.0, -5445.957833046656, -7643.871920570365, -7905.94612430884, -13040.879433259897, -1532.8155795115924, -1385.964618440225, -4190.370940014236, -4657.4106404078775, -12295.895790564513, -9305.321789422249, -17097.989272831594, -9465.650852400167, -4588.299046552068, -8654.215473439155, -8804.9779897902, -8205.19127907649, 0.014, -0.03, 0.986, 192.0, 0.0, 56.0, 127.5, 8.0, 15.0, 104.0, 0.0, 0.0, 0.0, 1.6444987554875715E9, 0.0, 2022-02-11 00:12:35.487
0.0, -5436.503045142061, -7640.98854553563, -7889.986978767751, -13029.01065695413, -1504.3841605644418, -1374.7216909792055, -4140.191273712072, -4640.378611132934, -12279.802534556691, -9301.521992864848, -17069.93783354018, -9444.260232956438, -4568.629511431398, -8637.071685441933, -8783.565018602016, -8183.040700321281, 0.014, -0.03, 0.986, 192.0, 0.0, 0.0, 0.0, 0.0, 0.0, 0.0, 0.0, 0.0, 0.0, 1.6444987554875798E9, 0.0, 2022-02-11 00:12:35.487
2.0, -5439.051144009965, -7631.712571586678, -7895.351397437024, -13024.62971504089, -1508.3851228219419, -1373.3135310785212, -4150.853055817253, -4634.276584896635, -12276.114496721566, -9304.070091732752, -17076.643356876775, -9448.171788236117, -4561.700470650252, -8630.768493505537, -8772.411498118818, -8178.324482241212, 0.014, -0.03, 0.986, 192.0, 0.0, 0.0, 0.0, 0.0, 0.0, 0.0, 0.0, 0.0, 0.0, 1.6444987554875877E9, 0.0, 2022-02-11 00:12:35.487
4.0, -5414.777149531502, -7609.807862020477, -7883.03558624215, -13009.139956133362, -1486.5921719780174, -1343.6751179307842, -4140.1018667342505, -4612.640096263897, -12263.306947148676, -9279.282007131816, -17064.99809801556, -9428.412846137626, -4548.669403632808, -8610.093129884379, -8770.802172518037, -8163.840551834172, 0.014, -0.03, 0.986, 192.0, 0.0, 0.0, 0.0, 0.0, 0.0, 0.0, 0.0, 0.0, 0.0, 1.6444987554876037E9, 0.0, 2022-02-11 00:12:35.487
6.0, -5406.484652338583, -7599.548411315491, -7876.665339072388, -13001.786232207565, -1477.3609015179757, -1336.7907806385494, -4129.86476777372, -4609.309686340057, -12257.607252312571, -9266.876788959122, -17042.60165007134, -9417.974581476998, -4536.264185460113, -8601.912391413736, -8753.121942653888, -8152.217644717413, 0.014, -0.03, 0.986, 192.0, 0.0, 0.0, 0.0, 0.0, 0.0, 0.0, 0.0, 0.0, 0.0, 1.6444987554876103E9, 0.0, 2022-02-11 00:12:35.487
8.0, -5385.250495106041, -7567.585416744401, -7860.281510386648, -12982.675490698277, -1463.413412977864, -1315.936603061748, -4127.048447972351, -4595.876287922417, -12242.27395561623, -9243.273346814316, -17041.282897148478, -9402.328360358282, -4519.433321885267, -8587.294350539965, -8746.30466059502, -8142.002897501337, 0.01, -0.028, 0.99, 192.0, 0.0, 40.0, 127.5, 16.0, 15.0, 120.0, 0.0, 0.0, 0.0, 1.6444987554876175E9, 0.0, 2022-02-11 00:12:35.487
10.0, -5371.213599588108, -7540.204529786651, -7845.439952068324, -12976.841685395442, -1444.4367819353083, -1297.16113771929, -4110.306991375326, -4583.024034860616, -12227.208879853355, -9220.854547125644, -17013.18675436816, -9381.049499636829, -4500.657856542809, -8555.510169924519, -8727.43978827474, -8123.786225770263, 0.01, -0.028, 0.99, 192.0, 0.0, 0.0, 0.0, 0.0, 0.0, 0.0, 0.0, 0.0, 0.0, 1.6444987554876246E9, 0.0, 2022-02-11 00:12:35.487
12.0, -5375.371024056795, -7534.661297161734, -7850.2008736373045, -12971.298452770527, -1447.1413430144005, -1294.9483150182148, -4095.197212123539, -4582.129965082403, -12220.928039661412, -9211.377407476593, -17015.377225324777, -9376.37798504567, -4489.884315715351, -8556.046611791446, -8719.77313992657, -8118.51121407881, 0.01, -0.028, 0.99, 192.0, 0.0, 0.0, 0.0, 0.0, 0.0, 0.0, 0.0, 0.0, 0.0, 1.6444987554876316E9, 0.0, 2022-02-11 00:12:35.487
14.0, -5348.414820243695, -7542.819683887921, -7831.939498417319, -12956.188673518738, -1423.0685142360348, -1266.6733582822512, -4088.804613209321, -4570.372947498911, -12205.281818542699, -9204.828346351189, -16999.50748676151, -9366.252644807417, -4479.803678966007, -8526.698771321628, -8710.027779344056, -8104.094338905137, 0.01, -0.028, 0.99, 192.0, 0.0, 0.0, 0.0, 0.0, 0.0, 0.0, 0.0, 0.0, 0.0, 1.644498755487639E9, 0.0, 2022-02-11 00:12:35.487
16.0, -5347.274881276475, -7529.274526748005, -7829.749027460698, -12945.795112347021, -1420.9227467683252, -1268.8191257499607, -4075.706490958511, -4548.624700143898, -12199.448013239862, -9189.070366510197, -16981.335518519347, -9341.576318928757, -4467.152591604304, -8524.642410831739, -8697.846078615914, -8091.689120732442, 0.01, -0.028, 0.99, 192.0, 0.0, 0.0, 0.0, 0.0, 0.0, 0.0, 0.0, 0.0, 0.0, 1.6444987554876456E9, 0.0, 2022-02-11 00:12:35.487
18.0, -5325.43722694364, -7497.512697877014, -7821.233012823226, -12929.433635405736, -1404.6059733159511, -1257.7103087556732, -4071.0573281118072, -4542.410915185323, -12188.920341601413, -9166.740973799346, -16984.88944588774, -9337.307135737794, -4450.701707685198, -8518.49568110653, -8690.715872134671, -8085.69885321842, 0.006, -0.026000000000000002, 0.99, 192.0, 0.0, 24.0, 127.5, 24.0, 15.0, 120.0, 0.0, 0.0, 0.0, 1.6444987554876523E9, 0.0, 2022-02-11 00:12:35.487
20.0, -5314.551927393905, -7489.086090217364, -7810.526527229134, -12919.107129467384, -1389.675008019806, -1232.072857865436, -4048.9514528455084, -4517.0640369730045, -12183.242998509766, -9159.610767318103, -16962.336535732335, -9320.923307052053, -4439.615242435365, -8495.58514303984, -8671.828648069937, -8065.112896575081, 0.006, -0.026000000000000002, 0.99, 192.0, 0.0, 0.0, 0.0, 0.0, 0.0, 0.0, 0.0, 0.0, 0.0, 1.6444987554876597E9, 0.0, 2022-02-11 00:12:35.487
22.0, -5313.032008770944, -7482.581732580868, -7809.185422561815, -12914.100338709395, -1386.5010603071523, -1221.1875583157014, -4049.353784245704, -4521.914365519806, -12176.895103084458, -9149.66424103549, -16960.83896885383, -9315.804757571788, -4429.042867308005, -8487.24794235801, -8666.598339867394, -8057.960338349383, 0.006, -0.026000000000000002, 0.99, 192.0, 0.0, 0.0, 0.0, 0.0, 0.0, 0.0, 0.0, 0.0, 0.0, 1.6444987554876664E9, 0.0, 2022-02-11 00:12:35.487
24.0, -5271.725985017537, -7442.035668138942, -7786.453698450769, -12894.676672777734, -1359.7460221941499, -1189.0457497889697, -4045.129304543651, -4507.98922872415, -12144.239204435255, -9117.18715634193, -16939.6495151102, -9296.6940160625, -4403.96421002915, -8470.01474738297, -8654.081362972423, -8041.576509663643, 0.006, -0.026000000000000002, 0.99, 192.0, 0.0, 0.0, 0.0, 0.0, 0.0, 0.0, 0.0, 0.0, 0.0, 1.6444987554876735E9, 0.0, 2022-02-11 00:12:35.487
26.0, -5293.9436190061115, -7450.3505170763165, -7794.075643310028, -12888.93227445272, -1364.8198681855044, -1187.3693689548218, -4042.84942660921, -4490.130184904359, -12151.235300449765, -9099.037539844221, -16929.59123010531, -9280.533704821313, -4400.991428016595, -8450.43461924012, -8641.273813399532, -8026.109102500571, 0.006, -0.026000000000000002, 0.99, 192.0, 0.0, 0.0, 0.0, 0.0, 0.0, 0.0, 0.0, 0.0, 0.0, 1.644498755487681E9, 0.0, 2022-02-11 00:12:35.487
28.0, -5291.8872585162235, -7437.431208781149, -7785.067890294539, -12878.69517549219, -1346.6926034322505, -1178.428671172699, -4018.731894341933, -4482.262370856091, -12148.039000992656, -9111.8003859282, -16939.694218599107, -9281.092498432696, -4391.313122667447, -8437.828235367328, -8638.166920920245, -8020.208241964369, 0.008, -0.03, 0.98, 192.0, 0.0, 32.0, 127.5, 8.0, 15.0, 80.0, 0.0, 0.0, 0.0, 1.6444987554876876E9, 0.0, 2022-02-11 00:12:35.487
30.0, -5275.928112975134, -7432.8043976789, -7766.337128440992, -12871.475562033125, -1322.4633124426978, -1160.1449442082578, -4004.292667423805, -4459.731812445141, -12140.797035789137, -9101.518583478759, -16917.744805543996, -9266.675623259023, -4379.399642872768, -8428.306392229366, -8620.821967222926, -8008.764148803252, 0.008, -0.03, 0.98, 192.0, 0.0, 0.0, 0.0, 0.0, 0.0, 0.0, 0.0, 0.0, 0.0, 1.6444987554876952E9, 0.0, 2022-02-11 00:12:35.487
32.0, -5272.5753513068385, -7424.131920830241, -7768.952282542263, -12865.351184052372, -1321.3457252199323, -1141.4588858436211, -4011.1546529715843, -4457.809562421985, -12131.185785673355, -9088.442812972406, -16913.72149154204, -9261.110038889652, -4365.407450843746, -8409.173298975624, -8611.568345018428, -7996.291875397191, 0.008, -0.03, 0.98, 192.0, 0.0, 0.0, 0.0, 0.0, 0.0, 0.0, 0.0, 0.0, 0.0, 1.6444987554877024E9, 0.0, 2022-02-11 00:12:35.487
34.0, -5242.154627103166, -7395.208763505074, -7752.680212578799, -12846.910994876742, -1300.6256581098626, -1120.2247286110794, -3991.328655639727, -4435.860149366874, -12116.67950352186, -9061.26309171475, -16902.903247225673, -9254.940957419987, -4351.012927414528, -8383.289978896377, -8605.399263548763, -7983.663139779943, 0.008, -0.03, 0.98, 192.0, 0.0, 0.0, 0.0, 0.0, 0.0, 0.0, 0.0, 0.0, 0.0, 1.6444987554877093E9, 0.0, 2022-02-11 00:12:35.487
36.0, -5230.308202541853, -7388.503240168481, -7748.031049732095, -12835.377494737804, -1294.2107074511896, -1113.4521500411213, -3995.5307835973244, -4445.694916927208, -12100.854468447504, -9043.247585683774, -16876.327023068312, -9238.244204311874, -4333.399752783746, -8387.715624298527, -8591.36236803083, -7974.990662931284, 0.007, -0.028999999999999998, 0.983, 192.0, 0.0, 24.0, 127.5, 16.0, 15.0, 104.0, 0.0, 0.0, 0.0, 1.6444987554877193E9, 0.0, 2022-02-11 00:12:35.487
38.0, -5224.049714094367, -7374.064013250353, -7736.139921681872, -12820.625343397302, -1278.005692721092, -1093.9614288760936, -3975.704786265467, -4421.957364315673, -12084.895322906414, -9028.964820976833, -16878.13751436919, -9220.58632619218, -4315.9653921086065, -8371.08592642378, -8587.093184839867, -7965.111191882038, 0.007, -0.028999999999999998, 0.983, 192.0, 0.0, 0.0, 0.0, 0.0, 0.0, 0.0, 0.0, 0.0, 0.0, 1.6444987554877264E9, 0.0, 2022-02-11 00:12:35.487
40.0, -5200.64743764966, -7352.002841472965, -7715.665723760811, -12813.115157260318, -1256.7268319996397, -1071.8332018653396, -3975.2577513763613, -4400.119709982838, -12079.776773426149, -9011.664570768426, -16854.66818269112, -9193.272494467796, -4303.247249513537, -8355.79733321635, -8567.356594485831, -7944.011145116227, 0.007, -0.028999999999999998, 0.983, 192.0, 0.0, 0.0, 0.0, 0.0, 0.0, 0.0, 0.0, 0.0, 0.0, 1.6444987554877338E9, 0.0, 2022-02-11 00:12:35.487
42.0, -5203.083777795288, -7346.169036170129, -7714.034046415573, -12807.482517657581, -1251.6976894971956, -1070.8944285982168, -3945.261710317339, -4399.113881482349, -12063.907034862881, -9002.299189841651, -16842.307668007335, -9184.19768621894, -4287.958656306107, -8333.534995738864, -8549.229329732578, -7939.831368903086, 0.007, -0.028999999999999998, 0.983, 192.0, 0.0, 0.0, 0.0, 0.0, 0.0, 0.0, 0.0, 0.0, 0.0, 1.6444987554877408E9, 0.0, 2022-02-11 00:12:35.487
44.0, -5179.860315306225, -7327.661791761136, -7701.919400920797, -12796.418404152204, -1230.8435119203941, -1050.4425824216107, -3931.358925266138, -4386.306331909458, -12050.63009865643, -8988.239942579263, -16833.14345278066, -9186.209343219918, -4270.792516564431, -8327.164748569101, -8540.601556372829, -7929.23664203127, 0.007, -0.028999999999999998, 0.983, 192.0, 0.0, 0.0, 0.0, 0.0, 0.0, 0.0, 0.0, 0.0, 0.0, 1.6444987554877477E9, 0.0, 2022-02-11 00:12:35.487
46.0, -5174.518248381406, -7310.518003763915, -7701.271200331593, -12789.62347383779, -1225.6579072067627, -1039.8702072942506, -3933.2364718003837, -4368.782564256498, -12046.00328755418, -8984.238980321763, -16818.99479854045, -9173.424145391482, -4261.114211215283, -8310.73621639445, -8533.538405124951, -7920.18418552687, 0.0045000000000000005, -0.028499999999999998, 0.9864999999999999, 192.0, 0.0, 8.0, 127.5, 16.0, 15.0, 120.0, 0.0, 0.0, 0.0, 1.6444987554877548E9, 0.0, 2022-02-11 00:12:35.487
48.0, -5160.280187163376, -7295.341169278761, -7691.704653704722, -12773.373755618783, -1210.682238421707, -1020.1559686846697, -3935.695163690468, -4359.707756007642, -12028.814796068049, -8958.087439309054, -16820.738234607965, -9171.121915712585, -4245.043306951918, -8278.236779956434, -8525.447073632131, -7907.443691187345, 0.0045000000000000005, -0.028499999999999998, 0.9864999999999999, 192.0, 0.0, 0.0, 0.0, 0.0, 0.0, 0.0, 0.0, 0.0, 0.0, 1.6444987554877627E9, 0.0, 2022-02-11 00:12:35.487
50.0, -5139.202492142021, -7272.631796912169, -7678.405365753814, -12756.565243788391, -1193.6278574023077, -1001.693427764586, -3933.2811752892944, -4360.914750208229, -12016.141356961889, -8939.870767577979, -16792.552684849823, -9148.010211945799, -4229.732362000032, -8285.076413759758, -8512.572468825874, -7894.70319684782, 0.0045000000000000005, -0.028499999999999998, 0.9864999999999999, 192.0, 0.0, 0.0, 0.0, 0.0, 0.0, 0.0, 0.0, 0.0, 0.0, 1.6444987554877703E9, 0.0, 2022-02-11 00:12:35.487
52.0, -5146.086829434255, -7269.748421877435, -7683.345101278437, -12751.603156519313, -1197.1817847707016, -999.3464945967788, -3920.674791416501, -4354.186875127181, -12004.361987633943, -8922.548165625116, -16788.059984214306, -9132.431046060448, -4218.578841516834, -8271.575960108752, -8503.788233254938, -7891.573952624078, 0.0045000000000000005, -0.028499999999999998, 0.9864999999999999, 192.0, 0.0, 0.0, 0.0, 0.0, 0.0, 0.0, 0.0, 0.0, 0.0, 1.6444987554877775E9, 0.0, 2022-02-11 00:12:35.487
54.0, -5121.030523899856, -7254.996270536933, -7669.732888905155, -12742.014258147987, -1174.718281593118, -977.1288606082036, -3889.9858462793645, -4329.197624826148, -12000.070452698525, -8927.219680216274, -16785.02014696838, -9121.143415110519, -4208.2523355784815, -8250.721782531951, -8498.602628541306, -7881.292150174636, 0.0045000000000000005, -0.028499999999999998, 0.9864999999999999, 192.0, 0.0, 0.0, 0.0, 0.0, 0.0, 0.0, 0.0, 0.0, 0.0, 1.6444987554877844E9, 0.0, 2022-02-11 00:12:35.487
56.0, -5121.5446140223285, -7242.6134041086925, -7669.75524064961, -12736.694542967623, -1168.2809791899895, -967.3387965367791, -3890.4775846573816, -4324.839034657363, -11994.415461351331, -8912.512232364683, -16768.23398688245, -9113.879098162544, -4197.50114649548, -8244.239776639912, -8483.87282894526, -7867.1658476788825, 0.00525, -0.029249999999999998, 0.98625, 192.0, 0.0, 24.0, 127.5, 8.0, 15.0, 104.0, 0.0, 0.0, 0.0, 1.6444987554877913E9, 0.0, 2022-02-11 00:12:35.487
58.0, -5110.927535406057, -7210.292781626318, -7665.396650480825, -12723.32819978335, -1162.1566012092353, -961.0803080892931, -3901.6087533961245, -4324.682572446176, -11984.267769368622, -8900.308179892085, -16772.436114840046, -9115.734292952335, -4183.307788766359, -8223.922040930038, -8482.688186489127, -7862.98607146574, 0.00525, -0.029249999999999998, 0.98625, 192.0, 0.0, 0.0, 0.0, 0.0, 0.0, 0.0, 0.0, 0.0, 0.0, 1.6444987554877985E9, 0.0, 2022-02-11 00:12:35.487
60.0, -5092.6661601860715, -7207.252944380396, -7648.834007839443, -12712.353493255794, -1139.9613189651154, -938.9073775896285, -3878.452346140426, -4307.114101304305, -11973.2260076077, -8879.65516801538, -16744.138806359628, -9084.665368159458, -4173.87535260622, -8198.552810973264, -8471.065279372368, -7849.9103009593855, 0.00525, -0.029249999999999998, 0.98625, 192.0, 0.0, 0.0, 0.0, 0.0, 0.0, 0.0, 0.0, 0.0, 0.0, 1.6444987554878056E9, 0.0, 2022-02-11 00:12:35.487
62.0, -5097.225916054955, -7219.859328253189, -7654.690164886733, -12702.94340884011, -1144.074039944892, -934.5264356763882, -3870.0257384807755, -4288.070415028384, -11975.528237286597, -8889.959322209277, -16745.703428471497, -9078.742155878801, -4166.678090891611, -8199.804508662763, -8461.163456578668, -7838.734428731732, 0.00525, -0.029249999999999998, 0.98625, 192.0, 0.0, 0.0, 0.0, 0.0, 0.0, 0.0, 0.0, 0.0, 0.0, 1.6444987554878125E9, 0.0, 2022-02-11 00:12:35.487
64.0, -5075.857648355681, -7192.411386062073, -7643.670754870267, -12688.593588899803, -1124.8962432022386, -906.9667347629946, -3862.850828510622, -4273.720595088076, -11966.498132526653, -8868.635757998914, -16742.194204592015, -9063.185341737908, -4157.737393109488, -8192.361377759145, -8454.256767541978, -7824.004629135684, 0.00525, -0.029249999999999998, 0.98625, 192.0, 0.0, 0.0, 0.0, 0.0, 0.0, 0.0, 0.0, 0.0, 0.0, 1.64449875548782E9, 0.0, 2022-02-11 00:12:35.487
66.0, -5068.995662807902, -7181.749603956891, -7634.6630018547785, -12684.994958042498, -1111.395789551233, -894.7850340348523, -3846.9810899473537, -4262.6564815827, -11958.607966733929, -8845.591109465493, -16722.435262493524, -9051.987117765799, -4141.6888405905775, -8181.364319487134, -8437.649421411685, -7810.794748162598, 0.005625, -0.026625, 0.987125, 192.0, 0.0, 24.0, 127.5, 32.0, 15.0, 112.0, 0.0, 0.0, 0.0, 1.6444987554878273E9, 0.0, 2022-02-11 00:12:35.487
68.0, -5059.339709203209, -7160.090763579698, -7631.243184953116, -12677.171847483141, -1098.5435364894315, -874.8249262362631, -3841.7060782559015, -4256.062716968384, -11947.789722417561, -8813.181080005299, -16725.966838117463, -9069.779106352224, -4126.802578783343, -8158.342022698167, -8429.736903874506, -7798.367178245447, 0.005625, -0.026625, 0.987125, 192.0, 0.0, 0.0, 0.0, 0.0, 0.0, 0.0, 0.0, 0.0, 0.0, 1.644498755487838E9, 0.0, 2022-02-11 00:12:35.487
70.0, -5053.215331222455, -7157.788533900802, -7621.140196459317, -12670.756896824467, -1088.1499753177138, -866.1971528765146, -3840.8343602221444, -4247.636109308733, -11947.230928806179, -8835.286955271597, -16712.30992225527, -9036.229137924807, -4125.14854969365, -8136.347906154145, -8417.555203146363, -7789.292369996592, 0.005625, -0.026625, 0.987125, 192.0, 0.0, 0.0, 0.0, 0.0, 0.0, 0.0, 0.0, 0.0, 0.0, 1.6444987554878447E9, 0.0, 2022-02-11 00:12:35.487
72.0, -5061.217255737455, -7174.328824797729, -7619.486167369625, -12662.240882186996, -1082.8973153707166, -860.7880307183303, -3829.434970549938, -4248.217254664571, -11949.957841629726, -8839.779655907114, -16709.694768153997, -9029.50126284376, -4117.1466251786505, -8139.097170722148, -8411.721397843528, -7785.559628672556, 0.005625, -0.026625, 0.987125, 192.0, 0.0, 0.0, 0.0, 0.0, 0.0, 0.0, 0.0, 0.0, 0.0, 1.6444987554878516E9, 0.0, 2022-02-11 00:12:35.487
74.0, -5046.979194519424, -7162.392993258595, -7604.063463695463, -12651.534396592904, -1063.2501319945018, -837.6763269515428, -3811.017133118765, -4226.334896842825, -11934.98217284467, -8823.909917343846, -16699.50237268238, -9025.276783141708, -4099.332284847771, -8122.690990291952, -8402.020740749926, -7774.2496459781705, 0.005625, -0.026625, 0.987125, 192.0, 0.0, 0.0, 0.0, 0.0, 0.0, 0.0, 0.0, 0.0, 0.0, 1.6444987554878588E9, 0.0, 2022-02-11 00:12:35.487
76.0, -5061.016090037357, -7171.601911974181, -7601.604771805379, -12644.717114534034, -1050.1520097436917, -822.6336029331211, -3812.5370517417255, -4223.585632274822, -11933.484605966165, -8812.331713715997, -16685.264311464347, -9012.759806246735, -4086.100052130229, -8107.469452317889, -8384.94400798607, -7763.409049917347, 0.0048125, -0.026312500000000003, 0.9865625, 192.0, 0.0, 16.0, 127.5, 24.0, 15.0, 104.0, 0.0, 0.0, 0.0, 1.6444987554878657E9, 0.0, 2022-02-11 00:12:35.487
78.0, -5090.498040973907, -7184.8564964361785, -7601.582420060924, -12635.50819581845, -1037.9926607600046, -810.4519022049788, -3792.979275343332, -4216.8801089382305, -11928.723684397184, -8811.661161382337, -16697.960102314963, -9023.958030218844, -4070.610293222701, -8094.997178911827, -8383.714662041028, -7754.557759113045, 0.0048125, -0.026312500000000003, 0.9865625, 192.0, 0.0, 0.0, 0.0, 0.0, 0.0, 0.0, 0.0, 0.0, 0.0, 1.6444987554878726E9, 0.0, 2022-02-11 00:12:35.487
80.0, -5121.321096577775, -7208.661104281081, -7593.804012990477, -12629.205003882053, -1018.1219599392367, -791.3635124401466, -3767.7665075977457, -4187.487564979501, -11956.12692309939, -8802.78751883358, -16701.514029683356, -9015.397312092462, -4068.509229243902, -8073.986539123838, -8365.497990309954, -7739.559738583534, 0.0048125, -0.026312500000000003, 0.9865625, 192.0, 0.0, 0.0, 0.0, 0.0, 0.0, 0.0, 0.0, 0.0, 0.0, 1.6444987554878798E9, 0.0, 2022-02-11 00:12:35.487
82.0, -5147.182064912566, -7227.391866134628, -7596.620332791846, -12628.73561724849, -1020.6700588071417, -778.7794803118087, -3788.5983334300918, -4179.39623348668, -11961.245472579656, -8804.776824090102, -16707.414890219556, -9019.062998183132, -4052.773601147366, -8059.904940116995, -8360.55825478533, -7736.698715293255, 0.0048125, -0.026312500000000003, 0.9865625, 192.0, 0.0, 0.0, 0.0, 0.0, 0.0, 0.0, 0.0, 0.0, 0.0, 1.644498755487887E9, 0.0, 2022-02-11 00:12:35.487
84.0, -5145.975070711979, -7224.530842844349, -7582.78460297401, -12616.173936864609, -994.2279451165134, -743.5978345391553, -3752.8131905571454, -4147.29912844886, -11957.803303933539, -8792.058681495033, -16705.2914744963, -9014.458538825338, -4039.2731474963607, -8036.122684016548, -8354.143304126657, -7716.716255750211, 0.0048125, -0.026312500000000003, 0.9865625, 192.0, 0.0, 0.0, 0.0, 0.0, 0.0, 0.0, 0.0, 0.0, 0.0, 1.6444987554878936E9, 0.0, 2022-02-11 00:12:35.487
86.0, -5151.205378914521, -7224.62024982217, -7581.6893674957, -12610.586000750782, -991.2104596150471, -750.415116598024, -3748.9239870219217, -4159.659643132644, -11960.194940590256, -8777.485344110173, -16692.97566330143, -9005.897820698956, -4031.762961359377, -8043.096428286604, -8340.709905709018, -7709.988380669163, 0.0044062500000000004, -0.02715625, 0.98828125, 192.0, 0.0, 16.0, 127.5, 16.0, 15.0, 120.0, 0.0, 0.0, 0.0, 1.6444987554879007E9, 0.0, 2022-02-11 00:12:35.487
88.0, -5143.449323588529, -7218.339409630229, -7576.9060941822645, -12603.165221591618, -989.6681892476308, -749.9680817089179, -3764.391394184994, -4155.882198319698, -11954.495245754153, -8772.187980674265, -16704.173887273537, -9019.688847027881, -4022.5316908993354, -8046.113913788071, -8340.486388264464, -7708.356703323925, 0.0044062500000000004, -0.02715625, 0.98828125, 192.0, 0.0, 0.0, 0.0, 0.0, 0.0, 0.0, 0.0, 0.0, 0.0, 1.6444987554879076E9, 0.0, 2022-02-11 00:12:35.487
90.0, -5118.974163409968, -7200.972104188455, -7563.182123086706, -12591.966997619511, -965.95298838055, -724.9117761745186, -3732.0037164692544, -4127.137854950172, -11934.870414122393, -8770.913931240313, -16677.262386949347, -8987.815259434612, -4011.199356460495, -8022.733989087819, -8328.4164462586, -7697.784328196565, 0.0044062500000000004, -0.02715625, 0.98828125, 192.0, 0.0, 0.0, 0.0, 0.0, 0.0, 0.0, 0.0, 0.0, 0.0, 1.6444987554879143E9, 0.0, 2022-02-11 00:12:35.487
92.0, -5107.284201059842, -7182.867191179656, -7569.664128978745, -12585.39558474965, -967.4952587479662, -721.5590145062226, -3738.1504461944637, -4124.05331421534, -11928.45546346372, -8753.121942653888, -16671.76385781334, -8968.458648736316, -4002.683341823023, -8012.452186638378, -8318.849899631727, -7684.261522801105, 0.0044062500000000004, -0.02715625, 0.98828125, 192.0, 0.0, 0.0, 0.0, 0.0, 0.0, 0.0, 0.0, 0.0, 0.0, 1.6444987554879217E9, 0.0, 2022-02-11 00:12:35.487
94.0, -5080.372700735653, -7145.964461083944, -7551.760381670044, -12578.555950946326, -944.5623689368211, -693.1499473035274, -3711.730684248291, -4110.351694864237, -11915.558506913008, -8728.959706897702, -16659.760971040843, -8961.82018063309, -3988.6687980495453, -7982.567904301633, -8313.150204795624, -7674.605569196412, 0.0044062500000000004, -0.02715625, 0.98828125, 192.0, 0.0, 0.0, 0.0, 0.0, 0.0, 0.0, 0.0, 0.0, 0.0, 1.6444987554879289E9, 0.0, 2022-02-11 00:12:35.487
96.0, -5062.759526104871, -7133.581594655704, -7549.838131646888, -12570.15169503113, -942.8636363582178, -692.6135054365999, -3704.3322568335843, -4109.52468031939, -11908.025969031569, -8717.850889903413, -16636.962191696428, -8943.156474012909, -3980.421004345537, -7980.91387521194, -8296.45345168751, -7663.586159179946, 0.0032031250000000002, -0.028578125, 0.989140625, 192.0, 0.0, 8.0, 127.5, 8.0, 15.0, 120.0, 0.0, 0.0, 0.0, 1.644498755487936E9, 0.0, 2022-02-11 00:12:35.487
98.0, -5040.720706071938, -7114.560260124238, -7542.260890276539, -12555.19837799053, -931.3077844748241, -671.4240516929689, -3702.6111725105256, -4100.762796492911, -11899.599361371918, -8710.765386911082, -16645.455854589447, -8938.306145466107, -3973.1790391420177, -7968.687470994887, -8298.241591243934, -7658.400554466314, 0.0032031250000000002, -0.028578125, 0.989140625, 192.0, 0.0, 0.0, 0.0, 0.0, 0.0, 0.0, 0.0, 0.0, 0.0, 1.6444987554879427E9, 0.0, 2022-02-11 00:12:35.487
100.0, -5004.108548654145, -7078.663358529015, -7522.613706900323, -12547.643488364636, -911.3476766762349, -662.3715951885695, -3685.3556257910286, -4093.4984795449354, -11876.040622716026, -8670.107563746878, -16614.81161294122, -8917.09433997802, -3956.3034720782607, -7949.017935874216, -8284.987006781937, -7650.80096135151, 0.0032031250000000002, -0.028578125, 0.989140625, 192.0, 0.0, 0.0, 0.0, 0.0, 0.0, 0.0, 0.0, 0.0, 0.0, 1.644498755487954E9, 0.0, 2022-02-11 00:12:35.487
102.0, -5005.315542854732, -7061.072535642688, -7528.000477314053, -12544.983630774455, -922.1435692481482, -659.1752957314606, -3710.2554691142404, -4085.2953893298377, -11866.92111097826, -8665.659566600272, -16609.29073206076, -8908.287752662629, -3946.9157394070317, -7954.561168499133, -8278.952035779004, -7645.771818849065, 0.0032031250000000002, -0.028578125, 0.989140625, 192.0, 0.0, 0.0, 0.0, 0.0, 0.0, 0.0, 0.0, 0.0, 0.0, 1.6444987554879608E9, 0.0, 2022-02-11 00:12:35.487
104.0, -4977.577027985696, -7032.216433550887, -7514.34356145186, -12532.377246901662, -903.9716010059835, -638.1423041990166, -3699.3254660755956, -4076.041767125341, -11852.124256148847, -8662.060935742968, -16600.975883123385, -8905.940819494823, -3932.2082915554397, -7926.733246652276, -8278.72851833445, -7638.1275222453505, 0.0032031250000000002, -0.028578125, 0.989140625, 192.0, 0.0, 0.0, 0.0, 0.0, 0.0, 0.0, 0.0, 0.0, 0.0, 1.6444987559667518E9, 0.0, 2022-02-11 00:12:35.966
106.0, -4969.217475559411, -7032.328192273163, -7511.415482928215, -12532.421950390572, -888.5265455873664, -628.5981093166005, -3640.3839159469508, -4067.4586972545026, -11851.67722125974, -8644.894796001292, -16584.167371292995, -8889.04290068661, -3926.642707186068, -7917.61373491451, -8256.644994812608, -7629.857376796887, 0.006, -0.032, 0.99, 192.0, 0.0, 24.0, 127.5, 0.0, 15.0, 120.0, 0.0, 0.0, 0.0, 1.644498755966949E9, 0.0, 2022-02-11 00:12:35.966
108.0, -4957.527513209286, -7009.372950717563, -7512.398959684248, -12523.838880519734, -876.925990215062, -620.7526470127877, -3660.2993202566295, -4056.3051767713046, -11846.312802590466, -8640.42444711023, -16589.95647310692, -8881.890342460913, -3915.86916635861, -7905.700255119831, -8249.268919142356, -7624.962344761175, 0.006, -0.032, 0.99, 192.0, 0.0, 0.0, 0.0, 0.0, 0.0, 0.0, 0.0, 0.0, 0.0, 1.6444987559669564E9, 0.0, 2022-02-11 00:12:35.966
110.0, -4939.020268800291, -6995.224296477354, -7505.179346225184, -12512.640656547626, -869.8404872227296, -606.8945654504973, -3640.33921245804, -4036.5015311839024, -11836.187462352213, -8624.75587424706, -16570.28693798625, -8875.117763890954, -3912.851680857144, -7903.241563229748, -8240.43998008251, -7610.433710865225, 0.006, -0.032, 0.99, 192.0, 0.0, 0.0, 0.0, 0.0, 0.0, 0.0, 0.0, 0.0, 0.0, 1.6444987559669635E9, 0.0, 2022-02-11 00:12:35.966
112.0, -4928.939632050948, -6984.584866116627, -7505.693436347657, -12509.265543134874, -872.634455279643, -606.5592892836678, -3656.655985910414, -4051.99129009143, -11828.833738426416, -8620.285525356, -16571.069249042182, -8861.147923606388, -3911.0635413007194, -7896.714853848798, -8241.53521556082, -7610.1878416762165, 0.006, -0.032, 0.99, 192.0, 0.0, 0.0, 0.0, 0.0, 0.0, 0.0, 0.0, 0.0, 0.0, 1.6444987559669707E9, 0.0, 2022-02-11 00:12:35.966
114.0, -4897.356617135599, -6945.268147619742, -7484.079299459375, -12497.620284273658, -850.4391730355231, -589.2590390752601, -3646.575349161071, -4040.971880074964, -11811.287619029, -8593.821059920914, -16553.768998833777, -8850.776714179125, -3887.8177270672, -7875.9724349942735, -8233.91327070156, -7606.7233212856445, 0.006, -0.032, 0.99, 192.0, 0.0, 0.0, 0.0, 0.0, 0.0, 0.0, 0.0, 0.0, 0.0, 1.6444987559669776E9, 0.0, 2022-02-11 00:12:35.966
116.0, -4891.723977532862, -6943.301194107676, -7488.951979750631, -12495.876848206146, -852.2943678253137, -581.7935564271876, -3656.00778532121, -4044.8834353546426, -11809.343017261388, -8595.162164588233, -16532.89246951252, -8830.995420336178, -3882.274494442284, -7859.722716775265, -8225.53136653082, -7596.374463602837, 0.01, -0.034, 0.992, 192.0, 0.0, 40.0, 127.0, 120.0, 15.5, 0.0, 0.0, 0.0, 0.0, 1.6444987559669852E9, 0.0, 2022-02-11 00:12:35.966
118.0, -4881.799802994705, -6924.928060165413, -7485.15218319323, -12493.060528404776, -847.6899084675204, -575.3115505351485, -3666.691919170847, -4044.0787725542514, -11803.688025914196, -8591.250609308554, -16542.12373997256, -8840.360801262952, -3878.8770292850772, -7857.17461790736, -8229.062942154758, -7599.749577015588, 0.01, -0.034, 0.992, 192.0, 0.0, 0.0, 0.0, 0.0, 0.0, 0.0, 0.0, 0.0, 0.0, 1.6444987559669921E9, 0.0, 2022-02-11 00:12:35.966
120.0, -4862.085564385124, -6920.681228718905, -7469.595369052336, -12483.985720155923, -827.863911135663, -562.6828149179, -3636.8970438119227, -4029.6395456361233, -11787.818287350929, -8575.179705045188, -16519.83905075062, -8824.044027810578, -3867.0529564682197, -7842.578928778044, -8217.708255971464, -7586.874972209332, 0.01, -0.034, 0.992, 192.0, 0.0, 0.0, 0.0, 0.0, 0.0, 0.0, 0.0, 0.0, 0.0, 1.6444987559669995E9, 0.0, 2022-02-11 00:12:35.966
122.0, -4864.588959764119, -6901.548135465162, -7469.371851607782, -12478.330728808729, -828.8250361472412, -544.5779019091012, -3643.8707880819784, -4017.390789674615, -11784.75609836055, -8567.021318319, -16516.84391699361, -8815.438606195285, -3857.3746511190716, -7830.665448983365, -8208.901668656072, -7583.097527396385, 0.01, -0.034, 0.992, 192.0, 0.0, 0.0, 0.0, 0.0, 0.0, 0.0, 0.0, 0.0, 0.0, 1.6444987559670064E9, 0.0, 2022-02-11 00:12:35.967
124.0, -4839.487950740809, -6878.79405960966, -7454.709107245101, -12467.55718798127, -811.7259516389313, -538.0735442726069, -3634.0583722660986, -4009.925307026542, -11765.690060340174, -8556.31483272491, -16504.237533120817, -8810.945905559767, -3840.4320288219487, -7824.697533213799, -8202.844345908683, -7574.268588336538, 0.01, -0.034, 0.992, 192.0, 0.0, 0.0, 0.0, 0.0, 0.0, 0.0, 0.0, 0.0, 0.0, 1.6444987559670136E9, 0.0, 2022-02-11 00:12:35.967
126.0, -4843.399506020487, -6882.236228255776, -7462.956900949109, -12470.731135693924, -819.3031930092803, -534.7878378376768, -3643.4908084262383, -4015.200318717995, -11771.479162154099, -8552.984422801068, -16494.6933382384, -8801.915800799823, -3840.320270099672, -7827.625611737444, -8196.876430139117, -7570.312329567949, 0.012, -0.03, 0.988, 192.0, 0.0, 48.0, 127.5, 8.0, 15.0, 112.0, 0.0, 0.0, 0.0, 1.6444987559670205E9, 0.0, 2022-02-11 00:12:35.967
128.0, -4839.353840274077, -6876.156553763933, -7463.336880604849, -12461.052830344777, -810.9436405829955, -529.6022331240456, -3634.371296688473, -4026.219728734461, -11768.729897586096, -8551.039821033457, -16506.27154186625, -8795.83612630798, -3834.486464796837, -7817.679085454833, -8201.48088949691, -7570.02175689003, 0.012, -0.03, 0.988, 192.0, 0.0, 0.0, 0.0, 0.0, 0.0, 0.0, 0.0, 0.0, 0.0, 1.6444987559670272E9, 0.0, 2022-02-11 00:12:35.967
