%OpenBCI Raw EEG Data
%Number of channels = 16
%Sample Rate = 125 Hz
%Board = OpenBCI_GUI$BoardCytonSerialDaisy
Sample Index, EXG Channel 0, EXG Channel 1, EXG Channel 2, EXG Channel 3, EXG Channel 4, EXG Channel 5, EXG Channel 6, EXG Channel 7, EXG Channel 8, EXG Channel 9, EXG Channel 10, EXG Channel 11, EXG Channel 12, EXG Channel 13, EXG Channel 14, EXG Channel 15, Accel Channel 0, Accel Channel 1, Accel Channel 2, Other, Other, Other, Other, Other, Other, Other, Analog Channel 0, Analog Channel 1, Analog Channel 2, Timestamp, Other, Timestamp (Formatted)
0.0, -7870.228036669259, -9717.622067644843, -9988.614617420986, -15570.336946289177, -2802.931106439961, -2149.120229377774, -5412.474919852605, -6043.442314081468, 0.0, 0.0, 0.0, 0.0, 0.0, 0.0, 0.0, 0.0, 0.0, 0.0, 0.0, 192.0, 0.0, 0.0, 0.0, 0.0, 0.0, 0.0, 0.0, 0.0, 0.0, 1.6444986069776568E9, 0.0, 2022-02-11 00:10:06.977
58.0, -7854.090077172527, -9711.788262342008, -9970.509704412187, -15569.956966633436, -2781.384024785045, -2138.927833906154, -5400.047349935455, -6038.256709367837, -15910.888124810235, -14576.35487036167, -19614.16984965442, -10883.578465411481, -6888.450013214352, -10635.027067068466, -10451.027506712378, -10481.649396616149, 0.0, 0.0, 0.0, 192.0, 0.0, 0.0, 0.0, 0.0, 0.0, 0.0, 0.0, 0.0, 0.0, 1.6444986069776652E9, 0.0, 2022-02-11 00:10:06.977
60.0, -7866.137667433938, -9717.532660667022, -9983.808992363096, -15573.84617016866, -2795.867955192084, -2142.9064444191986, -5402.953076714644, -6028.95838367443, -15917.683055124648, -14578.74650701839, -19610.571218797115, -10882.304415977529, -6883.3761672229975, -10653.780180666468, -10446.624213054683, -10480.576512882295, 0.002, -0.017, 0.498, 192.0, 0.0, 16.0, 127.0, 120.0, 15.5, 16.0, 0.0, 0.0, 0.0, 1.644498606977672E9, 0.0, 2022-02-11 00:10:06.977
62.0, -7867.769344779175, -9715.744521110597, -9982.780812118152, -15577.020117881313, -2787.3742922990673, -2130.8812059022434, -5398.706245268136, -6023.281040582781, -15919.895877825724, -14578.992376207398, -19629.301980650664, -10896.475421962194, -6875.150725263444, -10637.0610758139, -10447.652393299628, -10477.737841336471, 0.002, -0.017, 0.498, 192.0, 0.0, 0.0, 0.0, 0.0, 0.0, 0.0, 0.0, 0.0, 0.0, 1.6444986069776785E9, 0.0, 2022-02-11 00:10:06.977
64.0, -7858.828646997053, -9711.855317575373, -9982.870219095972, -15574.494370757864, -2779.260609061791, -2130.188301824129, -5405.434120349183, -6030.120674386105, -15923.986247061044, -14576.35487036167, -19617.589666556083, -10881.7679741106, -6862.030251268179, -10645.465331729094, -10443.562024064306, -10480.129477993189, 0.002, -0.017, 0.498, 192.0, 0.0, 0.0, 0.0, 0.0, 0.0, 0.0, 0.0, 0.0, 0.0, 1.6444986069776852E9, 0.0, 2022-02-11 00:10:06.977
66.0, -7873.245522170726, -9723.63468690332, -9992.07913781156, -15575.343737047166, -2792.716359223886, -2137.51967400547, -5402.930724970189, -6028.064313896217, -15924.0085988055, -14584.401498365582, -19626.709178293848, -10883.779631111578, -6881.766841622215, -10642.91723286119, -10448.546463077839, -10487.080870518788, 0.002, -0.017, 0.498, 192.0, 0.0, 0.0, 0.0, 0.0, 0.0, 0.0, 0.0, 0.0, 0.0, 1.6444986069776928E9, 0.0, 2022-02-11 00:10:06.977
68.0, -7864.595397066521, -9719.030227545527, -9984.457192952299, -15571.476885256398, -2778.344187539123, -2121.3593627642827, -5392.8500882208455, -6019.503595769835, -15930.892936097734, -14588.782440278823, -19628.586724828092, -10887.087689290964, -6889.321731248108, -10642.716067161093, -10452.458018357518, -10483.079908261288, 0.002, -0.017, 0.498, 192.0, 0.0, 0.0, 0.0, 0.0, 0.0, 0.0, 0.0, 0.0, 0.0, 1.6444986069776995E9, 0.0, 2022-02-11 00:10:06.977
70.0, -7877.648815828421, -9725.825157859941, -9994.135498301446, -15582.161019106034, -2787.3295888101566, -2127.6625547006793, -5407.132852927787, -6031.774703475798, -15935.095064055333, -14592.828106025232, -19625.725701537813, -10888.428793958283, -6884.449050956852, -10623.426511696161, -10451.49689334594, -10483.683405361582, 0.003, -0.0235, 0.747, 192.0, 0.0, 16.0, 127.5, 8.0, 15.5, 16.0, 0.0, 0.0, 0.0, 1.6444986069777064E9, 0.0, 2022-02-11 00:10:06.977
72.0, -7873.625501826466, -9719.499614179089, -9987.385271475945, -15578.69649871546, -2775.5949229711205, -2126.3661535222714, -5409.993876218066, -6025.76208421732, -15937.352590245318, -14594.660949070569, -19641.93071626791, -10900.230515030684, -6877.140030519967, -10632.456616456106, -10456.168407937099, -10488.60078914175, 0.003, -0.0235, 0.747, 192.0, 0.0, 0.0, 0.0, 0.0, 0.0, 0.0, 0.0, 0.0, 0.0, 1.644498606977713E9, 0.0, 2022-02-11 00:10:06.977
74.0, -7874.452516371312, -9722.740617125108, -9983.429012707355, -15582.250426083856, -2766.4307077444446, -2127.5731477228583, -5389.273809107996, -6028.6678109965105, -15942.985229848056, -14592.381071136126, -19630.196050428876, -10888.942884080754, -6872.334405462076, -10646.225291040575, -10448.568814822294, -10489.986597297979, 0.003, -0.0235, 0.747, 192.0, 0.0, 0.0, 0.0, 0.0, 0.0, 0.0, 0.0, 0.0, 0.0, 1.6444986069777195E9, 0.0, 2022-02-11 00:10:06.977
76.0, -7889.919923534385, -9732.910660852272, -9995.342492502034, -15590.408812810043, -2777.450117760911, -2131.417647769171, -5398.885059223779, -6037.720267500909, -15946.986192105556, -14599.243056683907, -19643.428283146415, -10896.900105106844, -6870.993300794757, -10645.174759051175, -10446.244233398942, -10499.128460780199, 0.003, -0.0235, 0.747, 192.0, 0.0, 0.0, 0.0, 0.0, 0.0, 0.0, 0.0, 0.0, 0.0, 1.6444986069777262E9, 0.0, 2022-02-11 00:10:06.977
78.0, -7884.041414742639, -9729.49084395061, -9986.759422631196, -15587.726603475405, -2760.775716397252, -2122.856929642788, -5391.464280064617, -6030.7241714863985, -15948.886090384256, -14601.679396829535, -19643.875318035523, -10898.710596407724, -6878.16821076491, -10641.777293893969, -10446.534806076861, -10496.133327023188, 0.003, -0.0235, 0.747, 192.0, 0.0, 0.0, 0.0, 0.0, 0.0, 0.0, 0.0, 0.0, 0.0, 1.644498606977733E9, 0.0, 2022-02-11 00:10:06.977
80.0, -7899.620580627988, -9740.3984952448, -9997.22003903628, -15600.37769083711, -2770.3869665130337, -2141.4982845185145, -5404.562402315427, -6050.773686262809, -15958.676154455681, -14612.542344634814, -19641.08134997861, -10895.849573117444, -6883.689091645371, -10648.862796886302, -10447.227710154977, -10501.0283590589, 0.0035, -0.02475, 0.8705, 192.0, 0.0, 16.0, 127.5, 24.0, 15.5, 8.0, 0.0, 0.0, 0.0, 1.6444986069777396E9, 0.0, 2022-02-11 00:10:06.977
82.0, -7902.056920773616, -9738.632707432831, -9993.755518645707, -15601.495278059874, -2768.7105856788858, -2130.4565227575927, -5399.309742368429, -6037.876729712097, -15965.068753369898, -14621.952429050498, -19657.018143775244, -10913.932134381788, -6873.496696173751, -10642.91723286119, -10455.475503858985, -10506.951571339558, 0.0035, -0.02475, 0.8705, 192.0, 0.0, 0.0, 0.0, 0.0, 0.0, 0.0, 0.0, 0.0, 0.0, 1.6444986069777462E9, 0.0, 2022-02-11 00:10:06.977
84.0, -7897.94419979384, -9735.97284984265, -9996.951818102816, -15602.545810049274, -2757.288844262224, -2124.3097930323834, -5393.7888614879685, -6041.095380913661, -15967.505093515527, -14612.162364979073, -19640.679018578412, -10901.63867493137, -6867.662890870916, -10629.0591512989, -10450.803989267826, -10501.296579992364, 0.0035, -0.02475, 0.8705, 192.0, 0.0, 0.0, 0.0, 0.0, 0.0, 0.0, 0.0, 0.0, 0.0, 1.6444986069777527E9, 0.0, 2022-02-11 00:10:06.977
86.0, -7914.663304646409, -9748.93686162673, -10003.813803650595, -15606.814993240238, -2768.1294403230477, -2129.987136124031, -5404.1153674263205, -6036.893252956063, -15968.600328993838, -14622.868850573166, -19653.84419606259, -10910.78053841359, -6863.349004191042, -10638.737456648047, -10454.35791663622, -10506.236315516988, 0.0035, -0.02475, 0.8705, 192.0, 0.0, 0.0, 0.0, 0.0, 0.0, 0.0, 0.0, 0.0, 0.0, 1.6444986069777591E9, 0.0, 2022-02-11 00:10:06.977
88.0, -7891.730414835265, -9738.185672543726, -9992.839097123038, -15599.908304203547, -2746.3364894791234, -2116.710199917579, -5394.995855688555, -6024.465683038912, -15968.73443946057, -14619.94077204952, -19655.90055655248, -10911.406387258337, -6876.447126441852, -10653.355497521818, -10456.168407937099, -10505.40930097214, 0.0035, -0.02475, 0.8705, 192.0, 0.0, 0.0, 0.0, 0.0, 0.0, 0.0, 0.0, 0.0, 0.0, 1.6444986069777706E9, 0.0, 2022-02-11 00:10:06.977
90.0, -7899.665284116899, -9735.279945764536, -9996.370672746978, -15603.842211227682, -2760.6639576749753, -2124.153330821196, -5409.725655284603, -6039.419000079513, -15967.460390026617, -14616.140975492119, -19640.88018427851, -10899.001169085643, -6862.745507090749, -10649.756866664513, -10452.323907890786, -10505.118728294221, 0.00475, -0.024375, 0.92925, 192.0, 0.0, 24.0, 127.5, 32.0, 15.0, 112.0, 0.0, 0.0, 0.0, 1.6444986069777772E9, 0.0, 2022-02-11 00:10:06.977
92.0, -7890.478717145767, -9714.090492020905, -9991.07330931107, -15596.46613555743, -2751.611501170576, -2111.546946948403, -5389.9220096972, -6039.664869268521, -15963.437076024662, -14613.302303946293, -19652.07840825062, -10904.723215666201, -6875.843629341559, -10633.171872278675, -10460.392887639153, -10507.89034460668, 0.00475, -0.024375, 0.92925, 192.0, 0.0, 0.0, 0.0, 0.0, 0.0, 0.0, 0.0, 0.0, 0.0, 1.644498606977784E9, 0.0, 2022-02-11 00:10:06.977
94.0, -7896.424281170879, -9741.896062123307, -9988.324044743067, -15603.2834176163, -2747.185855768425, -2114.095045816308, -5382.612989260315, -6029.226604607893, -15960.017259123, -14611.581219623235, -19637.281553421206, -10892.697977149246, -6851.636690096461, -10630.176738521664, -10455.87783525918, -10505.31989399432, 0.00475, -0.024375, 0.92925, 192.0, 0.0, 0.0, 0.0, 0.0, 0.0, 0.0, 0.0, 0.0, 0.0, 1.6444986069777904E9, 0.0, 2022-02-11 00:10:06.977
96.0, -7907.935429565362, -9744.868844135863, -9995.342492502034, -15607.016158940336, -2754.517227949766, -2117.358400506783, -5398.192155145664, -6037.094418656161, -15966.096933614843, -14634.245888500916, -19648.993867515786, -10908.500660479149, -6863.840742569058, -10641.576128193872, -10456.190759681554, -10509.767891140926, 0.00475, -0.024375, 0.92925, 192.0, 0.0, 0.0, 0.0, 0.0, 0.0, 0.0, 0.0, 0.0, 0.0, 1.6444986069777973E9, 0.0, 2022-02-11 00:10:06.977
98.0, -7897.094833504539, -9745.561748213977, -9986.133573786447, -15607.060862429245, -2737.5075504192773, -2105.6237346677467, -5380.377814814784, -6026.209119106426, -15969.762619705514, -14637.285725746839, -19651.206690216863, -10914.15565182634, -6860.063297756112, -10642.425494483174, -10454.179102680577, -10510.572553941316, 0.00475, -0.024375, 0.92925, 192.0, 0.0, 0.0, 0.0, 0.0, 0.0, 0.0, 0.0, 0.0, 0.0, 1.644498606977804E9, 0.0, 2022-02-11 00:10:06.977
100.0, -7903.80035684113, -9749.808579660485, -9994.962512846294, -15612.80526075426, -2744.213073755869, -2106.0484178123975, -5391.844259720357, -6040.447180324457, -15972.087201128865, -14635.877565846155, -19645.439940147393, -10908.075977334498, -6849.066239484101, -10626.91338383119, -10448.077076444279, -10509.83494637429, 0.0063750000000000005, -0.0251875, 0.959625, 192.0, 0.0, 32.0, 127.5, 24.0, 15.0, 120.0, 0.0, 0.0, 0.0, 1.6444986069778109E9, 0.0, 2022-02-11 00:10:06.977
102.0, -7909.768272610698, -9752.982527373139, -9997.778832647662, -15614.951028221969, -2732.2772422167354, -2110.60817368128, -5395.174669644198, -6044.939880959974, -15972.422477295695, -14641.286688004338, -19662.047286277688, -10919.229497817696, -6844.193559192844, -10625.795796608425, -10456.324870148286, -10515.020551087922, 0.0063750000000000005, -0.0251875, 0.959625, 192.0, 0.0, 0.0, 0.0, 0.0, 0.0, 0.0, 0.0, 0.0, 0.0, 1.6444986069778173E9, 0.0, 2022-02-11 00:10:06.977
104.0, -7900.827574828574, -9746.232300547636, -9990.447460466321, -15610.815955497737, -2729.3044602041796, -2109.0435515694085, -5395.778166744491, -6040.827159980197, -15975.01527965251, -14632.211879755483, -19649.396198915983, -10911.674608191803, -6842.45012312533, -10651.857930643313, -10449.999326467434, -10516.361655755241, 0.0063750000000000005, -0.0251875, 0.959625, 192.0, 0.0, 0.0, 0.0, 0.0, 0.0, 0.0, 0.0, 0.0, 0.0, 1.644498606977824E9, 0.0, 2022-02-11 00:10:06.977
106.0, -7920.765330882708, -9754.368335529369, -10000.483393726754, -15617.14149917859, -2728.544500892699, -2110.0717318143525, -5399.086224923876, -6050.214892651426, -15982.145486133753, -14638.917403092075, -19658.091027509097, -10922.78342518609, -6863.773687335693, -10652.528482976972, -10449.820512511793, -10519.736769167992, 0.0063750000000000005, -0.0251875, 0.959625, 192.0, 0.0, 0.0, 0.0, 0.0, 0.0, 0.0, 0.0, 0.0, 0.0, 1.6444986069778306E9, 0.0, 2022-02-11 00:10:06.977
108.0, -7905.3202754640915, -9747.796922659507, -9991.386233733445, -15617.879106745615, -2715.0216954972384, -2098.8511560977886, -5371.101840865832, -6022.074046382195, -15978.010413409522, -14641.51020544889, -19655.811149574656, -10916.837861160977, -6839.075009712578, -10648.348706763829, -10447.25006189943, -10521.45785349105, 0.0063750000000000005, -0.0251875, 0.959625, 192.0, 0.0, 0.0, 0.0, 0.0, 0.0, 0.0, 0.0, 0.0, 0.0, 1.644498606977837E9, 0.0, 2022-02-11 00:10:06.977
110.0, -7917.099644792038, -9759.241015820626, -10001.511573971698, -15627.37859813912, -2725.549367135688, -2104.662609656168, -5380.735442726069, -6035.730962244387, -15984.760640235025, -14645.913499106588, -19650.13380648301, -10916.770805927612, -6844.350021404031, -10646.225291040575, -10442.712657775004, -10521.927240124613, 0.0061875, -0.022593750000000003, 0.9698125, 192.0, 0.0, 24.0, 127.5, 48.0, 15.0, 80.0, 0.0, 0.0, 0.0, 1.6444986069778438E9, 0.0, 2022-02-11 00:10:06.977
112.0, -7916.563202925111, -9754.994184374116, -10001.913905371894, -15624.584630082207, -2725.5046636467773, -2094.492565929004, -5372.845276933346, -6025.784435961776, -15988.35927109233, -14647.61223168519, -19666.249414235284, -10933.087579379986, -6829.508463085707, -10635.585860679848, -10446.646564799139, -10525.883498893201, 0.0061875, -0.022593750000000003, 0.9698125, 192.0, 0.0, 0.0, 0.0, 0.0, 0.0, 0.0, 0.0, 0.0, 0.0, 1.6444986069778504E9, 0.0, 2022-02-11 00:10:06.977
114.0, -7909.388292954957, -9756.670565208266, -9993.487297712243, -15626.484528360908, -2714.0605704856603, -2088.6587606261683, -5368.330224553374, -6027.6172790071105, -15987.956939692134, -14644.32652525026, -19653.933603040412, -10920.9282303963, -6847.389858649953, -10632.948354834123, -10439.248137384431, -10522.977772114013, 0.0061875, -0.022593750000000003, 0.9698125, 192.0, 0.0, 0.0, 0.0, 0.0, 0.0, 0.0, 0.0, 0.0, 0.0, 1.6444986069778569E9, 0.0, 2022-02-11 00:10:06.977
116.0, -7920.5194616937, -9755.083591351939, -10004.953742617816, -15628.071502217235, -2724.901166546484, -2099.454653198082, -5381.853029948835, -6039.731924501887, -15985.565303035415, -14647.701638663011, -19661.376733944027, -10925.68915196528, -6847.322803416587, -10638.58099443686, -10440.991573451945, -10528.74452218348, 0.0061875, -0.022593750000000003, 0.9698125, 192.0, 0.0, 0.0, 0.0, 0.0, 0.0, 0.0, 0.0, 0.0, 0.0, 1.644498606977864E9, 0.0, 2022-02-11 00:10:06.977
118.0, -7905.052054530627, -9748.668640693264, -9994.627236679464, -15628.786758039805, -2708.606744838565, -2081.193277978096, -5370.63245423227, -6030.992392419862, -15986.012337924521, -14644.550042694813, -19662.22610023333, -10925.68915196528, -6834.850530010525, -10636.39052348024, -10442.891471730647, -10529.482129750506, 0.0061875, -0.022593750000000003, 0.9698125, 192.0, 0.0, 0.0, 0.0, 0.0, 0.0, 0.0, 0.0, 0.0, 0.0, 1.6444986069778707E9, 0.0, 2022-02-11 00:10:06.977
120.0, -7910.461176688812, -9752.267271550569, -10000.88572512695, -15630.99958074088, -2723.0459717566937, -2091.519783916448, -5387.463317807116, -6046.012764693829, -15983.263073356518, -14638.47036820297, -19650.782007072212, -10915.8767361494, -6837.800960278626, -10624.67820938566, -10440.701000774026, -10530.063275106344, 0.004, -0.024, 0.988, 192.0, 0.0, 16.0, 127.5, 32.0, 15.0, 112.0, 0.0, 0.0, 0.0, 1.6444986069778793E9, 0.0, 2022-02-11 00:10:06.977
122.0, -7911.265839489203, -9760.515065254578, -9995.87893436896, -15629.14438595109, -2713.0994454740817, -2090.4021966936825, -5369.716032709603, -6048.538511817278, -15987.73342224758, -14646.271127017872, -19665.288289223707, -10930.427721789805, -6823.406436849408, -10632.300154244918, -10446.937137477058, -10537.260536820953, 0.004, -0.024, 0.988, 192.0, 0.0, 0.0, 0.0, 0.0, 0.0, 0.0, 0.0, 0.0, 0.0, 1.6444986069778855E9, 0.0, 2022-02-11 00:10:06.977
124.0, -7906.303752220125, -9743.25951853508, -9990.760384888696, -15626.28336266081, -2693.161689419948, -2078.198144221085, -5356.372041269785, -6030.031267408284, -15981.139657633265, -14646.673458418067, -19646.959858770355, -10920.570602485013, -6814.510442556196, -10637.731628147558, -10433.459035570508, -10531.046751862377, 0.004, -0.024, 0.988, 192.0, 0.0, 0.0, 0.0, 0.0, 0.0, 0.0, 0.0, 0.0, 0.0, 1.6444986069778922E9, 0.0, 2022-02-11 00:10:06.977
126.0, -7917.501976192234, -9748.288661037524, -10002.048015838625, -15630.530194107318, -2714.194680952392, -2084.9036675576767, -5371.839448432857, -6038.4131715790245, -15984.559474534926, -14641.979592082453, -19655.90055655248, -10920.525898996104, -6822.892346726936, -10626.332238475352, -10438.152901906122, -10534.667734464138, 0.004, -0.024, 0.988, 192.0, 0.0, 0.0, 0.0, 0.0, 0.0, 0.0, 0.0, 0.0, 0.0, 1.6444986069778988E9, 0.0, 2022-02-11 00:10:06.977
128.0, -7893.451499158324, -9740.957288856183, -9990.805088377607, -15630.910173763059, -2682.5669625481323, -2067.4693068825372, -5349.130076066265, -6019.19067134746, -15977.809247709423, -14640.414969970581, -19653.26305070675, -10921.107044351942, -6806.553221530106, -10617.816223837879, -10438.935212962058, -10531.449083262574, 0.004, -0.024, 0.988, 192.0, 0.0, 0.0, 0.0, 0.0, 0.0, 0.0, 0.0, 0.0, 0.0, 1.6444986069779055E9, 0.0, 2022-02-11 00:10:06.977
130.0, -7917.144348280949, -9752.110809339381, -9992.973207589772, -15633.547679608784, -2688.0207881952274, -2077.1476122316853, -5360.1494860827315, -6027.6172790071105, -15980.089125643866, -14646.964031095986, -19643.428283146415, -10917.374303027906, -6813.884593711447, -10636.703447902615, -10433.146111148133, -10531.762007684947, 0.004, -0.026000000000000002, 0.986, 192.0, 0.0, 16.0, 127.5, 24.0, 15.0, 104.0, 0.0, 0.0, 0.0, 1.644498606977912E9, 0.0, 2022-02-11 00:10:06.977
132.0, -7915.020932557694, -9745.897024380807, -9994.873105868472, -15630.820766785237, -2681.6281892810093, -2069.257446438962, -5351.119381322787, -6020.129444614583, -15983.799515223447, -14652.440208487536, -19662.494321166792, -10929.176024100307, -6796.897267925414, -10625.572279163871, -10436.96825944999, -10530.152682084166, 0.004, -0.026000000000000002, 0.986, 192.0, 0.0, 0.0, 0.0, 0.0, 0.0, 0.0, 0.0, 0.0, 0.0, 1.6444986069779186E9, 0.0, 2022-02-11 00:10:06.977
134.0, -7906.4378626868565, -9745.785265658531, -9990.760384888696, -15635.358170909665, -2680.622360780521, -2065.278835925917, -5359.613044215804, -6033.518139543312, -15984.648881512749, -14648.148673552118, -19651.40785591696, -10920.682361207291, -6794.572686502062, -10619.358494205297, -10434.174291393078, -10528.31983903883, 0.004, -0.026000000000000002, 0.986, 192.0, 0.0, 0.0, 0.0, 0.0, 0.0, 0.0, 0.0, 0.0, 0.0, 1.6444986069779253E9, 0.0, 2022-02-11 00:10:06.977
136.0, -7928.029647830684, -9759.777457687553, -10004.12672807297, -15644.231813458422, -2692.5581923196546, -2077.9746267765317, -5369.179590842676, -6027.282002840281, -15990.505038560039, -14655.323583522271, -19664.41657118995, -10928.572527000015, -6821.595945548528, -10625.751093119514, -10440.87981472967, -10535.897080409179, 0.004, -0.026000000000000002, 0.986, 192.0, 0.0, 0.0, 0.0, 0.0, 0.0, 0.0, 0.0, 0.0, 0.0, 1.644498606977946E9, 0.0, 2022-02-11 00:10:06.977
138.0, -7920.653572160432, -9759.844512920918, -9994.180201790357, -15654.558319396774, -2687.2831806282024, -2060.74143180149, -5357.780201170469, -6026.946726673452, -15995.131849662288, -14661.313851036293, -19671.32326022664, -10942.20709111775, -6808.922506442369, -10648.438113741651, -10444.344335120242, -10539.94274615559, 0.004, -0.026000000000000002, 0.986, 192.0, 0.0, 0.0, 0.0, 0.0, 0.0, 0.0, 0.0, 0.0, 0.0, 1.6444986069779527E9, 0.0, 2022-02-11 00:10:06.977
140.0, -7927.850833875041, -9763.063164122483, -10000.014007093192, -15653.977174040936, -2690.188907407392, -2073.8395540522997, -5370.319529809896, -6037.139122145071, -15998.30579737494, -14658.229310301462, -19660.326201954627, -10935.389809058883, -6800.339436571531, -10638.29042175894, -10442.846768241736, -10545.240109591497, 0.004, -0.026000000000000002, 0.986, 192.0, 0.0, 0.0, 127.5, 16.0, 15.0, 120.0, 0.0, 0.0, 0.0, 1.6444986069779596E9, 0.0, 2022-02-11 00:10:06.977
142.0, -7931.360057754524, -9764.873655423362, -10000.371635004478, -15650.579708883728, -2686.7914422501854, -2073.5266296299255, -5359.054250604421, -6041.34125010267, -16000.853896242847, -14667.19235982804, -19678.632280663525, -10942.296498095573, -6802.842831950526, -10637.619869425282, -10449.418181111596, -10547.765856714948, 0.004, -0.026000000000000002, 0.986, 192.0, 0.0, 0.0, 0.0, 0.0, 0.0, 0.0, 0.0, 0.0, 0.0, 1.6444986069779668E9, 0.0, 2022-02-11 00:10:06.977
144.0, -7926.241508274259, -9764.627786234354, -9999.678730926364, -15657.464046175963, -2679.3036078576574, -2063.31188241385, -5355.857951147313, -6028.779569718787, -16002.418518354718, -14665.627737716168, -19666.40587644647, -10936.64150674838, -6802.194631361322, -10618.173851749165, -10439.762227506904, -10543.407266546163, 0.004, -0.026000000000000002, 0.986, 192.0, 0.0, 0.0, 0.0, 0.0, 0.0, 0.0, 0.0, 0.0, 0.0, 1.6444986069779735E9, 0.0, 2022-02-11 00:10:06.977
146.0, -7944.94991838335, -9771.5568270155, -10006.920696129882, -15661.465008433463, -2695.5309743322105, -2077.8181645653444, -5374.432250789672, -6047.599738550155, -16009.83929751388, -14673.204979086517, -19681.068620809154, -10950.164312143841, -6800.607657504995, -10636.68109615816, -10445.663088043106, -10552.772647472937, 0.004, -0.026000000000000002, 0.986, 192.0, 0.0, 0.0, 0.0, 0.0, 0.0, 0.0, 0.0, 0.0, 0.0, 1.6444986069779801E9, 0.0, 2022-02-11 00:10:06.977
148.0, -7932.365886255013, -9768.74050721413, -9995.87893436896, -15657.441694431507, -2667.0772036406047, -2062.998957991476, -5352.505189479017, -6035.015706421817, -16008.677006802203, -14676.445982032536, -19681.22508302034, -10951.930099955809, -6803.245163350722, -10634.691790901637, -10446.244233398942, -10552.303260839375, 0.004, -0.026000000000000002, 0.986, 192.0, 0.0, 0.0, 0.0, 0.0, 0.0, 0.0, 0.0, 0.0, 0.0, 1.644498606977987E9, 0.0, 2022-02-11 00:10:06.977
150.0, -7938.289098535669, -9767.421754291267, -9998.3599780035, -15661.487360177918, -2670.966407175828, -2061.613149835247, -5359.121305837787, -6038.256709367837, -16008.297027146464, -14672.556778497314, -19669.401010203484, -10945.246928363673, -6803.91571568438, -10623.158290762698, -10435.850672227225, -10551.520949783438, 0.004, -0.026000000000000002, 0.988, 192.0, 0.0, 16.0, 127.5, 24.0, 15.0, 112.0, 0.0, 0.0, 0.0, 1.6444986069779942E9, 0.0, 2022-02-11 00:10:06.977
152.0, -7933.394066499957, -9760.626823976854, -10000.081062326559, -15656.458217675474, -2672.3522153320573, -2056.807524777356, -5355.075640091377, -6032.266441853815, -16007.760585279535, -14672.199150586028, -19680.37571673104, -10949.918442954831, -6799.49007028223, -10623.851194840812, -10442.422085097085, -10553.532606784416, 0.004, -0.026000000000000002, 0.988, 192.0, 0.0, 0.0, 0.0, 0.0, 0.0, 0.0, 0.0, 0.0, 0.0, 1.6444986069780028E9, 0.0, 2022-02-11 00:10:06.978
154.0, -7924.721589651298, -9756.290585552524, -9995.141326801935, -15655.608851386172, -2661.936302415884, -2044.6481757936688, -5353.131038323765, -6027.840796451664, -16001.83737299888, -14656.016487600386, -19661.913175810954, -10933.914593924832, -6786.0566718645905, -10627.762750120492, -10439.091675173244, -10549.889272438202, 0.004, -0.026000000000000002, 0.988, 192.0, 0.0, 0.0, 0.0, 0.0, 0.0, 0.0, 0.0, 0.0, 0.0, 1.6444986069780097E9, 0.0, 2022-02-11 00:10:06.978
156.0, -7944.704049194343, -9766.147704857314, -10006.875992640971, -15661.1967875, -2664.2385320947806, -2050.4596293520485, -5357.132000581265, -6036.870901211608, -16009.12404169131, -14665.225406315973, -19671.94910907139, -10944.062285907541, -6774.903151381392, -10627.896860587223, -10439.382247851163, -10556.594795774794, 0.004, -0.026000000000000002, 0.988, 192.0, 0.0, 0.0, 0.0, 0.0, 0.0, 0.0, 0.0, 0.0, 0.0, 1.6444986069780169E9, 0.0, 2022-02-11 00:10:06.978
158.0, -7926.442673974357, -9759.151608842803, -9993.375538989967, -15657.329935709231, -2649.5310842431886, -2036.1768646451076, -5335.093180548332, -6025.71738072841, -16006.151259678754, -14665.963013882998, -19673.35726897207, -10946.74449524218, -6784.380291030442, -10618.48677617154, -10441.125683918677, -10556.863016708257, 0.004, -0.026000000000000002, 0.988, 192.0, 0.0, 0.0, 0.0, 0.0, 0.0, 0.0, 0.0, 0.0, 0.0, 1.6444986069780245E9, 0.0, 2022-02-11 00:10:06.978
160.0, -7931.225947287792, -9762.414963533278, -9995.722472157773, -15658.536929909818, -2654.627281978999, -2040.4907513249818, -5337.14954103822, -6027.036133651273, -16009.660483558237, -14666.141827838639, -19661.17556824393, -10938.899032938365, -6785.140250341922, -10630.042628054933, -10430.620364024684, -10558.13706614221, 0.006, -0.02, 0.986, 192.0, 0.0, 24.0, 127.5, 48.0, 15.0, 104.0, 0.0, 0.0, 0.0, 1.6444986069780312E9, 0.0, 2022-02-11 00:10:06.978
162.0, -7932.611755444022, -9756.156475085792, -9996.50478321371, -15655.988831041914, -2646.826523164096, -2029.8513209642556, -5337.618927671781, -6016.2849445682705, -16010.085166702887, -14666.410048772104, -19679.168722530452, -10943.63760276289, -6775.193724059311, -10624.074712285366, -10435.381285593663, -10559.388763831706, 0.006, -0.02, 0.986, 192.0, 0.0, 0.0, 0.0, 0.0, 0.0, 0.0, 0.0, 0.0, 0.0, 1.644498606978038E9, 0.0, 2022-02-11 00:10:06.978
164.0, -7920.094778549049, -9748.042791848517, -9987.36291973149, -15659.72157236595, -2632.543758457155, -2020.418884804116, -5332.992116569533, -6011.613429977111, -16004.765451522524, -14654.228348043962, -19657.93456529791, -10937.937907926787, -6767.884703622425, -10614.284648213941, -10425.524166288873, -10555.879539952224, 0.006, -0.02, 0.986, 192.0, 0.0, 0.0, 0.0, 0.0, 0.0, 0.0, 0.0, 0.0, 0.0, 1.6444986069780447E9, 0.0, 2022-02-11 00:10:06.978
166.0, -7932.388237999468, -9754.591852973921, -9996.303617513611, -15666.829427102737, -2643.741982429264, -2034.7016495110572, -5346.380811498262, -6025.069180139206, -16011.672140559214, -14664.264281304393, -19669.065734036652, -10945.425742319316, -6785.2967125531095, -10605.567467876372, -10424.361875577197, -10564.037926678411, 0.006, -0.02, 0.986, 192.0, 0.0, 0.0, 0.0, 0.0, 0.0, 0.0, 0.0, 0.0, 0.0, 1.6444986069780517E9, 0.0, 2022-02-11 00:10:06.978
168.0, -7931.583575199077, -9754.748315185108, -9995.87893436896, -15661.487360177918, -2637.99758410425, -2023.3469633277612, -5340.39054398424, -6011.8816509105745, -16013.393224882273, -14666.432400516558, -19669.17749275893, -10943.861120207444, -6775.014910103669, -10624.030008796455, -10433.660201270604, -10562.495656310995, 0.006, -0.02, 0.986, 192.0, 0.0, 0.0, 0.0, 0.0, 0.0, 0.0, 0.0, 0.0, 0.0, 1.6444986069780586E9, 0.0, 2022-02-11 00:10:06.978
170.0, -7936.2550897902365, -9764.31486181198, -10000.438690237843, -15669.824560859748, -2641.260938794725, -2026.6997249960573, -5344.7714858974805, -6022.0963981266505, -16020.299913918963, -14677.585920999756, -19666.897614824487, -10939.92721318331, -6776.713642682272, -10627.53923267594, -10432.721428003482, -10562.674470266636, 0.012, -0.02, 0.99, 192.0, 0.0, 48.0, 127.5, 48.0, 15.0, 120.0, 0.0, 0.0, 0.0, 1.6444986069780655E9, 0.0, 2022-02-11 00:10:06.978
172.0, -7943.76527592722, -9773.479077038655, -10000.17046930438, -15670.584520171229, -2638.1763980598926, -2024.2410331059734, -5328.320601978374, -6021.00116264834, -16021.21633544163, -14685.00670015892, -19681.716821398357, -10956.780428502612, -6772.109183324478, -10626.53340417545, -10434.464864070997, -10566.831894735324, 0.012, -0.02, 0.99, 192.0, 0.0, 0.0, 0.0, 0.0, 0.0, 0.0, 0.0, 0.0, 0.0, 1.6444986069780724E9, 0.0, 2022-02-11 00:10:06.978
174.0, -7932.902328121941, -9768.047603136016, -9995.588361691041, -15670.830389360237, -2626.32997349858, -2020.128312126197, -5327.068904288877, -6019.727113214388, -16027.675989589214, -14678.14471461114, -19672.396143960494, -10943.21291961824, -6765.157790798878, -10622.733607618047, -10428.049913412324, -10563.725002256037, 0.012, -0.02, 0.99, 192.0, 0.0, 0.0, 0.0, 0.0, 0.0, 0.0, 0.0, 0.0, 0.0, 1.6444986069780793E9, 0.0, 2022-02-11 00:10:06.978
176.0, -7953.1083051095375, -9771.512123526589, -10009.178222319868, -15676.10540105169, -2630.643860178454, -2026.2303383624958, -5349.264186532997, -6031.506482542334, -16031.207565213153, -14680.022261145385, -19681.80622837618, -10951.706582511257, -6758.474619206741, -10616.698636615114, -10429.770997735382, -10567.882426724724, 0.012, -0.02, 0.99, 192.0, 0.0, 0.0, 0.0, 0.0, 0.0, 0.0, 0.0, 0.0, 0.0, 1.6444986069780865E9, 0.0, 2022-02-11 00:10:06.978
178.0, -7943.206482315837, -9769.120486869871, -9997.711777414295, -15676.23951151842, -2623.133674041471, -2010.9193934106106, -5333.528558436461, -6019.950630658941, -16030.224088457118, -14678.882322178164, -19686.544798200703, -10960.848445993477, -6767.035337333124, -10616.72098835957, -10437.974087950479, -10570.0952494258, 0.012, -0.02, 0.99, 192.0, 0.0, 0.0, 0.0, 0.0, 0.0, 0.0, 0.0, 0.0, 0.0, 1.6444986069780936E9, 0.0, 2022-02-11 00:10:06.978
0.0, -4314.423121741191, -5192.109071267733, -5211.063350565833, -8179.307958997245, -1125.5667955358977, -838.5480449852997, -2516.180576822827, -2955.5488175807977, -8019.135358230515, -7341.4081146011495, -9840.288441215569, -5477.831420639923, -3389.127956524844, -5320.788064096936, -5215.734865156993, -5284.33236889033, 0.01, -0.024, 0.992, 192.0, 0.0, 40.0, 127.5, 32.0, 15.5, 0.0, 0.0, 0.0, 0.0, 1.644498607543506E9, 0.0, 2022-02-11 00:10:07.543
2.0, -8636.758761019559, -10382.072375067757, -10427.44641631203, -16360.359354062004, -2261.348338287871, -1687.2437819533088, -5050.488418398907, -5925.469806846358, -17061.220653202614, -15573.779114935294, -20135.74780651901, -11699.305379307913, -6551.989203928614, -10831.074217685964, -10720.477786121106, -11216.88767872902, 0.01, -0.024, 0.992, 192.0, 0.0, 0.0, 0.0, 0.0, 0.0, 0.0, 0.0, 0.0, 0.0, 1.644498607543671E9, 0.0, 2022-02-11 00:10:07.543
4.0, -8635.730580774616, -10384.888694869125, -10424.183061621556, -16359.778208706166, -2265.528114501013, -1678.3477876600966, -5055.003470778879, -5926.341524880115, -17058.337278167877, -15570.18048407799, -20148.108321202795, -11709.877754435272, -6561.779268000039, -10817.462005312682, -10726.713922824136, -11220.374550864048, 0.01, -0.024, 0.992, 192.0, 0.0, 0.0, 0.0, 0.0, 0.0, 0.0, 0.0, 0.0, 0.0, 1.6444986075436902E9, 0.0, 2022-02-11 00:10:07.543
6.0, -8615.412845064742, -10364.61566264816, -10415.44352953953, -16348.512929500692, -2259.962530131642, -1676.2243719368425, -5053.729421344927, -5922.586431811623, -17053.062266476427, -15561.84328339616, -20129.51166981598, -11691.951655382116, -6552.749163240095, -10821.28415361454, -10725.015190245533, -11215.837146739621, 0.01, -0.024, 0.992, 192.0, 0.0, 0.0, 0.0, 0.0, 0.0, 0.0, 0.0, 0.0, 0.0, 1.6444986075436976E9, 0.0, 2022-02-11 00:10:07.543
8.0, -8633.048371439978, -10361.57582540224, -10427.401712823119, -16349.742275445733, -2267.182143590706, -1683.8016133071917, -5051.561302132762, -5923.748722523299, -17048.591917585363, -15560.993917106858, -20130.49514657201, -11685.022614600972, -6540.902738678782, -10841.333668390951, -10721.46126287714, -11215.79244325071, 0.012, -0.026000000000000002, 0.99, 192.0, 0.0, 48.0, 127.5, 24.0, 15.0, 120.0, 0.0, 0.0, 0.0, 1.6444986075437057E9, 0.0, 2022-02-11 00:10:07.543
10.0, -8618.027999166012, -10357.15018000009, -10418.975105163468, -16349.608164979001, -2254.5534079734575, -1675.7326335588257, -5051.38248817712, -5925.3580481240815, -17048.3236966519, -15564.011402608325, -20135.65839954119, -11693.918608894182, -6537.035886888014, -10828.839043240434, -10725.082245478898, -11216.261829884272, 0.012, -0.026000000000000002, 0.99, 192.0, 0.0, 0.0, 0.0, 0.0, 0.0, 0.0, 0.0, 0.0, 0.0, 1.644498607543713E9, 0.0, 2022-02-11 00:10:07.543
12.0, -8627.080455670412, -10364.123924270145, -10424.048951154822, -16355.598432493023, -2259.627253964812, -1683.466337140362, -5054.221159722943, -5929.917803992964, -17052.436417631678, -15563.765533419317, -20124.37076859126, -11690.096460592325, -6548.703497493684, -10825.620392038869, -10720.723655310114, -11216.641809540011, 0.012, -0.026000000000000002, 0.99, 192.0, 0.0, 0.0, 0.0, 0.0, 0.0, 0.0, 0.0, 0.0, 0.0, 1.64449860754372E9, 0.0, 2022-02-11 00:10:07.543
14.0, -8630.589679549896, -10362.089915524712, -10426.373532578174, -16354.100865614519, -2261.191876076684, -1679.018339993756, -5053.215331222455, -5919.144263165505, -17059.007830501538, -15568.861731155126, -20143.9061932452, -11702.144050853736, -6553.307956851478, -10812.052883154498, -10725.88690827929, -11217.334713618126, 0.012, -0.026000000000000002, 0.99, 192.0, 0.0, 0.0, 0.0, 0.0, 0.0, 0.0, 0.0, 0.0, 0.0, 1.6444986075437272E9, 0.0, 2022-02-11 00:10:07.543
16.0, -8617.357446832353, -10353.283328209322, -10419.265677841388, -16353.8102929366, -2255.2239603071166, -1675.9114475144684, -5047.739153830905, -5917.087902675617, -17053.688115321173, -15552.947289102947, -20127.20944013708, -11685.804925656907, -6551.989203928614, -10820.010104180588, -10721.595373343871, -11210.249210625794, 0.013000000000000001, -0.029, 0.991, 192.0, 0.0, 56.0, 127.5, 0.0, 15.5, 0.0, 0.0, 0.0, 0.0, 1.6444986075437343E9, 0.0, 2022-02-11 00:10:07.543
18.0, -8626.85693822586, -10354.467970665452, -10425.457111055508, -16355.352563304015, -2263.985844133597, -1683.9804272628342, -5059.04913652529, -5926.989725469319, -17055.56566185542, -15554.735428659373, -20132.37269310626, -11693.78449842745, -6547.071820148447, -10826.71562751718, -10722.60120184436, -11214.65250428349, 0.013000000000000001, -0.029, 0.991, 192.0, 0.0, 0.0, 0.0, 0.0, 0.0, 0.0, 0.0, 0.0, 0.0, 1.644498607543741E9, 0.0, 2022-02-11 00:10:07.543
20.0, -8613.51294678604, -10352.501017153385, -10415.48823302844, -16348.46822601178, -2248.5184369705244, -1669.407089877974, -5043.782895062315, -5908.7507019937875, -17044.70271405014, -15553.953117603436, -20126.963570948075, -11694.700919950119, -6528.2516513170785, -10824.279287371552, -10721.55066985496, -11210.070396670151, 0.013000000000000001, -0.029, 0.991, 192.0, 0.0, 0.0, 0.0, 0.0, 0.0, 0.0, 0.0, 0.0, 0.0, 1.6444986075437477E9, 0.0, 2022-02-11 00:10:07.543
22.0, -8624.04061842449, -10360.19001724601, -10424.1607098771, -16348.691743456335, -2248.630195692801, -1673.4751073688399, -5057.730383602427, -5922.273507389249, -17049.307173407935, -15557.797617649749, -20118.73812898852, -11686.833105901851, -6523.043694858992, -10832.884708986845, -10720.50013786556, -11207.723463502343, 0.013000000000000001, -0.029, 0.991, 192.0, 0.0, 0.0, 0.0, 0.0, 0.0, 0.0, 0.0, 0.0, 0.0, 1.6444986075437548E9, 0.0, 2022-02-11 00:10:07.543
24.0, -8626.923993459224, -10362.782819602826, -10422.752549976416, -16344.690781198835, -2254.9780911181083, -1675.1961916918983, -5054.914063801059, -5922.206452155883, -17051.27412692, -15561.060972340223, -20136.93244897514, -11695.080899605859, -6532.207910085668, -10824.502804816104, -10728.680876336202, -11214.227821138838, 0.013000000000000001, -0.029, 0.991, 192.0, 0.0, 0.0, 0.0, 0.0, 0.0, 0.0, 0.0, 0.0, 0.0, 1.6444986075437615E9, 0.0, 2022-02-11 00:10:07.543
26.0, -8605.242801337577, -10345.549624627785, -10410.436738781542, -16342.053275353108, -2238.2589862655386, -1651.1904181468985, -5038.932566515514, -5905.97908568133, -17041.41700761521, -15546.375876233087, -20117.12880338774, -11683.078012833359, -6553.620881273852, -10808.476604041649, -10716.253306419052, -11205.30947510117, 0.0145, -0.027500000000000004, 0.9895, 192.0, 0.0, 64.0, 127.5, 24.0, 15.0, 112.0, 0.0, 0.0, 0.0, 1.6444986075437684E9, 0.0, 2022-02-11 00:10:07.543
28.0, -8627.013400437047, -10361.598177146696, -10422.0596458983, -16348.222356822773, -2247.0655735809296, -1671.3293399011302, -5056.389278935108, -5925.827434757643, -17042.355780882335, -15556.054181582234, -20123.56610579087, -11684.59793145632, -6534.599546742385, -10807.359016818884, -10711.559440083438, -11205.890620457008, 0.0145, -0.027500000000000004, 0.9895, 192.0, 0.0, 0.0, 0.0, 0.0, 0.0, 0.0, 0.0, 0.0, 0.0, 1.644498607543775E9, 0.0, 2022-02-11 00:10:07.543
30.0, -8615.144624131277, -10354.982060787925, -10417.276372584865, -16349.049371367619, -2235.6214804198125, -1659.5052670842729, -5042.821770050737, -5915.523280563746, -17043.383961127278, -15562.625594452096, -20128.03645468193, -11690.387033270245, -6535.135988609313, -10817.372598334861, -10714.59927732936, -11208.617533280556, 0.0145, -0.027500000000000004, 0.9895, 192.0, 0.0, 0.0, 0.0, 0.0, 0.0, 0.0, 0.0, 0.0, 0.0, 1.644498607543782E9, 0.0, 2022-02-11 00:10:07.543
32.0, -8627.505138815062, -10362.849874836193, -10424.808910466303, -16354.547900503625, -2243.2210735346166, -1667.887171255013, -5045.593386363195, -5920.910050977475, -17048.36840014081, -15566.671260198505, -20119.051053410894, -11687.637768702241, -6536.410038043266, -10812.879897699344, -10710.195983671663, -11208.997512936296, 0.0145, -0.027500000000000004, 0.9895, 192.0, 0.0, 0.0, 0.0, 0.0, 0.0, 0.0, 0.0, 0.0, 0.0, 1.644498607543789E9, 0.0, 2022-02-11 00:10:07.543
34.0, -8635.596470307884, -10365.286214981821, -10427.82639596777, -16356.447798782327, -2245.4338962356924, -1668.892999755502, -5051.740116088405, -5928.666106303466, -17054.202205443646, -15565.84424565366, -20139.949934476608, -11697.159611840203, -6529.436293773209, -10834.784607265545, -10718.108501208842, -11217.02178919575, 0.0145, -0.027500000000000004, 0.9895, 192.0, 0.0, 0.0, 0.0, 0.0, 0.0, 0.0, 0.0, 0.0, 0.0, 1.6444986075437958E9, 0.0, 2022-02-11 00:10:07.543
36.0, -8615.524603787018, -10355.697316610494, -10415.599991750716, -16354.436141781349, -2237.0296403204966, -1666.0543282096778, -5046.040421252301, -5923.4805015898355, -17046.26733616201, -15559.295184528255, -20123.052015668396, -11691.437565259645, -6529.324535050933, -10822.71466525968, -10712.49821335056, -11216.105367673084, 0.01225, -0.02475, 0.98575, 192.0, 0.0, 40.0, 127.5, 40.0, 15.0, 88.0, 0.0, 0.0, 0.0, 1.6444986075438056E9, 0.0, 2022-02-11 00:10:07.543
38.0, -8632.355467361864, -10366.67202313805, -10426.082959900255, -16355.441970281838, -2253.212303306139, -1678.3254359156415, -5057.439810924508, -5934.656373817489, -17049.597746085852, -15569.800504422248, -20127.23179188154, -11693.225704816068, -6530.7773984405285, -10836.773912522069, -10711.805309272446, -11221.760359020276, 0.01225, -0.02475, 0.98575, 192.0, 0.0, 0.0, 0.0, 0.0, 0.0, 0.0, 0.0, 0.0, 0.0, 1.6444986075438125E9, 0.0, 2022-02-11 00:10:07.543
40.0, -8621.09018815639, -10363.542778914307, -10418.371608063175, -16356.04546738213, -2242.930500856698, -1664.6461683089935, -5040.85481653867, -5918.920745720952, -17049.307173407935, -15569.532283488785, -20133.087948928827, -11696.712576951097, -6541.9309189237265, -10831.364790363883, -10716.07449246341, -11222.095635187106, 0.01225, -0.02475, 0.98575, 192.0, 0.0, 0.0, 0.0, 0.0, 0.0, 0.0, 0.0, 0.0, 0.0, 1.644498607543819E9, 0.0, 2022-02-11 00:10:07.543
42.0, -8624.398246335775, -10363.341613214208, -10422.596087765229, -16363.354487819015, -2246.640890436279, -1668.244799166298, -5045.593386363195, -5922.944059722908, -17048.971897241103, -15569.1746555775, -20118.93929468862, -11691.906951893205, -6540.790979956506, -10814.444519811215, -10710.821832516413, -11221.335675875625, 0.01225, -0.02475, 0.98575, 192.0, 0.0, 0.0, 0.0, 0.0, 0.0, 0.0, 0.0, 0.0, 0.0, 1.644498607543826E9, 0.0, 2022-02-11 00:10:07.543
44.0, -8624.331191102408, -10368.124886527645, -10421.098520886722, -16356.648964482423, -2241.1870647891838, -1664.1991334198874, -5037.904386270569, -5919.926574221441, -17047.4743303626, -15571.253367811843, -20133.311466373383, -11700.937056653149, -6531.559709496464, -10815.115072144876, -10713.369931384317, -11220.21808865286, 0.01225, -0.02475, 0.98575, 192.0, 0.0, 0.0, 0.0, 0.0, 0.0, 0.0, 0.0, 0.0, 0.0, 1.6444986075438323E9, 0.0, 2022-02-11 00:10:07.543
46.0, -8614.22820260861, -10360.882921324126, -10414.281238827854, -16355.911356915398, -2234.928576341698, -1661.4945723407952, -5033.702258312972, -5915.188004396917, -17043.205147171637, -15567.341812532166, -20119.02870166644, -11685.782573912451, -6522.127273336324, -10812.924601188255, -10706.306780136441, -11215.367760106059, 0.013125000000000001, -0.020375, 0.988875, 192.0, 0.0, 56.0, 127.5, 64.0, 15.5, 0.0, 0.0, 0.0, 0.0, 1.6444986075438392E9, 0.0, 2022-02-11 00:10:07.543
48.0, -8629.42738883822, -10365.889712082115, -10424.831262210759, -16362.594528507536, -2249.9042451267537, -1668.110688699566, -5045.436924152008, -5919.636001543522, -17046.647315817754, -15570.113428844623, -20123.94608544661, -11687.570713468876, -6522.306087291967, -10817.506708801593, -10710.575963327405, -11218.45230084089, 0.013125000000000001, -0.020375, 0.988875, 192.0, 0.0, 0.0, 0.0, 0.0, 0.0, 0.0, 0.0, 0.0, 0.0, 1.6444986075438466E9, 0.0, 2022-02-11 00:10:07.543
50.0, -8612.529470030007, -10352.590424131206, -10416.44935804002, -16354.659659225901, -2237.9684135876196, -1660.8016682626808, -5035.870377525137, -5910.538841550212, -17043.763940783017, -15567.386516021075, -20126.918867459164, -11694.343292038833, -6527.268174561045, -10817.104377401398, -10712.766434284023, -11216.105367673084, 0.013125000000000001, -0.020375, 0.988875, 192.0, 0.0, 0.0, 0.0, 0.0, 0.0, 0.0, 0.0, 0.0, 0.0, 1.6444986075438533E9, 0.0, 2022-02-11 00:10:07.543
52.0, -8617.424502065718, -10359.340650956708, -10418.416311552086, -16353.944403403331, -2241.8352653783877, -1663.8191537641471, -5037.189130448, -5916.059722430673, -17046.200280928646, -15563.094981085656, -20114.848925453298, -11683.547399466921, -6527.1340640943135, -10821.150043147809, -10710.553611582949, -11211.322094359648, 0.013125000000000001, -0.020375, 0.988875, 192.0, 0.0, 0.0, 0.0, 0.0, 0.0, 0.0, 0.0, 0.0, 0.0, 1.64449860754386E9, 0.0, 2022-02-11 00:10:07.543
54.0, -8622.56540329044, -10357.53015965583, -10419.936230175046, -16350.055199868108, -2241.6117479338345, -1661.762793274259, -5035.557453102762, -5915.545632308202, -17047.451978618144, -15565.46426599792, -20130.428091338646, -11690.856419903806, -6516.248764544579, -10817.752577990601, -10715.627457574303, -11212.238515882316, 0.013125000000000001, -0.020375, 0.988875, 192.0, 0.0, 0.0, 0.0, 0.0, 0.0, 0.0, 0.0, 0.0, 0.0, 1.6444986075438669E9, 0.0, 2022-02-11 00:10:07.543
56.0, -8615.166975875733, -10360.257072479377, -10410.324980059264, -16353.877348169966, -2229.765323372522, -1651.950377458379, -5028.47195011043, -5907.364893837559, -17045.641487317265, -15563.653774697039, -20117.017044665463, -11683.189771555635, -6518.841566901394, -10804.118013872865, -10708.11727143732, -11204.974198934342, 0.013562500000000002, -0.0201875, 0.9894375, 192.0, 0.0, 56.0, 127.5, 48.0, 15.0, 120.0, 0.0, 0.0, 0.0, 1.6444986075438735E9, 0.0, 2022-02-11 00:10:07.543
58.0, -8626.700476014672, -10364.1462760146, -10418.975105163468, -16357.118351115985, -2237.409619976237, -1669.116517200055, -5039.670174082538, -5919.45718758788, -17045.865004761818, -15569.264062555321, -20121.375634834247, -11691.4599170041, -6519.869747146338, -10808.834231952935, -10705.055082446943, -11210.98681819282, 0.013562500000000002, -0.0201875, 0.9894375, 192.0, 0.0, 0.0, 0.0, 0.0, 0.0, 0.0, 0.0, 0.0, 0.0, 1.6444986075438805E9, 0.0, 2022-02-11 00:10:07.543
60.0, -8612.440063052185, -10353.484493909418, -10405.809927679293, -16355.75489470421, -2224.445608192159, -1650.0057756907675, -5033.4340373795085, -5907.208431626372, -17040.858214003827, -15570.739277689372, -20123.11907090176, -11693.292760049435, -6507.7103981626515, -10808.94599067521, -10706.127966180798, -11212.283219371226, 0.013562500000000002, -0.0201875, 0.9894375, 192.0, 0.0, 0.0, 0.0, 0.0, 0.0, 0.0, 0.0, 0.0, 0.0, 1.6444986075438871E9, 0.0, 2022-02-11 00:10:07.543
62.0, -8619.972600933625, -10361.352307957686, -10412.381340549153, -16364.539130275147, -2231.151131528751, -1657.6500722944825, -5038.574938604229, -5910.918821205953, -17045.84265301736, -15568.973489877402, -20114.4465940531, -11682.049832588415, -6521.300258791478, -10797.680711469737, -10706.083262691887, -11210.31626585916, 0.013562500000000002, -0.0201875, 0.9894375, 192.0, 0.0, 0.0, 0.0, 0.0, 0.0, 0.0, 0.0, 0.0, 0.0, 1.644498607543896E9, 0.0, 2022-02-11 00:10:07.543
64.0, -8624.822929480426, -10363.408668447575, -10417.745759218426, -16366.304918087117, -2232.3581257293376, -1656.5771885606277, -5033.121112957134, -5908.88481246052, -17052.816397287417, -15576.260158569832, -20136.552469319402, -11698.724233952074, -6524.9659448821485, -10806.241429596119, -10713.101710450854, -11215.658332783978, 0.013562500000000002, -0.0201875, 0.9894375, 192.0, 0.0, 0.0, 0.0, 0.0, 0.0, 0.0, 0.0, 0.0, 0.0, 1.644498607543904E9, 0.0, 2022-02-11 00:10:07.543
66.0, -8611.94832467417, -10356.077296266234, -10405.161727090088, -16364.852054697521, -2222.121026768807, -1647.6141390340495, -5031.511787356351, -5902.782786224221, -17046.602612328843, -15568.280585799288, -20119.98982667802, -11688.464783247087, -6526.105883849369, -10788.963531132165, -10707.334960381384, -11207.41053907997, 0.010781250000000001, -0.025093749999999998, 0.98771875, 192.0, 0.0, 32.0, 127.5, 8.0, 15.0, 104.0, 0.0, 0.0, 0.0, 1.644498607543911E9, 0.0, 2022-02-11 00:10:07.543
68.0, -8630.99201095009, -10362.849874836193, -10414.080073127756, -16367.422505309882, -2230.1005995393516, -1671.888133512513, -5042.732363072916, -5927.012077213773, -17049.888318763773, -15573.779114935294, -20126.382425592237, -11691.638730959741, -6520.67440994673, -10810.577668020447, -10711.224163916608, -11215.010132194773, 0.010781250000000001, -0.025093749999999998, 0.98771875, 192.0, 0.0, 0.0, 0.0, 0.0, 0.0, 0.0, 0.0, 0.0, 0.0, 1.6444986075439205E9, 0.0, 2022-02-11 00:10:07.543
70.0, -8611.769510718526, -10352.545720642296, -10405.429948023551, -16362.415714551893, -2213.090922008863, -1655.0349181932115, -5022.504034340863, -5905.6438095145, -17042.13226343778, -15563.966699119414, -20128.70700701559, -11694.566809483387, -6517.053427344969, -10814.153947133296, -10712.297047650463, -11218.094672929607, 0.010781250000000001, -0.025093749999999998, 0.98771875, 192.0, 0.0, 0.0, 0.0, 0.0, 0.0, 0.0, 0.0, 0.0, 0.0, 1.6444986075439277E9, 0.0, 2022-02-11 00:10:07.543
72.0, -8619.32440034442, -10355.652613121583, -10415.555288261807, -16363.756819219212, -2226.7254861266, -1660.2205229068427, -5028.650764066072, -5902.246344357293, -17046.960240240125, -15567.520626487807, -20116.480602798536, -11683.525047722465, -6500.9601713371485, -10808.18603136373, -10703.713977779626, -11207.946980946897, 0.010781250000000001, -0.025093749999999998, 0.98771875, 192.0, 0.0, 0.0, 0.0, 0.0, 0.0, 0.0, 0.0, 0.0, 0.0, 1.644498607543935E9, 0.0, 2022-02-11 00:10:07.543
74.0, -8628.42156033773, -10357.798380589293, -10416.494061528929, -16361.834569196055, -2229.2959367389603, -1660.2875781402086, -5027.5108250988515, -5904.705036247377, -17057.286746178477, -15574.293205057766, -20138.27355364246, -11690.521143736976, -6527.178767583224, -10823.988714693633, -10713.63815231778, -11212.014998437762, 0.010781250000000001, -0.025093749999999998, 0.98771875, 192.0, 0.0, 0.0, 0.0, 0.0, 0.0, 0.0, 0.0, 0.0, 0.0, 1.6444986075439417E9, 0.0, 2022-02-11 00:10:07.543
76.0, -8618.497385799574, -10357.105476511178, -10411.442567282029, -16364.919109930886, -2214.923765054198, -1652.2409501362981, -5019.352438372664, -5897.641884999501, -17055.90093802225, -15573.55559749074, -20131.277457627948, -11685.536704723443, -6536.700610721185, -10808.94599067521, -10709.436024360184, -11209.109271658574, 0.010390625, -0.026546874999999998, 0.985859375, 192.0, 0.0, 40.0, 127.5, 16.0, 15.0, 96.0, 0.0, 0.0, 0.0, 1.6444986075439491E9, 0.0, 2022-02-11 00:10:07.543
78.0, -8632.109598172856, -10361.687584124516, -10415.599991750716, -16370.015307666697, -2227.150169271251, -1662.9474357303902, -5034.775142046827, -5911.924649706441, -17052.83874903187, -15572.058030612236, -20132.08212042834, -11693.002187371516, -6517.344000022888, -10795.110260857375, -10706.575001069905, -11212.260867626772, 0.010390625, -0.026546874999999998, 0.985859375, 192.0, 0.0, 0.0, 0.0, 0.0, 0.0, 0.0, 0.0, 0.0, 0.0, 1.6444986075439565E9, 0.0, 2022-02-11 00:10:07.543
80.0, -8626.678124270216, -10358.133656756123, -10411.308456815297, -16367.824836710077, -2226.9490035711533, -1660.6899095404042, -5035.110418213656, -5911.187042139416, -17045.90970825073, -15580.350527805154, -20134.518460573967, -11694.723271694575, -6521.836700658406, -10811.449386054204, -10716.163899441231, -11215.658332783978, 0.010390625, -0.026546874999999998, 0.985859375, 192.0, 0.0, 0.0, 0.0, 0.0, 0.0, 0.0, 0.0, 0.0, 0.0, 1.6444986075439637E9, 0.0, 2022-02-11 00:10:07.543
82.0, -8631.796673750481, -10360.212368990466, -10420.62913425316, -16362.862749441, -2234.4591897081364, -1660.8687234960466, -5035.222176935933, -5912.192870639905, -17059.119589223814, -15575.209626580434, -20129.6010767938, -11687.011919857494, -6525.569441982441, -10812.544621532516, -10713.481690106593, -11213.914896716464, 0.010390625, -0.026546874999999998, 0.985859375, 192.0, 0.0, 0.0, 0.0, 0.0, 0.0, 0.0, 0.0, 0.0, 0.0, 1.6444986075439708E9, 0.0, 2022-02-11 00:10:07.543
84.0, -8634.523586574029, -10371.030613306835, -10425.479462799962, -16361.8122174516, -2241.030602577997, -1660.8463717515913, -5036.920909514536, -5911.321152606149, -17057.75613281204, -15579.143533604567, -20145.18024267915, -11698.74658569653, -6511.912526120249, -10819.80893848049, -10716.588582585882, -11212.21616413786, 0.010390625, -0.026546874999999998, 0.985859375, 192.0, 0.0, 0.0, 0.0, 0.0, 0.0, 0.0, 0.0, 0.0, 0.0, 1.6444986075439777E9, 0.0, 2022-02-11 00:10:07.543
86.0, -8625.158205647254, -10367.879017338637, -10415.331770817253, -16364.583833764058, -2236.761419387033, -1664.4897060978064, -5030.349496644676, -5908.907164204975, -17055.56566185542, -15577.690670214972, -20128.17056514866, -11689.336501280844, -6537.505273521576, -10823.385217593339, -10712.274695906008, -11210.539783303713, 0.008, -0.02, 0.986, 192.0, 0.0, 32.0, 127.5, 48.0, 15.0, 104.0, 0.0, 0.0, 0.0, 1.644498607543985E9, 0.0, 2022-02-11 00:10:07.543
88.0, -8640.737371532605, -10376.886770354125, -10427.245250611932, -16369.836493711055, -2243.645756679268, -1671.7540230457812, -5048.5214648868405, -5920.105388177084, -17063.94756602616, -15588.777135464805, -20134.496108829513, -11698.50071650752, -6543.093209635403, -10833.979944465154, -10716.230954674596, -11221.000399708797, 0.008, -0.02, 0.986, 192.0, 0.0, 0.0, 0.0, 0.0, 0.0, 0.0, 0.0, 0.0, 0.0, 1.6444986075439916E9, 0.0, 2022-02-11 00:10:07.543
90.0, -8629.472092327129, -10368.10253478319, -10414.616514994683, -16363.265080841195, -2223.886814580776, -1652.9338542144126, -5025.6332785646055, -5904.3474083360925, -17055.14097871077, -15582.205722594945, -20137.670056542167, -11701.942885153638, -6516.092302333392, -10811.874069198855, -10715.135719196287, -11216.194774650905, 0.008, -0.02, 0.986, 192.0, 0.0, 0.0, 0.0, 0.0, 0.0, 0.0, 0.0, 0.0, 0.0, 1.6444986075439992E9, 0.0, 2022-02-11 00:10:07.543
92.0, -8635.529415074518, -10370.605930162184, -10413.700093472016, -16368.942423932842, -2231.1287797842956, -1658.1194589280437, -5031.109455956156, -5908.348370593592, -17060.214824702125, -15583.055088884246, -20125.73422500303, -11690.141164081237, -6534.19721534219, -10801.502859771594, -10700.607085300337, -11211.344446104104, 0.008, -0.02, 0.986, 192.0, 0.0, 0.0, 0.0, 0.0, 0.0, 0.0, 0.0, 0.0, 0.0, 1.644498607544006E9, 0.0, 2022-02-11 00:10:07.544
94.0, -8646.124141946333, -10377.49026745442, -10422.640791254138, -16367.601319265525, -2237.0072885760414, -1665.4508311093846, -5035.445694380485, -5910.918821205953, -17059.879548535293, -15591.168772121522, -20146.655457813198, -11701.585257242354, -6534.465436275654, -10825.933316461244, -10710.508908094038, -11217.602934551589, 0.008, -0.02, 0.986, 192.0, 0.0, 0.0, 0.0, 0.0, 0.0, 0.0, 0.0, 0.0, 0.0, 1.6444986075440128E9, 0.0, 2022-02-11 00:10:07.544
96.0, -8637.295202886487, -10375.545665686806, -10412.582506249251, -16368.271871599183, -2230.7711518730107, -1651.7715635027366, -5025.432112864508, -5902.179289123927, -17064.104028237347, -15589.492391287375, -20141.626315310754, -11698.187792085148, -6527.603450727875, -10819.116034402376, -10707.31260863693, -11212.640847282511, 0.004, -0.02, 0.986, 192.0, 0.0, 16.0, 127.5, 48.0, 15.0, 104.0, 0.0, 0.0, 0.0, 1.6444986075440202E9, 0.0, 2022-02-11 00:10:07.544
98.0, -8661.256272942575, -10397.226857808455, -10419.556250519307, -16370.082362900062, -2244.5174747130245, -1672.75985154627, -5036.071543225235, -5914.651562529989, -17071.86008356334, -15595.214437867933, -20145.51551884598, -11704.64744623273, -6531.537357752009, -10846.273403915573, -10708.564306326427, -11216.820623495654, 0.004, -0.02, 0.986, 192.0, 0.0, 0.0, 0.0, 0.0, 0.0, 0.0, 0.0, 0.0, 0.0, 1.6444986075440273E9, 0.0, 2022-02-11 00:10:07.544
100.0, -8659.624595597339, -10398.545610731318, -10412.895430671624, -16366.416676809393, -2232.1122565403293, -1663.5062293417727, -5032.405857134564, -5904.593277525101, -17077.917406310728, -15596.868466957625, -20152.399856138214, -11711.330617824868, -6528.139892594802, -10844.038229470043, -10711.35827438334, -11218.631114796533, 0.004, -0.02, 0.986, 192.0, 0.0, 0.0, 0.0, 0.0, 0.0, 0.0, 0.0, 0.0, 0.0, 1.644498607544037E9, 0.0, 2022-02-11 00:10:07.544
102.0, -8672.119220747856, -10411.643732982127, -10413.789500449837, -16371.110543145007, -2226.2113960041283, -1662.6792147969265, -5026.125016942623, -5906.783748481721, -17083.974729058114, -15594.700347745462, -20141.760425777487, -11699.908876408206, -6532.72200020814, -10836.326877632962, -10704.093957435365, -11215.144242661507, 0.004, -0.02, 0.986, 192.0, 0.0, 0.0, 0.0, 0.0, 0.0, 0.0, 0.0, 0.0, 0.0, 1.6444986075440438E9, 0.0, 2022-02-11 00:10:07.544
104.0, -8691.676997146249, -10431.469730313986, -10414.862384183692, -16370.48469430026, -2230.9052623397424, -1664.310892142164, -5023.979249474914, -5906.761396737265, -17090.881418094807, -15607.351435107164, -20162.480492887556, -11715.398635315732, -6534.510139764565, -10828.749636262613, -10708.251381904052, -11216.954733962386, 0.004, -0.02, 0.986, 192.0, 0.0, 0.0, 0.0, 0.0, 0.0, 0.0, 0.0, 0.0, 0.0, 1.6444986075440505E9, 0.0, 2022-02-11 00:10:07.544
106.0, -8697.689616404727, -10446.579509565772, -10410.861421926193, -16366.327269831572, -2219.3941139452595, -1651.503342569273, -5017.7654645163375, -5893.506812275268, -17082.2312929906, -15597.650778013562, -20147.37071363577, -11705.005074144015, -6528.162244339257, -10808.320141830462, -10703.35634986834, -11207.991684435807, 0.002, -0.024, 0.986, 192.0, 0.0, 8.0, 127.5, 32.0, 15.0, 104.0, 0.0, 0.0, 0.0, 1.6444986075440574E9, 0.0, 2022-02-11 00:10:07.544
108.0, -8765.30364338203, -10505.901039350158, -10430.374494835674, -16377.369031592492, -2232.6486984072567, -1667.8648195105577, -5026.326182642721, -5906.850803715087, -17114.082528839415, -15623.020007970335, -20171.868225558785, -11727.982667444072, -6521.791997169495, -10810.890592442822, -10707.960809226133, -11215.41246359497, 0.002, -0.024, 0.986, 192.0, 0.0, 0.0, 0.0, 0.0, 0.0, 0.0, 0.0, 0.0, 0.0, 1.644498607544064E9, 0.0, 2022-02-11 00:10:07.544
110.0, -8775.317224898008, -10525.07883609281, -10416.941096418035, -16370.261176855705, -2221.7410471130665, -1650.5198658132394, -5010.5458510572735, -5892.612742497056, -17125.906601656272, -15636.699275576982, -20189.593158911845, -11742.824225762395, -6533.213738586157, -10840.707819546202, -10708.49725109306, -11213.020826938251, 0.002, -0.024, 0.986, 192.0, 0.0, 0.0, 0.0, 0.0, 0.0, 0.0, 0.0, 0.0, 0.0, 1.6444986075440712E9, 0.0, 2022-02-11 00:10:07.544
112.0, -8810.342408459474, -10554.04669690689, -10422.953715676513, -16371.021136167186, -2207.3688754283044, -1644.6413570214936, -5005.851984721659, -5884.476707515324, -17134.06498838246, -15636.229888943422, -20181.47947567457, -11736.096350681348, -6535.6500787317855, -10819.0042756801, -10697.410785843229, -11203.409576822469, 0.002, -0.024, 0.986, 192.0, 0.0, 0.0, 0.0, 0.0, 0.0, 0.0, 0.0, 0.0, 0.0, 1.644498607544078E9, 0.0, 2022-02-11 00:10:07.544
114.0, -8831.107179058454, -10556.907720197169, -10429.212204123998, -16374.865636213499, -2222.9480413136534, -1641.601519775572, -5018.346609872176, -5883.269713314738, -17150.180596134735, -15634.419397642541, -20207.00516784253, -11743.807702518428, -6533.258442075067, -10793.90326665679, -10704.920971980211, -11204.325998345137, 0.002, -0.024, 0.986, 192.0, 0.0, 0.0, 0.0, 0.0, 0.0, 0.0, 0.0, 0.0, 0.0, 1.6444986075440848E9, 0.0, 2022-02-11 00:10:07.544
116.0, -8820.579507420005, -10560.886330710213, -10416.44935804002, -16363.399191307926, -2212.5544801419355, -1640.573339530628, -4997.470080550919, -5875.40189926647, -17146.716075744163, -15621.589496325196, -20196.611606670813, -11739.94085072766, -6525.86001466036, -10825.396874594317, -10699.400091099751, -11198.73806223131, 0.008, -0.02, 0.988, 192.0, 0.0, 32.0, 127.5, 48.0, 15.0, 112.0, 0.0, 0.0, 0.0, 1.6444986075440924E9, 0.0, 2022-02-11 00:10:07.544
118.0, -8832.716504659236, -10574.610301805771, -10426.284125600354, -16364.472075041782, -2228.9383088276754, -1653.0903164255997, -5004.957914943447, -5884.454355770869, -17154.114503158868, -15635.067598231746, -20202.4677637181, -11745.305269396935, -6524.787130926506, -10833.242336898129, -10700.472974833605, -11199.922704687442, 0.008, -0.02, 0.988, 192.0, 0.0, 0.0, 0.0, 0.0, 0.0, 0.0, 0.0, 0.0, 0.0, 1.6444986075440996E9, 0.0, 2022-02-11 00:10:07.544
120.0, -8807.9284200583, -10548.905795682169, -10417.924573174068, -16362.281604085161, -2213.381494686782, -1638.8746069520244, -5001.0910631526785, -5874.6866434439, -17146.02317166605, -15631.893650519092, -20205.351138752838, -11748.523920598498, -6514.706494177162, -10820.658304769791, -10702.954018468145, -11197.329902330626, 0.008, -0.02, 0.988, 192.0, 0.0, 0.0, 0.0, 0.0, 0.0, 0.0, 0.0, 0.0, 0.0, 1.644498608024418E9, 0.0, 2022-02-11 00:10:08.024
122.0, -8793.533896629084, -10538.556937999361, -10416.516413273384, -16364.874406441977, -2211.3027824524384, -1643.143790142988, -5015.597345304173, -5883.292065059193, -17142.133968130824, -15627.400949883575, -20187.357984466315, -11735.761074514518, -6504.536450449998, -10805.794394707013, -10690.034710172977, -11194.245361595793, 0.008, -0.02, 0.988, 192.0, 0.0, 0.0, 0.0, 0.0, 0.0, 0.0, 0.0, 0.0, 0.0, 1.6444986080245972E9, 0.0, 2022-02-11 00:10:08.024
124.0, -8775.183114431276, -10513.925315609613, -10413.990666149935, -16362.907452929909, -2210.051084762941, -1647.6588425229602, -5004.533231798796, -5879.715785946344, -17130.801633691983, -15619.779005024315, -20193.124734535784, -11741.728990284086, -6520.160319824257, -10820.926525703255, -10691.822849729402, -11196.88286744152, 0.008, -0.02, 0.988, 192.0, 0.0, 0.0, 0.0, 0.0, 0.0, 0.0, 0.0, 0.0, 0.0, 1.6444986080246055E9, 0.0, 2022-02-11 00:10:08.024
126.0, -8739.77795121407, -10492.937027566079, -10398.590314220228, -16359.711153472801, -2198.2940671794495, -1640.9980226752787, -4991.233943847888, -5874.418422510436, -17114.261342795056, -15606.300903117766, -20166.861434800798, -11721.075978407382, -6507.643342929286, -10798.060691125476, -10680.468163546106, -11194.133602873517, 0.006, -0.028, 0.986, 192.0, 0.0, 24.0, 127.5, 16.0, 15.0, 104.0, 0.0, 0.0, 0.0, 1.6444986080246131E9, 0.0, 2022-02-11 00:10:08.024
128.0, -8738.861529691403, -10484.64453037316, -10410.146166103623, -16361.834569196055, -2217.62832613329, -1663.595636319594, -5014.010371447846, -5891.808079696665, -17106.14765955778, -15608.066690929734, -20161.541719620433, -11720.830109218372, -6505.609334183852, -10834.963421221188, -10682.25630310253, -11203.923666944942, 0.006, -0.028, 0.986, 192.0, 0.0, 0.0, 0.0, 0.0, 0.0, 0.0, 0.0, 0.0, 0.0, 1.6444986080246222E9, 0.0, 2022-02-11 00:10:08.024
130.0, -8728.535023753051, -10471.144076722156, -10416.270544084377, -16353.09503711403, -2220.4222941902035, -1655.3254908711303, -5020.5817843177065, -5892.635094241512, -17104.85125837937, -15603.261065871844, -20169.99067902454, -11719.533708039966, -6500.602543425864, -10834.046999698521, -10696.024977686999, -11207.701111757888, 0.006, -0.028, 0.986, 192.0, 0.0, 0.0, 0.0, 0.0, 0.0, 0.0, 0.0, 0.0, 0.0, 1.6444986080246296E9, 0.0, 2022-02-11 00:10:08.024
132.0, -8715.52630848006, -10455.989593981456, -10410.414387037086, -16356.80542669361, -2215.4825586655807, -1654.274958881731, -5009.472967323419, -5885.348425549081, -17109.835697392904, -15598.969530936425, -20161.295850431427, -11709.944809668637, -6517.656924445263, -10828.928450218255, -10696.762585254024, -11203.253114611283, 0.006, -0.028, 0.986, 192.0, 0.0, 0.0, 0.0, 0.0, 0.0, 0.0, 0.0, 0.0, 0.0, 1.6444986080246496E9, 0.0, 2022-02-11 00:10:08.024
134.0, -8697.287285004531, -10435.269526871387, -10408.49213701393, -16352.558595247103, -2219.572927900902, -1649.983423946312, -5008.0201039338235, -5885.415480782447, -17096.782278631006, -15591.74991747736, -20168.493112146036, -11714.482213793066, -6502.8377178713945, -10811.225868609652, -10695.220314886608, -11205.689454756912, 0.006, -0.028, 0.986, 192.0, 0.0, 0.0, 0.0, 0.0, 0.0, 0.0, 0.0, 0.0, 0.0, 1.6444986080246563E9, 0.0, 2022-02-11 00:10:08.024
136.0, -8674.71202310467, -10423.512509287895, -10393.62822695115, -16353.385609791949, -2196.5506311119357, -1643.9261011989238, -4994.229077604899, -5877.771184178732, -17079.95141505616, -15582.853923184148, -20143.28034440045, -11695.527934494965, -6512.538374964997, -10794.350301545895, -10686.100803148844, -11194.044195895696, 0.01, -0.03, 0.984, 192.0, 0.0, 40.0, 127.5, 8.0, 15.0, 96.0, 0.0, 0.0, 0.0, 1.6444986080246634E9, 0.0, 2022-02-11 00:10:08.024
138.0, -8690.537058179028, -10433.213166381498, -10405.564058490285, -16363.354487819015, -2221.852805835343, -1670.077642211633, -5012.80337724726, -5889.528201762224, -17087.059269792946, -15592.286359344287, -20149.136501447738, -11705.60857124431, -6500.580191681408, -10817.104377401398, -10686.21256187112, -11204.437757067413, 0.01, -0.03, 0.984, 192.0, 0.0, 0.0, 0.0, 0.0, 0.0, 0.0, 0.0, 0.0, 0.0, 1.6444986080246704E9, 0.0, 2022-02-11 00:10:08.024
140.0, -8667.648871856794, -10411.1072911152, -10396.958636874991, -16353.027981880663, -2218.8129685894214, -1656.8677612385466, -5007.953048700458, -5880.073413857629, -17082.14188601278, -15585.938463918981, -20156.244356184525, -11708.089614878847, -6510.258497030556, -10834.449331098716, -10688.984178183578, -11208.662236769467, 0.01, -0.03, 0.984, 192.0, 0.0, 0.0, 0.0, 0.0, 0.0, 0.0, 0.0, 0.0, 0.0, 1.6444986080246775E9, 0.0, 2022-02-11 00:10:08.024
142.0, -8657.344717662898, -10402.859497411191, -10397.91976188657, -16350.90456615741, -2217.047180777452, -1643.210845376354, -5000.42051081902, -5863.175495049417, -17076.03985977648, -15567.766495676817, -20135.03255069644, -11694.052719360914, -6499.95434283666, -10809.549487775505, -10682.59157926936, -11196.704053485877, 0.01, -0.03, 0.984, 192.0, 0.0, 0.0, 0.0, 0.0, 0.0, 0.0, 0.0, 0.0, 0.0, 1.6444986080246842E9, 0.0, 2022-02-11 00:10:08.024
144.0, -8652.494389116096, -10389.895485627114, -10398.456203753496, -16342.433255008847, -2218.3659337003155, -1639.5228075412283, -5000.9122491970365, -5866.394146250981, -17068.641432361776, -15565.911300887026, -20140.821652510363, -11687.101326835314, -6492.064177043936, -10807.493127285616, -10688.40303282774, -11191.11611737205, 0.01, -0.03, 0.984, 192.0, 0.0, 0.0, 0.0, 0.0, 0.0, 0.0, 0.0, 0.0, 0.0, 1.6444986080246913E9, 0.0, 2022-02-11 00:10:08.024
146.0, -8635.194138907687, -10380.306587255787, -10383.569941946262, -16344.400208520916, -2199.9704480135974, -1637.175874373421, -4986.003635645347, -5867.243512540283, -17061.690039836176, -15567.006536365336, -20127.298847114904, -11677.110097063793, -6503.687084160696, -10792.919789900756, -10681.518695535506, -11190.713785971855, 0.01, -0.03, 0.99, 192.0, 0.0, 40.0, 127.5, 8.0, 15.0, 120.0, 0.0, 0.0, 0.0, 1.6444986080246985E9, 0.0, 2022-02-11 00:10:08.024
148.0, -8648.314612902954, -10387.77206990386, -10390.521334471863, -16350.166958590384, -2211.481596408081, -1650.341051857597, -5000.822842219215, -5884.186134837406, -17064.059324748436, -15572.616824223618, -20127.857640726288, -11681.245169788024, -6495.662807901241, -10799.066519625965, -10676.44484954415, -11199.632132009523, 0.01, -0.03, 0.99, 192.0, 0.0, 0.0, 0.0, 0.0, 0.0, 0.0, 0.0, 0.0, 0.0, 1.6444986080247052E9, 0.0, 2022-02-11 00:10:08.024
150.0, -8639.910356987757, -10379.0995930552, -10386.229799536444, -16351.99980163572, -2213.895584809254, -1645.4236680774295, -5001.024007919313, -5873.636111454501, -17058.203167701147, -15568.571158477207, -20129.489318071523, -11685.447297745623, -6488.800822353462, -10805.570877262458, -10682.815096713914, -11200.190925620906, 0.01, -0.03, 0.99, 192.0, 0.0, 0.0, 0.0, 0.0, 0.0, 0.0, 0.0, 0.0, 0.0, 1.644498608024712E9, 0.0, 2022-02-11 00:10:08.024
152.0, -8637.876348242326, -10376.752659887394, -10385.514543713874, -16347.194176577828, -2219.4388174341702, -1650.2516448797758, -5003.594458531673, -5878.2852743012045, -17066.361554427334, -15572.438010267975, -20121.286227856424, -11684.821448900873, -6494.411110211744, -10809.23656335313, -10683.262131603018, -11200.123870387539, 0.01, -0.03, 0.99, 192.0, 0.0, 0.0, 0.0, 0.0, 0.0, 0.0, 0.0, 0.0, 0.0, 1.644498608024719E9, 0.0, 2022-02-11 00:10:08.024
154.0, -8638.681011042716, -10368.1472382721, -10392.57769496175, -16343.997877120719, -2219.505872667536, -1650.5198658132394, -5009.674133023516, -5890.623437240534, -17062.025316003004, -15569.286414299777, -20134.429053596148, -11684.396765756223, -6485.515115918532, -10794.23854282362, -10688.179515383186, -11204.057777411674, 0.008, -0.03, 0.988, 192.0, 0.0, 24.0, 127.5, 8.0, 15.0, 104.0, 0.0, 0.0, 0.0, 1.644498608024726E9, 0.0, 2022-02-11 00:10:08.024
156.0, -8614.362313075342, -10349.148255485088, -10381.200657034, -16343.416731764883, -2201.57977361438, -1646.787124489203, -5002.812147475737, -5886.600123238579, -17051.56469959792, -15557.104713571634, -20118.916942944164, -11674.919626107172, -6480.776546094006, -10791.444574766705, -10687.196038627153, -11202.202582621883, 0.008, -0.03, 0.988, 192.0, 0.0, 0.0, 0.0, 0.0, 0.0, 0.0, 0.0, 0.0, 0.0, 1.6444986080247328E9, 0.0, 2022-02-11 00:10:08.024
158.0, -8623.32536260192, -10355.138522999112, -10382.675872168049, -16349.362295789993, -2213.694419109156, -1656.0854501826109, -5012.043417935779, -5899.653542000478, -17052.70463856514, -15553.260213525322, -20116.391195820714, -11673.332652250845, -6476.239141969579, -10792.338644544918, -10682.748041480547, -11208.706940258377, 0.008, -0.03, 0.988, 192.0, 0.0, 0.0, 0.0, 0.0, 0.0, 0.0, 0.0, 0.0, 0.0, 1.6444986080247405E9, 0.0, 2022-02-11 00:10:08.024
160.0, -8613.043560152479, -10355.630261377128, -10373.95869183048, -16345.450740510314, -2217.4718639221032, -1650.9669007023456, -5008.511842311841, -5896.099614632084, -17047.09435070686, -15554.98129784838, -20121.777966234444, -11686.587236712843, -6479.211923982135, -10815.584458778438, -10686.123154893297, -11208.550478047191, 0.008, -0.03, 0.988, 192.0, 0.0, 0.0, 0.0, 0.0, 0.0, 0.0, 0.0, 0.0, 0.0, 1.6444986080247495E9, 0.0, 2022-02-11 00:10:08.024
162.0, -8620.151414889266, -10360.52529341284, -10374.852761608692, -16351.262194068695, -2215.4825586655807, -1649.8046099906696, -5012.937487713992, -5896.948980921386, -17044.814472772418, -15554.333097259176, -20106.489373027012, -11670.78455338294, -6489.739595620585, -10790.572856732948, -10680.73638447957, -11204.54951578969, 0.008, -0.03, 0.988, 192.0, 0.0, 0.0, 0.0, 0.0, 0.0, 0.0, 0.0, 0.0, 0.0, 1.6444986080247562E9, 0.0, 2022-02-11 00:10:08.024
164.0, -8623.124196901823, -10356.703145110983, -10379.881904111136, -16347.417694022382, -2222.0763232798963, -1648.2846913677088, -5005.360246343643, -5882.666216214445, -17049.597746085852, -15564.50314098634, -20126.82946048134, -11686.520181479476, -6472.8416768123725, -10772.13266755732, -10685.273788603996, -11203.767204733755, 0.009000000000000001, -0.028999999999999998, 0.991, 192.0, 0.0, 40.0, 127.5, 16.0, 15.5, 8.0, 0.0, 0.0, 0.0, 1.6444986080247664E9, 0.0, 2022-02-11 00:10:08.024
166.0, -8599.364292545832, -10342.599194359684, -10364.705069625983, -16339.818100907578, -2211.9733347860974, -1641.1991883753765, -4995.391368316576, -5879.872248157531, -17042.512243093523, -15552.991992591858, -20108.277512583438, -11674.159666795691, -6475.456830913643, -10790.863429410867, -10680.714032735114, -11195.184134862917, 0.009000000000000001, -0.028999999999999998, 0.991, 192.0, 0.0, 0.0, 0.0, 0.0, 0.0, 0.0, 0.0, 0.0, 0.0, 1.6444986080247731E9, 0.0, 2022-02-11 00:10:08.024
168.0, -8612.46241479664, -10345.773142072338, -10375.210389519976, -16344.266098054184, -2221.606936646335, -1653.3585373590633, -5008.757711500849, -5897.284257088216, -17039.047722702948, -15541.190271519456, -20101.92961715813, -11664.548416679909, -6469.913598288727, -10787.75653693158, -10681.697509491147, -11199.095690142596, 0.009000000000000001, -0.028999999999999998, 0.991, 192.0, 0.0, 0.0, 0.0, 0.0, 0.0, 0.0, 0.0, 0.0, 0.0, 1.6444986080247798E9, 0.0, 2022-02-11 00:10:08.024
170.0, -8609.400225806265, -10343.739133326904, -10368.326052227743, -16341.159205574895, -2217.5165674110135, -1644.9095779549573, -4998.4535573069525, -5881.3921667804925, -17041.081731448383, -15540.944402330448, -20113.239599852517, -11675.098440062815, -6480.262455971534, -10796.98780739162, -10684.223256614598, -11201.26380935476, 0.009000000000000001, -0.028999999999999998, 0.991, 192.0, 0.0, 0.0, 0.0, 0.0, 0.0, 0.0, 0.0, 0.0, 0.0, 1.6444986080247872E9, 0.0, 2022-02-11 00:10:08.024
172.0, -8607.366217060831, -10347.47187465094, -10366.984947560424, -16344.981353876754, -2215.1249307542957, -1647.9047117119685, -5002.342760842176, -5883.135602848006, -17047.13905419577, -15555.473036226396, -20099.582683990324, -11670.561035938386, -6477.826115825906, -10801.61461849387, -10676.422497799695, -11198.559248275667, 0.009000000000000001, -0.028999999999999998, 0.991, 192.0, 0.0, 0.0, 0.0, 0.0, 0.0, 0.0, 0.0, 0.0, 0.0, 1.644498608024794E9, 0.0, 2022-02-11 00:10:08.024
174.0, -8617.290391598986, -10353.663307865061, -10373.221084263454, -16344.66842945438, -2219.8411488343654, -1649.6257960350272, -5004.980266687902, -5883.940265648397, -17047.74255129606, -15560.569233962207, -20112.300826585393, -11680.865190132285, -6473.445173912665, -10788.360034031874, -10679.149410623242, -11199.36391107606, 0.007500000000000001, -0.028499999999999998, 0.9915, 192.0, 0.0, 24.0, 127.5, 16.0, 15.5, 0.0, 0.0, 0.0, 0.0, 1.6444986080248008E9, 0.0, 2022-02-11 00:10:08.024
176.0, -8606.740368216082, -10346.376639172631, -10368.594273161207, -16343.930821887354, -2202.33973292586, -1640.886263953002, -4987.70236822395, -5876.161858577951, -17046.781426284484, -15556.210643793422, -20106.578780004835, -11678.428849986656, -6473.691043101674, -10790.394042777305, -10676.668366988704, -11191.250227838782, 0.007500000000000001, -0.028499999999999998, 0.9915, 192.0, 0.0, 0.0, 0.0, 0.0, 0.0, 0.0, 0.0, 0.0, 0.0, 1.644498608024809E9, 0.0, 2022-02-11 00:10:08.024
178.0, -8616.195156120677, -10348.276537451333, -10377.534970943329, -16345.271926554673, -2221.3387157128714, -1656.4877815828065, -4995.681940994495, -5890.914009918453, -17049.5753943414, -15562.022097351803, -20112.345530074304, -11681.200466299113, -6478.630778626297, -10808.141327874819, -10678.747079223047, -11196.815812208153, 0.007500000000000001, -0.028499999999999998, 0.9915, 192.0, 0.0, 0.0, 0.0, 0.0, 0.0, 0.0, 0.0, 0.0, 0.0, 1.6444986080248163E9, 0.0, 2022-02-11 00:10:08.024
180.0, -8608.908487428247, -10344.38733391611, -10373.086973796722, -16340.466301496781, -2213.090922008863, -1646.5189035557394, -4991.435109547986, -5884.119079604039, -17042.244022160055, -15552.544957702752, -20120.056881911383, -11685.313187278889, -6474.540409390976, -10795.490240513116, -10682.725689736091, -11198.626303509034, 0.007500000000000001, -0.028499999999999998, 0.9915, 192.0, 0.0, 0.0, 0.0, 0.0, 0.0, 0.0, 0.0, 0.0, 0.0, 1.6444986080248237E9, 0.0, 2022-02-11 00:10:08.024
182.0, -8604.75106295956, -10349.95291828548, -10371.00826156238, -16345.495443999225, -2210.028733018486, -1640.6627465084491, -4987.657664735039, -5880.386338280004, -17044.434493116678, -15557.082361827179, -20105.3941375487, -11671.343346994323, -6467.276092443, -10794.75263294609, -10675.439021043661, -11194.088899384607, 0.007500000000000001, -0.028499999999999998, 0.9915, 192.0, 0.0, 0.0, 0.0, 0.0, 0.0, 0.0, 0.0, 0.0, 0.0, 1.6444986080248313E9, 0.0, 2022-02-11 00:10:08.024
184.0, -8610.406054306754, -10352.791589831304, -10371.43294470703, -16346.098941099519, -2217.293049966461, -1641.2885953531977, -5002.342760842176, -5884.722576704333, -17043.04868496045, -15563.653774697039, -20114.781870219933, -11683.055661088903, -6470.85237155585, -10773.138496057809, -10678.59061701186, -11194.155954617972, 0.00975, -0.028249999999999997, 0.99275, 192.0, 0.0, 48.0, 127.5, 16.0, 15.5, 8.0, 0.0, 0.0, 0.0, 1.6444986080248387E9, 0.0, 2022-02-11 00:10:08.024
186.0, -8592.524658742506, -10342.755656570871, -10362.112267269167, -16347.171824833373, -2206.0501225054413, -1641.5121127977507, -4981.175658843, -5878.084108601107, -17035.918478479205, -15550.421541979498, -20101.996672391495, -11677.221855786069, -6461.352880162344, -10783.263836296062, -10677.182457111176, -11189.97617840483, 0.00975, -0.028249999999999997, 0.99275, 192.0, 0.0, 0.0, 0.0, 0.0, 0.0, 0.0, 0.0, 0.0, 0.0, 1.644498608024846E9, 0.0, 2022-02-11 00:10:08.024
188.0, -8606.852126938358, -10345.504921138874, -10376.305624998287, -16348.7587986897, -2219.304706967438, -1655.0349181932115, -4991.770385714815, -5895.40671055397, -17042.534594837976, -15556.70238217144, -20101.460230524568, -11678.562960453388, -6457.977766749593, -10792.964493389665, -10679.372928067796, -11195.094727885096, 0.00975, -0.028249999999999997, 0.99275, 192.0, 0.0, 0.0, 0.0, 0.0, 0.0, 0.0, 0.0, 0.0, 0.0, 1.6444986080248537E9, 0.0, 2022-02-11 00:10:08.024
190.0, -8606.94153391618, -10350.66817410805, -10372.014090062868, -16347.641211466935, -2220.6905151236674, -1645.9377581999015, -4992.329179326199, -5895.809041954165, -17045.261507661522, -15560.345716517653, -20117.12880338774, -11688.464783247087, -6477.401432681255, -10787.42126076475, -10688.78301248348, -11197.128736630528, 0.00975, -0.028249999999999997, 0.99275, 192.0, 0.0, 0.0, 0.0, 0.0, 0.0, 0.0, 0.0, 0.0, 0.0, 1.6444986080248604E9, 0.0, 2022-02-11 00:10:08.024
192.0, -8612.082435140901, -10361.017031790858, -10376.685604654027, -16349.764627190189, -2228.0665907939187, -1657.3818513610188, -5001.515746297329, -5889.237629084305, -17052.011734487027, -15559.719867672906, -20111.429108551634, -11687.101326835314, -6471.768793078518, -10809.683598242236, -10688.581846783381, -11197.352254075082, 0.00975, -0.028249999999999997, 0.99275, 192.0, 0.0, 0.0, 0.0, 0.0, 0.0, 0.0, 0.0, 0.0, 0.0, 1.6444986080248673E9, 0.0, 2022-02-11 00:10:08.024
194.0, -8617.715074743637, -10359.76533410136, -10386.81094489228, -16348.132949844952, -2235.733239142089, -1663.528581086228, -5010.501147568363, -5884.5661144931455, -17052.65993507623, -15568.571158477207, -20125.51070755848, -11693.896257149729, -6478.85429607085, -10798.999464392598, -10696.762585254024, -11200.637960510012, 0.007875, -0.030125, 0.994375, 192.0, 0.0, 24.0, 127.5, 0.0, 15.5, 16.0, 0.0, 0.0, 0.0, 1.6444986080248744E9, 0.0, 2022-02-11 00:10:08.024
196.0, -8604.281676325998, -10355.47379916594, -10376.797363376303, -16349.42935102336, -2222.053971535441, -1658.4770868393286, -4995.279609594299, -5881.749794691777, -17050.961202497627, -15563.027925852291, -20116.637065009723, -11687.570713468876, -6475.702700102652, -10815.048016911509, -10694.393300341762, -11198.514544786758, 0.007875, -0.030125, 0.994375, 192.0, 0.0, 0.0, 0.0, 0.0, 0.0, 0.0, 0.0, 0.0, 0.0, 1.6444986080248845E9, 0.0, 2022-02-11 00:10:08.024
198.0, -8617.200984621166, -10363.274557980843, -10387.81677339277, -16357.319516816082, -2230.4805791950917, -1663.372118875041, -5005.293191110277, -5885.393129037992, -17053.352839154344, -15565.88894914257, -20115.36301557577, -11688.956521625105, -6478.071985014914, -10801.659321982781, -10691.867553218312, -11201.129698888028, 0.007875, -0.030125, 0.994375, 192.0, 0.0, 0.0, 0.0, 0.0, 0.0, 0.0, 0.0, 0.0, 0.0, 1.6444986080248911E9, 0.0, 2022-02-11 00:10:08.024
200.0, -8606.56155426044, -10358.535988156318, -10374.71865114196, -16349.965792890287, -2213.6273638757903, -1645.46837156634, -4985.869525178615, -5874.664291699444, -17044.166272183214, -15564.369030519609, -20120.16864063366, -11694.991492628038, -6477.401432681255, -10796.876048669345, -10696.002625942545, -11199.565076776156, 0.007875, -0.030125, 0.994375, 192.0, 0.0, 0.0, 0.0, 0.0, 0.0, 0.0, 0.0, 0.0, 0.0, 1.6444986080248983E9, 0.0, 2022-02-11 00:10:08.024
202.0, -8597.330283800398, -10347.874206051136, -10371.142372029111, -16347.99883937822, -2207.3912271727595, -1642.8308657206137, -4987.903533924047, -5878.486440001302, -17042.534594837976, -15555.785960648771, -20098.30863455637, -11677.132448808248, -6469.958301777638, -10780.693385683702, -10684.536181036972, -11194.982969162818, 0.007875, -0.030125, 0.994375, 192.0, 0.0, 0.0, 0.0, 0.0, 0.0, 0.0, 0.0, 0.0, 0.0, 1.6444986080249054E9, 0.0, 2022-02-11 00:10:08.024
204.0, -8609.355522317353, -10356.747848599893, -10384.508715213386, -16344.623725965468, -2222.6574686357344, -1647.6811942674153, -5002.812147475737, -5889.863477929053, -17041.79698727095, -15554.400152492542, -20111.004425406984, -11679.635844187242, -6470.919426789216, -10799.312388814973, -10689.967654939612, -11198.425137808936, 0.0069375, -0.029062499999999998, 0.9921875, 192.0, 0.0, 24.0, 127.5, 16.0, 15.0, 120.0, 0.0, 0.0, 0.0, 1.6444986080249124E9, 0.0, 2022-02-11 00:10:08.024
206.0, -8603.65582748125, -10357.485456166918, -10383.391127990619, -16346.881252155454, -2208.441759162159, -1640.573339530628, -4992.955028170947, -5885.884867416009, -17046.75907454003, -15558.199949049944, -20109.50685852848, -11682.206294799602, -6451.361650390822, -10798.373615547851, -10694.527410808494, -11196.145259874495, 0.0069375, -0.029062499999999998, 0.9921875, 192.0, 0.0, 0.0, 0.0, 0.0, 0.0, 0.0, 0.0, 0.0, 0.0, 1.6444986080249193E9, 0.0, 2022-02-11 00:10:08.024
208.0, -8620.978429434113, -10361.62052889115, -10392.778860661849, -16358.23593833875, -2231.955794329142, -1654.274958881731, -5007.528365555807, -5899.027693155729, -17058.47138863461, -15570.739277689372, -20117.687596999123, -11694.231533316557, -6501.653075415263, -10793.18801083422, -10689.990006684066, -11202.984893677818, 0.0069375, -0.029062499999999998, 0.9921875, 192.0, 0.0, 0.0, 0.0, 0.0, 0.0, 0.0, 0.0, 0.0, 0.0, 1.6444986080249264E9, 0.0, 2022-02-11 00:10:08.024
210.0, -8610.830737451404, -10358.804209089782, -10387.392090248119, -16349.116426600986, -2219.550576156447, -1649.7822582462143, -4995.436071805486, -5888.365911050548, -17054.179853699192, -15562.200911307445, -20126.069501169863, -11696.55611473991, -6499.529659692009, -10812.85754595489, -10693.58863754137, -11202.627265766534, 0.0069375, -0.029062499999999998, 0.9921875, 192.0, 0.0, 0.0, 0.0, 0.0, 0.0, 0.0, 0.0, 0.0, 0.0, 1.644498608024933E9, 0.0, 2022-02-11 00:10:08.024
212.0, -8609.824908950915, -10361.53112191333, -10388.062642581779, -16351.95509814681, -2218.2988784669496, -1646.5859587891055, -4998.252391606855, -5894.222068097838, -17057.13028396729, -15562.513835729818, -20111.630274251733, -11685.536704723443, -6485.515115918532, -10806.934333674233, -10693.253361374542, -11198.067509897652, 0.0069375, -0.029062499999999998, 0.9921875, 192.0, 0.0, 0.0, 0.0, 0.0, 0.0, 0.0, 0.0, 0.0, 0.0, 1.6444986080249407E9, 0.0, 2022-02-11 00:10:08.024
214.0, -8625.85110972537, -10365.889712082115, -10398.0538723533, -16360.694630228834, -2218.209471489128, -1650.1622379019545, -5003.192127131478, -5899.161803622461, -17059.588975857376, -15572.192141078967, -20127.187088392628, -11697.763108940497, -6496.378063723811, -10785.56606597496, -10694.683873019681, -11202.716672744355, 0.0064687500000000005, -0.02853125, 0.99109375, 192.0, 0.0, 24.0, 127.5, 16.0, 15.0, 120.0, 0.0, 0.0, 0.0, 1.644498608024948E9, 0.0, 2022-02-11 00:10:08.024
216.0, -8612.618877007828, -10360.569996901751, -10391.169535061066, -16356.872481926977, -2210.1628434852178, -1645.6471855219825, -4979.02989137529, -5888.5000215172795, -17059.141940968268, -15568.951138132947, -20124.907210458186, -11695.103251350314, -6488.8678775868275, -10793.076252111943, -10690.705262506635, -11200.5932570211, 0.0064687500000000005, -0.02853125, 0.99109375, 192.0, 0.0, 0.0, 0.0, 0.0, 0.0, 0.0, 0.0, 0.0, 0.0, 1.6444986080249555E9, 0.0, 2022-02-11 00:10:08.024
218.0, -8625.18055739171, -10366.448505693497, -10400.803136921304, -16358.392400549938, -2232.179311773695, -1663.3497671305856, -5000.6216765191175, -5906.604934526078, -17063.724048581607, -15576.170751592012, -20122.02383542345, -11693.918608894182, -6481.8270780834055, -10808.074272641454, -10692.515753807516, -11202.873134955542, 0.0064687500000000005, -0.02853125, 0.99109375, 192.0, 0.0, 0.0, 0.0, 0.0, 0.0, 0.0, 0.0, 0.0, 0.0, 1.6444986080249624E9, 0.0, 2022-02-11 00:10:08.024
220.0, -8616.418673565231, -10358.245415478399, -10398.992645620423, -16351.105731857508, -2223.81975934741, -1654.0961449260885, -4997.917115440026, -5902.73808273531, -17056.839711289373, -15573.957928890935, -20126.471832570056, -11698.523068251976, -6501.273095759523, -10812.008179665587, -10701.21058240063, -11208.192850135905, 0.0064687500000000005, -0.02853125, 0.99109375, 192.0, 0.0, 0.0, 0.0, 0.0, 0.0, 0.0, 0.0, 0.0, 0.0, 1.644498608024969E9, 0.0, 2022-02-11 00:10:08.024
222.0, -8617.580964276905, -10358.33482245622, -10397.942113631025, -16350.636345223946, -2226.1890442596728, -1652.956205958868, -4999.906420696548, -5899.228858855827, -17062.606461358842, -15568.973489877402, -20115.45242255359, -11686.028443101459, -6500.915467848238, -10814.176298877752, -10697.969579454611, -11201.6437890105, 0.0064687500000000005, -0.02853125, 0.99109375, 192.0, 0.0, 0.0, 0.0, 0.0, 0.0, 0.0, 0.0, 0.0, 0.0, 1.6444986080249765E9, 0.0, 2022-02-11 00:10:08.024
224.0, -8635.909394730257, -10368.303700483288, -10407.665122469083, -16351.910394657898, -2241.0976578113628, -1664.0426712087003, -5012.870432480626, -5904.436815313914, -17069.356688184344, -15573.55559749074, -20134.518460573967, -11696.399652528722, -6501.854241115361, -10822.75936874859, -10707.670236548214, -11206.896448957497, 0.007234375, -0.026265625, 0.9925468749999999, 192.0, 0.0, 32.0, 127.5, 32.0, 15.5, 8.0, 0.0, 0.0, 0.0, 1.6444986080249832E9, 0.0, 2022-02-11 00:10:08.024
226.0, -8619.0338276665, -10359.139485256612, -10397.450375253007, -16353.989106892242, -2221.0257912904967, -1652.9785577033233, -5002.476871308908, -5896.390187310003, -17066.741534083074, -15572.907396901537, -20126.091852914316, -11697.092556606836, -6503.374159738321, -10807.113147629876, -10706.999684214556, -11202.560210533167, 0.007234375, -0.026265625, 0.9925468749999999, 192.0, 0.0, 0.0, 0.0, 0.0, 0.0, 0.0, 0.0, 0.0, 0.0, 1.64449860802499E9, 0.0, 2022-02-11 00:10:08.024
228.0, -8629.382685349308, -10366.806133604781, -10406.167555590577, -16360.247595339728, -2235.956756586642, -1659.9075984844685, -5008.534194056296, -5914.092768918606, -17071.502455652055, -15573.712059701928, -20127.03062618144, -11690.632902459252, -6496.3333602349, -10808.9012871863, -10701.456451589638, -11204.460108811869, 0.007234375, -0.026265625, 0.9925468749999999, 192.0, 0.0, 0.0, 0.0, 0.0, 0.0, 0.0, 0.0, 0.0, 0.0, 1.6444986080249991E9, 0.0, 2022-02-11 00:10:08.024
230.0, -8618.765606733037, -10356.949014299991, -10397.405671764098, -16355.419618537382, -2215.1919859876616, -1646.3847930890076, -4990.5857432586845, -5900.54761177869, -17063.23231020359, -15571.633347467585, -20136.530117574945, -11694.857382161306, -6491.438328199188, -10788.091813098408, -10703.333998123884, -11206.449414068391, 0.007234375, -0.026265625, 0.9925468749999999, 192.0, 0.0, 0.0, 0.0, 0.0, 0.0, 0.0, 0.0, 0.0, 0.0, 1.6444986080250063E9, 0.0, 2022-02-11 00:10:08.025
232.0, -8616.262211354044, -10354.915005554558, -10396.57865721925, -16356.559557504603, -2219.260003478528, -1646.921234955935, -4988.864658935626, -5885.527239504724, -17062.740571825572, -15564.056106097236, -20118.581666777332, -11691.415213515189, -6495.6181044123305, -10805.369711562362, -10695.332073608884, -11196.7934604637, 0.007234375, -0.026265625, 0.9925468749999999, 192.0, 0.0, 0.0, 0.0, 0.0, 0.0, 0.0, 0.0, 0.0, 0.0, 1.6444986080250137E9, 0.0, 2022-02-11 00:10:08.025
234.0, -8623.37006609083, -10358.491284667407, -10402.501869499907, -16351.865691168989, -2221.6292883907904, -1653.403240847974, -4996.8665834506255, -5894.624399498034, -17061.868853791817, -15571.655699212039, -20131.523326816958, -11694.365643783289, -6473.445173912665, -10801.23463883813, -10700.07064343341, -11201.666140754956, 0.006, -0.022, 0.994, 192.0, 0.0, 24.0, 127.5, 40.0, 15.5, 8.0, 0.0, 0.0, 0.0, 1.6444986080250204E9, 0.0, 2022-02-11 00:10:08.025
236.0, -8609.199060106166, -10351.182264230521, -10387.973235603957, -16345.607202721501, -2211.43689291917, -1639.2322348633093, -4983.254371077343, -5882.30858830316, -17052.570528098408, -15561.21743455141, -20118.8498877108, -11686.900161135216, -6480.731842605096, -10790.550504988492, -10697.790765498969, -11195.497059285291, 0.006, -0.022, 0.994, 192.0, 0.0, 0.0, 0.0, 0.0, 0.0, 0.0, 0.0, 0.0, 0.0, 1.6444986080250275E9, 0.0, 2022-02-11 00:10:08.025
238.0, -8622.587755034894, -10354.624432876639, -10395.975160118956, -16353.139740602941, -2211.6157068748125, -1648.6199675345383, -4994.229077604899, -5894.870268687042, -17060.550100868953, -15559.630460695083, -20118.671073755155, -11685.424946001167, -6492.041825299481, -10806.129670873843, -10695.957922453634, -11197.620475008545, 0.006, -0.022, 0.994, 192.0, 0.0, 0.0, 0.0, 0.0, 0.0, 0.0, 0.0, 0.0, 0.0, 1.6444986080250347E9, 0.0, 2022-02-11 00:10:08.025
240.0, -8610.316647328931, -10349.595290374195, -10386.453316980997, -16351.016324879685, -2204.3960934157485, -1643.3896593319964, -4983.388481544075, -5892.746852963788, -17056.14680721126, -15565.93365263148, -20126.874163970253, -11694.700919950119, -6487.392662452778, -10792.718624200657, -10692.359291596329, -11197.732233730821, 0.006, -0.022, 0.994, 192.0, 0.0, 0.0, 0.0, 0.0, 0.0, 0.0, 0.0, 0.0, 0.0, 1.6444986085038939E9, 0.0, 2022-02-11 00:10:08.503
242.0, -8606.673312982717, -10345.594328116695, -10386.989758847923, -16351.150435346419, -2197.824680545888, -1642.1603133869546, -4978.001711130347, -5883.180306336917, -17055.364496155322, -15557.954079860936, -20108.657492239177, -11685.961387868094, -6475.434479169188, -10794.685577712724, -10681.026957157488, -11193.530105773223, 0.006, -0.022, 0.994, 192.0, 0.0, 0.0, 0.0, 0.0, 0.0, 0.0, 0.0, 0.0, 0.0, 1.6444986085040667E9, 0.0, 2022-02-11 00:10:08.504
244.0, -8611.814214207438, -10340.162854214055, -10390.208410049489, -16348.401170778416, -2213.4261981756927, -1643.0990866540774, -4996.710121239438, -5885.9742743938305, -17054.76099905503, -15557.305879271733, -20121.21917262306, -11692.689262949141, -6482.944665306171, -10809.594191264414, -10688.313625849918, -11196.279370341226, 0.006, -0.018000000000000002, 0.996, 192.0, 0.0, 24.0, 127.5, 56.0, 15.5, 16.0, 0.0, 0.0, 0.0, 1.644498608504077E9, 0.0, 2022-02-11 00:10:08.504
246.0, -8596.771490189016, -10338.33001116872, -10378.093764554711, -16344.355505032005, -2195.6565613337234, -1619.3838857869966, -4976.660606463028, -5870.976253864319, -17047.586089084874, -15557.864672883115, -20109.462155039568, -11687.391899513234, -6477.021453025514, -10785.387252019316, -10690.59350378436, -11188.679777226422, 0.006, -0.018000000000000002, 0.996, 192.0, 0.0, 0.0, 0.0, 0.0, 0.0, 0.0, 0.0, 0.0, 0.0, 1.6444986085040839E9, 0.0, 2022-02-11 00:10:08.504
248.0, -8609.713150228637, -10349.863511307658, -10386.922703614558, -16352.513891758192, -2197.6235148457904, -1629.7774469587146, -4974.336025039676, -5880.319283046638, -17050.00007748605, -15562.446780496453, -20104.96945440405, -11684.016786100483, -6465.934987775682, -10761.359126729862, -10682.099840891344, -11186.198733591884, 0.006, -0.018000000000000002, 0.996, 192.0, 0.0, 0.0, 0.0, 0.0, 0.0, 0.0, 0.0, 0.0, 0.0, 1.6444986085040908E9, 0.0, 2022-02-11 00:10:08.504
250.0, -8599.990141390579, -10340.453426891974, -10383.882866368636, -16347.95413588931, -2191.5885438428577, -1626.5587957571502, -4964.881237135081, -5873.92668413242, -17049.262469919024, -15561.55271071824, -20116.257085353984, -11694.209181572101, -6476.7755838365065, -10782.168600817753, -10685.743175237558, -11187.651596981477, 0.006, -0.018000000000000002, 0.996, 192.0, 0.0, 0.0, 0.0, 0.0, 0.0, 0.0, 0.0, 0.0, 0.0, 1.6444986085040977E9, 0.0, 2022-02-11 00:10:08.504
252.0, -8596.771490189016, -10338.575880357728, -10382.251189023398, -16346.925955644365, -2186.402939129226, -1625.441208534385, -4963.786001656771, -5875.983044622308, -17047.004943729036, -15553.662544925517, -20099.783849690422, -11675.83604762984, -6483.905790317749, -10786.549542730992, -10681.228122857587, -11185.461126024858, 0.006, -0.018000000000000002, 0.996, 192.0, 0.0, 0.0, 0.0, 0.0, 0.0, 0.0, 0.0, 0.0, 0.0, 1.6444986085041044E9, 0.0, 2022-02-11 00:10:08.504
254.0, -8610.495461284574, -10339.492301880397, -10394.2540757959, -16349.51875800118, -2203.2338027040723, -1630.313888825642, -4975.833591918182, -5882.062719114151, -17047.206109429135, -15551.539129202263, -20113.753689974987, -11683.681509933653, -6464.996214508559, -10781.319234528451, -10683.217428114109, -11189.864419682553, 0.006, -0.018000000000000002, 0.996, 192.0, 0.0, 0.0, 127.5, 40.0, 15.5, 0.0, 0.0, 0.0, 0.0, 1.644498608504111E9, 0.0, 2022-02-11 00:10:08.504
0.0, -8597.978484389601, -10335.267822178343, -10382.430002979041, -16344.7578364322, -2188.5487065969355, -1617.3275252971084, -4962.2213795449, -5866.550608462168, -17053.71046706563, -15549.460416967919, -20112.367881818758, -11681.513390721488, -6467.723127332107, -10786.773060175547, -10681.898675191245, -11183.315358557149, 0.006, -0.018000000000000002, 0.996, 192.0, 0.0, 0.0, 0.0, 0.0, 0.0, 0.0, 0.0, 0.0, 0.0, 1.6444986085041175E9, 0.0, 2022-02-11 00:10:08.504
2.0, -8610.137833373288, -10345.504921138874, -10390.543686216317, -16351.530415002158, -2199.5010613800364, -1633.5548917716615, -4978.359339041632, -5884.119079604039, -17054.09044672137, -15566.514797987318, -20109.909189928676, -11682.653329688708, -6492.488860188587, -10788.270627054051, -10679.082355389877, -11186.936341158907, 0.006, -0.018000000000000002, 0.996, 192.0, 0.0, 0.0, 0.0, 0.0, 0.0, 0.0, 0.0, 0.0, 0.0, 1.6444986085041301E9, 0.0, 2022-02-11 00:10:08.504
4.0, -8602.001798391557, -10341.772179814838, -10389.649616438106, -16347.842377167033, -2191.1638606982065, -1625.2623945787425, -4970.871504649103, -5880.051062113173, -17051.81056878693, -15567.095943343156, -20124.236658124526, -11689.023576858472, -6465.42089765321, -10803.179240605741, -10688.179515383186, -11190.982006905318, 0.006, -0.018000000000000002, 0.996, 192.0, 0.0, 0.0, 0.0, 0.0, 0.0, 0.0, 0.0, 0.0, 0.0, 1.644498608504142E9, 0.0, 2022-02-11 00:10:08.504
6.0, -8604.348731559365, -10345.102589738679, -10387.414441992574, -16350.52458650167, -2189.8227560308883, -1620.076789865111, -4965.350623768642, -5875.7371754333, -17053.017562987516, -15562.625594452096, -20110.065652139863, -11681.938073866138, -6483.346996706367, -10795.534944002027, -10679.529390278984, -11186.981044647819, 0.006, -0.018000000000000002, 0.996, 192.0, 0.0, 0.0, 0.0, 0.0, 0.0, 0.0, 0.0, 0.0, 0.0, 1.6444986085041485E9, 0.0, 2022-02-11 00:10:08.504
8.0, -8615.681065998206, -10342.152159470577, -10396.980988619445, -16352.37978129146, -2199.8586892913213, -1622.4013712884632, -4977.1746965855, -5889.707015717866, -17053.50930136553, -15564.637251453074, -20123.7002162576, -11693.963312383094, -6475.210961724635, -10776.290092026007, -10684.536181036972, -11189.059756882163, 0.004, -0.022, 0.99, 192.0, 0.0, 16.0, 127.5, 40.0, 15.0, 120.0, 0.0, 0.0, 0.0, 1.6444986085041552E9, 0.0, 2022-02-11 00:10:08.504
10.0, -8599.453699523652, -10341.436903648008, -10385.2016192915, -16351.99980163572, -2185.6206280732904, -1619.4509410203625, -4970.200952315445, -5888.097690117084, -17051.385885642278, -15554.377800748087, -20116.391195820714, -11687.54836172442, -6475.032147768992, -10788.56119973197, -10683.843276958856, -11190.959655160863, 0.004, -0.022, 0.99, 192.0, 0.0, 0.0, 0.0, 0.0, 0.0, 0.0, 0.0, 0.0, 0.0, 1.6444986085041628E9, 0.0, 2022-02-11 00:10:08.504
12.0, -8617.960943932647, -10359.787685845815, -10399.05970085379, -16357.990069149742, -2207.7712068285, -1630.0009644032675, -4981.041548376268, -5879.581675479612, -17059.4772171351, -15566.738315431872, -20113.64193125271, -11687.704823935608, -6481.782374594495, -10796.786641691524, -10679.39527981225, -11192.233704594815, 0.004, -0.022, 0.99, 192.0, 0.0, 0.0, 0.0, 0.0, 0.0, 0.0, 0.0, 0.0, 0.0, 1.6444986085041695E9, 0.0, 2022-02-11 00:10:08.504
14.0, -8610.294295584476, -10352.389258431109, -10393.404709506596, -16351.642173724435, -2204.6866660936676, -1624.502435267262, -4972.570237227707, -5873.390242265492, -17058.650202590252, -15573.153266090545, -20128.997579693507, -11705.854440433317, -6491.304217732456, -10815.517403545071, -10686.145506637753, -11191.83137319462, 0.004, -0.022, 0.99, 192.0, 0.0, 0.0, 0.0, 0.0, 0.0, 0.0, 0.0, 0.0, 0.0, 1.644498608504176E9, 0.0, 2022-02-11 00:10:08.504
16.0, -8611.70245548516, -10354.624432876639, -10393.53881997333, -16356.38074354896, -2198.8975642797427, -1620.7696939432258, -4970.312711037721, -5877.100631845073, -17059.298403179455, -15568.83937941067, -20114.98303592003, -11697.383129284755, -6493.04765379997, -10797.457194025183, -10679.64114900126, -11187.964521403852, 0.004, -0.022, 0.99, 192.0, 0.0, 0.0, 0.0, 0.0, 0.0, 0.0, 0.0, 0.0, 0.0, 1.6444986085041828E9, 0.0, 2022-02-11 00:10:08.504
18.0, -8623.034789924, -10363.408668447575, -10403.954732889502, -16357.945365660831, -2204.5525556269354, -1627.6093277465498, -4974.98422562888, -5888.7905941951985, -17063.455827648144, -15580.998728394357, -20132.439748339624, -11699.819469430384, -6494.276999745011, -10781.073365339442, -10684.290311847963, -11192.16664936145, 0.01, -0.024, 0.982, 192.0, 0.0, 40.0, 127.5, 32.0, 15.0, 88.0, 0.0, 0.0, 0.0, 1.6444986085041895E9, 0.0, 2022-02-11 00:10:08.504
20.0, -8615.256382853555, -10365.532084170829, -10399.86436365418, -16360.448761039826, -2201.4009596587375, -1625.5529672566615, -4974.157211084033, -5883.02384412573, -17066.205092216147, -15582.31748131722, -20131.277457627948, -11699.685358963652, -6488.487897931087, -10796.630179480337, -10688.090108405366, -11192.658387739468, 0.01, -0.024, 0.982, 192.0, 0.0, 0.0, 0.0, 0.0, 0.0, 0.0, 0.0, 0.0, 0.0, 1.644498608504196E9, 0.0, 2022-02-11 00:10:08.504
22.0, -8626.968696948135, -10367.72255512745, -10409.877945170158, -16369.389458821948, -2210.051084762941, -1641.3556505865636, -4985.578952500696, -5899.877059445031, -17075.86104582084, -15582.652757484051, -20126.114204658774, -11701.987588642549, -6480.418918182721, -10788.918827643256, -10690.526448550994, -11197.732233730821, 0.01, -0.024, 0.982, 192.0, 0.0, 0.0, 0.0, 0.0, 0.0, 0.0, 0.0, 0.0, 0.0, 1.6444986085042028E9, 0.0, 2022-02-11 00:10:08.504
24.0, -8625.962868447647, -10368.013127805369, -10406.905163157602, -16365.723772731279, -2213.9402882981644, -1634.985403416801, -4982.539115254774, -5886.600123238579, -17076.5315981545, -15591.235827354889, -20139.257030398494, -11714.571620770887, -6500.669598659229, -10805.012083651076, -10696.78493699848, -11203.409576822469, 0.01, -0.024, 0.982, 192.0, 0.0, 0.0, 0.0, 0.0, 0.0, 0.0, 0.0, 0.0, 0.0, 1.6444986085042093E9, 0.0, 2022-02-11 00:10:08.504
26.0, -8619.860842211347, -10369.95772957298, -10400.669026454572, -16360.538168017647, -2208.374703928793, -1635.700659239371, -4980.773327442805, -5892.098652374584, -17082.29834822397, -15581.98220515039, -20124.88485871373, -11702.188754342647, -6501.541316692987, -10824.346342604917, -10690.459393317627, -11200.302684343182, 0.01, -0.024, 0.982, 192.0, 0.0, 0.0, 0.0, 0.0, 0.0, 0.0, 0.0, 0.0, 0.0, 1.6444986085042164E9, 0.0, 2022-02-11 00:10:08.504
28.0, -8631.483749328107, -10375.81388662027, -10407.843936424726, -16364.360316319504, -2214.409674931726, -1640.081601152611, -4983.902571666547, -5896.211373354361, -17077.671537121718, -15585.402022052054, -20134.98784720753, -11708.581353256865, -6486.208019996646, -10824.23458388264, -10696.40495734274, -11203.297818100193, 0.01, -0.024, 0.98, 192.0, 0.0, 40.0, 127.5, 32.0, 15.0, 80.0, 0.0, 0.0, 0.0, 1.6444986085042253E9, 0.0, 2022-02-11 00:10:08.504
30.0, -8620.821967222926, -10374.472781952953, -10395.639883952128, -16366.57313902058, -2199.411654402215, -1634.3595545720525, -4975.230094817888, -5895.116137876051, -17072.86591206383, -15585.044394140768, -20129.22109713806, -11709.274257334979, -6492.175935766213, -10803.894496428311, -10694.795631741958, -11201.375568077037, 0.01, -0.024, 0.98, 192.0, 0.0, 0.0, 0.0, 0.0, 0.0, 0.0, 0.0, 0.0, 0.0, 1.6444986085042465E9, 0.0, 2022-02-11 00:10:08.504
32.0, -8636.468188341642, -10382.34059600122, -10406.703997457505, -16369.367107077493, -2203.1667474707065, -1638.8299034631139, -4981.354472798643, -5901.508736790269, -17081.203112745658, -15590.095888387668, -20130.763367505475, -11710.74947246903, -6488.085566530892, -10809.571839519958, -10693.901561963745, -11206.002379179285, 0.01, -0.024, 0.98, 192.0, 0.0, 0.0, 0.0, 0.0, 0.0, 0.0, 0.0, 0.0, 0.0, 1.6444986085042534E9, 0.0, 2022-02-11 00:10:08.504
34.0, -8630.187348149699, -10375.746831386905, -10404.20060207851, -16363.555653519114, -2200.015151502508, -1625.4635602788403, -4978.649911719551, -5889.6399604845, -17076.71041211014, -15584.105620873646, -20141.112225188284, -11708.536649767953, -6479.457793171143, -10811.04705465401, -10696.919047465211, -11202.02376866624, 0.01, -0.024, 0.98, 192.0, 0.0, 0.0, 0.0, 0.0, 0.0, 0.0, 0.0, 0.0, 0.0, 1.6444986085042603E9, 0.0, 2022-02-11 00:10:08.504
36.0, -8622.207775379155, -10365.196808003999, -10400.400805521109, -16367.556615776613, -2197.020017745497, -1622.1107986105442, -4970.960911626925, -5885.9742743938305, -17076.486894665588, -15576.528379503296, -20125.823631980853, -11702.12169910928, -6499.753177136562, -10782.660339195769, -10690.526448550994, -11193.105422628572, 0.01, -0.024, 0.98, 192.0, 0.0, 0.0, 0.0, 0.0, 0.0, 0.0, 0.0, 0.0, 0.0, 1.6444986085043013E9, 0.0, 2022-02-11 00:10:08.504
38.0, -8639.038638954002, -10375.903293598092, -10412.180174849054, -16370.261176855705, -2205.7819015719774, -1632.9290429269129, -4968.904551137037, -5887.941227905897, -17081.024298790016, -15587.860713942136, -20140.50872808799, -11712.962295170104, -6489.918409576227, -10807.13549937433, -10692.8733817188, -11198.872172698042, 0.006, -0.024, 0.982, 192.0, 0.0, 24.0, 127.5, 32.0, 15.0, 88.0, 0.0, 0.0, 0.0, 1.6444986085043087E9, 0.0, 2022-02-11 00:10:08.504
40.0, -8625.985220192102, -10378.585502932729, -10398.210334564488, -16365.746124475734, -2196.505927623025, -1623.6083654890497, -4955.64996667504, -5880.811021424654, -17077.023336532515, -15587.41367905303, -20136.865393741777, -11716.60562951632, -6481.692967616674, -10804.363883061873, -10690.727614251091, -11196.5922947636, 0.006, -0.024, 0.982, 192.0, 0.0, 0.0, 0.0, 0.0, 0.0, 0.0, 0.0, 0.0, 0.0, 1.6444986085043275E9, 0.0, 2022-02-11 00:10:08.504
42.0, -8639.28450814301, -10384.732232657938, -10405.944038146024, -16367.646022754434, -2200.6186486028014, -1626.1788161014101, -4963.428373745486, -5885.929570904919, -17083.304176724458, -15588.553618020253, -20134.563164062878, -11704.938018910649, -6490.2760374875115, -10810.264743598074, -10684.625588014793, -11195.02767265173, 0.006, -0.024, 0.982, 192.0, 0.0, 0.0, 0.0, 0.0, 0.0, 0.0, 0.0, 0.0, 0.0, 1.6444986085043356E9, 0.0, 2022-02-11 00:10:08.504
44.0, -8644.33600238991, -10395.05873859629, -10408.358026547197, -16365.47790354227, -2193.1084624658183, -1622.535481755195, -4962.713117922916, -5884.432004026414, -17078.31973771092, -15593.60511226715, -20147.884803758243, -11721.120681896291, -6483.145831006269, -10813.751615733101, -10687.419556071705, -11195.519411029747, 0.006, -0.024, 0.982, 192.0, 0.0, 0.0, 0.0, 0.0, 0.0, 0.0, 0.0, 0.0, 0.0, 1.6444986085043428E9, 0.0, 2022-02-11 00:10:08.504
46.0, -8652.404982138274, -10407.195735835521, -10406.01109337939, -16370.48469430026, -2197.9364392681646, -1625.9329469124016, -4967.876370892092, -5894.177364608928, -17084.37706045831, -15592.062841899735, -20134.719626274065, -11712.738777725552, -6489.918409576227, -10811.829365709946, -10689.274750861496, -11196.636998252512, 0.005, -0.024, 0.986, 192.0, 0.0, 16.0, 127.5, 32.0, 15.0, 120.0, 0.0, 0.0, 0.0, 1.6444986085043497E9, 0.0, 2022-02-11 00:10:08.504
48.0, -8689.352415722897, -10434.35310534872, -10413.878907427657, -16374.977394935775, -2207.279468450483, -1635.2312726058094, -4970.223304059899, -5900.458204800869, -17095.4858774526, -15605.719757761928, -20152.08693171584, -11723.825242975385, -6489.940761320682, -10818.691351257725, -10694.616817786315, -11202.962541933364, 0.005, -0.024, 0.986, 192.0, 0.0, 0.0, 0.0, 0.0, 0.0, 0.0, 0.0, 0.0, 0.0, 1.644498608504358E9, 0.0, 2022-02-11 00:10:08.504
50.0, -8694.918000092268, -10449.932271234069, -10408.559192247296, -16377.033755425664, -2184.6595030617123, -1626.5811475016055, -4962.199027800444, -5889.081166873118, -17101.833772877904, -15614.101661932667, -20157.04901898492, -11732.497719824043, -6484.151659506758, -10822.021761181566, -10694.102727663843, -11201.062643654663, 0.005, -0.024, 0.986, 192.0, 0.0, 0.0, 0.0, 0.0, 0.0, 0.0, 0.0, 0.0, 0.0, 1.6444986085043652E9, 0.0, 2022-02-11 00:10:08.504
52.0, -8735.061733134, -10484.085736761777, -10416.762282462392, -16375.782057736167, -2200.4845381360697, -1634.3372028275971, -4969.463344748419, -5896.300780332182, -17120.318665542443, -15621.85771725866, -20160.491187631036, -11732.631830290775, -6488.644360142274, -10818.132557646342, -10692.940436952167, -11203.744852989299, 0.005, -0.024, 0.986, 192.0, 0.0, 0.0, 0.0, 0.0, 0.0, 0.0, 0.0, 0.0, 0.0, 1.6444986085043724E9, 0.0, 2022-02-11 00:10:08.504
54.0, -8752.473742064683, -10493.808745599836, -10416.941096418035, -16368.09305764354, -2190.828584531377, -1619.4956445092732, -4966.199990057944, -5891.562210507657, -17124.230220822123, -15624.1375951931, -20179.333708206857, -11739.963202472116, -6491.6841973881965, -10812.14229013232, -10696.516716065016, -11203.722501244843, 0.005, -0.024, 0.986, 192.0, 0.0, 0.0, 0.0, 0.0, 0.0, 0.0, 0.0, 0.0, 0.0, 1.6444986085043793E9, 0.0, 2022-02-11 00:10:08.504
56.0, -8774.624320819894, -10527.872804149723, -10416.494061528929, -16378.151342648429, -2187.8781542632764, -1617.662801463938, -4963.137801067567, -5890.154050606972, -17136.814252950462, -15625.14342369359, -20175.13158024926, -11731.760112257018, -6491.304217732456, -10798.306560314484, -10694.706224764137, -11199.922704687442, 0.0035, -0.027, 0.986, 192.0, 0.0, 8.0, 127.5, 8.0, 15.0, 104.0, 0.0, 0.0, 0.0, 1.6444986085043864E9, 0.0, 2022-02-11 00:10:08.504
58.0, -8799.725329843204, -10543.854301435269, -10422.931363932057, -16383.38165085097, -2196.707093323123, -1627.4752172798178, -4952.40896372902, -5893.730329719821, -17142.20102336419, -15641.974287268435, -20188.587330411356, -11753.150731700747, -6502.167165537735, -10796.652531224792, -10696.44966083165, -11206.896448957497, 0.0035, -0.027, 0.986, 192.0, 0.0, 0.0, 0.0, 0.0, 0.0, 0.0, 0.0, 0.0, 0.0, 1.644498608504393E9, 0.0, 2022-02-11 00:10:08.504
60.0, -8791.41048090583, -10529.906812895157, -10411.800195193315, -16372.272833856683, -2176.0317297019637, -1609.213842059832, -4937.545053666241, -5867.467029984836, -17151.63345952433, -15638.33095292222, -20190.800153112432, -11747.048705464447, -6488.443194442177, -10818.847813468912, -10691.800497984947, -11201.062643654663, 0.0035, -0.027, 0.986, 192.0, 0.0, 0.0, 0.0, 0.0, 0.0, 0.0, 0.0, 0.0, 0.0, 1.6444986085044E9, 0.0, 2022-02-11 00:10:08.504
62.0, -8785.084937224978, -10529.70564719506, -10419.712712730494, -16372.406944323415, -2189.5321833529692, -1615.0252956182119, -4944.362335725109, -5876.2289138113165, -17147.163110633268, -15623.958781237458, -20183.535836164458, -11734.688190780664, -6483.57051415092, -10814.511575044582, -10686.145506637753, -11194.73709997381, 0.0035, -0.027, 0.986, 192.0, 0.0, 0.0, 0.0, 0.0, 0.0, 0.0, 0.0, 0.0, 0.0, 1.644498608504407E9, 0.0, 2022-02-11 00:10:08.504
64.0, -8773.529085341583, -10523.804786658859, -10420.495023786429, -16371.177598378374, -2190.8509362758323, -1608.476234492807, -4945.770495625794, -5878.6876057014, -17140.3458285744, -15625.65751381606, -20193.57176942489, -11745.148807185748, -6489.292560731478, -10811.695255243214, -10694.92974220869, -11196.122908130039, 0.0035, -0.027, 0.986, 192.0, 0.0, 0.0, 0.0, 0.0, 0.0, 0.0, 0.0, 0.0, 0.0, 1.6444986085044138E9, 0.0, 2022-02-11 00:10:08.504
66.0, -8757.212311889209, -10503.621161415716, -10416.270544084377, -16376.609072281013, -2187.3640641408047, -1617.1934148303767, -4951.470190461897, -5876.631245211512, -17143.005686164583, -15619.33197013521, -20175.600966882823, -11735.917536725705, -6501.988351582093, -10771.03743207901, -10691.01818692901, -11195.519411029747, 0.00475, -0.028499999999999998, 0.989, 192.0, 0.0, 24.0, 127.5, 8.0, 15.5, 0.0, 0.0, 0.0, 0.0, 1.6444986085044205E9, 0.0, 2022-02-11 00:10:08.504
68.0, -8757.88286422287, -10496.960341568034, -10423.423102310075, -16373.256310612716, -2193.6896078216564, -1631.789103959692, -4960.723812666394, -5890.019940140241, -17136.09899712789, -15621.611848069651, -20179.400763440226, -11736.185757659168, -6484.598694395864, -10808.94599067521, -10697.008454443032, -11203.02959716673, 0.00475, -0.028499999999999998, 0.989, 192.0, 0.0, 0.0, 0.0, 0.0, 0.0, 0.0, 0.0, 0.0, 0.0, 1.6444986085044315E9, 0.0, 2022-02-11 00:10:08.504
70.0, -8731.038419132045, -10476.396736669152, -10411.576677748762, -16372.80927572361, -2169.9073517212096, -1619.4509410203625, -4939.5790624116735, -5869.791611408188, -17126.957133645672, -15612.224115398421, -20174.304565704413, -11732.028333190481, -6488.890229331283, -10810.309447086984, -10696.047329431454, -11202.850783211086, 0.00475, -0.028499999999999998, 0.989, 192.0, 0.0, 0.0, 0.0, 0.0, 0.0, 0.0, 0.0, 0.0, 0.0, 1.6444986085044389E9, 0.0, 2022-02-11 00:10:08.504
72.0, -8730.032590631556, -10465.131457463678, -10419.757416219403, -16374.016269924197, -2178.5574768254137, -1621.0379148766895, -4945.926957836981, -5877.681777200911, -17118.955209130672, -15608.670188030028, -20162.726362076566, -11720.69599875164, -6476.864990814328, -10804.252124339597, -10688.760660739024, -11201.59908552159, 0.00475, -0.028499999999999998, 0.989, 192.0, 0.0, 0.0, 0.0, 0.0, 0.0, 0.0, 0.0, 0.0, 0.0, 1.6444986085044456E9, 0.0, 2022-02-11 00:10:08.504
74.0, -8703.746939152115, -10447.07124794379, -10410.369683548175, -16364.71794423079, -2178.244552403039, -1611.3372577830862, -4939.556710667219, -5871.378585264514, -17107.645226436285, -15606.256199628855, -20166.816731311887, -11724.898126709239, -6472.439345412176, -10801.793432449513, -10694.236838130575, -11202.537858788713, 0.00475, -0.028499999999999998, 0.989, 192.0, 0.0, 0.0, 0.0, 0.0, 0.0, 0.0, 0.0, 0.0, 0.0, 1.6444986085044525E9, 0.0, 2022-02-11 00:10:08.504
76.0, -8682.24456098611, -10426.30647734481, -10403.686511956039, -16362.505121529714, -2172.030767444464, -1605.3246385246086, -4943.378858969076, -5872.563227720646, -17100.246799021577, -15593.627464011606, -20139.279382142948, -11711.934114925161, -6484.889267073783, -10793.456231767683, -10689.185343883675, -11195.586466263112, 0.007375, -0.028249999999999997, 0.9875, 192.0, 0.0, 40.0, 127.5, 16.0, 15.0, 104.0, 0.0, 0.0, 0.0, 1.6444986085044591E9, 0.0, 2022-02-11 00:10:08.504
78.0, -8690.201782012198, -10422.73019823196, -10418.908049930102, -16365.85788319801, -2181.127927437774, -1614.2653363067313, -4941.411905457009, -5882.6885679588995, -17094.81532511894, -15589.939426176481, -20144.68850430113, -11713.006998659015, -6471.56762737842, -10787.018929364554, -10686.704300249135, -11200.392091321004, 0.007375, -0.028249999999999997, 0.9875, 192.0, 0.0, 0.0, 0.0, 0.0, 0.0, 0.0, 0.0, 0.0, 0.0, 1.644498608504466E9, 0.0, 2022-02-11 00:10:08.504
80.0, -8670.487543402618, -10410.302628314808, -10411.599029493216, -16363.466246541293, -2172.4554505891147, -1599.4684814773182, -4929.610184384606, -5858.749849647266, -17099.553894943463, -15586.094926130168, -20152.08693171584, -11717.119719638791, -6470.293577944467, -10774.166676302753, -10685.027919414988, -11194.625341251534, 0.007375, -0.028249999999999997, 0.9875, 192.0, 0.0, 0.0, 0.0, 0.0, 0.0, 0.0, 0.0, 0.0, 0.0, 1.6444986085044725E9, 0.0, 2022-02-11 00:10:08.504
82.0, -8675.00259578259, -10414.616514994683, -10415.376474306164, -16360.71698197329, -2183.38545362776, -1615.7405514407817, -4931.890062319048, -5869.031652096707, -17101.00675833306, -15580.775210949805, -20143.21328916708, -11710.481251535566, -6478.9437030486715, -10784.247313052096, -10682.345710080352, -11193.708919728866, 0.007375, -0.028249999999999997, 0.9875, 192.0, 0.0, 0.0, 0.0, 0.0, 0.0, 0.0, 0.0, 0.0, 0.0, 1.6444986085044794E9, 0.0, 2022-02-11 00:10:08.504
84.0, -8656.785924051515, -10394.187020562533, -10405.0052648789, -16350.792807435133, -2166.7110522641005, -1607.179833314399, -4921.205928469411, -5864.963634605841, -17088.333319226902, -15586.072574385713, -20145.31435314588, -11711.285914335956, -6469.980653522093, -10801.458156282682, -10683.977387425588, -11195.295893585193, 0.007375, -0.028249999999999997, 0.9875, 192.0, 0.0, 0.0, 0.0, 0.0, 0.0, 0.0, 0.0, 0.0, 0.0, 1.6444986085044863E9, 0.0, 2022-02-11 00:10:08.504
86.0, -8640.826778510425, -10382.921741357059, -10395.461069996485, -16351.485711513247, -2159.8490667163214, -1598.7755773992035, -4918.858995301604, -5863.1978467938725, -17077.13509525479, -15575.097867858156, -20117.665245254666, -11697.07020486238, -6452.23336842458, -10766.611786676858, -10671.147486108242, -11189.283274326715, 0.0096875, -0.028124999999999997, 0.98775, 192.0, 0.0, 48.0, 127.5, 16.0, 15.0, 112.0, 0.0, 0.0, 0.0, 1.644498608504494E9, 0.0, 2022-02-11 00:10:08.504
88.0, -8652.539092605006, -10383.905218113092, -10411.643732982127, -16359.621746494979, -2177.641055302746, -1610.3314292825974, -4940.048449045235, -5876.184210322405, -17084.91350232524, -15579.836437682681, -20131.74684426151, -11701.764071197997, -6486.565647907931, -10785.521362486048, -10677.853009444834, -11193.753623217777, 0.0096875, -0.028124999999999997, 0.98775, 192.0, 0.0, 0.0, 0.0, 0.0, 0.0, 0.0, 0.0, 0.0, 0.0, 1.6444986085045013E9, 0.0, 2022-02-11 00:10:08.504
90.0, -8630.164996405245, -10366.604967904685, -10407.240439324432, -16357.230109838261, -2159.1114591492965, -1610.8678711495247, -4929.878405318071, -5874.798402166177, -17078.99029004458, -15568.79467592176, -20131.94800996161, -11703.708672965608, -6463.163371463224, -10784.046147351999, -10683.35153858084, -11195.720576729844, 0.0096875, -0.028124999999999997, 0.98775, 192.0, 0.0, 0.0, 0.0, 0.0, 0.0, 0.0, 0.0, 0.0, 0.0, 1.644498608504508E9, 0.0, 2022-02-11 00:10:08.504
92.0, -8629.42738883822, -10362.425191691542, -10410.101462614712, -16364.784999464155, -2181.0385204599525, -1617.4839875082955, -4940.942518823447, -5890.824602940632, -17080.84548483437, -15557.328231016189, -20125.443652325113, -11697.047853117927, -6469.131287232792, -10786.32602528644, -10680.289349590463, -11202.381396577526, 0.0096875, -0.028124999999999997, 0.98775, 192.0, 0.0, 0.0, 0.0, 0.0, 0.0, 0.0, 0.0, 0.0, 0.0, 1.6444986085045147E9, 0.0, 2022-02-11 00:10:08.504
94.0, -8622.408941079253, -10361.86639808016, -10405.429948023551, -16352.603298736012, -2181.418500115693, -1617.4616357638404, -4938.260309488811, -5876.251265555771, -17073.1788364862, -15573.51089400183, -20127.969399448564, -11695.796155428428, -6467.745479076562, -10790.818725921956, -10686.54783803795, -11203.722501244843, 0.0096875, -0.028124999999999997, 0.98775, 192.0, 0.0, 0.0, 0.0, 0.0, 0.0, 0.0, 0.0, 0.0, 0.0, 1.6444986085045216E9, 0.0, 2022-02-11 00:10:08.504
96.0, -8611.568345018428, -10355.518502654852, -10402.188945077532, -16356.336040060049, -2173.416575600693, -1613.9300601399018, -4945.926957836981, -5884.208486581861, -17073.60351963085, -15575.097867858156, -20106.668186982657, -11687.816582657884, -6462.671633085208, -10772.244426279596, -10686.145506637753, -11199.7438907318, 0.00784375, -0.0270625, 0.9878750000000001, 192.0, 0.0, 24.0, 127.5, 24.0, 15.0, 112.0, 0.0, 0.0, 0.0, 1.6444986085045333E9, 0.0, 2022-02-11 00:10:08.504
98.0, -8619.592621277883, -10347.181301973022, -10406.145203846121, -16353.363258047493, -2184.0113024725083, -1621.015563132234, -4951.090210806156, -5888.5000215172795, -17074.586996386886, -15572.147437590056, -20117.12880338774, -11691.906951893205, -6464.079792985892, -10789.477621254639, -10689.542971794961, -11206.762338490766, 0.00784375, -0.0270625, 0.9878750000000001, 192.0, 0.0, 0.0, 0.0, 0.0, 0.0, 0.0, 0.0, 0.0, 0.0, 1.6444986085045404E9, 0.0, 2022-02-11 00:10:08.504
100.0, -8601.80063269146, -10335.200766944978, -10396.042215352323, -16347.082417855552, -2172.5895610558464, -1606.6210397030163, -4940.853111845626, -5878.061756856651, -17067.970880028115, -15556.300050771244, -20111.674977740644, -11685.3578907678, -6460.391755150767, -10783.532057229526, -10692.314588107418, -11197.195791863895, 0.00784375, -0.0270625, 0.9878750000000001, 192.0, 0.0, 0.0, 0.0, 0.0, 0.0, 0.0, 0.0, 0.0, 0.0, 1.6444986085045497E9, 0.0, 2022-02-11 00:10:08.504
102.0, -8614.161147375244, -10347.76244732886, -10405.72052070147, -16357.990069149742, -2181.5302588379695, -1618.9368508978905, -4952.297205006744, -5892.456280285869, -17070.675441107207, -15566.514797987318, -20107.159925360673, -11685.536704723443, -6459.967072006116, -10777.005347848577, -10689.565323539415, -11196.659349996968, 0.00784375, -0.0270625, 0.9878750000000001, 192.0, 0.0, 0.0, 0.0, 0.0, 0.0, 0.0, 0.0, 0.0, 0.0, 1.6444986085045564E9, 0.0, 2022-02-11 00:10:08.504
104.0, -8612.395359563276, -10343.76148507136, -10405.742872445926, -16359.107656372507, -2172.991892456042, -1613.214804317332, -4942.507140935319, -5889.125870362029, -17068.306156194943, -15573.779114935294, -20123.07436741285, -11698.992454885538, -6458.290691171967, -10783.152077573786, -10695.175611397697, -11206.002379179285, 0.00784375, -0.0270625, 0.9878750000000001, 192.0, 0.0, 0.0, 0.0, 0.0, 0.0, 0.0, 0.0, 0.0, 0.0, 1.644498608983432E9, 0.0, 2022-02-11 00:10:08.983
106.0, -8603.61112399234, -10338.732342568916, -10398.612665964683, -16360.38170580646, -2167.9627499535977, -1612.5889554725834, -4945.435219458964, -5887.225972083327, -17065.869816049315, -15566.827722409693, -20105.528248015435, -11688.040100102437, -6466.650243598252, -10779.8440193944, -10689.230047372586, -11199.78859422071, 0.007921875, -0.02753125, 0.9889375, 192.0, 0.0, 32.0, 127.5, 16.0, 15.0, 120.0, 0.0, 0.0, 0.0, 1.6444986089835382E9, 0.0, 2022-02-11 00:10:08.983
108.0, -8609.579039761906, -10332.026819232324, -10407.329846302253, -16358.280641827661, -2179.6750640481787, -1622.7589991997481, -4957.147533553545, -5895.294951831693, -17063.14290322577, -15567.855902654637, -20117.575838276844, -11691.526972237465, -6457.351917904844, -10766.231807021119, -10694.92974220869, -11202.493155299802, 0.007921875, -0.02753125, 0.9889375, 192.0, 0.0, 0.0, 0.0, 0.0, 0.0, 0.0, 0.0, 0.0, 0.0, 1.644498608983546E9, 0.0, 2022-02-11 00:10:08.983
110.0, -8599.565458245928, -10333.882014022114, -10400.043177609823, -16356.246633082228, -2166.062851674897, -1609.2585455487426, -4931.621841385584, -5876.49713474478, -17062.047667747458, -15559.98808860637, -20115.430070809136, -11692.510448993498, -6473.623987868308, -10790.997539877599, -10694.415652086218, -11198.6933587424, 0.007921875, -0.02753125, 0.9889375, 192.0, 0.0, 0.0, 0.0, 0.0, 0.0, 0.0, 0.0, 0.0, 0.0, 1.6444986089835527E9, 0.0, 2022-02-11 00:10:08.983
112.0, -8613.267077597033, -10334.753732055871, -10410.302628314808, -16363.33213607456, -2172.0978226778298, -1624.1895108448878, -4945.949309581436, -5888.745890706288, -17071.211882974134, -15559.36223976162, -20111.78673646292, -11695.03619611695, -6468.706604088141, -10798.485374270127, -10688.15716363873, -11198.894524442498, 0.007921875, -0.02753125, 0.9889375, 192.0, 0.0, 0.0, 0.0, 0.0, 0.0, 0.0, 0.0, 0.0, 0.0, 1.6444986089835596E9, 0.0, 2022-02-11 00:10:08.983
114.0, -8611.121310129323, -10341.816883303749, -10412.11311961569, -16360.962851162298, -2178.6468838032347, -1617.7522084417592, -4946.59751017064, -5886.890695916498, -17073.80468533095, -15572.03567886778, -20128.774062248955, -11702.144050853736, -6463.520999374509, -10781.967435117655, -10694.63916953077, -11201.062643654663, 0.007921875, -0.02753125, 0.9889375, 192.0, 0.0, 0.0, 0.0, 0.0, 0.0, 0.0, 0.0, 0.0, 0.0, 1.6444986089835663E9, 0.0, 2022-02-11 00:10:08.983
116.0, -8601.934743158192, -10335.871319278636, -10397.696244442015, -16365.09792388653, -2170.756718010511, -1618.4451125198739, -4942.730658379872, -5888.969408150841, -17071.882435307794, -15571.655699212039, -20111.78673646292, -11686.810754157395, -6482.5870373948865, -10775.150153058787, -10689.252399117042, -11200.25798085427, 0.006, -0.028, 0.992, 192.0, 0.0, 24.0, 127.5, 16.0, 15.5, 0.0, 0.0, 0.0, 0.0, 1.6444986089835732E9, 0.0, 2022-02-11 00:10:08.983
118.0, -8611.590696762883, -10338.844101291192, -10402.479517755452, -16365.8131797091, -2177.283427391461, -1621.954336399357, -4951.269024761799, -5890.265809329249, -17068.775542828505, -15577.333042303688, -20118.469908055056, -11698.008978129505, -6477.08850825888, -10785.230789808129, -10691.129945651288, -11206.248248368294, 0.006, -0.028, 0.992, 192.0, 0.0, 0.0, 0.0, 0.0, 0.0, 0.0, 0.0, 0.0, 0.0, 1.6444986089835796E9, 0.0, 2022-02-11 00:10:08.983
120.0, -8592.994045376068, -10327.690580807994, -10394.164668818077, -16356.112522615496, -2163.1124214067963, -1613.0136386172342, -4936.338059465655, -5876.586541722601, -17061.53357762499, -15566.738315431872, -20112.23377135203, -11693.292760049435, -6467.365499420822, -10776.267740281552, -10686.190210126664, -11202.068472155152, 0.006, -0.028, 0.992, 192.0, 0.0, 0.0, 0.0, 0.0, 0.0, 0.0, 0.0, 0.0, 0.0, 1.6444986089835863E9, 0.0, 2022-02-11 00:10:08.983
122.0, -8600.191307090678, -10323.0861214502, -10403.418291022575, -16358.191234849839, -2167.2027906421176, -1616.4111037744408, -4939.377896711576, -5887.78476569471, -17065.914519538226, -15558.244652538855, -20107.11522187176, -11689.60472221431, -6467.879589543294, -10777.318272270952, -10681.9210269357, -11199.900352942987, 0.006, -0.028, 0.992, 192.0, 0.0, 0.0, 0.0, 0.0, 0.0, 0.0, 0.0, 0.0, 0.0, 1.6444986089835927E9, 0.0, 2022-02-11 00:10:08.983
124.0, -8600.951266402159, -10320.493319093386, -10402.233648566444, -16354.994935392731, -2159.8714184607766, -1610.7784641717035, -4932.02417278578, -5879.82754466862, -17059.164292712725, -15556.188292048968, -20121.04035866742, -11701.31703630889, -6457.821304538406, -10772.378536746328, -10684.111497892321, -11201.174402376939, 0.006, -0.028, 0.992, 192.0, 0.0, 0.0, 0.0, 0.0, 0.0, 0.0, 0.0, 0.0, 0.0, 1.6444986089835994E9, 0.0, 2022-02-11 00:10:08.983
