%OpenBCI Raw EEG Data
%Number of channels = 16
%Sample Rate = 125 Hz
%Board = OpenBCI_GUI$BoardCytonSerialDaisy
Sample Index, EXG Channel 0, EXG Channel 1, EXG Channel 2, EXG Channel 3, EXG Channel 4, EXG Channel 5, EXG Channel 6, EXG Channel 7, EXG Channel 8, EXG Channel 9, EXG Channel 10, EXG Channel 11, EXG Channel 12, EXG Channel 13, EXG Channel 14, EXG Channel 15, Accel Channel 0, Accel Channel 1, Accel Channel 2, Other, Other, Other, Other, Other, Other, Other, Analog Channel 0, Analog Channel 1, Analog Channel 2, Timestamp, Other, Timestamp (Formatted)
0.0, -7705.003941655629, -9278.186771653507, -10283.903513420048, -16148.017781736587, -2087.8093943368667, -1746.945291393434, -5787.134860412462, -6898.977684852802, 0.0, 0.0, 0.0, 0.0, 0.0, 0.0, 0.0, 0.0, 0.006, -0.014, 0.494, 192.0, 0.0, 48.0, 127.5, 16.0, 15.0, 112.0, 0.0, 0.0, 0.0, 1.644498539952145E9, 0.0, 2022-02-11 00:08:59.952
72.0, -7705.585087011467, -9279.863152487655, -10274.851056915648, -16141.155796188808, -2072.610208107258, -1738.921015133979, -5780.719909753789, -6895.379053995497, -16957.285041485437, -15430.951467865882, -19948.28372577235, -10824.94983970521, -5739.883272633943, -10738.515643896539, -10881.38799445486, -11389.733718601909, 0.006, -0.014, 0.494, 192.0, 0.0, 0.0, 0.0, 0.0, 0.0, 0.0, 0.0, 0.0, 0.0, 1.644498539952155E9, 0.0, 2022-02-11 00:08:59.952
74.0, -7691.257618815615, -9268.195541881983, -10266.402097511542, -16139.613525821393, -2068.9221702721325, -1735.5235499767723, -5783.491526066247, -6895.244943528765, -16951.473587927056, -15425.944677107893, -19931.005827308396, -10809.169508119763, -5753.003746629209, -10725.641039090282, -10874.436601929261, -11381.217703964438, 0.006, -0.014, 0.494, 192.0, 0.0, 0.0, 0.0, 0.0, 0.0, 0.0, 0.0, 0.0, 0.0, 1.644498539952162E9, 0.0, 2022-02-11 00:08:59.952
76.0, -7692.509316505113, -9272.487076817402, -10277.846190672659, -16142.318086900485, -2070.777365061923, -1737.2222825553756, -5786.464308078803, -6891.869830116014, -16948.098474514303, -15426.324656763632, -19943.835728625745, -10820.9041739588, -5746.90172039291, -10713.504041851049, -10876.917645563799, -11385.799811577775, 0.006, -0.014, 0.494, 192.0, 0.0, 0.0, 0.0, 0.0, 0.0, 0.0, 0.0, 0.0, 0.0, 1.6444985399521687E9, 0.0, 2022-02-11 00:08:59.952
78.0, -7689.894162403842, -9266.854437214666, -10260.724754419894, -16138.451235109716, -2059.288568411895, -1718.111541046088, -5775.109621895507, -6878.190562509366, -16942.801111078395, -15420.401444482977, -19938.024275067364, -10816.746749490112, -5727.701571905801, -10688.604198527837, -10872.20142748373, -11380.524799886323, 0.006, -0.014, 0.494, 192.0, 0.0, 0.0, 0.0, 0.0, 0.0, 0.0, 0.0, 0.0, 0.0, 1.644498539952188E9, 0.0, 2022-02-11 00:08:59.952
80.0, -7693.358682794415, -9264.306338346762, -10263.31755677671, -16135.321990885974, -2064.317710914339, -1723.4536079709064, -5781.7257382542775, -6888.047681814156, -16942.93522154513, -15410.969008322838, -19921.953370803996, -10796.429013780238, -5727.299240505605, -10731.8324723044, -10866.300566947528, -11378.848419052174, 0.006, -0.019, 0.744, 192.0, 0.0, 24.0, 127.5, 32.0, 15.5, 8.0, 0.0, 0.0, 0.0, 1.6444985399521945E9, 0.0, 2022-02-11 00:08:59.952
82.0, -7687.2566565581155, -9265.803905225266, -10262.98228060988, -16129.9575722167, -2063.222475436029, -1717.7315613903477, -5778.350624841527, -6892.450975471852, -16941.88468955573, -15416.66870315894, -19936.012618066386, -10813.32693258845, -5744.130104080451, -10726.758626313047, -10874.235436229163, -11384.771631332831, 0.006, -0.019, 0.744, 192.0, 0.0, 0.0, 0.0, 0.0, 0.0, 0.0, 0.0, 0.0, 0.0, 1.6444985399522016E9, 0.0, 2022-02-11 00:08:59.952
84.0, -7688.642464714345, -9263.792248224288, -10265.060992844225, -16132.908002484799, -2064.3400626587945, -1718.8938521020236, -5787.7160057683, -6888.852344614547, -16939.336590687824, -15409.560848422152, -19923.89797257161, -10803.201592350197, -5730.808464385088, -10706.127966180798, -10869.452162915726, -11379.250750452371, 0.006, -0.019, 0.744, 192.0, 0.0, 0.0, 0.0, 0.0, 0.0, 0.0, 0.0, 0.0, 0.0, 1.6444985399522085E9, 0.0, 2022-02-11 00:08:59.952
86.0, -7703.819299199498, -9262.697012745979, -10274.716946448916, -16134.517328085582, -2082.824955323333, -1732.5060644753057, -5798.556601829124, -6901.235211042787, -16948.858433825782, -15427.352837008577, -19941.511147202393, -10811.270572098563, -5747.0358308596415, -10714.532222095993, -10880.315110721007, -11386.783288333809, 0.006, -0.019, 0.744, 192.0, 0.0, 0.0, 0.0, 0.0, 0.0, 0.0, 0.0, 0.0, 0.0, 1.6444985399522147E9, 0.0, 2022-02-11 00:08:59.952
88.0, -7686.876676902375, -9267.12265814813, -10264.681013188483, -16130.359903616894, -2071.9396557735986, -1719.072666057666, -5800.5682588301015, -6893.456803972341, -16941.21413722207, -15420.446147971887, -19936.95139133351, -10805.414415051273, -5736.396400498915, -10705.770338269513, -10877.498790919637, -11382.648215609577, 0.006, -0.019, 0.744, 192.0, 0.0, 0.0, 0.0, 0.0, 0.0, 0.0, 0.0, 0.0, 0.0, 1.6444985399522214E9, 0.0, 2022-02-11 00:08:59.952
90.0, -7706.836784700965, -9280.131373421118, -10272.146495836556, -16137.333647886951, -2081.8191268228443, -1728.9297853624566, -5797.818994262099, -6903.202164554855, -16949.283116970437, -15424.558868951664, -19928.45772844049, -10801.23463883813, -5738.363354010982, -10720.611896587838, -10876.492962419148, -11384.01167202135, 0.006, -0.0235, 0.868, 192.0, 0.0, 24.0, 127.5, 16.0, 15.5, 0.0, 0.0, 0.0, 0.0, 1.644498539952228E9, 0.0, 2022-02-11 00:08:59.952
92.0, -7704.601610255434, -9278.991434453897, -10277.019176127813, -16138.741807787635, -2078.645179110191, -1728.4380469844398, -5789.884124980465, -6898.418891241418, -16954.4016664507, -15436.070017346146, -19947.434359483046, -10818.624296024358, -5757.89877866492, -10726.132777468298, -10883.466706689205, -11389.107869757161, 0.006, -0.0235, 0.868, 192.0, 0.0, 0.0, 0.0, 0.0, 0.0, 0.0, 0.0, 0.0, 0.0, 1.6444985399522345E9, 0.0, 2022-02-11 00:08:59.952
94.0, -7684.753261179121, -9270.989509938898, -10270.425411513497, -16140.86522351089, -2073.12429822973, -1719.698514902415, -5782.888028965954, -6892.383920238486, -16953.529948416945, -15425.832918385617, -19931.56462091978, -10808.454252297193, -5752.646118717924, -10707.938457481678, -10877.699956619736, -11385.039852266294, 0.006, -0.0235, 0.868, 192.0, 0.0, 0.0, 0.0, 0.0, 0.0, 0.0, 0.0, 0.0, 0.0, 1.6444985399522412E9, 0.0, 2022-02-11 00:08:59.952
96.0, -7706.501508534135, -9283.841763000699, -10280.37193779611, -16143.033342723054, -2082.064996011853, -1728.7733231512696, -5791.180526158872, -6892.629789427494, -16953.194672250112, -15435.2430028013, -19948.686057172545, -10816.567935534471, -5746.5664442260795, -10711.425329616706, -10881.544456666048, -11390.516029657845, 0.006, -0.0235, 0.868, 192.0, 0.0, 0.0, 0.0, 0.0, 0.0, 0.0, 0.0, 0.0, 0.0, 1.644498539952248E9, 0.0, 2022-02-11 00:08:59.952
98.0, -7698.611342741412, -9277.35975710866, -10268.771382423805, -16140.306429899507, -2066.3293679153167, -1719.3855904800405, -5782.105717910018, -6882.88442884498, -16950.44540768211, -15429.811528898661, -19947.99315309443, -10818.803109980001, -5741.738467423734, -10716.365065141328, -10881.544456666048, -11384.145782488082, 0.006, -0.0235, 0.868, 192.0, 0.0, 0.0, 0.0, 0.0, 0.0, 0.0, 0.0, 0.0, 0.0, 1.6444985399522564E9, 0.0, 2022-02-11 00:08:59.952
100.0, -7705.540383522557, -9277.583274553213, -10274.2252080709, -16139.43471186575, -2073.8172023078446, -1725.3758579940627, -5786.799584245633, -6896.854269129547, -16950.78068384894, -15430.81735739915, -19930.33527497474, -10808.364845319373, -5744.085400591541, -10731.050161248466, -10879.82337234299, -11384.056375510261, 0.007, -0.025750000000000002, 0.9299999999999999, 192.0, 0.0, 32.0, 127.5, 16.0, 15.5, 0.0, 0.0, 0.0, 0.0, 1.644498539952263E9, 0.0, 2022-02-11 00:08:59.952
102.0, -7697.605514240923, -9270.520123305336, -10267.430277756486, -16134.405569363305, -2068.452783638571, -1718.3574102350963, -5777.992996930242, -6890.1263940485, -16945.997410535503, -15431.309095777166, -19941.019408824373, -10818.28901985753, -5745.828836659055, -10711.850012761357, -10882.930264822277, -11384.950445288474, 0.007, -0.025750000000000002, 0.9299999999999999, 192.0, 0.0, 0.0, 0.0, 0.0, 0.0, 0.0, 0.0, 0.0, 0.0, 1.644498539952273E9, 0.0, 2022-02-11 00:08:59.952
104.0, -7691.548191493534, -9273.559960551258, -10265.329213777688, -16134.182051918753, -2069.3692051612384, -1713.5070816882946, -5775.1543253844175, -6878.79405960966, -16943.31520120087, -15421.876659617026, -19921.774556848355, -10803.000426650098, -5744.37597326946, -10690.772317740002, -10871.575578638982, -11375.026270750317, 0.007, -0.025750000000000002, 0.9299999999999999, 192.0, 0.0, 0.0, 0.0, 0.0, 0.0, 0.0, 0.0, 0.0, 0.0, 1.6444985399522803E9, 0.0, 2022-02-11 00:08:59.952
106.0, -7699.885392175364, -9273.381146595615, -10273.733469692883, -16135.478453097161, -2079.3827866772162, -1726.1134655610879, -5776.920113196387, -6889.142917292466, -16952.63587863873, -15429.00686609827, -19943.05341756981, -10816.098548900909, -5740.196197056317, -10716.49917560806, -10881.276235732585, -11383.341119687691, 0.007, -0.025750000000000002, 0.9299999999999999, 192.0, 0.0, 0.0, 0.0, 0.0, 0.0, 0.0, 0.0, 0.0, 0.0, 1.6444985399522867E9, 0.0, 2022-02-11 00:08:59.952
108.0, -7678.830048898465, -9270.006033182864, -10264.479847488386, -16136.506633342104, -2062.8871992691993, -1711.7859973652362, -5775.9142846958985, -6888.986455081279, -16943.49401515651, -15426.838746886106, -19935.923211088564, -10816.43382506774, -5736.977545854753, -10711.850012761357, -10880.404517698827, -11380.34598593068, 0.007, -0.025750000000000002, 0.9299999999999999, 192.0, 0.0, 0.0, 0.0, 0.0, 0.0, 0.0, 0.0, 0.0, 0.0, 1.6444985399522936E9, 0.0, 2022-02-11 00:08:59.952
110.0, -7699.907743919819, -9269.268425615839, -10271.65475745854, -16137.266592653585, -2077.5275918874254, -1728.3933434955293, -5787.5371918126575, -6895.535516206684, -16945.863300068773, -15432.605496955573, -19928.94946681851, -10813.505746544093, -5744.934766880842, -10724.74696931207, -10881.700918877235, -11385.084555755206, 0.008, -0.03, 0.994, 192.0, 0.0, 32.0, 127.5, 8.0, 15.5, 8.0, 0.0, 0.0, 0.0, 1.6444985399523003E9, 0.0, 2022-02-11 00:08:59.952
112.0, -7708.088482390462, -9278.74556526489, -10267.922016134504, -16138.451235109716, -2080.2992081998837, -1723.2971457597191, -5794.846212249543, -6890.9534085933465, -16948.7019716146, -15432.314924277654, -19945.310943759792, -10826.156833905798, -5752.333194295549, -10728.12208272482, -10890.216933514706, -11388.750241845875, 0.008, -0.03, 0.994, 192.0, 0.0, 0.0, 0.0, 0.0, 0.0, 0.0, 0.0, 0.0, 0.0, 1.644498539952307E9, 0.0, 2022-02-11 00:08:59.952
114.0, -7701.271200331593, -9278.700861775978, -10263.205798054434, -16144.843834023934, -2074.733623830512, -1726.4934452168281, -5776.271912607183, -6892.741548149771, -16950.221890237557, -15424.000075340282, -19931.296399986317, -10813.818670966468, -5750.5003512502135, -10715.605105829849, -10882.326767721983, -11386.5374191448, 0.008, -0.03, 0.994, 192.0, 0.0, 0.0, 0.0, 0.0, 0.0, 0.0, 0.0, 0.0, 0.0, 1.6444985399523137E9, 0.0, 2022-02-11 00:08:59.952
116.0, -7712.111796392417, -9283.88646648961, -10275.946292393959, -16145.067351468488, -2088.2340774815175, -1738.6304424560599, -5787.045453434641, -6892.830955127592, -16954.893404828716, -15430.90676437697, -19946.89791761612, -10826.156833905798, -5743.079572091052, -10727.272716435518, -10885.098384034442, -11389.979587790918, 0.008, -0.03, 0.994, 192.0, 0.0, 0.0, 0.0, 0.0, 0.0, 0.0, 0.0, 0.0, 0.0, 1.6444985399523203E9, 0.0, 2022-02-11 00:08:59.952
118.0, -7711.038912658562, -9278.49969607588, -10265.731545177883, -16143.010990978599, -2080.6568361111686, -1724.9288231049566, -5780.295226609138, -6890.372263237508, -16950.244241982015, -15432.784310911216, -19947.412007738592, -10828.637877540335, -5749.494522749726, -10727.853861791356, -10886.215971257207, -11385.285721455302, 0.008, -0.03, 0.994, 192.0, 0.0, 0.0, 0.0, 0.0, 0.0, 0.0, 0.0, 0.0, 0.0, 1.6444985399523273E9, 0.0, 2022-02-11 00:08:59.952
120.0, -7711.597706269945, -9281.628940299624, -10274.404022026541, -16142.966287489688, -2096.9512578190875, -1728.7956748957247, -5802.669322808901, -6893.903838861446, -16957.843835096817, -15435.53357547922, -19946.696751916024, -10817.149080890309, -5764.42548804587, -10726.870385035323, -10885.05368054553, -11385.710404599955, 0.01, -0.026000000000000002, 0.99, 192.0, 0.0, 40.0, 127.5, 24.0, 15.0, 120.0, 0.0, 0.0, 0.0, 1.6444985399523337E9, 0.0, 2022-02-11 00:08:59.952
122.0, -7710.658933002822, -9269.715460504945, -10281.198952340956, -16138.42888336526, -2095.8783740852327, -1725.889948116535, -5784.631465033468, -6895.580219695595, -16957.26268974098, -15433.991305111804, -19951.8600048852, -10824.078121671453, -5752.243787317728, -10730.200794959164, -10896.006035328632, -11388.6384831236, 0.01, -0.026000000000000002, 0.99, 192.0, 0.0, 0.0, 0.0, 0.0, 0.0, 0.0, 0.0, 0.0, 0.0, 1.6444985399523404E9, 0.0, 2022-02-11 00:08:59.952
124.0, -7690.698825204233, -9259.478361544414, -10269.620748713107, -16138.115958942886, -2085.3059989578724, -1728.4156952399846, -5778.19416263034, -6894.596742939561, -16953.127617016748, -15425.654104429974, -19934.8056238658, -10809.169508119763, -5763.173790356373, -10724.54580361197, -10886.10421253493, -11383.20700922096, 0.01, -0.026000000000000002, 0.99, 192.0, 0.0, 0.0, 0.0, 0.0, 0.0, 0.0, 0.0, 0.0, 0.0, 1.6444985399523473E9, 0.0, 2022-02-11 00:08:59.952
126.0, -7697.717272963199, -9269.648405271579, -10273.577007481696, -16142.00516247811, -2086.155365247174, -1736.3282127771633, -5792.43222384837, -6905.750263422759, -16945.080989012837, -15421.250810772279, -19934.827975610253, -10813.684560499736, -5756.960005397797, -10717.348541897361, -10886.260674746118, -11389.577256390723, 0.01, -0.026000000000000002, 0.99, 192.0, 0.0, 0.0, 0.0, 0.0, 0.0, 0.0, 0.0, 0.0, 0.0, 1.6444985399523537E9, 0.0, 2022-02-11 00:08:59.952
128.0, -7693.179868838772, -9271.6377105281, -10261.037678842269, -16139.725284543669, -2074.8006790638783, -1719.3855904800405, -5775.1543253844175, -6892.249809771754, -16935.805015063885, -15433.38780801151, -19933.531574431847, -10820.993580936622, -5745.918243636876, -10723.674085578214, -10878.661081631313, -11384.324596443725, 0.01, -0.026000000000000002, 0.99, 192.0, 0.0, 0.0, 0.0, 0.0, 0.0, 0.0, 0.0, 0.0, 0.0, 1.6444985399523602E9, 0.0, 2022-02-11 00:08:59.952
130.0, -7709.854270202431, -9284.400556612081, -10268.234940556877, -16145.648496824326, -2082.0202925229423, -1730.2932417742304, -5779.691729508845, -6899.357664508541, -16940.00714302148, -15437.321715035645, -19921.193411492517, -10818.110205901887, -5744.085400591541, -10713.481690106593, -10878.035232786564, -11385.643349366588, 0.01, -0.02, 0.988, 192.0, 0.0, 40.0, 127.5, 48.0, 15.0, 112.0, 0.0, 0.0, 0.0, 1.6444985399523668E9, 0.0, 2022-02-11 00:08:59.952
132.0, -7709.988380669163, -9289.787327025811, -10271.65475745854, -16143.882709012356, -2079.226324466029, -1730.1591313074985, -5793.393348859948, -6901.861059887536, -16952.054733282894, -15448.519939007752, -19945.266240270885, -10835.343400876929, -5742.721944179767, -10738.60505087436, -10885.925398579288, -11389.39844243508, 0.01, -0.02, 0.988, 192.0, 0.0, 0.0, 0.0, 0.0, 0.0, 0.0, 0.0, 0.0, 0.0, 1.6444985399523733E9, 0.0, 2022-02-11 00:08:59.952
134.0, -7703.439319543758, -9281.718347277445, -10259.31659451921, -16146.38610439135, -2070.643254595191, -1730.1814830519538, -5789.772366258188, -6906.554926223151, -16945.080989012837, -15436.695866190896, -19928.547135418314, -10823.988714693633, -5754.18838908534, -10720.813062287934, -10878.146991508842, -11385.173962733026, 0.01, -0.02, 0.988, 192.0, 0.0, 0.0, 0.0, 0.0, 0.0, 0.0, 0.0, 0.0, 0.0, 1.644498539952382E9, 0.0, 2022-02-11 00:08:59.952
136.0, -7714.391674326858, -9284.959350223464, -10275.208684826934, -16146.564918346992, -2085.8871443137105, -1742.5419977357385, -5785.681997022867, -6901.950466865357, -16943.181090734135, -15439.15455808098, -19939.097158801218, -10831.52125257507, -5750.925034394865, -10729.150262969764, -10881.499753177137, -11392.125355258628, 0.01, -0.02, 0.988, 192.0, 0.0, 0.0, 0.0, 0.0, 0.0, 0.0, 0.0, 0.0, 0.0, 1.6444985399523885E9, 0.0, 2022-02-11 00:08:59.952
138.0, -7705.786252711565, -9284.109983934162, -10265.016289355313, -16143.882709012356, -2071.671434840135, -1732.0590295861996, -5777.121278896485, -6897.5248214632065, -16943.11403550077, -15438.10402609158, -19941.645257669123, -10836.215118910684, -5753.093153607029, -10736.12400723982, -10880.15864850982, -11388.482020912412, 0.01, -0.02, 0.988, 192.0, 0.0, 0.0, 0.0, 0.0, 0.0, 0.0, 0.0, 0.0, 0.0, 1.6444985399523957E9, 0.0, 2022-02-11 00:08:59.952
140.0, -7716.157462138827, -9290.770803781845, -10268.36905102361, -16151.124674215875, -2083.160231490163, -1739.591567467638, -5798.131918684473, -6907.359589023542, -16946.891480313716, -15441.277973804234, -19927.340141217726, -10828.794339751523, -5744.800656414111, -10728.613821102837, -10878.191694997751, -11391.477154669423, 0.014, -0.028, 0.984, 192.0, 0.0, 56.0, 127.5, 16.0, 15.0, 96.0, 0.0, 0.0, 0.0, 1.644498539952402E9, 0.0, 2022-02-11 00:08:59.952
142.0, -7709.988380669163, -9284.177039167529, -10271.006556869335, -16151.281136427062, -2077.7287575875234, -1728.5498057067164, -5789.057110435619, -6905.772615167215, -16944.097512256805, -15448.788159941216, -19943.075769314262, -10846.899252760322, -5756.825894931066, -10722.020056488522, -10883.91374157831, -11396.461593682956, 0.014, -0.028, 0.984, 192.0, 0.0, 0.0, 0.0, 0.0, 0.0, 0.0, 0.0, 0.0, 0.0, 1.644498539952423E9, 0.0, 2022-02-11 00:08:59.952
144.0, -7694.968008395196, -9281.897161233088, -10268.793734168261, -16148.420113136783, -2069.190391205596, -1720.883157358546, -5768.851133448021, -6894.820260384115, -16939.22483196555, -15429.789177154205, -19931.341103475228, -10831.610659552893, -5748.7569151827, -10732.748893827069, -10874.749526351634, -11388.482020912412, 0.014, -0.028, 0.984, 192.0, 0.0, 0.0, 0.0, 0.0, 0.0, 0.0, 0.0, 0.0, 0.0, 1.6444985399524295E9, 0.0, 2022-02-11 00:08:59.952
146.0, -7711.19537486975, -9288.803850269776, -10275.946292393959, -16146.09553171343, -2084.166059990652, -1729.622689440571, -5794.667398293901, -6903.470385488318, -16943.046980267405, -15443.379037783032, -19940.37120823517, -10831.253031641607, -5757.943482153832, -10732.815949060434, -10880.292758976551, -11390.516029657845, 0.014, -0.028, 0.984, 192.0, 0.0, 0.0, 0.0, 0.0, 0.0, 0.0, 0.0, 0.0, 0.0, 1.6444985399524364E9, 0.0, 2022-02-11 00:08:59.952
148.0, -7703.036988143563, -9281.673643788534, -10263.786943410272, -16145.402627635316, -2073.705443585568, -1722.984221337345, -5788.699482524334, -6896.139013306977, -16941.839986066818, -15436.628810957529, -19933.084539542742, -10827.632049039847, -5749.807447172099, -10716.365065141328, -10880.091593276453, -11387.72206160093, 0.014, -0.028, 0.984, 192.0, 0.0, 0.0, 0.0, 0.0, 0.0, 0.0, 0.0, 0.0, 0.0, 1.644498539952445E9, 0.0, 2022-02-11 00:08:59.952
150.0, -7703.349912565936, -9279.103193176174, -10265.508027733329, -16149.984735248654, -2077.7734610764337, -1732.0590295861996, -5791.247581392238, -6901.6375424429825, -16947.539680902923, -15439.311020292167, -19929.37414996316, -10827.587345550937, -5745.2700430476725, -10730.357257170352, -10879.376337453883, -11393.600570392677, 0.008, -0.024, 0.99, 192.0, 0.0, 32.0, 127.5, 32.0, 15.0, 120.0, 0.0, 0.0, 0.0, 1.6444985399524696E9, 0.0, 2022-02-11 00:08:59.952
152.0, -7696.353816551426, -9276.063355930251, -10262.311728276221, -16146.140235202342, -2070.397385406183, -1730.3602970075963, -5773.3885375724485, -6896.496641218262, -16939.425997665643, -15443.446093016399, -19948.75311240591, -10841.37837187986, -5743.951290124809, -10733.374742671818, -10881.522104921592, -11397.243904738893, 0.008, -0.024, 0.99, 192.0, 0.0, 0.0, 0.0, 0.0, 0.0, 0.0, 0.0, 0.0, 0.0, 1.6444985399524765E9, 0.0, 2022-02-11 00:08:59.952
154.0, -7687.279008302571, -9277.672681531034, -10258.958966607925, -16145.894366013334, -2065.8152777928444, -1727.8345498841466, -5775.467249806792, -6894.037949328179, -16934.083930740828, -15429.342142265099, -19921.90866731509, -10826.961496706188, -5738.341002266527, -10720.567193098927, -10874.77187809609, -11391.074823269228, 0.008, -0.024, 0.99, 192.0, 0.0, 0.0, 0.0, 0.0, 0.0, 0.0, 0.0, 0.0, 0.0, 1.6444985399524834E9, 0.0, 2022-02-11 00:08:59.952
156.0, -7707.797909712543, -9284.959350223464, -10269.933673135482, -16142.541604345037, -2072.5208011294367, -1730.9861458523449, -5790.129994169473, -6902.330446521098, -16944.432788423634, -15439.668648203451, -19938.33719948974, -10829.822519996467, -5742.677240690857, -10718.309666908941, -10883.734927622669, -11394.82991633772, 0.008, -0.024, 0.99, 192.0, 0.0, 0.0, 0.0, 0.0, 0.0, 0.0, 0.0, 0.0, 0.0, 1.64449853995249E9, 0.0, 2022-02-11 00:08:59.952
158.0, -7695.6162089844, -9273.135277406607, -10258.243710785355, -16133.846775751923, -2054.0135567204425, -1717.4186369679735, -5781.993959187742, -6892.473327216307, -16938.35311393179, -15437.321715035645, -19938.046626811818, -10824.167528649275, -5749.2039500718065, -10738.180367729708, -10883.019671800099, -11394.91932331554, 0.008, -0.024, 0.99, 192.0, 0.0, 0.0, 0.0, 0.0, 0.0, 0.0, 0.0, 0.0, 0.0, 1.644498539952497E9, 0.0, 2022-02-11 00:08:59.952
160.0, -7700.466537531202, -9271.21302738345, -10258.735449163372, -16139.680581054758, -2061.2331701795065, -1723.207738781898, -5781.815145232099, -6895.893144117969, -16938.129596487237, -15436.539403979708, -19921.394577192616, -10815.450348311704, -5749.271005305172, -10719.896640765268, -10874.10132576243, -11391.141878502594, 0.006, -0.032, 0.986, 192.0, 0.0, 24.0, 127.5, 0.0, 15.0, 104.0, 0.0, 0.0, 0.0, 1.6444985399525037E9, 0.0, 2022-02-11 00:08:59.952
162.0, -7695.370339795392, -9269.335480849204, -10259.875388130593, -16136.283115897551, -2058.1039259557638, -1717.083360801144, -5780.228171375772, -6892.562734194128, -16932.519308628955, -15435.95825862387, -19935.453824455002, -10826.849737983912, -5742.6325372019455, -10713.414634873228, -10877.543494408548, -11391.700672113977, 0.006, -0.032, 0.986, 192.0, 0.0, 0.0, 0.0, 0.0, 0.0, 0.0, 0.0, 0.0, 0.0, 1.6444985399525104E9, 0.0, 2022-02-11 00:08:59.952
164.0, -7679.813525654498, -9262.294681345784, -10254.019231083303, -16143.703895056713, -2056.114620699241, -1711.1825002649427, -5776.830706218566, -6890.4840219597845, -16933.122805729246, -15435.801796412683, -19927.6530656401, -10823.0052379376, -5741.85022614601, -10712.92289649521, -10876.805886841523, -11389.532552901812, 0.006, -0.032, 0.986, 192.0, 0.0, 0.0, 0.0, 0.0, 0.0, 0.0, 0.0, 0.0, 0.0, 1.6444985399525173E9, 0.0, 2022-02-11 00:08:59.952
166.0, -7704.825127699987, -9279.21495189845, -10268.212588812423, -16144.19563343473, -2061.8813707687104, -1732.081381330655, -5769.3428718260375, -6896.787213896181, -16930.932334772628, -15428.872755631539, -19939.432434968046, -10827.47558682866, -5740.777342412155, -10727.250364691063, -10878.906950820321, -11392.77355584783, 0.006, -0.032, 0.986, 192.0, 0.0, 0.0, 0.0, 0.0, 0.0, 0.0, 0.0, 0.0, 0.0, 1.644498539952526E9, 0.0, 2022-02-11 00:08:59.952
168.0, -7691.6152467269, -9269.69310876049, -10256.544978206752, -16141.982810733654, -2058.5733125893253, -1724.750009149314, -5769.991072415241, -6898.485946474785, -16937.079064497837, -15439.132206336524, -19933.79979536531, -10831.878880486356, -5737.357525510493, -10728.055027491455, -10881.320939221494, -11393.265294225848, 0.006, -0.032, 0.986, 192.0, 0.0, 0.0, 0.0, 0.0, 0.0, 0.0, 0.0, 0.0, 0.0, 1.6444985399525325E9, 0.0, 2022-02-11 00:08:59.952
170.0, -7704.020464899596, -9281.964216466453, -10262.512893976318, -16144.888537512845, -2068.251617938473, -1725.91229986099, -5788.453613335325, -6897.2342487852875, -16948.59021289232, -15447.111779107068, -19932.413987209082, -10825.195708894218, -5758.122296109474, -10733.039466504988, -10882.77380261109, -11395.835744838208, 0.006, -0.03, 0.99, 192.0, 0.0, 24.0, 127.5, 8.0, 15.0, 120.0, 0.0, 0.0, 0.0, 1.6444985399525394E9, 0.0, 2022-02-11 00:08:59.952
172.0, -7706.970895167697, -9282.232437399916, -10267.631443456585, -16139.322953143474, -2053.544170086881, -1717.9327270904455, -5777.165982385395, -6889.388786481475, -16943.672829112154, -15445.01071512827, -19945.109778059697, -10836.997429966621, -5747.773438426667, -10729.0832077364, -10888.540552680559, -11394.651102382077, 0.006, -0.03, 0.99, 192.0, 0.0, 0.0, 0.0, 0.0, 0.0, 0.0, 0.0, 0.0, 0.0, 1.644498539952546E9, 0.0, 2022-02-11 00:08:59.952
174.0, -7683.076880344973, -9266.317995347737, -10256.232053784377, -16137.735979287147, -2042.5247600704147, -1712.501253187806, -5772.896799194432, -6896.854269129547, -16939.537756387923, -15434.43834000091, -19924.61322839418, -10821.462967570182, -5739.793865656122, -10710.553611582949, -10877.901122319832, -11387.92322730103, 0.006, -0.03, 0.99, 192.0, 0.0, 0.0, 0.0, 0.0, 0.0, 0.0, 0.0, 0.0, 0.0, 1.6444985399525528E9, 0.0, 2022-02-11 00:08:59.952
176.0, -7697.203182840727, -9269.491943060391, -10264.546902721751, -16143.256860167607, -2060.987300990498, -1725.3758579940627, -5767.599435758524, -6891.22162952681, -16937.324933686847, -15434.348933023088, -19933.911554087586, -10826.581517050448, -5734.720019664767, -10719.650771576258, -10880.896256076843, -11395.075785526727, 0.006, -0.03, 0.99, 192.0, 0.0, 0.0, 0.0, 0.0, 0.0, 0.0, 0.0, 0.0, 0.0, 1.6444985399525597E9, 0.0, 2022-02-11 00:08:59.952
178.0, -7684.32857803447, -9267.524989548325, -10256.343812506653, -16137.601868820415, -2044.4246583491158, -1707.9414973189232, -5749.069839605074, -6873.899027573947, -16937.615506364764, -15431.018523099248, -19937.621943667167, -10827.162662406286, -5743.951290124809, -10715.850975018857, -10879.063413031508, -11388.526724401323, 0.004, -0.027, 0.989, 192.0, 0.0, 8.0, 127.5, 32.0, 15.0, 112.0, 0.0, 0.0, 0.0, 1.6444985399525664E9, 0.0, 2022-02-11 00:08:59.952
180.0, -7687.23430481366, -9270.587178538703, -10265.686841688972, -16142.452197367216, -2052.806562519856, -1709.6178781530714, -5761.072726377574, -6872.803792095637, -16938.420169165154, -15428.515127720253, -19933.33040873175, -10818.177261135252, -5733.311859764083, -10705.83739350288, -10876.112982763409, -11382.603512120666, 0.004, -0.027, 0.989, 192.0, 0.0, 0.0, 0.0, 0.0, 0.0, 0.0, 0.0, 0.0, 0.0, 1.6444985399525733E9, 0.0, 2022-02-11 00:08:59.952
182.0, -7684.6191507123895, -9261.490018545392, -10259.69657417495, -16133.980886218655, -2050.124353185219, -1711.71894213187, -5767.241807847239, -6882.526800933695, -16931.848756295294, -15425.564697452153, -19935.923211088564, -10825.03924668303, -5743.817179658077, -10729.843167047879, -10881.231532243673, -11387.275026711826, 0.004, -0.027, 0.989, 192.0, 0.0, 0.0, 0.0, 0.0, 0.0, 0.0, 0.0, 0.0, 0.0, 1.64449853995258E9, 0.0, 2022-02-11 00:08:59.952
184.0, -7700.7571102091215, -9265.111001147152, -10251.627594426584, -16138.898269998823, -2045.6540042941576, -1703.1805757499428, -5759.731621710256, -6872.535571162173, -16931.02174175045, -15414.500583946776, -19915.493716656412, -10823.407569337794, -5740.509121478692, -10729.9325740257, -10876.15768625232, -11384.570465632733, 0.004, -0.027, 0.989, 192.0, 0.0, 0.0, 0.0, 0.0, 0.0, 0.0, 0.0, 0.0, 0.0, 1.644498539952587E9, 0.0, 2022-02-11 00:08:59.952
186.0, -7714.391674326858, -9274.856361729666, -10265.440972499964, -16141.960458989199, -2056.427545121616, -1718.4915207018282, -5771.600398016024, -6889.5452486926615, -16941.50470989999, -15436.58410746862, -19933.956257576498, -10832.48237758665, -5739.570348211569, -10714.331056395897, -10878.169343253296, -11389.465497668445, 0.004, -0.027, 0.989, 192.0, 0.0, 0.0, 0.0, 0.0, 0.0, 0.0, 0.0, 0.0, 0.0, 1.6444985399525936E9, 0.0, 2022-02-11 00:08:59.952
188.0, -7699.661874730811, -9270.900102961077, -10251.962870593414, -16134.874955996867, -2046.7045362835572, -1701.9735815493564, -5762.033851389152, -6884.136126534478, -16939.001314520992, -15435.980610368326, -19933.643333154123, -10826.246240883618, -5741.604356957002, -10728.278544936007, -10881.902084577332, -11387.699709856477, 0.006, -0.026500000000000003, 0.9884999999999999, 192.0, 0.0, 32.0, 127.5, 24.0, 15.0, 112.0, 0.0, 0.0, 0.0, 1.6444985399526002E9, 0.0, 2022-02-11 00:08:59.952
190.0, -7699.460709030714, -9278.678510031523, -10258.869559630104, -16140.328781643962, -2053.387707875694, -1710.400189209007, -5759.396345543426, -6887.690053902871, -16940.789454077418, -15428.068092831147, -19920.41110043658, -10820.412435580783, -5734.720019664767, -10719.650771576258, -10875.82241008549, -11386.090384255695, 0.006, -0.026500000000000003, 0.9884999999999999, 192.0, 0.0, 0.0, 0.0, 0.0, 0.0, 0.0, 0.0, 0.0, 0.0, 1.644498539952607E9, 0.0, 2022-02-11 00:08:59.952
192.0, -7702.612304998912, -9276.64450128609, -10265.329213777688, -16136.372522875372, -2060.964949246043, -1711.2272037538535, -5763.509066523203, -6891.512202204729, -16941.05767501088, -15436.204127812878, -19939.70065590151, -10833.599964809415, -5736.306993521094, -10715.113367451831, -10881.119773521397, -11393.689977370499, 0.006, -0.026500000000000003, 0.9884999999999999, 192.0, 0.0, 0.0, 0.0, 0.0, 0.0, 0.0, 0.0, 0.0, 0.0, 1.6444985399526136E9, 0.0, 2022-02-11 00:08:59.952
0.0, -3982.231495646417, -4695.207440281802, -5124.450340801518, -8057.02156508226, -1082.0032455925043, -802.0699980342387, -2733.148960250492, -3184.5871430143293, -8470.081802616334, -7716.068055161007, -9968.4533439223, -5412.720789041614, -2869.606360150142, -5353.399259257229, -5440.347545188373, -5692.7434435777, 0.004, -0.026000000000000002, 0.992, 192.0, 0.0, 16.0, 127.5, 24.0, 15.5, 0.0, 0.0, 0.0, 0.0, 1.64449854004477E9, 0.0, 2022-02-11 00:09:00.044
2.0, -7952.236587075781, -9371.907636154609, -10242.999821066836, -16109.885705695833, -2152.763563723989, -1597.8144523876254, -5462.721641388135, -6363.318128981367, -16717.093195568705, -15171.760639162141, -19780.600938868636, -10988.117574228952, -5641.535597030592, -10382.09472681221, -10698.036634687976, -11214.630152539034, 0.004, -0.026000000000000002, 0.992, 192.0, 0.0, 0.0, 0.0, 0.0, 0.0, 0.0, 0.0, 0.0, 0.0, 1.644498540523203E9, 0.0, 2022-02-11 00:09:00.523
4.0, -7949.867302163519, -9379.596636247235, -10238.261251242311, -16112.81378421948, -2139.128999606252, -1592.6288476739942, -5446.762495847046, -6363.206370259091, -16712.131108299625, -15173.19115080728, -19767.994554995843, -10977.388736890405, -5635.768846961123, -10366.828485349237, -10690.191172384164, -11208.818698980655, 0.004, -0.026000000000000002, 0.992, 192.0, 0.0, 0.0, 0.0, 0.0, 0.0, 0.0, 0.0, 0.0, 0.0, 1.6444985405232267E9, 0.0, 2022-02-11 00:09:00.523
6.0, -7967.167552371926, -9384.849296194232, -10249.50417870333, -16108.119917883865, -2149.924892178165, -1607.023371103212, -5462.207551265664, -6391.369568272778, -16722.703483426987, -15182.95886313425, -19780.44447665745, -10983.043728237597, -5636.528806272603, -10362.961633558469, -10691.398166584751, -11215.859498484077, 0.004, -0.026000000000000002, 0.987, 192.0, 0.0, 16.0, 127.5, 24.0, 15.0, 88.0, 0.0, 0.0, 0.0, 1.644498540523234E9, 0.0, 2022-02-11 00:09:00.523
8.0, -7956.505770266745, -9383.083508382262, -10244.005649567325, -16104.27541783755, -2147.4438485436262, -1593.344103496564, -5456.932539574211, -6350.06354451937, -16721.54119271531, -15177.058002598049, -19779.840979557157, -10979.623911335935, -5632.97487890421, -10378.920779099559, -10695.421480586707, -11210.338617603615, 0.004, -0.026000000000000002, 0.987, 192.0, 0.0, 0.0, 0.0, 0.0, 0.0, 0.0, 0.0, 0.0, 0.0, 1.644498540523241E9, 0.0, 2022-02-11 00:09:00.523
10.0, -7967.547532027666, -9394.460546310014, -10247.738390891362, -16112.322045841462, -2152.4953427905252, -1602.6200774455165, -5457.714850630146, -6364.368660970767, -16727.55381197379, -15181.99773812267, -19774.588319610157, -10972.113725198953, -5633.243099837673, -10365.755601615383, -10689.900599706245, -11206.516469301758, 0.004, -0.026000000000000002, 0.987, 192.0, 0.0, 0.0, 0.0, 0.0, 0.0, 0.0, 0.0, 0.0, 0.0, 1.644498540523248E9, 0.0, 2022-02-11 00:09:00.523
12.0, -7968.598064017066, -9391.688929997556, -10250.822931626193, -16111.249162107608, -2159.737307994045, -1601.1672140559215, -5458.832437852912, -6367.11792553877, -16725.542154972813, -15196.414613296345, -19788.468752916902, -10992.766737075655, -5637.869910939921, -10379.792497133314, -10697.030806187488, -11213.713731016367, 0.004, -0.026000000000000002, 0.987, 192.0, 0.0, 0.0, 0.0, 0.0, 0.0, 0.0, 0.0, 0.0, 0.0, 1.6444985405232549E9, 0.0, 2022-02-11 00:09:00.523
14.0, -7955.678755721898, -9377.495572268435, -10241.770475121793, -16111.360920829884, -2147.7791247104556, -1592.5170889517176, -5453.8927023282895, -6355.137390510726, -16725.296285783803, -15183.182380578803, -19770.20737769692, -10980.495629369692, -5641.557948775047, -10372.349366229697, -10692.69456776316, -11207.41053907997, 0.004, -0.026000000000000002, 0.987, 192.0, 0.0, 0.0, 0.0, 0.0, 0.0, 0.0, 0.0, 0.0, 0.0, 1.6444985405232615E9, 0.0, 2022-02-11 00:09:00.523
16.0, -7969.112154139538, -9388.783203218365, -10249.75004789234, -16108.432842306238, -2159.37968008276, -1594.0817110635892, -5474.612769438359, -6365.374489471256, -16728.581992218733, -15173.928758374306, -19778.18695046746, -10977.589902590502, -5642.3179080865275, -10367.901369083093, -10693.83450673038, -11209.086919914118, 0.005, -0.027000000000000003, 0.9864999999999999, 192.0, 0.0, 24.0, 127.5, 16.0, 15.0, 104.0, 0.0, 0.0, 0.0, 1.6444985405232685E9, 0.0, 2022-02-11 00:09:00.523
18.0, -7955.298776066158, -9385.162220616607, -10242.843358855649, -16099.335682312929, -2147.1085723767965, -1593.3217517521086, -5446.091943513387, -6364.770992370963, -16722.859945638174, -15173.816999652028, -19779.505703390325, -10975.60059733398, -5629.443303280271, -10367.990776060913, -10695.287370119973, -11206.382358835026, 0.005, -0.027000000000000003, 0.9864999999999999, 192.0, 0.0, 0.0, 0.0, 0.0, 0.0, 0.0, 0.0, 0.0, 0.0, 1.6444985405232751E9, 0.0, 2022-02-11 00:09:00.523
20.0, -7969.872113451018, -9388.202057862527, -10249.660640914517, -16109.729243484646, -2164.185305140651, -1605.79402515817, -5465.649719911781, -6372.25882676349, -16729.900745141596, -15191.094898115982, -19774.789485310255, -10974.237140922207, -5639.0322016515975, -10380.351290744698, -10694.169782897208, -11210.31626585916, 0.005, -0.027000000000000003, 0.9864999999999999, 192.0, 0.0, 0.0, 0.0, 0.0, 0.0, 0.0, 0.0, 0.0, 0.0, 1.644498540523282E9, 0.0, 2022-02-11 00:09:00.523
22.0, -7975.683567009398, -9391.264246852905, -10250.375896737087, -16112.970246430667, -2162.7324417510563, -1611.60547871655, -5457.290167485496, -6368.16845752817, -16732.82882366524, -15202.002549410172, -19786.479447660382, -10992.99025452021, -5638.406352806849, -10386.430965236541, -10699.824774244402, -11213.378454849537, 0.005, -0.027000000000000003, 0.9864999999999999, 192.0, 0.0, 0.0, 0.0, 0.0, 0.0, 0.0, 0.0, 0.0, 0.0, 1.6444985405232887E9, 0.0, 2022-02-11 00:09:00.523
24.0, -7967.569883772121, -9397.7686044894, -10242.2175100109, -16116.52417379906, -2154.775220724967, -1602.1283390674996, -5457.044298296488, -6368.5931406728205, -16732.247678309403, -15198.068642386037, -19774.230691698875, -10987.715242828757, -5646.274166855117, -10376.886770354125, -10692.582809040881, -11209.60101003659, 0.005, -0.027000000000000003, 0.9864999999999999, 192.0, 0.0, 0.0, 0.0, 0.0, 0.0, 0.0, 0.0, 0.0, 0.0, 1.6444985405232956E9, 0.0, 2022-02-11 00:09:00.523
26.0, -7971.682604751898, -9388.939665429552, -10248.453646713931, -16113.014949919576, -2161.7489649950226, -1606.1293013249997, -5477.742013662102, -6381.713614668085, -16729.386655019123, -15196.302854574067, -19780.355069679626, -10992.833792309022, -5639.680402240801, -10371.05296505129, -10690.839372973369, -11211.545611804202, 0.0075, -0.0245, 0.98925, 192.0, 0.0, 40.0, 127.5, 40.0, 15.5, 0.0, 0.0, 0.0, 0.0, 1.6444985405233023E9, 0.0, 2022-02-11 00:09:00.523
28.0, -7959.076220879105, -9383.485839782457, -10237.545995419741, -16108.61165626188, -2148.539084021936, -1590.147804039455, -5455.613786651348, -6361.820562102862, -16724.06693983876, -15191.43017428281, -19776.82349405569, -10988.251684695684, -5633.377210304405, -10365.174456259545, -10695.801460242446, -11211.41150133747, 0.0075, -0.0245, 0.98925, 192.0, 0.0, 0.0, 0.0, 0.0, 0.0, 0.0, 0.0, 0.0, 0.0, 1.6444985405233092E9, 0.0, 2022-02-11 00:09:00.523
30.0, -7966.34053782708, -9387.531505528868, -10241.010515810314, -16112.076176652454, -2156.4292498146597, -1594.6181529305165, -5458.407754708262, -6372.8176203748735, -16726.03389335083, -15177.974424120715, -19766.34052590615, -10970.772620531634, -5634.472445782715, -10361.95580505798, -10690.459393317627, -11206.270600112748, 0.0075, -0.0245, 0.98925, 192.0, 0.0, 0.0, 0.0, 0.0, 0.0, 0.0, 0.0, 0.0, 0.0, 1.644498540523316E9, 0.0, 2022-02-11 00:09:00.523
32.0, -7973.783668730697, -9394.326435843283, -10246.307879246222, -16113.126708641854, -2163.6935667626344, -1594.2605250192316, -5464.733298389113, -6380.841896634329, -16733.052341109793, -15194.805287695563, -19789.854561073134, -10991.291521941606, -5632.214919592729, -10371.343537729208, -10699.69066377767, -11212.104405415585, 0.0075, -0.0245, 0.98925, 192.0, 0.0, 0.0, 0.0, 0.0, 0.0, 0.0, 0.0, 0.0, 0.0, 1.6444985405233228E9, 0.0, 2022-02-11 00:09:00.523
34.0, -7966.519351782722, -9388.559685773813, -10239.512948931808, -16117.105319154898, -2155.1328486362518, -1594.1711180414104, -5464.554484433471, -6375.768050642973, -16734.482852754933, -15197.286331330102, -19781.092677246652, -10990.8444870525, -5638.495759784671, -10373.936340086024, -10692.269884618509, -11207.991684435807, 0.0075, -0.0245, 0.98925, 192.0, 0.0, 0.0, 0.0, 0.0, 0.0, 0.0, 0.0, 0.0, 0.0, 1.644498540523331E9, 0.0, 2022-02-11 00:09:00.523
36.0, -7979.550418800166, -9391.264246852905, -10251.627594426584, -16117.66411276628, -2169.706186021112, -1612.4995484947622, -5480.111298574365, -6380.618379189776, -16737.41093127858, -15202.404880810367, -19785.87595056009, -10997.773527833644, -5642.6084807644465, -10393.739985673426, -10696.941399209667, -11212.640847282511, 0.00775, -0.02425, 0.987625, 192.0, 0.0, 32.0, 127.5, 32.0, 15.0, 104.0, 0.0, 0.0, 0.0, 1.6444985405233395E9, 0.0, 2022-02-11 00:09:00.523
38.0, -7962.38427905849, -9387.978540417975, -10248.520701947296, -16112.411452819284, -2162.0395376729416, -1589.41019647243, -5456.530208174016, -6372.661158163686, -16734.68401845503, -15183.607063723453, -19785.20539822643, -10996.253609210684, -5637.422876050816, -10403.530049744852, -10701.9258382232, -11210.808004237177, 0.00775, -0.02425, 0.987625, 192.0, 0.0, 0.0, 0.0, 0.0, 0.0, 0.0, 0.0, 0.0, 0.0, 1.6444985405233464E9, 0.0, 2022-02-11 00:09:00.523
40.0, -7970.050927406661, -9379.32841531377, -10249.75004789234, -16117.798223233012, -2168.432136587159, -1594.5287459526953, -5460.933501831711, -6378.182039044147, -16739.556698746288, -15192.614816738942, -19776.48821788886, -10984.854219538478, -5638.361649317939, -10377.356156987687, -10697.83546898788, -11207.567001291156, 0.00775, -0.02425, 0.987625, 192.0, 0.0, 0.0, 0.0, 0.0, 0.0, 0.0, 0.0, 0.0, 0.0, 1.644498540523353E9, 0.0, 2022-02-11 00:09:00.523
42.0, -7983.238456635292, -9387.732671228967, -10251.202911281933, -16114.266647609074, -2164.3641190962935, -1594.439338974874, -5462.721641388135, -6378.517315210976, -16740.83074818024, -15199.521505775632, -19787.954662794433, -10994.376062676438, -5634.628907993902, -10379.367813988663, -10699.645960288759, -11215.188946150416, 0.00775, -0.02425, 0.987625, 192.0, 0.0, 0.0, 0.0, 0.0, 0.0, 0.0, 0.0, 0.0, 0.0, 1.6444985405233605E9, 0.0, 2022-02-11 00:09:00.523
44.0, -7960.4396772908785, -9384.67048223859, -10240.854053599127, -16113.149060386308, -2154.9763864250644, -1584.761033625726, -5456.932539574211, -6370.515390695977, -16737.947373145507, -15198.739194719696, -19772.554310864725, -10984.69775732729, -5636.9758411617095, -10368.594273161207, -10695.421480586707, -11208.997512936296, 0.00775, -0.02425, 0.987625, 192.0, 0.0, 0.0, 0.0, 0.0, 0.0, 0.0, 0.0, 0.0, 0.0, 1.6444985405233672E9, 0.0, 2022-02-11 00:09:00.523
46.0, -7969.693299495376, -9384.089336882751, -10247.403114724531, -16116.747691243612, -2167.895694720232, -1594.5510976971505, -5465.761478634057, -6379.858419878295, -16731.040684108815, -15198.985063908705, -19773.314270176204, -10982.820210793045, -5626.694038712268, -10373.91398834157, -10694.482707319583, -11211.41150133747, 0.007875, -0.025125, 0.9868125, 192.0, 0.0, 32.0, 127.5, 24.0, 15.0, 104.0, 0.0, 0.0, 0.0, 1.6444985405233748E9, 0.0, 2022-02-11 00:09:00.523
48.0, -7958.76329645673, -9375.372156545181, -10239.580004165175, -16112.746728986112, -2156.09397364783, -1587.4655947048182, -5463.79452512199, -6373.4658209640775, -16725.542154972813, -15197.018110396637, -19775.460037643916, -10988.296388184595, -5628.012791635131, -10376.86441860967, -10700.092995177865, -11213.959600205375, 0.007875, -0.025125, 0.9868125, 192.0, 0.0, 0.0, 0.0, 0.0, 0.0, 0.0, 0.0, 0.0, 0.0, 1.6444985405233822E9, 0.0, 2022-02-11 00:09:00.523
50.0, -7960.976119157805, -9376.310929812304, -10243.335097233665, -16121.24039187913, -2164.4311743296594, -1592.3829784849859, -5463.436897210705, -6377.556190199398, -16732.6500097096, -15194.067680128537, -19766.00524973932, -10984.898923027387, -5628.593936990969, -10358.714802111961, -10696.606123042837, -11211.813832737666, 0.007875, -0.025125, 0.9868125, 192.0, 0.0, 0.0, 0.0, 0.0, 0.0, 0.0, 0.0, 0.0, 0.0, 1.644498540523389E9, 0.0, 2022-02-11 00:09:00.523
52.0, -7959.299738323658, -9375.439211778548, -10250.130027548079, -16115.920676698766, -2169.7508895100227, -1595.311057008631, -5467.594321679392, -6380.506620467499, -16732.31473354277, -15192.39129929439, -19781.9196917915, -10994.018434765154, -5625.799968934056, -10379.636034922129, -10699.958884711134, -11216.12771941754, 0.007875, -0.025125, 0.9868125, 192.0, 0.0, 0.0, 0.0, 0.0, 0.0, 0.0, 0.0, 0.0, 0.0, 1.6444985405233958E9, 0.0, 2022-02-11 00:09:00.523
54.0, -7955.075258621605, -9374.835714678255, -10244.028001311779, -16116.52417379906, -2165.2358371300506, -1593.7911383856701, -5477.898475873289, -6387.301550781912, -16732.001809120397, -15190.089069615493, -19770.81087479721, -10980.875609025432, -5630.762056203134, -10392.644750195117, -10700.808251000435, -11216.954733962386, 0.007875, -0.025125, 0.9868125, 192.0, 0.0, 0.0, 0.0, 0.0, 0.0, 0.0, 0.0, 0.0, 0.0, 1.6444985405234025E9, 0.0, 2022-02-11 00:09:00.523
56.0, -7967.905159938951, -9384.178743860573, -10256.656736929028, -16120.9051157123, -2184.279523405972, -1609.1244350820107, -5492.404758024783, -6408.826280692373, -16737.947373145507, -15196.369909807434, -19776.39881091104, -10991.090356241508, -5642.407315064349, -10389.202581549, -10704.384530113284, -11225.671914299955, 0.0069375, -0.0245625, 0.98540625, 192.0, 0.0, 24.0, 127.5, 32.0, 15.0, 96.0, 0.0, 0.0, 0.0, 1.6444985405234096E9, 0.0, 2022-02-11 00:09:00.523
58.0, -7961.669023235921, -9385.653958994622, -10251.873463615593, -16119.72047325617, -2179.9656367260977, -1596.473347720307, -5462.2299030101185, -6371.789440129929, -16736.673323711555, -15198.918008675339, -19783.841941814655, -10995.203077221284, -5640.865044696933, -10388.599084448706, -10710.307742393941, -11223.682609043433, 0.0069375, -0.0245625, 0.98540625, 192.0, 0.0, 0.0, 0.0, 0.0, 0.0, 0.0, 0.0, 0.0, 0.0, 1.6444985405234165E9, 0.0, 2022-02-11 00:09:00.523
60.0, -7967.502828538755, -9388.649092751633, -10253.12516130509, -16123.296752369019, -2180.3903198707485, -1597.859155876536, -5459.614748908848, -6371.901198852205, -16745.16698660457, -15203.254247099669, -19779.326889434684, -10990.732728330224, -5643.189626120285, -10385.313378013776, -10704.652751046748, -11217.26765838476, 0.0069375, -0.0245625, 0.98540625, 192.0, 0.0, 0.0, 0.0, 0.0, 0.0, 0.0, 0.0, 0.0, 0.0, 1.6444985405234232E9, 0.0, 2022-02-11 00:09:00.523
62.0, -7968.754526228253, -9383.485839782457, -10257.416696240509, -16122.76031050209, -2180.211505915106, -1599.5802401995945, -5472.0870223149095, -6385.401652503211, -16736.53921324482, -15196.124040618426, -19788.20053198344, -10993.683158598324, -5631.097332369964, -10383.882866368636, -10707.938457481678, -11219.547536319202, 0.0069375, -0.0245625, 0.98540625, 192.0, 0.0, 0.0, 0.0, 0.0, 0.0, 0.0, 0.0, 0.0, 0.0, 1.64449854052343E9, 0.0, 2022-02-11 00:09:00.523
64.0, -7959.009165645739, -9382.077679881773, -10253.21456828291, -16126.180127403752, -2172.678968033668, -1594.1934697858655, -5457.245463996585, -6370.8283151183505, -16737.299172556304, -15195.028805140115, -19778.7680958233, -10998.958170289776, -5640.842692952478, -10384.06168032428, -10704.898620235756, -11216.954733962386, 0.0069375, -0.0245625, 0.98540625, 192.0, 0.0, 0.0, 0.0, 0.0, 0.0, 0.0, 0.0, 0.0, 0.0, 1.644498540523437E9, 0.0, 2022-02-11 00:09:00.523
66.0, -7955.2764243217025, -9370.588883231745, -10257.12612356259, -16126.71656927068, -2188.280485663472, -1603.2906297791756, -5470.902379858778, -6381.870076879272, -16733.700541699, -15200.214409853746, -19780.466828401903, -11002.780318591633, -5640.194492363274, -10387.05681408129, -10704.719806280114, -11221.156861919984, 0.00746875, -0.02528125, 0.987703125, 192.0, 0.0, 32.0, 127.5, 24.0, 15.0, 120.0, 0.0, 0.0, 0.0, 1.6444985405234437E9, 0.0, 2022-02-11 00:09:00.523
68.0, -7939.317278780613, -9355.032069090852, -10242.262213499811, -16114.311351097984, -2174.1765349121733, -1588.2255540162987, -5453.4233156947275, -6370.470687207066, -16704.039776806807, -15178.890845643384, -19766.027601483776, -10991.000949263687, -5620.0108671201315, -10382.273540767854, -10708.229030159597, -11216.284181628727, 0.00746875, -0.02528125, 0.987703125, 192.0, 0.0, 0.0, 0.0, 0.0, 0.0, 0.0, 0.0, 0.0, 0.0, 1.644498540523453E9, 0.0, 2022-02-11 00:09:00.523
70.0, -7968.486305294789, -9384.536371771857, -10253.12516130509, -16123.833194235945, -2189.1075002083185, -1600.7201791668153, -5477.786717151012, -6388.59795196032, -16744.004695892894, -15204.640055255897, -19769.670935829992, -10990.240989952206, -5640.149788874363, -10392.48828798393, -10705.591524313872, -11215.524222317246, 0.00746875, -0.02528125, 0.987703125, 192.0, 0.0, 0.0, 0.0, 0.0, 0.0, 0.0, 0.0, 0.0, 0.0, 1.6444985405234597E9, 0.0, 2022-02-11 00:09:00.523
72.0, -7966.318186082624, -9381.652996737123, -10255.159170050523, -16122.134461657342, -2184.771261783989, -1599.9378681108794, -5472.757574648568, -6387.145088570725, -16739.243774323913, -15204.885924444907, -19784.356031937128, -11001.260399968673, -5634.181873104796, -10389.604912949195, -10711.73825403908, -11221.626248553544, 0.00746875, -0.02528125, 0.987703125, 192.0, 0.0, 0.0, 0.0, 0.0, 0.0, 0.0, 0.0, 0.0, 0.0, 1.6444985405234663E9, 0.0, 2022-02-11 00:09:00.523
74.0, -7954.3376510545795, -9379.216656591494, -10246.17376877949, -16123.050883180009, -2171.360215110805, -1599.4908332217733, -5466.074403056432, -6382.674739679664, -16739.26612606837, -15204.952979678272, -19775.34827892164, -10997.460603411271, -5632.058457381542, -10381.58063668974, -10700.182402155686, -11217.155899662483, 0.00746875, -0.02528125, 0.987703125, 192.0, 0.0, 0.0, 0.0, 0.0, 0.0, 0.0, 0.0, 0.0, 0.0, 1.6444985405234733E9, 0.0, 2022-02-11 00:09:00.523
76.0, -7960.886712179985, -9375.014528633897, -10254.242748527855, -16122.603848290903, -2182.6254943162794, -1607.470405992318, -5480.670092185747, -6391.50367873951, -16742.373018547656, -15212.217296626246, -19781.070325502198, -11004.121423258952, -5639.076905140509, -10396.10927058569, -10698.148393410254, -11221.469786342357, 0.007734375, -0.024640625, 0.9868515625000001, 192.0, 0.0, 32.0, 127.5, 32.0, 15.0, 104.0, 0.0, 0.0, 0.0, 1.6444985405234804E9, 0.0, 2022-02-11 00:09:00.523
78.0, -7940.747790425753, -9357.222540047473, -10244.430332711976, -16119.765176745079, -2170.2202761435838, -1590.3936732284635, -5460.978205320622, -6368.25786450599, -16727.799681162796, -15196.302854574067, -19776.91290103351, -11000.522792401647, -5626.314059056528, -10404.357064289698, -10698.617780043814, -11215.635981039522, 0.007734375, -0.024640625, 0.9868515625000001, 192.0, 0.0, 0.0, 0.0, 0.0, 0.0, 0.0, 0.0, 0.0, 0.0, 1.644498540523487E9, 0.0, 2022-02-11 00:09:00.523
80.0, -7945.911043394929, -9369.001909375418, -10245.883196101571, -16121.732130257147, -2179.8762297482767, -1603.1565193124438, -5465.0462228114875, -6375.9915680875265, -16728.872564896654, -15191.117249860437, -19761.087865959154, -10993.258475453673, -5629.800931191556, -10398.34444503122, -10692.560457296428, -11211.143280404005, 0.007734375, -0.024640625, 0.9868515625000001, 192.0, 0.0, 0.0, 0.0, 0.0, 0.0, 0.0, 0.0, 0.0, 0.0, 1.6444985405234945E9, 0.0, 2022-02-11 00:09:00.523
82.0, -7949.330860296591, -9360.284729037849, -10252.611071182619, -16117.373540088362, -2183.9665989835976, -1601.1001588225556, -5469.628330424825, -6381.937132112638, -16732.78412017633, -15198.001587152672, -19778.321060934195, -10993.41493766486, -5625.643506722869, -10395.43871825203, -10704.563344068927, -11220.463957841868, 0.007734375, -0.024640625, 0.9868515625000001, 192.0, 0.0, 0.0, 0.0, 0.0, 0.0, 0.0, 0.0, 0.0, 0.0, 1.6444985405235012E9, 0.0, 2022-02-11 00:09:00.523
84.0, -7942.37946777099, -9358.653051692612, -10240.094094287646, -16110.846830707413, -2172.9471889671313, -1590.1701557839103, -5469.22599902463, -6372.504695952499, -16732.20297482049, -15191.67604347182, -19764.44062762745, -10977.254626423673, -5628.281012568595, -10390.946017616514, -10697.723710265602, -11211.45620482638, 0.007734375, -0.024640625, 0.9868515625000001, 192.0, 0.0, 0.0, 0.0, 0.0, 0.0, 0.0, 0.0, 0.0, 0.0, 1.644498540523508E9, 0.0, 2022-02-11 00:09:00.523
86.0, -7952.102476609049, -9366.945548885531, -10249.481826958874, -16114.557220286993, -2181.798479771433, -1598.6861704213823, -5475.775060150035, -6383.322940268868, -16733.566431232266, -15193.844162683985, -19763.6136130826, -10984.474239882737, -5628.996268391164, -10390.454279238496, -10698.371910854807, -11213.31139961617, 0.01, -0.026000000000000002, 0.982, 192.0, 0.0, 40.0, 127.5, 24.0, 15.0, 88.0, 0.0, 0.0, 0.0, 1.6444985405235147E9, 0.0, 2022-02-11 00:09:00.523
88.0, -7941.083066592582, -9358.787162159344, -10243.35744897812, -16110.131574884843, -2174.4671075900924, -1585.7445103817595, -5463.973339077633, -6373.443469219622, -16727.240887551416, -15193.665348728342, -19770.050915485732, -10988.542257373603, -5618.647410708358, -10386.252151280898, -10701.076471933899, -11214.160765905472, 0.01, -0.026000000000000002, 0.982, 192.0, 0.0, 0.0, 0.0, 0.0, 0.0, 0.0, 0.0, 0.0, 0.0, 1.6444985405235217E9, 0.0, 2022-02-11 00:09:00.523
90.0, -7943.921738138407, -9358.965976114987, -10244.251518756333, -16117.440595321727, -2175.271770390483, -1592.762958140726, -5472.019967081544, -6389.223800805069, -16731.912402142574, -15193.866514428439, -19759.29972640273, -10982.663748581857, -5633.891300426877, -10382.586465190228, -10697.83546898788, -11212.998475193795, 0.01, -0.026000000000000002, 0.982, 192.0, 0.0, 0.0, 0.0, 0.0, 0.0, 0.0, 0.0, 0.0, 0.0, 1.6444985405235286E9, 0.0, 2022-02-11 00:09:00.523
92.0, -7954.918796410418, -9369.09131635324, -10251.135856048568, -16119.966342445177, -2184.3242268948825, -1602.2624495342316, -5467.929597846222, -6384.127603069259, -16735.89101265562, -15192.570113250033, -19776.309403933217, -11003.741443603212, -5633.0419341375755, -10399.596142720717, -10702.037596945476, -11220.642771797511, 0.01, -0.026000000000000002, 0.982, 192.0, 0.0, 0.0, 0.0, 0.0, 0.0, 0.0, 0.0, 0.0, 0.0, 1.6444985405235355E9, 0.0, 2022-02-11 00:09:00.523
94.0, -7947.1180375955155, -9367.034955863352, -10245.234995512366, -16119.049920922509, -2182.2231629160838, -1600.474309977807, -5474.0316240825205, -6380.350158256311, -16740.160195846584, -15199.29798833108, -19765.24529042784, -10983.446059637792, -5638.585166762491, -10395.68458744104, -10703.110480679332, -11220.776882264243, 0.01, -0.026000000000000002, 0.982, 192.0, 0.0, 0.0, 0.0, 0.0, 0.0, 0.0, 0.0, 0.0, 0.0, 1.644498540523542E9, 0.0, 2022-02-11 00:09:00.523
96.0, -7961.803133702652, -9378.52375251338, -10253.281623516277, -16117.485298810638, -2195.120119466796, -1619.696810209371, -5483.821688153946, -6398.365664287289, -16747.245698838913, -15208.797479724584, -19771.19085445295, -10985.904751527876, -5642.563777275536, -10408.782709691848, -10705.658579547237, -11223.772016021254, 0.008, -0.024, 0.984, 192.0, 0.0, 32.0, 127.5, 32.0, 15.0, 96.0, 0.0, 0.0, 0.0, 1.6444985405235488E9, 0.0, 2022-02-11 00:09:00.523
98.0, -7947.207444573337, -9370.298310553826, -10246.419637968498, -16115.116013898376, -2181.5973140713354, -1603.5141472237287, -5478.524324718038, -6385.893390881228, -16742.64123948112, -15208.462203557756, -19777.605805111623, -10994.84544931, -5639.121608629419, -10407.955695147002, -10706.463242347627, -11221.02275145325, 0.008, -0.024, 0.984, 192.0, 0.0, 0.0, 0.0, 0.0, 0.0, 0.0, 0.0, 0.0, 0.0, 1.644498540523556E9, 0.0, 2022-02-11 00:09:00.523
100.0, -7947.877996906996, -9366.654976207612, -10248.78892288076, -16116.993560432622, -2189.3980728862375, -1607.8503856480581, -5480.781850908023, -6389.7825944164515, -16743.244736581415, -15204.751813978173, -19765.28999391675, -10986.41884165035, -5637.4452277952705, -10401.697206699517, -10701.9258382232, -11218.876983985541, 0.008, -0.024, 0.984, 192.0, 0.0, 0.0, 0.0, 0.0, 0.0, 0.0, 0.0, 0.0, 0.0, 1.6444985405235667E9, 0.0, 2022-02-11 00:09:00.523
102.0, -7953.778857443197, -9363.838656406244, -10256.366164251109, -16115.652455765303, -2189.4651281196034, -1605.503452480251, -5474.3221967604395, -6389.804946160906, -16744.876413926653, -15205.824697712029, -19780.980918524376, -10997.885286555922, -5637.467579539726, -10406.860459668691, -10706.060910947432, -11219.569888063657, 0.008, -0.024, 0.984, 192.0, 0.0, 0.0, 0.0, 0.0, 0.0, 0.0, 0.0, 0.0, 0.0, 1.644498540523574E9, 0.0, 2022-02-11 00:09:00.523
104.0, -7944.234662560781, -9353.84742663472, -10244.430332711976, -16115.518345298571, -2172.6566162892123, -1593.187641285377, -5461.715812887646, -6372.504695952499, -16747.69273372802, -15191.407822538356, -19769.983860252367, -10987.469373639748, -5630.0468003805645, -10386.542723958817, -10697.16491665422, -11208.550478047191, 0.008, -0.024, 0.984, 192.0, 0.0, 0.0, 0.0, 0.0, 0.0, 0.0, 0.0, 0.0, 0.0, 1.6444985405235808E9, 0.0, 2022-02-11 00:09:00.523
106.0, -7958.182151100893, -9362.676365694568, -10251.31467000421, -16119.854583722901, -2187.5652298409022, -1603.827071646103, -5476.982054350621, -6386.988626359538, -16750.799626207307, -15197.666310985842, -19774.834188799166, -10985.569475361048, -5645.156579632352, -10395.841049652225, -10696.181439898186, -11212.193812393405, 0.004, -0.028, 0.986, 192.0, 0.0, 16.0, 127.5, 16.0, 15.0, 104.0, 0.0, 0.0, 0.0, 1.644498540523588E9, 0.0, 2022-02-11 00:09:00.523
108.0, -7951.588386486577, -9365.649147707123, -10243.245690255844, -16114.780737731546, -2176.6575785467126, -1596.1604232979325, -5469.315406002451, -6383.0323675909485, -16747.200995350006, -15197.934531919305, -19775.594148110646, -10996.857106310978, -5640.9097481858435, -10401.63015146615, -10696.226143387097, -11211.858536226575, 0.004, -0.028, 0.986, 192.0, 0.0, 0.0, 0.0, 0.0, 0.0, 0.0, 0.0, 0.0, 0.0, 1.644498540523595E9, 0.0, 2022-02-11 00:09:00.523
110.0, -7957.265729578225, -9367.079659352263, -10248.967736836403, -16125.777796003556, -2185.6206280732904, -1607.0680745921225, -5480.8936096303005, -6392.643617706731, -16755.247623353913, -15210.049177414081, -19767.659278829015, -10994.197248720795, -5647.16823663333, -10393.874096140158, -10694.683873019681, -11212.797309493699, 0.004, -0.028, 0.986, 192.0, 0.0, 0.0, 0.0, 0.0, 0.0, 0.0, 0.0, 0.0, 0.0, 1.644498540523602E9, 0.0, 2022-02-11 00:09:00.523
112.0, -7959.903235423951, -9370.745345442932, -10254.756838650328, -16123.989656447133, -2191.610895587313, -1611.8289961611029, -5481.966493364155, -6397.493946253532, -16751.11255062968, -15215.547706550087, -19779.215130712408, -11005.395472692904, -5645.536559288092, -10399.327921787253, -10702.395224856762, -11219.547536319202, 0.004, -0.028, 0.986, 192.0, 0.0, 0.0, 0.0, 0.0, 0.0, 0.0, 0.0, 0.0, 0.0, 1.6444985405236092E9, 0.0, 2022-02-11 00:09:00.523
114.0, -7945.62047071701, -9368.04078436384, -10246.039658312757, -16117.261781366085, -2184.8159652728996, -1606.6210397030163, -5476.467964228149, -6377.109155310292, -16751.55958551879, -15205.712938989753, -19766.944023006443, -10991.55974287507, -5647.861140711444, -10399.909067143091, -10703.155184168243, -11214.27252462775, 0.004, -0.028, 0.986, 192.0, 0.0, 0.0, 0.0, 0.0, 0.0, 0.0, 0.0, 0.0, 0.0, 1.6444985405236163E9, 0.0, 2022-02-11 00:09:00.523
116.0, -7960.506732524244, -9375.550970500824, -10253.773361894293, -16125.129595414353, -2194.0695874773965, -1615.5617374851392, -5472.198781037186, -6387.994454860027, -16756.767541976875, -15208.864534957951, -19774.655374843525, -10990.799783563589, -5657.159466404852, -10404.82645092326, -10702.238762645575, -11215.054835683684, 0.004, -0.036000000000000004, 0.992, 192.0, 0.0, 16.0, 127.0, 112.0, 15.5, 0.0, 0.0, 0.0, 0.0, 1.6444985405236235E9, 0.0, 2022-02-11 00:09:00.523
118.0, -7945.933395139385, -9365.38092677366, -10245.682030401473, -16120.61454303438, -2177.1716686691843, -1609.5267664822063, -5466.499086201083, -6387.010978103993, -16748.564451761777, -15207.210505868257, -19779.23748245686, -10996.678292355335, -5654.253739625662, -10406.72634920196, -10702.730501023592, -11217.357065362581, 0.004, -0.036000000000000004, 0.992, 192.0, 0.0, 0.0, 0.0, 0.0, 0.0, 0.0, 0.0, 0.0, 0.0, 1.6444985405236301E9, 0.0, 2022-02-11 00:09:00.523
120.0, -7953.309470809636, -9370.320662298282, -10248.140722291557, -16124.660208780791, -2180.0103402150085, -1612.6113072170388, -5468.577798435426, -6394.364702029789, -16748.89972792861, -15203.790688966596, -19763.077171215675, -10983.93779801581, -5650.0069081791535, -10402.591276477728, -10692.985140441078, -11215.121890917051, 0.004, -0.036000000000000004, 0.992, 192.0, 0.0, 0.0, 0.0, 0.0, 0.0, 0.0, 0.0, 0.0, 0.0, 1.6444985405236373E9, 0.0, 2022-02-11 00:09:00.523
122.0, -7954.874092921507, -9371.818229176788, -10256.232053784377, -16125.554278559004, -2191.6555990762236, -1610.823167660614, -5477.876124128834, -6379.769012900474, -16748.49739652841, -15204.863572700451, -19778.43281965647, -11002.109766257974, -5649.291652356584, -10393.650578695606, -10696.49436432056, -11215.591277550611, 0.004, -0.036000000000000004, 0.992, 192.0, 0.0, 0.0, 0.0, 0.0, 0.0, 0.0, 0.0, 0.0, 0.0, 1.6444985410032086E9, 0.0, 2022-02-11 00:09:01.003
124.0, -7942.513578237722, -9360.061211593296, -10250.018268825803, -16120.748653501112, -2179.228029159073, -1601.658952433938, -5459.637100653303, -6375.723347154063, -16748.586803506234, -15205.310607589558, -19765.602918339126, -10995.314835943562, -5648.598748278469, -10403.507698000396, -10692.515753807516, -11212.149108904494, 0.004, -0.036000000000000004, 0.992, 192.0, 0.0, 0.0, 0.0, 0.0, 0.0, 0.0, 0.0, 0.0, 0.0, 1.6444985410032485E9, 0.0, 2022-02-11 00:09:01.003
126.0, -7964.306529081647, -9370.164200087094, -10256.053239828736, -16125.554278559004, -2187.5875815853574, -1608.7891589151811, -5466.096754800887, -6394.968199130082, -16754.5547192758, -15209.691549502797, -19770.81087479721, -10991.023301008141, -5653.359669847449, -10398.120927586668, -10689.766489239513, -11214.898373472497, 0.006, -0.032, 0.99, 192.0, 0.0, 24.0, 127.5, 0.0, 15.0, 120.0, 0.0, 0.0, 0.0, 1.6444985410032556E9, 0.0, 2022-02-11 00:09:01.003
128.0, -7952.393049286968, -9366.8114384188, -10244.78796062326, -16121.553316301504, -2179.898581492732, -1606.4422257473739, -5462.743993132591, -6379.701957667107, -16750.68786748503, -15209.825659969529, -19776.555273122227, -10999.293446456606, -5659.305233872561, -10386.185096047533, -10695.086204419877, -11214.317228116659, 0.006, -0.032, 0.99, 192.0, 0.0, 0.0, 0.0, 0.0, 0.0, 0.0, 0.0, 0.0, 0.0, 1.6444985410032632E9, 0.0, 2022-02-11 00:09:01.003
130.0, -7952.817732431618, -9369.203075075517, -10244.743257134349, -16121.977999446155, -2175.249418646028, -1606.8669088920246, -5467.571969934937, -6383.479402480055, -16750.73257097394, -15208.685721002308, -19761.892528759545, -10995.98538827722, -5656.2877483710945, -10398.612665964683, -10687.64307351626, -11210.98681819282, 0.006, -0.032, 0.99, 192.0, 0.0, 0.0, 0.0, 0.0, 0.0, 0.0, 0.0, 0.0, 0.0, 1.64449854100327E9, 0.0, 2022-02-11 00:09:01.003
132.0, -7951.320165553113, -9360.32943252676, -10248.230129269377, -16115.875973209855, -2179.920933237187, -1600.4519582333517, -5469.069536813443, -6388.776765915963, -16750.240832595926, -15210.58561928101, -19772.420200397995, -11004.07671977004, -5650.029259923609, -10387.459145481485, -10690.951131695645, -11211.187983892916, 0.006, -0.032, 0.99, 192.0, 0.0, 0.0, 0.0, 0.0, 0.0, 0.0, 0.0, 0.0, 0.0, 1.6444985410033014E9, 0.0, 2022-02-11 00:09:01.003
134.0, -7942.804150915641, -9353.713316167989, -10245.033829812268, -16106.33177832744, -2173.1707064116845, -1594.4840424637846, -5464.487429200105, -6376.371547743267, -16748.87737618415, -15192.458354527755, -19758.115083946595, -10976.159390945362, -5647.525864544615, -10384.06168032428, -10692.761622996524, -11204.013073922762, 0.006, -0.032, 0.99, 192.0, 0.0, 0.0, 0.0, 0.0, 0.0, 0.0, 0.0, 0.0, 0.0, 1.6444985410033083E9, 0.0, 2022-02-11 00:09:01.003
136.0, -7962.093706380571, -9371.348842543226, -10256.567329951207, -16115.361883087384, -2177.7081105361117, -1605.0340658466896, -5458.340699474896, -6379.009053588993, -16755.582899520745, -15195.207619095758, -19760.216147925395, -10984.206018949273, -5650.342184345983, -10398.366796775676, -10693.722748008102, -11207.142318146505, 0.006, -0.028, 0.986, 192.0, 0.0, 24.0, 127.5, 16.0, 15.0, 104.0, 0.0, 0.0, 0.0, 1.6444985410033157E9, 0.0, 2022-02-11 00:09:01.003
138.0, -7948.503845751745, -9370.030089620363, -10248.69951590294, -16109.70689174019, -2161.0784126613635, -1594.1934697858655, -5456.865484340845, -6377.399727988211, -16753.16891111957, -15208.171630879837, -19771.928462019976, -10992.431460908827, -5646.028297666108, -10391.974197861457, -10695.98027419809, -11206.494117557302, 0.006, -0.028, 0.986, 192.0, 0.0, 0.0, 0.0, 0.0, 0.0, 0.0, 0.0, 0.0, 0.0, 1.6444985410033224E9, 0.0, 2022-02-11 00:09:01.003
140.0, -7954.8070376881415, -9376.020357134385, -10254.26510027231, -16116.993560432622, -2165.7499272525224, -1598.9320396103908, -5461.738164632102, -6386.899219381717, -16752.051323896805, -15205.936456434305, -19760.81964502569, -10986.59765560599, -5647.145884888874, -10386.34155825872, -10690.660559017726, -11207.097614657596, 0.006, -0.028, 0.986, 192.0, 0.0, 0.0, 0.0, 0.0, 0.0, 0.0, 0.0, 0.0, 0.0, 1.644498541003329E9, 0.0, 2022-02-11 00:09:01.003
142.0, -7964.731212226297, -9384.178743860573, -10262.959928865424, -16119.38519708934, -2175.4952878350364, -1603.6482576904605, -5455.256158740063, -6379.7466611560185, -16759.829730967253, -15215.123023405436, -19785.518322648804, -11003.60733313648, -5651.616233779935, -10396.601008963706, -10696.82964048739, -11214.205469394383, 0.006, -0.028, 0.986, 192.0, 0.0, 0.0, 0.0, 0.0, 0.0, 0.0, 0.0, 0.0, 0.0, 1.644498541003336E9, 0.0, 2022-02-11 00:09:01.003
144.0, -7954.114133610026, -9377.80849669081, -10252.991050838358, -16120.569839545471, -2167.403956342215, -1600.4519582333517, -5444.907301057256, -6379.50079196701, -16758.399219322113, -15208.283389602113, -19774.47656088788, -10996.588885377514, -5644.0166406651315, -10387.950883859503, -10694.952093953145, -11208.259905369272, 0.006, -0.028, 0.986, 192.0, 0.0, 0.0, 0.0, 0.0, 0.0, 0.0, 0.0, 0.0, 0.0, 1.6444985410033429E9, 0.0, 2022-02-11 00:09:01.003
146.0, -7971.548494285166, -9393.7676422319, -10267.65379520104, -16126.627162292858, -2178.6468838032347, -1605.3469902690638, -5451.5457691604815, -6387.055681592904, -16763.987155435938, -15218.520488562643, -19777.00230801133, -11000.187516234817, -5645.178931376807, -10398.67972119805, -10695.35442535334, -11215.546574061702, 0.008, -0.026000000000000002, 0.986, 192.0, 0.0, 32.0, 127.5, 24.0, 15.0, 104.0, 0.0, 0.0, 0.0, 1.6444985410033493E9, 0.0, 2022-02-11 00:09:01.003
148.0, -7957.0422121336715, -9382.18943860405, -10257.483751473876, -16115.630104020847, -2169.1026889208188, -1597.8815076209912, -5445.443742924183, -6376.818582632373, -16759.31564084478, -15213.446642571289, -19780.556235379725, -10998.377024933938, -5647.8834924559, -10402.859497411191, -10698.72953876609, -11210.115100159062, 0.008, -0.026000000000000002, 0.986, 192.0, 0.0, 0.0, 0.0, 0.0, 0.0, 0.0, 0.0, 0.0, 0.0, 1.644498541003356E9, 0.0, 2022-02-11 00:09:01.003
150.0, -7957.891578422974, -9384.648130494134, -10260.635347442074, -16122.425034335261, -2171.5390290664473, -1600.0272750887007, -5454.607958150859, -6381.490097223533, -16758.153350133103, -15207.72459599073, -19763.6136130826, -10989.659844596368, -5650.4762948127145, -10405.049968367812, -10697.343730609862, -11208.751643747288, 0.008, -0.026000000000000002, 0.986, 192.0, 0.0, 0.0, 0.0, 0.0, 0.0, 0.0, 0.0, 0.0, 0.0, 1.644498541003363E9, 0.0, 2022-02-11 00:09:01.003
152.0, -7961.423154046912, -9380.691871725545, -10265.88800738907, -16123.81084249149, -2174.6906250346456, -1601.0778070781002, -5456.776077363023, -6396.0634346083925, -16755.51584428738, -15217.984046695716, -19777.33758417816, -10998.041748767107, -5642.720239486724, -10395.86340139668, -10701.188230656175, -11211.36679784856, 0.008, -0.026000000000000002, 0.986, 192.0, 0.0, 0.0, 0.0, 0.0, 0.0, 0.0, 0.0, 0.0, 0.0, 1.6444985410033698E9, 0.0, 2022-02-11 00:09:01.003
154.0, -7953.667098720921, -9369.873627409175, -10260.992975353358, -16121.687426768236, -2165.213485385595, -1589.767824383715, -5457.0666500409425, -6374.181076786647, -16753.258318097392, -15214.653636771875, -19770.38619165256, -10993.996083020698, -5645.558911032547, -10389.023767593357, -10697.254323632042, -11209.086919914118, 0.009000000000000001, -0.030000000000000002, 0.988, 192.0, 0.0, 40.0, 127.0, 120.0, 15.0, 120.0, 0.0, 0.0, 0.0, 1.6444985410033777E9, 0.0, 2022-02-11 00:09:01.003
156.0, -7967.547532027666, -9389.029072407375, -10268.950196379446, -16120.23456337864, -2180.189154170651, -1605.7493216692594, -5467.236693768107, -6385.8486873923175, -16757.058114654796, -15213.468994315745, -19772.82253179819, -10992.543219631103, -5643.569605776025, -10399.48438399844, -10697.723710265602, -11209.444547825402, 0.009000000000000001, -0.030000000000000002, 0.988, 192.0, 0.0, 0.0, 0.0, 0.0, 0.0, 0.0, 0.0, 0.0, 0.0, 1.6444985410033844E9, 0.0, 2022-02-11 00:09:01.003
158.0, -7955.768162699719, -9385.922179928086, -10258.243710785355, -16119.854583722901, -2162.643034773235, -1599.6919989218711, -5451.143437760286, -6385.379300758756, -16755.381733820646, -15212.217296626246, -19777.739915578357, -10996.857106310978, -5648.039954667086, -10388.420270493063, -10698.841297488369, -11211.612667037567, 0.009000000000000001, -0.030000000000000002, 0.988, 192.0, 0.0, 0.0, 0.0, 0.0, 0.0, 0.0, 0.0, 0.0, 0.0, 1.6444985410033913E9, 0.0, 2022-02-11 00:09:01.003
160.0, -7961.132581368993, -9386.19040086155, -10262.937577120969, -16118.535830800038, -2174.243590145539, -1597.7473971542595, -5471.3270630034285, -6385.111079825292, -16756.49932104341, -15206.741119234697, -19760.462017114405, -10981.188533447807, -5646.475332555215, -10386.34155825872, -10695.44383233116, -11208.148146646994, 0.009000000000000001, -0.030000000000000002, 0.988, 192.0, 0.0, 0.0, 0.0, 0.0, 0.0, 0.0, 0.0, 0.0, 0.0, 1.644498541003398E9, 0.0, 2022-02-11 00:09:01.003
162.0, -7976.801154232163, -9391.6665782531, -10275.02987087129, -16122.782662246545, -2170.399090099226, -1595.5122227087288, -5456.843132596389, -6388.665007193686, -16760.522635045367, -15216.039444928105, -19781.137380735563, -10989.324568429538, -5646.587091277492, -10393.069433339768, -10703.155184168243, -11211.50090831529, 0.009000000000000001, -0.030000000000000002, 0.988, 192.0, 0.0, 0.0, 0.0, 0.0, 0.0, 0.0, 0.0, 0.0, 0.0, 1.6444985410034046E9, 0.0, 2022-02-11 00:09:01.003
164.0, -7962.227816847303, -9390.928970686075, -10266.580911467185, -16121.396854090317, -2155.2893108474386, -1585.0963097925558, -5447.164827247242, -6379.433736733644, -16760.299117600814, -15221.090939175003, -19776.376459166582, -10994.93485628782, -5644.798951721067, -10406.659293968594, -10695.712053264626, -11209.086919914118, 0.0115, -0.031, 0.989, 192.0, 0.0, 56.0, 127.5, 0.0, 15.0, 120.0, 0.0, 0.0, 0.0, 1.6444985410034132E9, 0.0, 2022-02-11 00:09:01.003
166.0, -7982.0985176680715, -9399.892020212654, -10272.638234214573, -16128.750578016112, -2164.565284796391, -1595.7804436421925, -5472.981092093121, -6383.88173388025, -16766.781123492852, -15228.668180545352, -19780.28801444626, -10995.203077221284, -5641.803817964055, -10410.570849248274, -10694.080375919388, -11210.763300748265, 0.0115, -0.031, 0.989, 192.0, 0.0, 0.0, 0.0, 0.0, 0.0, 0.0, 0.0, 0.0, 0.0, 1.64449854100342E9, 0.0, 2022-02-11 00:09:01.003
168.0, -7978.030500177205, -9406.061101682319, -10268.704327190439, -16127.47652858216, -2153.6576335022014, -1593.5452691966618, -5427.629402593303, -6370.202466273602, -16762.84721646872, -15233.473805603244, -19786.18887498246, -11006.781280849133, -5646.408277321849, -10407.441605024529, -10692.649864274248, -11212.551440304691, 0.0115, -0.031, 0.989, 192.0, 0.0, 0.0, 0.0, 0.0, 0.0, 0.0, 0.0, 0.0, 0.0, 1.6444985410034268E9, 0.0, 2022-02-11 00:09:01.003
170.0, -7967.011090160739, -9398.975598689985, -10268.436106256975, -16127.90121172681, -2161.279578361461, -1602.0389320896784, -5446.807199335957, -6373.957559342094, -16761.37200133467, -15236.200718426791, -19773.00134575383, -10998.667597611857, -5649.5375215455915, -10415.622343495172, -10689.565323539415, -11210.964466448364, 0.0115, -0.031, 0.989, 192.0, 0.0, 0.0, 0.0, 0.0, 0.0, 0.0, 0.0, 0.0, 0.0, 1.6444985410034335E9, 0.0, 2022-02-11 00:09:01.003
172.0, -7990.458070094356, -9399.757909745922, -10279.32140580671, -16123.632028535847, -2171.2931598774385, -1598.5073564657398, -5447.723620858625, -6378.003225088504, -16764.568300791776, -15232.222107913747, -19787.552331394236, -10997.259437711173, -5648.285823856095, -10418.259849340899, -10700.271809133508, -11212.484385071324, 0.0115, -0.031, 0.989, 192.0, 0.0, 0.0, 0.0, 0.0, 0.0, 0.0, 0.0, 0.0, 0.0, 1.64449854100344E9, 0.0, 2022-02-11 00:09:01.003
174.0, -7978.9916251887835, -9397.14275564465, -10272.973510381402, -16124.079063424953, -2160.318453349883, -1587.0409115601674, -5442.359202189351, -6379.701957667107, -16780.907425988607, -15226.567116566554, -19789.988671539864, -10995.739519088213, -5659.305233872561, -10393.784689162338, -10696.762585254024, -11206.158841390472, 0.01075, -0.0315, 0.9884999999999999, 192.0, 0.0, 40.0, 127.5, 0.0, 15.0, 112.0, 0.0, 0.0, 0.0, 1.6444985410034468E9, 0.0, 2022-02-11 00:09:01.003
176.0, -7992.9614654733505, -9408.519793572403, -10283.054147130746, -16132.215098406685, -2171.762546511, -1600.2284407887985, -5457.156057018764, -6388.441489749132, -16782.18147542256, -15237.430064371832, -19790.10043026214, -10997.147678988897, -5657.964129205243, -10407.978046891458, -10696.539067809472, -11213.22199263835, 0.01075, -0.0315, 0.9884999999999999, 192.0, 0.0, 0.0, 0.0, 0.0, 0.0, 0.0, 0.0, 0.0, 0.0, 1.6444985410034535E9, 0.0, 2022-02-11 00:09:01.003
178.0, -7980.288026367191, -9404.027092936885, -10273.755821437338, -16128.370598360372, -2157.368023081782, -1589.052568561145, -5448.550635403471, -6378.74083265553, -16774.067792185284, -15234.099654447993, -19796.224808242896, -11001.908600557876, -5648.196416878273, -10405.675817212561, -10700.316512622418, -11218.005265951786, 0.01075, -0.0315, 0.9884999999999999, 192.0, 0.0, 0.0, 0.0, 0.0, 0.0, 0.0, 0.0, 0.0, 0.0, 1.64449854100346E9, 0.0, 2022-02-11 00:09:01.003
180.0, -7979.416308333434, -9400.562572546312, -10273.912283648526, -16132.840947251434, -2157.971520182076, -1592.830013374092, -5450.718754615636, -6375.365719242778, -16771.117361917182, -15223.236706642712, -19778.522226634293, -10999.18168773433, -5643.323736587016, -10389.761375160382, -10692.471050318605, -11210.27156237025, 0.01075, -0.0315, 0.9884999999999999, 192.0, 0.0, 0.0, 0.0, 0.0, 0.0, 0.0, 0.0, 0.0, 0.0, 1.6444985410034668E9, 0.0, 2022-02-11 00:09:01.003
182.0, -7986.434756092401, -9398.48386031197, -10280.349586051654, -16128.929391971755, -2157.5244852929695, -1594.7746151417036, -5448.818856336935, -6373.912855853183, -16772.547873562322, -15221.806194997573, -19794.48137217538, -11011.27398148465, -5655.863065226444, -10408.62624748066, -10699.824774244402, -11212.305571115681, 0.01075, -0.0315, 0.9884999999999999, 192.0, 0.0, 0.0, 0.0, 0.0, 0.0, 0.0, 0.0, 0.0, 0.0, 1.6444985410034735E9, 0.0, 2022-02-11 00:09:01.003
184.0, -7970.207389617848, -9399.37793009018, -10270.023080113302, -16128.012970449088, -2143.8452176863216, -1586.795042371159, -5440.906338799756, -6371.007129073993, -16768.61396653819, -15227.036503200115, -19780.802104568735, -11001.282751713128, -5651.21390237974, -10404.871154412169, -10695.890867220267, -11206.382358835026, 0.008375, -0.03075, 0.98925, 192.0, 0.0, 24.0, 127.5, 8.0, 15.0, 120.0, 0.0, 0.0, 0.0, 1.6444985410034804E9, 0.0, 2022-02-11 00:09:01.003
186.0, -7990.39101486099, -9404.787052248366, -10278.539094750775, -16135.009066463599, -2155.2669591029835, -1602.150690811955, -5453.713888372647, -6389.69318743863, -16775.766524763887, -15231.953886980284, -19784.75836333732, -11001.863897068966, -5654.767829748133, -10403.194773578021, -10698.103689921343, -11212.774957749243, 0.008375, -0.03075, 0.98925, 192.0, 0.0, 0.0, 0.0, 0.0, 0.0, 0.0, 0.0, 0.0, 0.0, 1.644498541003487E9, 0.0, 2022-02-11 00:09:01.003
188.0, -7971.928473940907, -9390.86191545271, -10265.642138200063, -16125.196650647718, -2144.0687351308748, -1582.570562669106, -5445.421391179728, -6371.54357094092, -16772.391411351135, -15224.15312816538, -19792.268549474305, -10997.170030733352, -5650.051611668064, -10400.266695054377, -10699.847125988857, -11211.590315293111, 0.008375, -0.03075, 0.98925, 192.0, 0.0, 0.0, 0.0, 0.0, 0.0, 0.0, 0.0, 0.0, 0.0, 1.6444985410034945E9, 0.0, 2022-02-11 00:09:01.003
190.0, -7972.666081507931, -9387.777374717876, -10263.36226026562, -16122.737958757634, -2141.18536009614, -1579.3519114675416, -5441.956870789155, -6358.110172523281, -16762.780161235354, -15214.184250138314, -19768.620403840592, -10980.808553792067, -5644.418972065327, -10378.451392465997, -10688.313625849918, -11197.93339943092, 0.008375, -0.03075, 0.98925, 192.0, 0.0, 0.0, 0.0, 0.0, 0.0, 0.0, 0.0, 0.0, 0.0, 1.6444985410035028E9, 0.0, 2022-02-11 00:09:01.003
192.0, -7980.735061256298, -9393.320607342794, -10269.576045224196, -16124.481394825149, -2146.2368543430393, -1585.0739580481004, -5438.805274820957, -6352.991623043016, -16764.389486836135, -15217.671122273341, -19786.524151149293, -10999.025225523143, -5645.804780221556, -10394.522296729363, -10692.180477640686, -11197.128736630528, 0.008375, -0.03075, 0.98925, 192.0, 0.0, 0.0, 0.0, 0.0, 0.0, 0.0, 0.0, 0.0, 0.0, 1.6444985410035093E9, 0.0, 2022-02-11 00:09:01.003
194.0, -7964.217122103825, -9385.676310739078, -10261.261196286821, -16122.00035119061, -2129.9200808906653, -1574.0768997760892, -5418.979277489099, -6350.957614297583, -16759.13682688914, -15214.027787927127, -19773.29191843175, -10987.447021895292, -5647.279995355606, -10393.382357762142, -10689.095936905855, -11195.228838351828, 0.0081875, -0.030375, 0.989625, 192.0, 0.0, 32.0, 127.5, 8.0, 15.0, 120.0, 0.0, 0.0, 0.0, 1.6444985410035162E9, 0.0, 2022-02-11 00:09:01.003
196.0, -7975.549456542666, -9391.532467786368, -10270.000728368846, -16125.7554442591, -2138.056115872397, -1590.7513011397484, -5440.8616353108455, -6369.978948829049, -16758.488626299935, -15219.30279961858, -19771.101447475132, -10989.033995751619, -5642.966108675731, -10387.727366414949, -10687.97834968309, -11196.50288778578, 0.0081875, -0.030375, 0.989625, 192.0, 0.0, 0.0, 0.0, 0.0, 0.0, 0.0, 0.0, 0.0, 0.0, 1.6444985410035303E9, 0.0, 2022-02-11 00:09:01.003
198.0, -7965.535875026689, -9386.458621795015, -10259.920091619504, -16120.323970356461, -2132.1105518472855, -1585.4539377038407, -5423.874309524812, -6362.826390603351, -16753.861815197684, -15217.492308317698, -19777.494046389347, -10994.040786509608, -5633.2207480932175, -10390.521334471863, -10694.72857650859, -11202.135527388516, 0.0081875, -0.030375, 0.989625, 192.0, 0.0, 0.0, 0.0, 0.0, 0.0, 0.0, 0.0, 0.0, 0.0, 1.6444985410035367E9, 0.0, 2022-02-11 00:09:01.003
200.0, -7969.045098906172, -9392.62770326468, -10264.345737021655, -16127.051845437509, -2138.0114123834865, -1591.3995017289521, -5433.038524751488, -6369.889541851228, -16754.241794853424, -15207.903409946372, -19762.16074969301, -10980.495629369692, -5641.535597030592, -10382.206485534489, -10687.821887471902, -11200.727367487832, 0.0081875, -0.030375, 0.989625, 192.0, 0.0, 0.0, 0.0, 0.0, 0.0, 0.0, 0.0, 0.0, 0.0, 1.6444985410035443E9, 0.0, 2022-02-11 00:09:01.003
202.0, -7975.191828631381, -9392.605351520224, -10273.353490037143, -16126.448348337217, -2148.0696973883746, -1599.2673157772203, -5459.2347692531075, -6381.445393734622, -16759.002716422405, -15220.621552541443, -19780.332717935173, -10995.024263265643, -5645.983594177198, -10388.1520495596, -10699.757719011035, -11211.031521681729, 0.0081875, -0.030375, 0.989625, 192.0, 0.0, 0.0, 0.0, 0.0, 0.0, 0.0, 0.0, 0.0, 0.0, 1.644498541003551E9, 0.0, 2022-02-11 00:09:01.003
204.0, -7963.792438959174, -9385.452793294526, -10264.882178888582, -16120.346322100917, -2136.6926594606234, -1587.4879464492735, -5436.637155608792, -6374.561056442387, -16756.40991406559, -15219.10163391848, -19773.180159709475, -10987.871705039943, -5647.391754077882, -10386.922703614558, -10700.987064956078, -11207.097614657596, 0.00809375, -0.0271875, 0.9868125, 192.0, 0.0, 32.0, 127.5, 32.0, 15.0, 96.0, 0.0, 0.0, 0.0, 1.6444985410035584E9, 0.0, 2022-02-11 00:09:01.003
206.0, -7975.616511776032, -9389.185534618562, -10275.141629593567, -16125.9566099592, -2148.226159599562, -1595.5792779420947, -5439.319364943429, -6371.364756985278, -16759.472103055967, -15227.43883460031, -19780.556235379725, -10989.50338238518, -5649.761038990145, -10391.460107738985, -10701.188230656175, -11209.064568169662, 0.00809375, -0.0271875, 0.9868125, 192.0, 0.0, 0.0, 0.0, 0.0, 0.0, 0.0, 0.0, 0.0, 0.0, 1.6444985410035653E9, 0.0, 2022-02-11 00:09:01.003
208.0, -7966.407593060446, -9382.457659537515, -10267.050298100747, -16122.67090352427, -2134.3680780372715, -1581.5200306797065, -5420.767417045524, -6361.507637680488, -16751.336068074237, -15222.20852639777, -19782.47848540288, -11000.478088912736, -5647.727030244712, -10404.692340456528, -10703.401053357251, -11208.394015836004, 0.00809375, -0.0271875, 0.9868125, 192.0, 0.0, 0.0, 0.0, 0.0, 0.0, 0.0, 0.0, 0.0, 0.0, 1.6444985410035717E9, 0.0, 2022-02-11 00:09:01.003
210.0, -7966.295834338169, -9382.412956048604, -10263.004632354336, -16123.989656447133, -2134.0998571038076, -1594.1264145524997, -5431.1162747283315, -6379.366681500278, -16753.101855886205, -15219.30279961858, -19764.932366005465, -10987.13409747292, -5648.554044789558, -10397.428023508552, -10696.181439898186, -11208.237553624816, 0.00809375, -0.0271875, 0.9868125, 192.0, 0.0, 0.0, 0.0, 0.0, 0.0, 0.0, 0.0, 0.0, 0.0, 1.6444985410035787E9, 0.0, 2022-02-11 00:09:01.003
212.0, -7978.097555410571, -9388.336168329259, -10271.69946094745, -16123.09558666892, -2143.085258374841, -1604.4305687463964, -5435.40780966375, -6380.171344300669, -16750.956088418494, -15225.449529343789, -19780.779752824277, -10998.980522034231, -5645.648318010369, -10397.584485719739, -10697.723710265602, -11213.803137994188, 0.00809375, -0.0271875, 0.9868125, 192.0, 0.0, 0.0, 0.0, 0.0, 0.0, 0.0, 0.0, 0.0, 0.0, 1.644498541003585E9, 0.0, 2022-02-11 00:09:01.003
214.0, -7964.798267459663, -9384.916351427597, -10267.206760311934, -16118.915810455777, -2138.6596129726904, -1583.2634667472205, -5433.329097429407, -6367.207332516591, -16752.051323896805, -15221.694436275297, -19774.90124403253, -10990.21863820775, -5649.02343142312, -10400.57961947675, -10699.198925399653, -11206.02473092374, 0.007046875, -0.02359375, 0.9864062499999999, 192.0, 0.0, 24.0, 127.5, 48.0, 15.0, 104.0, 0.0, 0.0, 0.0, 1.644498541003592E9, 0.0, 2022-02-11 00:09:01.003
216.0, -7976.376471087512, -9389.118479385195, -10279.008481384335, -16126.493051826126, -2155.7810492254557, -1589.9019348504467, -5449.467056926139, -6372.21412327458, -16751.827806452253, -15221.090939175003, -19772.554310864725, -10994.51017314317, -5645.000117421165, -10385.335729758232, -10701.188230656175, -11205.756509990277, 0.007046875, -0.02359375, 0.9864062499999999, 192.0, 0.0, 0.0, 0.0, 0.0, 0.0, 0.0, 0.0, 0.0, 0.0, 1.6444985410035987E9, 0.0, 2022-02-11 00:09:01.003
218.0, -7963.121886625516, -9382.14473511514, -10270.671280702505, -16119.0052174336, -2145.6557089872017, -1581.5647341686172, -5425.662449081236, -6358.0878207788255, -16750.68786748503, -15228.332904378523, -19782.657299358525, -11004.993141292709, -5643.569605776025, -10389.694319927015, -10705.859745247335, -11205.622399523545, 0.007046875, -0.02359375, 0.9864062499999999, 192.0, 0.0, 0.0, 0.0, 0.0, 0.0, 0.0, 0.0, 0.0, 0.0, 1.6444985410036051E9, 0.0, 2022-02-11 00:09:01.003
220.0, -7969.469782050823, -9390.414880563603, -10267.586739967674, -16125.263705881085, -2146.549778765414, -1583.2858184916759, -5427.271774682018, -6365.396841215711, -16751.425475052056, -15223.236706642712, -19769.022735240786, -10994.107841742974, -5658.88055072791, -10393.449412995507, -10696.628474787292, -11202.984893677818, 0.007046875, -0.02359375, 0.9864062499999999, 192.0, 0.0, 0.0, 0.0, 0.0, 0.0, 0.0, 0.0, 0.0, 0.0, 1.644498541003612E9, 0.0, 2022-02-11 00:09:01.003
222.0, -7975.460049564845, -9388.537334029357, -10274.068745859713, -16122.805013991001, -2150.9530724231095, -1583.375225469497, -5445.175521990719, -6365.910931338183, -16755.98523092094, -15226.67887528883, -19783.43961041446, -11000.455737168282, -5653.1138006584415, -10393.427061251052, -10699.534201566483, -11206.31530360166, 0.007046875, -0.02359375, 0.9864062499999999, 192.0, 0.0, 0.0, 0.0, 0.0, 0.0, 0.0, 0.0, 0.0, 0.0, 1.6444985410036187E9, 0.0, 2022-02-11 00:09:01.003
224.0, -7961.020822646717, -9376.690909468045, -10265.999766111347, -16117.887630210833, -2142.9064444191986, -1572.5569811531284, -5434.603146863359, -6359.563035912876, -16751.31371632978, -15209.110404146959, -19771.86140678661, -10984.630702093924, -5647.391754077882, -10401.808965421793, -10697.656655032237, -11201.442623310402, 0.008, -0.018000000000000002, 0.99, 192.0, 0.0, 32.0, 127.5, 56.0, 15.0, 120.0, 0.0, 0.0, 0.0, 1.6444985410036256E9, 0.0, 2022-02-11 00:09:01.003
226.0, -7973.515447797233, -9385.944531672541, -10273.398193526053, -16120.569839545471, -2151.7130317345895, -1576.379129454986, -5442.560367889449, -6365.709765638086, -16755.582899520745, -15228.198793911792, -19772.91193877601, -10990.50921088567, -5649.157541889852, -10388.710843170982, -10695.801460242446, -11200.056815154174, 0.008, -0.018000000000000002, 0.99, 192.0, 0.0, 0.0, 0.0, 0.0, 0.0, 0.0, 0.0, 0.0, 0.0, 1.644498541003632E9, 0.0, 2022-02-11 00:09:01.003
228.0, -7965.737040726786, -9380.200133347527, -10268.234940556877, -16117.597057532914, -2146.1250956207627, -1575.0380247876674, -5420.298030411963, -6357.752544611996, -16751.336068074237, -15223.907258976373, -19780.19860746844, -11000.32162670155, -5643.413143564838, -10382.273540767854, -10698.30485562144, -11201.442623310402, 0.008, -0.018000000000000002, 0.99, 192.0, 0.0, 0.0, 0.0, 0.0, 0.0, 0.0, 0.0, 0.0, 0.0, 1.6444985410036411E9, 0.0, 2022-02-11 00:09:01.003
230.0, -7962.361927314035, -9375.640377478645, -10263.36226026562, -16116.94885694371, -2150.6848514896456, -1575.730928865782, -5420.186271689686, -6356.344384711312, -16752.051323896805, -15219.995703696693, -19766.519339861792, -10988.139925973408, -5644.530730787603, -10397.204506064, -10688.626550272293, -11198.872172698042, 0.008, -0.018000000000000002, 0.99, 192.0, 0.0, 0.0, 0.0, 0.0, 0.0, 0.0, 0.0, 0.0, 0.0, 1.644498541003648E9, 0.0, 2022-02-11 00:09:01.003
232.0, -7969.62624426201, -9374.835714678255, -10272.057088858735, -16119.206383133696, -2154.9763864250644, -1579.7542428677373, -5420.610954834337, -6365.598006915809, -16753.37007681967, -15220.308628119068, -19778.946909778944, -10993.727862087235, -5644.374268576416, -10393.96350311798, -10695.801460242446, -11202.604914022078, 0.008, -0.018000000000000002, 0.99, 192.0, 0.0, 0.0, 0.0, 0.0, 0.0, 0.0, 0.0, 0.0, 0.0, 1.6444985410036547E9, 0.0, 2022-02-11 00:09:01.003
234.0, -7952.9294911538955, -9364.889188395642, -10262.356431765133, -16115.026606920554, -2140.2465868290174, -1570.9923590412568, -5414.9783152315995, -6350.085896263826, -16747.513919772377, -15217.022921684138, -19767.882796273567, -10993.70551034278, -5632.796064948567, -10385.38043324714, -10692.515753807516, -11199.319207587148, 0.002, -0.024, 0.988, 192.0, 0.0, 8.0, 127.5, 32.0, 15.0, 112.0, 0.0, 0.0, 0.0, 1.6444985410036616E9, 0.0, 2022-02-11 00:09:01.003
236.0, -7971.615549518532, -9379.507229269413, -10270.067783602213, -16120.838060478934, -2159.5137905494917, -1580.022463801201, -5433.910242785245, -6365.553303426898, -16756.90165244361, -15222.789671753608, -19772.956642264922, -10994.688987098813, -5647.905844200354, -10379.077241310744, -10692.515753807516, -11201.107347143574, 0.002, -0.024, 0.988, 192.0, 0.0, 0.0, 0.0, 0.0, 0.0, 0.0, 0.0, 0.0, 0.0, 1.644498541003668E9, 0.0, 2022-02-11 00:09:01.003
238.0, -7965.155895370948, -9370.6112349762, -10263.026984098791, -16119.541659300527, -2156.0045666700084, -1580.0895190345668, -5434.7596090745465, -6368.816658117373, -16752.431303552545, -15225.471881088244, -19780.220959212897, -10993.41493766486, -5648.4199343228265, -10388.53202921534, -10697.991931199067, -11202.917838444453, 0.002, -0.024, 0.988, 192.0, 0.0, 0.0, 0.0, 0.0, 0.0, 0.0, 0.0, 0.0, 0.0, 1.6444985410036747E9, 0.0, 2022-02-11 00:09:01.003
240.0, -7966.362889571535, -9383.821115949288, -10264.703364932939, -16121.374502345861, -2156.8092294703997, -1581.765899868715, -5437.352411431362, -6364.301605737402, -16756.74519023242, -15225.87421248844, -19766.653450328526, -10994.599580120992, -5648.062306411542, -10401.674854955061, -10694.192134641664, -11204.638922767512, 0.002, -0.024, 0.988, 192.0, 0.0, 0.0, 0.0, 0.0, 0.0, 0.0, 0.0, 0.0, 0.0, 1.6444985410036817E9, 0.0, 2022-02-11 00:09:01.003
242.0, -7972.308453596646, -9381.608293248211, -10272.079440603191, -16117.887630210833, -2164.922912707676, -1586.1244900374998, -5437.50887364255, -6364.92745458215, -16756.789893721332, -15227.64000030041, -19779.68451734597, -11002.445042424804, -5639.680402240801, -10399.797308420815, -10700.003588200045, -11209.019864680751, 0.002, -0.024, 0.988, 192.0, 0.0, 0.0, 0.0, 0.0, 0.0, 0.0, 0.0, 0.0, 0.0, 1.6444985414835584E9, 0.0, 2022-02-11 00:09:01.483
244.0, -7961.065526135627, -9374.701604211523, -10260.724754419894, -16118.871106966866, -2156.2951393479275, -1576.7144056218156, -5433.485559640594, -6359.272463234957, -16754.822940209262, -15217.648770528886, -19770.274432930284, -10996.99121677771, -5644.374268576416, -10393.225895550955, -10701.031768444987, -11202.940190188909, 0.004, -0.032, 0.988, 192.0, 0.0, 16.0, 127.5, 0.0, 15.0, 112.0, 0.0, 0.0, 0.0, 1.6444985414836028E9, 0.0, 2022-02-11 00:09:01.483
246.0, -7982.590256046088, -9386.078642139273, -10272.951158636948, -16122.447386079717, -2170.1755726546735, -1581.475327190796, -5448.237710981097, -6362.759335369985, -16763.741286246932, -15227.260020644668, -19775.638851599557, -10999.807536579077, -5647.995251178176, -10398.947942131514, -10701.16587891172, -11205.376530334537, 0.004, -0.032, 0.988, 192.0, 0.0, 0.0, 0.0, 0.0, 0.0, 0.0, 0.0, 0.0, 0.0, 1.6444985414836104E9, 0.0, 2022-02-11 00:09:01.483
248.0, -7970.810886718141, -9378.747269957932, -10265.351565522144, -16113.23846736413, -2158.5303137934584, -1570.0982892630445, -5429.082265982898, -6354.511541665976, -16763.87539671366, -15234.613744570464, -19788.62521512809, -10998.622894122946, -5647.078829655508, -10394.67875894055, -10705.88209699179, -11202.336693088615, 0.004, -0.032, 0.988, 192.0, 0.0, 0.0, 0.0, 0.0, 0.0, 0.0, 0.0, 0.0, 0.0, 1.6444985414836173E9, 0.0, 2022-02-11 00:09:01.483
250.0, -7964.641805248476, -9372.689947210545, -10266.245635300354, -16117.641761021825, -2155.71399399209, -1576.4461846883519, -5421.706190312647, -6363.966329570571, -16759.025068166862, -15223.236706642712, -19770.117970719097, -10980.69679506979, -5644.821303465522, -10380.53010470034, -10697.790765498969, -11199.78859422071, 0.004, -0.032, 0.988, 192.0, 0.0, 0.0, 0.0, 0.0, 0.0, 0.0, 0.0, 0.0, 0.0, 1.6444985414836242E9, 0.0, 2022-02-11 00:09:01.483
252.0, -7958.137447611982, -9358.608348203701, -10267.69849868995, -16115.227772620652, -2160.1619911386956, -1579.0389870451675, -5426.869443281823, -6357.417268445167, -16750.59846050721, -15213.87132571594, -19778.05284000073, -10989.011644007165, -5630.9855736476875, -10391.214238549977, -10696.941399209667, -11205.287123356715, 0.004, -0.032, 0.988, 192.0, 0.0, 0.0, 0.0, 0.0, 0.0, 0.0, 0.0, 0.0, 0.0, 1.6444985414836311E9, 0.0, 2022-02-11 00:09:01.483
254.0, -7982.970235701828, -9396.740424244455, -10264.144571321556, -16121.709778512692, -2157.2339126150505, -1580.4918504347625, -5435.340754430385, -6357.461971934077, -16755.64995475411, -15216.799404239584, -19774.320098676693, -10992.431460908827, -5638.227538851206, -10392.398881006107, -10697.16491665422, -11201.464975054858, 0.006, -0.028, 0.988, 192.0, 0.0, 24.0, 127.5, 16.0, 15.0, 112.0, 0.0, 0.0, 0.0, 1.644498541483638E9, 0.0, 2022-02-11 00:09:01.483
0.0, -7991.575657317121, -9395.444023066048, -10273.12997259259, -16122.626200035358, -2165.9957964415307, -1591.2653912622204, -5461.447591954183, -6371.923550596661, -16771.050306683817, -15238.748817294696, -19782.947872036442, -11000.768661590655, -5646.810608722045, -10402.72538694446, -10699.869477733313, -11206.270600112748, 0.006, -0.028, 0.988, 192.0, 0.0, 0.0, 0.0, 0.0, 0.0, 0.0, 0.0, 0.0, 0.0, 1.6444985414836452E9, 0.0, 2022-02-11 00:09:01.483
2.0, -7987.10530842606, -9399.444985323547, -10268.681975445983, -16120.703950012203, -2163.4700493180812, -1588.5608301831282, -5455.859655840356, -6369.666024406675, -16765.194149636525, -15236.290125404612, -19792.737936107867, -11005.50723141518, -5645.894187199377, -10408.313323058286, -10705.792690013968, -11209.511603058769, 0.006, -0.028, 0.988, 192.0, 0.0, 0.0, 0.0, 0.0, 0.0, 0.0, 0.0, 0.0, 0.0, 1.644498541483652E9, 0.0, 2022-02-11 00:09:01.483
4.0, -7995.263695152247, -9414.174784919594, -10269.374879524097, -16127.767101260079, -2155.9151596921874, -1590.214859272821, -5419.113387955831, -6362.580521414343, -16770.17858865006, -15235.44075911531, -19782.031450513776, -11002.89207731391, -5647.16823663333, -10402.613628222183, -10697.030806187488, -11206.6952832574, 0.006, -0.028, 0.988, 192.0, 0.0, 0.0, 0.0, 0.0, 0.0, 0.0, 0.0, 0.0, 0.0, 1.6444985414836693E9, 0.0, 2022-02-11 00:09:01.483
6.0, -7998.4152911204455, -9406.552840060334, -10274.918112149015, -16120.748653501112, -2170.1755726546735, -1599.5578884551394, -5437.017135264532, -6384.328768769356, -16772.74903926242, -15240.536956851121, -19802.595055412658, -11011.318684973561, -5651.303309357561, -10411.129642859656, -10701.277637633997, -11213.803137994188, 0.006, -0.028, 0.988, 192.0, 0.0, 0.0, 0.0, 0.0, 0.0, 0.0, 0.0, 0.0, 0.0, 1.6444985414836762E9, 0.0, 2022-02-11 00:09:01.483
8.0, -7975.884732709495, -9394.885229454665, -10264.725716677394, -16120.569839545471, -2161.7713167394777, -1585.565696426117, -5432.926766029211, -6364.323957481856, -16761.03672516784, -15221.24740138619, -19787.641738372058, -10996.566533633058, -5648.375230833916, -10408.82741318076, -10700.808251000435, -11209.60101003659, 0.006, -0.03, 0.992, 192.0, 0.0, 24.0, 127.5, 8.0, 15.5, 0.0, 0.0, 0.0, 0.0, 1.644498541483683E9, 0.0, 2022-02-11 00:09:01.483
10.0, -7992.0226922062275, -9405.882287726676, -10274.918112149015, -16129.532889072048, -2173.2377616450503, -1595.3334087530864, -5446.158998746753, -6373.555227941898, -16766.199978137014, -15230.523375335144, -19789.47458141739, -10999.829888323533, -5650.610405279446, -10397.495078741918, -10700.741195767068, -11210.31626585916, 0.006, -0.03, 0.992, 192.0, 0.0, 0.0, 0.0, 0.0, 0.0, 0.0, 0.0, 0.0, 0.0, 1.6444985414836903E9, 0.0, 2022-02-11 00:09:01.483
12.0, -7989.67575903842, -9403.37889234768, -10270.760687680327, -16120.413377334284, -2161.95013069512, -1596.0039610867454, -5445.0861150128985, -6371.252998263001, -16765.395315336624, -15235.597221326498, -19799.488162933372, -11010.22344949525, -5642.787294720089, -10405.519355001374, -10703.646922546259, -11212.059701926673, 0.006, -0.03, 0.992, 192.0, 0.0, 0.0, 0.0, 0.0, 0.0, 0.0, 0.0, 0.0, 0.0, 1.644498541483697E9, 0.0, 2022-02-11 00:09:01.483
14.0, -7993.810831762652, -9409.838546495264, -10272.101792347645, -16125.978961703655, -2168.47684007607, -1589.6784174058937, -5450.539940659994, -6372.59410293032, -16766.26703337038, -15228.690532289807, -19784.356031937128, -10993.772565576144, -5638.920442929321, -10403.910029400591, -10703.35634986834, -11211.724425759843, 0.006, -0.03, 0.992, 192.0, 0.0, 0.0, 0.0, 0.0, 0.0, 0.0, 0.0, 0.0, 0.0, 1.644498541483704E9, 0.0, 2022-02-11 00:09:01.483
16.0, -8008.361817403057, -9414.934744231075, -10282.964740152926, -16129.711703027691, -2176.9705029690867, -1592.8523651185471, -5453.311556972451, -6368.794306372918, -16776.057097441804, -15228.332904378523, -19808.20534327094, -11009.262324483672, -5652.599710535969, -10407.754529446904, -10709.436024360184, -11213.534917060724, 0.006, -0.03, 0.992, 192.0, 0.0, 0.0, 0.0, 0.0, 0.0, 0.0, 0.0, 0.0, 0.0, 1.6444985414837108E9, 0.0, 2022-02-11 00:09:01.483
18.0, -7987.641750292987, -9402.775395247389, -10266.69267018946, -16130.203441405707, -2163.581808040358, -1580.8047748571366, -5438.31353644294, -6366.648538905209, -16769.64214678313, -15232.177404424836, -19798.884665833077, -11002.400338935893, -5643.92723368731, -10405.29583755682, -10708.229030159597, -11211.210335637372, 0.008, -0.028, 0.988, 192.0, 0.0, 32.0, 127.5, 16.0, 15.0, 112.0, 0.0, 0.0, 0.0, 1.6444985414837177E9, 0.0, 2022-02-11 00:09:01.483
20.0, -7993.967293973839, -9402.95420920303, -10275.052222615746, -16136.283115897551, -2172.4554505891147, -1596.8533273760472, -5451.903397071766, -6378.78553614444, -16766.445847326024, -15232.937363736317, -19789.206360483928, -11005.261362226172, -5649.761038990145, -10397.405671764098, -10707.31260863693, -11216.5971060511, 0.008, -0.028, 0.988, 192.0, 0.0, 0.0, 0.0, 0.0, 0.0, 0.0, 0.0, 0.0, 0.0, 1.6444985414837244E9, 0.0, 2022-02-11 00:09:01.483
22.0, -7986.144183414482, -9394.974636432486, -10271.028908613791, -16126.738921015136, -2160.340805094338, -1589.343141239064, -5445.466094668638, -6381.981835601549, -16764.389486836135, -15234.569041081553, -19794.168447753007, -11012.458623940782, -5644.64248950988, -10411.330808559753, -10710.151280182754, -11219.726350274845, 0.008, -0.028, 0.988, 192.0, 0.0, 0.0, 0.0, 0.0, 0.0, 0.0, 0.0, 0.0, 0.0, 1.6444985414837313E9, 0.0, 2022-02-11 00:09:01.483
24.0, -7982.791421746186, -9399.71320625701, -10265.664489944516, -16127.588287304437, -2155.7810492254557, -1584.8727923480026, -5442.672126611725, -6377.913818110683, -16758.645088511123, -15221.292104875101, -19775.77296206629, -10991.157411474875, -5639.3227743295165, -10399.462032253985, -10701.50115507855, -11216.619457795556, 0.008, -0.028, 0.988, 192.0, 0.0, 0.0, 0.0, 0.0, 0.0, 0.0, 0.0, 0.0, 0.0, 1.644498541483739E9, 0.0, 2022-02-11 00:09:01.483
26.0, -7999.711692298853, -9406.686950527066, -10273.264083059321, -16131.231621650652, -2164.7440987520336, -1599.244964032765, -5457.245463996585, -6374.628111675753, -16763.204844380005, -15226.656523544376, -19790.39100294006, -11003.920257558853, -5643.010812164643, -10391.683625183538, -10706.64205630327, -11219.726350274845, 0.008, -0.028, 0.988, 192.0, 0.0, 0.0, 0.0, 0.0, 0.0, 0.0, 0.0, 0.0, 0.0, 1.6444985414837463E9, 0.0, 2022-02-11 00:09:01.483
28.0, -7987.418232848434, -9404.943514459554, -10267.251463800843, -16125.733092514647, -2158.2620928599945, -1588.9184580944132, -5452.395135449784, -6378.494963466521, -16765.708239759, -15227.10355843348, -19791.15096225154, -11004.993141292709, -5654.1196291589295, -10420.20445110851, -10706.016207458522, -11220.396902608503, -0.002, -0.026000000000000002, 0.99, 192.0, 127.5, 120.0, 127.5, 24.0, 15.0, 120.0, 0.0, 0.0, 0.0, 1.6444985414837532E9, 0.0, 2022-02-11 00:09:01.483
30.0, -7989.564000316143, -9409.637380795168, -10273.755821437338, -16130.695179783725, -2167.5827702978577, -1588.5161266942177, -5462.6992896436805, -6387.100385081814, -16766.579957792754, -15226.835337500017, -19789.519284906302, -10999.159335989874, -5661.585111807002, -10403.015959622378, -10704.384530113284, -11217.55823106268, -0.002, -0.026000000000000002, 0.99, 192.0, 0.0, 0.0, 0.0, 0.0, 0.0, 0.0, 0.0, 0.0, 0.0, 1.64449854148376E9, 0.0, 2022-02-11 00:09:01.483
32.0, -7983.685491524398, -9400.026130679385, -10269.956024879935, -16124.14611865832, -2163.7159185070896, -1581.3188649796089, -5454.272681984029, -6381.1548210567025, -16762.958975190995, -15219.951000207782, -19798.504686177337, -11005.551934904091, -5660.780449006611, -10402.412462522087, -10711.201812172152, -11215.256001383783, -0.002, -0.026000000000000002, 0.99, 192.0, 0.0, 0.0, 0.0, 0.0, 0.0, 0.0, 0.0, 0.0, 0.0, 1.6444985414837673E9, 0.0, 2022-02-11 00:09:01.483
34.0, -7988.222895648825, -9408.229220894484, -10267.519684734307, -16127.163604159787, -2158.1950376266286, -1579.9777603122902, -5442.470960911627, -6377.019748332471, -16764.098914158218, -15224.577811310031, -19787.30646220523, -10992.342053931005, -5661.719222273734, -10395.081090340746, -10703.468108590616, -11212.998475193795, -0.002, -0.026000000000000002, 0.99, 192.0, 0.0, 0.0, 0.0, 0.0, 0.0, 0.0, 0.0, 0.0, 0.0, 1.644498541483774E9, 0.0, 2022-02-11 00:09:01.483
36.0, -7993.229686406814, -9398.059177167319, -10273.062917359224, -16130.091682683431, -2162.6206830287797, -1582.637617902472, -5438.581757376404, -6382.45122223511, -16765.350611847713, -15229.718712534752, -19798.325872221696, -11006.93774306032, -5655.863065226444, -10393.2035438065, -10704.138660924276, -11213.98195194983, 0.002, -0.026000000000000002, 0.991, 192.0, 0.0, 24.0, 127.5, 24.0, 15.5, 0.0, 0.0, 0.0, 0.0, 1.644498541483786E9, 0.0, 2022-02-11 00:09:01.483
38.0, -7976.2870641096915, -9398.327398100782, -10258.914263119015, -16124.012008191588, -2143.3311275638493, -1572.825202086592, -5441.129856244309, -6372.035309318938, -16756.812245465786, -15219.481613574222, -19787.082944760674, -10997.192382477806, -5651.951509946765, -10395.036386851834, -10697.075509676399, -11211.612667037567, 0.002, -0.026000000000000002, 0.991, 192.0, 0.0, 0.0, 0.0, 0.0, 0.0, 0.0, 0.0, 0.0, 0.0, 1.6444985414837928E9, 0.0, 2022-02-11 00:09:01.483
40.0, -7983.081994424105, -9402.395415591647, -10269.441934757464, -16128.594115804926, -2158.083278904352, -1578.6143039005167, -5441.085152755399, -6377.287969265934, -16759.56151003379, -15216.330017606024, -19784.981880781877, -10987.871705039943, -5649.559873290047, -10403.39593927812, -10697.343730609862, -11211.858536226575, 0.002, -0.026000000000000002, 0.991, 192.0, 0.0, 0.0, 0.0, 0.0, 0.0, 0.0, 0.0, 0.0, 0.0, 1.6444985414837997E9, 0.0, 2022-02-11 00:09:01.483
42.0, -7983.506677568756, -9403.803575492331, -10267.095001589656, -16122.872069224368, -2149.5002090335142, -1571.1935247413546, -5422.68966706868, -6365.7768208714515, -16760.61204202319, -15211.367930336944, -19794.63783438657, -10996.901809799887, -5655.4607338262485, -10386.229799536444, -10704.11630917982, -11212.238515882316, 0.002, -0.026000000000000002, 0.991, 192.0, 0.0, 0.0, 0.0, 0.0, 0.0, 0.0, 0.0, 0.0, 0.0, 1.6444985414838064E9, 0.0, 2022-02-11 00:09:01.483
44.0, -7981.67383452342, -9401.411938835614, -10263.004632354336, -16122.246220379619, -2143.152313608207, -1573.2722369756982, -5431.630364850804, -6358.780724856941, -16764.94828044752, -15219.749834507686, -19778.857502801122, -10988.27403644014, -5662.12155367393, -10386.162744303077, -10695.488535820072, -11204.996550678796, 0.002, -0.026000000000000002, 0.991, 192.0, 0.0, 0.0, 0.0, 0.0, 0.0, 0.0, 0.0, 0.0, 0.0, 1.6444985414838133E9, 0.0, 2022-02-11 00:09:01.483
46.0, -7991.329788128113, -9401.300180113338, -10270.93950163597, -16123.117938413376, -2154.8422759583327, -1581.6764928908938, -5436.368934675328, -6369.107230795292, -16768.41280083809, -15223.616686298454, -19792.000328540842, -11002.690911613812, -5654.7007745147675, -10386.587427447728, -10701.769376012013, -11211.41150133747, 0.003, -0.029, 0.9924999999999999, 192.0, 0.0, 16.0, 127.5, 0.0, 15.5, 8.0, 0.0, 0.0, 0.0, 1.64449854148382E9, 0.0, 2022-02-11 00:09:01.483
48.0, -7975.728270498308, -9392.471241053492, -10261.976452109391, -16124.43669133624, -2140.067772873375, -1574.1663067539105, -5428.434065393694, -6370.202466273602, -16764.545949047322, -15221.359160108466, -19788.669918617, -10997.482955155725, -5655.080754170508, -10396.1539740746, -10700.249457389053, -11210.919762959453, 0.003, -0.029, 0.9924999999999999, 192.0, 0.0, 0.0, 0.0, 0.0, 0.0, 0.0, 0.0, 0.0, 0.0, 1.6444985414838274E9, 0.0, 2022-02-11 00:09:01.483
50.0, -7985.786555503197, -9400.875496968687, -10272.325309792199, -16129.510537327593, -2155.021089913975, -1582.3917487134636, -5440.459303910649, -6374.002262831004, -16769.731553760954, -15218.565192051554, -19784.713659848414, -10992.923199286843, -5656.2877483710945, -10377.982005832435, -10698.394262599262, -11214.317228116659, 0.003, -0.029, 0.9924999999999999, 192.0, 0.0, 0.0, 0.0, 0.0, 0.0, 0.0, 0.0, 0.0, 0.0, 1.644498541483834E9, 0.0, 2022-02-11 00:09:01.483
52.0, -7982.9255322129175, -9402.216601636006, -10268.659623701527, -16118.960513944689, -2148.583787510847, -1576.4908881772624, -5434.893719541278, -6366.514428438477, -16765.954108948008, -15227.662352044863, -19795.53190416478, -10997.550010389092, -5658.969957705732, -10394.701110685004, -10703.177535912697, -11214.98778045032, 0.003, -0.029, 0.9924999999999999, 192.0, 0.0, 0.0, 0.0, 0.0, 0.0, 0.0, 0.0, 0.0, 0.0, 1.644498541483841E9, 0.0, 2022-02-11 00:09:01.483
54.0, -7979.662177522443, -9398.126232400684, -10263.451667243442, -16120.122804656365, -2145.5663020093803, -1566.7678793392038, -5438.537053887493, -6361.395878958211, -16767.69754501552, -15221.359160108466, -19785.272453459795, -10987.31291142856, -5657.897073971877, -10405.876982912658, -10697.455489332138, -11208.148146646994, 0.003, -0.029, 0.9924999999999999, 192.0, 0.0, 0.0, 0.0, 0.0, 0.0, 0.0, 0.0, 0.0, 0.0, 1.6444985414838479E9, 0.0, 2022-02-11 00:09:01.483
56.0, -7990.39101486099, -9395.265209110405, -10269.419583013008, -16122.067406423976, -2148.9414154221317, -1572.4228706863967, -5432.45737939565, -6371.632977918742, -16764.41183858059, -15229.428139856833, -19795.464848931417, -11002.445042424804, -5661.652167040368, -10388.397918748607, -10701.031768444987, -11212.082053671129, 0.0035, -0.0295, 0.99725, 192.0, 0.0, 16.0, 127.5, 8.0, 15.5, 40.0, 0.0, 0.0, 0.0, 1.6444985414838545E9, 0.0, 2022-02-11 00:09:01.483
58.0, -7977.337596099091, -9400.495517312947, -10260.255367786332, -16121.061577923487, -2138.927833906154, -1565.2256089717878, -5425.21541419213, -6364.793344115418, -16762.93662344654, -15220.643904285896, -19788.334642450172, -10994.107841742974, -5658.12059141643, -10383.793459390816, -10697.723710265602, -11209.93628620342, 0.0035, -0.0295, 0.99725, 192.0, 0.0, 0.0, 0.0, 0.0, 0.0, 0.0, 0.0, 0.0, 0.0, 1.6444985414838617E9, 0.0, 2022-02-11 00:09:01.483
60.0, -7985.406575847456, -9403.37889234768, -10264.211626554923, -16121.374502345861, -2152.6965084906233, -1575.9991497992457, -5443.45443766766, -6375.410422731688, -16764.70241125851, -15224.4437008433, -19782.612595869614, -10993.839620809511, -5659.618158294936, -10390.387224005131, -10697.321378865407, -11213.803137994188, 0.0035, -0.0295, 0.99725, 192.0, 0.0, 0.0, 0.0, 0.0, 0.0, 0.0, 0.0, 0.0, 0.0, 1.6444985414838684E9, 0.0, 2022-02-11 00:09:01.483
62.0, -7977.717575754831, -9397.634494022668, -10258.020193340803, -16116.054787165498, -2146.0133368984866, -1567.7066526063268, -5430.9821642616, -6371.521219196466, -16754.711181486986, -15228.891697989906, -19787.284110460772, -11001.863897068966, -5652.286786113595, -10383.14525880161, -10701.881134734289, -11214.160765905472, 0.0035, -0.0295, 0.99725, 192.0, 0.0, 0.0, 0.0, 0.0, 0.0, 0.0, 0.0, 0.0, 0.0, 1.6444985414838753E9, 0.0, 2022-02-11 00:09:01.483
64.0, -7975.10242165356, -9394.751118987933, -10256.187350295468, -16123.587325046938, -2141.9006159187097, -1563.3927659264525, -5430.780998561501, -6366.872056349762, -16758.26510885538, -15226.812985755561, -19774.25304344333, -10989.36927191845, -5654.611367536947, -10371.00826156238, -10695.533239308983, -11211.277390870739, 0.0035, -0.0295, 0.99725, 192.0, 0.0, 0.0, 0.0, 0.0, 0.0, 0.0, 0.0, 0.0, 0.0, 1.644498541483882E9, 0.0, 2022-02-11 00:09:01.483
66.0, -7988.915799726939, -9404.474127825992, -10267.072649845202, -16123.0061796911, -2155.9375114366426, -1580.2012777568434, -5442.180388233708, -6378.78553614444, -16761.304946101303, -15222.58850605351, -19790.92744480699, -10998.779356334133, -5655.997175693175, -10391.43775599453, -10699.623608544303, -11217.133547918029, 0.0035, -0.0295, 0.99725, 192.0, 0.0, 0.0, 127.5, 16.0, 15.5, 40.0, 0.0, 0.0, 0.0, 1.6444985414838889E9, 0.0, 2022-02-11 00:09:01.483
68.0, -7970.162686128937, -9390.23606660796, -10257.819027640704, -16121.128633156854, -2145.0075083979978, -1564.9797397827792, -5419.046332722465, -6352.790457342918, -16755.6052512652, -15213.87132571594, -19785.048936015242, -10996.901809799887, -5651.772695991122, -10409.386206792142, -10698.01428294352, -11209.466899569858, 0.0035, -0.0295, 0.99725, 192.0, 0.0, 0.0, 0.0, 0.0, 0.0, 0.0, 0.0, 0.0, 0.0, 1.6444985414838977E9, 0.0, 2022-02-11 00:09:01.483
70.0, -7982.9255322129175, -9401.367235346703, -10265.262158544321, -16128.23648789364, -2154.216427113584, -1576.9602748108239, -5419.40396063375, -6367.676719150152, -16756.476969298958, -15233.831433514528, -19781.226787713385, -11005.060196526074, -5649.73868724569, -10395.706939185493, -10693.186306141175, -11209.735120503321, 0.0035, -0.0295, 0.99725, 192.0, 0.0, 0.0, 0.0, 0.0, 0.0, 0.0, 0.0, 0.0, 0.0, 1.6444985414839044E9, 0.0, 2022-02-11 00:09:01.483
72.0, -7975.594160031576, -9398.349749845238, -10257.796675896248, -16117.217077877174, -2148.1144008772853, -1565.0691467606005, -5415.850033265357, -6358.44544869011, -16755.381733820646, -15232.06564570256, -19793.63200588608, -11006.870687826955, -5655.863065226444, -10385.156915802589, -10696.024977686999, -11210.31626585916, 0.0035, -0.0295, 0.99725, 192.0, 0.0, 0.0, 0.0, 0.0, 0.0, 0.0, 0.0, 0.0, 0.0, 1.6444985414839113E9, 0.0, 2022-02-11 00:09:01.483
74.0, -7976.108250154049, -9399.959075446019, -10255.516797961807, -16124.43669133624, -2142.5264647634585, -1565.6502921164385, -5423.829606035902, -6362.4911144365215, -16758.823902466764, -15227.863517744961, -19776.175293466484, -10988.296388184595, -5653.985518692198, -10380.395994233608, -10692.716919507613, -11207.723463502343, 0.0035, -0.0295, 0.99725, 192.0, 0.0, 0.0, 0.0, 0.0, 0.0, 0.0, 0.0, 0.0, 0.0, 1.6444985414839177E9, 0.0, 2022-02-11 00:09:01.483
76.0, -7967.525180283211, -9376.020357134385, -10257.640213685061, -16125.867202981379, -2151.3554038233046, -1565.4044229274302, -5426.847091537367, -6365.352137726801, -16755.359382076193, -15226.67887528883, -19782.992575525353, -11002.400338935893, -5651.035088424098, -10376.43973546502, -10696.628474787292, -11213.892544972008, 0.00675, -0.028749999999999998, 0.998625, 192.0, 0.0, 40.0, 127.5, 16.0, 15.5, 32.0, 0.0, 0.0, 0.0, 1.6444985414839249E9, 0.0, 2022-02-11 00:09:01.483
78.0, -7964.753563970753, -9385.296331083338, -10252.07462931569, -16116.412415076784, -2136.0444588714195, -1555.569655367095, -5426.064780481432, -6355.919701566661, -16740.093140613215, -15212.083186159514, -19768.598052096135, -10991.626798108435, -5643.100219142463, -10378.317281999265, -10694.952093953145, -11205.22006812335, 0.00675, -0.028749999999999998, 0.998625, 192.0, 0.0, 0.0, 0.0, 0.0, 0.0, 0.0, 0.0, 0.0, 0.0, 1.6444985414839315E9, 0.0, 2022-02-11 00:09:01.483
80.0, -7997.476517853323, -9420.545032089358, -10266.111524833623, -16123.72143551367, -2157.077450403863, -1577.6755306333937, -5433.239690451585, -6372.7058616525965, -16772.436114840046, -15237.20654692728, -19782.992575525353, -10995.068966754552, -5651.683289013301, -10390.454279238496, -10694.30389336394, -11205.175364634439, 0.00675, -0.028749999999999998, 0.998625, 192.0, 0.0, 0.0, 0.0, 0.0, 0.0, 0.0, 0.0, 0.0, 0.0, 1.6444985414839385E9, 0.0, 2022-02-11 00:09:01.483
82.0, -7993.319093384635, -9416.901697743142, -10263.876350388093, -16120.368673845373, -2149.6790229891567, -1576.8485160885473, -5436.011306764043, -6371.297701751912, -16774.492475329935, -15245.029657486637, -19798.907017577534, -11005.887211070922, -5671.419879367338, -10398.702072942504, -10701.992893456567, -11212.41732983796, 0.00675, -0.028749999999999998, 0.998625, 192.0, 0.0, 0.0, 0.0, 0.0, 0.0, 0.0, 0.0, 0.0, 0.0, 1.6444985414839454E9, 0.0, 2022-02-11 00:09:01.483
84.0, -7975.10242165356, -9389.587866018757, -10256.477922973387, -16119.452252322704, -2140.09012461783, -1574.859210832025, -5430.289260183485, -6368.16845752817, -16763.361306591192, -15230.38926486841, -19781.67382260249, -10995.806574321578, -5657.539446060592, -10410.213221336988, -10694.482707319583, -11209.802175736688, 0.00675, -0.028749999999999998, 0.998625, 192.0, 0.0, 0.0, 0.0, 0.0, 0.0, 0.0, 0.0, 0.0, 0.0, 1.644498541483952E9, 0.0, 2022-02-11 00:09:01.483
86.0, -7982.634959534998, -9399.936723701563, -10262.848170143148, -16125.308409369996, -2152.5623980238915, -1567.505486906229, -5436.570100375427, -6367.810829616885, -16756.6557832546, -15212.19494488179, -19791.44153492946, -10995.963036532765, -5662.948568218776, -10388.375567004154, -10691.532277051483, -11205.734158245821, 0.010375, -0.028374999999999997, 0.9963124999999999, 192.0, 0.0, 56.0, 127.5, 16.0, 15.5, 8.0, 0.0, 0.0, 0.0, 1.6444985414839587E9, 0.0, 2022-02-11 00:09:01.483
88.0, -7979.662177522443, -9399.422633579092, -10257.50610321833, -16117.820574977468, -2146.572130509869, -1562.8786758039805, -5429.618707849826, -6360.814733602373, -16759.53915828933, -15227.617648555954, -19786.05476451573, -10997.035920266619, -5664.982576964209, -10379.390165733119, -10694.683873019681, -11202.381396577526, 0.010375, -0.028374999999999997, 0.9963124999999999, 192.0, 0.0, 0.0, 0.0, 0.0, 0.0, 0.0, 0.0, 0.0, 0.0, 1.6444985414839656E9, 0.0, 2022-02-11 00:09:01.483
90.0, -7982.433793834901, -9391.063081152806, -10264.07751608819, -16123.43086283575, -2156.183380625651, -1568.8018880846369, -5435.966603275133, -6378.4055564887, -16765.440018825535, -15217.000569939682, -19783.52901739228, -10987.536428873114, -5668.156524676862, -10400.378453776653, -10692.582809040881, -11203.543687289202, 0.010375, -0.028374999999999997, 0.9963124999999999, 192.0, 0.0, 0.0, 0.0, 0.0, 0.0, 0.0, 0.0, 0.0, 0.0, 1.6444985414839723E9, 0.0, 2022-02-11 00:09:01.483
92.0, -7974.968311186828, -9390.437232308059, -10258.109600318623, -16114.66897900927, -2147.37679331026, -1559.1906379688548, -5434.2902224409845, -6365.530951682443, -16753.03480065284, -15231.842128258006, -19793.02850878579, -10996.387719677416, -5655.6395477818905, -10387.168572803566, -10696.136736409277, -11204.862440212064, 0.010375, -0.028374999999999997, 0.9963124999999999, 192.0, 0.0, 0.0, 0.0, 0.0, 0.0, 0.0, 0.0, 0.0, 0.0, 1.6444985414839792E9, 0.0, 2022-02-11 00:09:01.483
94.0, -7978.119907155026, -9395.265209110405, -10257.93078636298, -16121.15098490131, -2149.0084706554976, -1565.2703124606983, -5436.637155608792, -6371.208294774091, -16753.235966352935, -15229.785767768119, -19776.041182999754, -10991.045652752597, -5658.075887927519, -10374.316319741765, -10688.917122950212, -11199.7438907318, 0.010375, -0.028374999999999997, 0.9963124999999999, 192.0, 0.0, 0.0, 0.0, 0.0, 0.0, 0.0, 0.0, 0.0, 0.0, 1.644498541483986E9, 0.0, 2022-02-11 00:09:01.483
96.0, -7992.4920788397885, -9409.100938928239, -10270.537170235773, -16123.922601213766, -2165.19113364114, -1580.4918504347625, -5442.180388233708, -6379.724309411563, -16761.774332734865, -15235.753683537685, -19795.44249718696, -10994.823097565544, -5670.212885166751, -10401.049006110312, -10694.9744456976, -11208.50577455828, 0.0111875, -0.0271875, 0.99315625, 192.0, 0.0, 48.0, 127.5, 24.0, 15.0, 120.0, 0.0, 0.0, 0.0, 1.6444985414839928E9, 0.0, 2022-02-11 00:09:01.483
98.0, -7975.571808287122, -9399.243819623449, -10261.84234164266, -16128.661171038291, -2144.962804909087, -1568.2207427287988, -5429.283431682996, -6362.0217278029595, -16756.991059421427, -15235.954849237783, -19789.027546528287, -10991.64914985289, -5665.250797897673, -10387.235628036933, -10697.299027120951, -11212.372626349048, 0.0111875, -0.0271875, 0.99315625, 192.0, 0.0, 0.0, 0.0, 0.0, 0.0, 0.0, 0.0, 0.0, 0.0, 1.6444985414839995E9, 0.0, 2022-02-11 00:09:01.483
100.0, -7983.283160124202, -9401.85897372472, -10269.79956266875, -16131.768063517578, -2156.697470748123, -1582.3693969690082, -5434.066704996432, -6383.993492602527, -16761.930794946053, -15231.73036953573, -19783.596072625645, -10990.062175996563, -5663.954396719265, -10386.63213093664, -10694.393300341762, -11214.27252462775, 0.0111875, -0.0271875, 0.99315625, 192.0, 0.0, 0.0, 0.0, 0.0, 0.0, 0.0, 0.0, 0.0, 0.0, 1.6444985414840088E9, 0.0, 2022-02-11 00:09:01.484
102.0, -7977.203485632359, -9402.90950571412, -10269.710155690927, -16127.074197181964, -2158.5079620490033, -1576.535591666173, -5449.511760415049, -6373.890504108728, -16765.417667081078, -15243.219166185758, -19798.214113499416, -10997.639417366912, -5663.172085663329, -10406.100500357212, -10706.217373158619, -11219.234611896827, 0.0111875, -0.0271875, 0.99315625, 192.0, 0.0, 0.0, 0.0, 0.0, 0.0, 0.0, 0.0, 0.0, 0.0, 1.6444985414840155E9, 0.0, 2022-02-11 00:09:01.484
104.0, -7977.024671676716, -9401.590752791257, -10266.69267018946, -16128.19178440473, -2150.1707613671733, -1574.7251003652932, -5444.929652801711, -6374.896332609217, -16762.333126346246, -15233.473805603244, -19779.371592923595, -10982.17201020384, -5663.842637996989, -10392.667101939573, -10702.685797534681, -11211.947943204397, 0.0111875, -0.0271875, 0.99315625, 192.0, 0.0, 0.0, 0.0, 0.0, 0.0, 0.0, 0.0, 0.0, 0.0, 1.6444985414840224E9, 0.0, 2022-02-11 00:09:01.484
106.0, -7991.799174761674, -9409.816194750809, -10273.442897014964, -16133.153871673809, -2153.545874779925, -1585.8786208484914, -5441.867463811334, -6384.664044936186, -16775.78887650834, -15242.705076063285, -19797.7223751214, -10995.27013245465, -5662.278015885117, -10400.221991565466, -10701.54585856746, -11218.765225263265, 0.012, -0.03, 0.986, 192.0, 0.0, 48.0, 127.5, 8.0, 15.0, 104.0, 0.0, 0.0, 0.0, 1.6444985419638116E9, 0.0, 2022-02-11 00:09:01.963
108.0, -7975.4824013093, -9406.888116227165, -10257.595510196152, -16129.33172337195, -2131.1717785801625, -1571.4617456748183, -5427.584699104393, -6371.655329663197, -16768.636318282643, -15236.133663193425, -19790.54746515125, -10988.341091673505, -5664.826114753022, -10391.102479827701, -10697.12021316531, -11214.920725216953, 0.012, -0.03, 0.986, 192.0, 0.0, 0.0, 0.0, 0.0, 0.0, 0.0, 0.0, 0.0, 0.0, 1.6444985419639904E9, 0.0, 2022-02-11 00:09:01.963
110.0, -8000.762224288253, -9429.10575021574, -10264.278681788288, -16136.976019975666, -2144.404011297704, -1580.022463801201, -5441.286318455496, -6386.563943214887, -16770.69267877253, -15243.576794097042, -19785.317156948706, -10992.565571375559, -5656.779486749111, -10389.895485627114, -10692.940436952167, -11215.971257206353, 0.012, -0.03, 0.986, 192.0, 0.0, 0.0, 0.0, 0.0, 0.0, 0.0, 0.0, 0.0, 0.0, 1.6444985419639976E9, 0.0, 2022-02-11 00:09:01.963
112.0, -8017.30251518518, -9444.707267845544, -10263.36226026562, -16131.81276700649, -2140.3583455512935, -1567.1702107393994, -5438.849978309868, -6374.315187253379, -16774.403068352112, -15253.702134335297, -19802.796221112756, -11010.625780895447, -5657.293576871583, -10384.1510873021, -10702.484631834583, -11218.094672929607, 0.012, -0.03, 0.986, 192.0, 0.0, 0.0, 0.0, 0.0, 0.0, 0.0, 0.0, 0.0, 0.0, 1.6444985419640048E9, 0.0, 2022-02-11 00:09:01.964
114.0, -8053.400582480501, -9480.69357641859, -10267.69849868995, -16131.633953050847, -2132.579938480847, -1562.632806614972, -5426.221242692619, -6365.441544704622, -16788.93170224806, -15255.423218658356, -19799.19759025545, -11001.863897068966, -5650.856274468455, -10382.675872168049, -10694.706224764137, -11212.082053671129, 0.012, -0.03, 0.986, 192.0, 0.0, 0.0, 0.0, 0.0, 0.0, 0.0, 0.0, 0.0, 0.0, 1.644498541964012E9, 0.0, 2022-02-11 00:09:01.964
116.0, -8101.590943526143, -9523.02778041694, -10280.729565707394, -16139.837043265945, -2145.1416188647295, -1569.6512543739384, -5432.166806717731, -6365.665062149175, -16814.256228715923, -15273.215207244779, -19828.54543072527, -11023.433330468337, -5664.557893819559, -10397.271561297364, -10696.8743439763, -11212.372626349048, 0.006, -0.026000000000000002, 0.984, 192.0, 0.0, 24.0, 127.5, 24.0, 15.0, 96.0, 0.0, 0.0, 0.0, 1.6444985419640193E9, 0.0, 2022-02-11 00:09:01.964
118.0, -8111.202193641925, -9535.36594335627, -10271.364184780621, -16141.245203166629, -2129.8753774017546, -1556.2402077007541, -5423.695495569169, -6356.9702335560605, -16819.777109596387, -15285.888646350939, -19833.999256372364, -11033.290449773127, -5659.528751317114, -10382.608816934684, -10697.9248759657, -11211.836184482121, 0.006, -0.026000000000000002, 0.984, 192.0, 0.0, 0.0, 0.0, 0.0, 0.0, 0.0, 0.0, 0.0, 0.0, 1.6444985419640267E9, 0.0, 2022-02-11 00:09:01.964
120.0, -8134.202138686435, -9557.404763389202, -10280.46134477393, -16139.702932799213, -2143.1746653526625, -1570.1429927519553, -5437.263004453541, -6370.202466273602, -16829.67893239009, -15287.721489396274, -19834.40158777256, -11029.84828112701, -5669.855257255466, -10397.092747341723, -10694.236838130575, -11211.992646693308, 0.006, -0.026000000000000002, 0.984, 192.0, 0.0, 0.0, 0.0, 0.0, 0.0, 0.0, 0.0, 0.0, 0.0, 1.6444985419640336E9, 0.0, 2022-02-11 00:09:01.964
122.0, -8145.534473125276, -9567.574807116367, -10285.468135531919, -16143.413322378794, -2143.576996752858, -1575.4180044434077, -5436.234824208596, -6373.577579686354, -16835.71390339302, -15289.59903593052, -19856.50746303886, -11036.240880041229, -5667.307158387561, -10419.153919119111, -10702.171707412208, -11217.6476380405, 0.006, -0.026000000000000002, 0.984, 192.0, 0.0, 0.0, 0.0, 0.0, 0.0, 0.0, 0.0, 0.0, 0.0, 1.6444985419640405E9, 0.0, 2022-02-11 00:09:01.964
124.0, -8139.23128118888, -9569.452353650613, -10279.567274995718, -16150.364714904395, -2134.0998571038076, -1578.5919521560613, -5436.815969564434, -6372.437640719133, -16841.793577884862, -15291.722451653774, -19843.185823343494, -11035.056237585097, -5659.729917017212, -10406.39107303513, -10695.98027419809, -11219.122853174551, 0.006, -0.026000000000000002, 0.984, 192.0, 0.0, 0.0, 0.0, 0.0, 0.0, 0.0, 0.0, 0.0, 0.0, 1.6444985419640477E9, 0.0, 2022-02-11 00:09:01.964
126.0, -8145.243900447357, -9568.602987361312, -10286.988054154881, -16150.923508515778, -2151.958900923598, -1589.767824383715, -5452.395135449784, -6388.665007193686, -16840.497176706456, -15288.928483596861, -19851.79124495879, -11051.976508137765, -5667.821248510033, -10405.54170674583, -10699.757719011035, -11226.342466633614, 0.01, -0.024, 0.984, 192.0, 0.0, 40.0, 127.5, 32.0, 15.0, 96.0, 0.0, 0.0, 0.0, 1.6444985419640543E9, 0.0, 2022-02-11 00:09:01.964
