%OpenBCI Raw EEG Data
%Number of channels = 16
%Sample Rate = 125 Hz
%Board = OpenBCI_GUI$BoardCytonSerialDaisy
Sample Index, EXG Channel 0, EXG Channel 1, EXG Channel 2, EXG Channel 3, EXG Channel 4, EXG Channel 5, EXG Channel 6, EXG Channel 7, EXG Channel 8, EXG Channel 9, EXG Channel 10, EXG Channel 11, EXG Channel 12, EXG Channel 13, EXG Channel 14, EXG Channel 15, Accel Channel 0, Accel Channel 1, Accel Channel 2, Other, Other, Other, Other, Other, Other, Other, Analog Channel 0, Analog Channel 1, Analog Channel 2, Timestamp, Other, Timestamp (Formatted)
22.0, -8919.418921401373, -10969.140943186396, -10476.106163991233, -16584.23442652636, -2883.0174068233264, -2828.568557330198, -5915.255059630283, -7083.759556264825, -16222.538497750582, -14514.462889964927, -19999.312758363816, -12107.78350922865, -6498.7920521249835, -10571.682223282127, -11393.935846559507, -11755.14003695727, 0.0, 0.0, 0.0, 192.0, 0.0, 0.0, 0.0, 0.0, 0.0, 0.0, 0.0, 0.0, 0.0, 1.6444987233280494E9, 0.0, 2022-02-11 00:12:03.328
24.0, -8910.791148041624, -10946.588033030992, -10479.324815192796, -16586.201380038427, -2891.019331338326, -2834.603528333131, -5923.3687428675585, -7094.197820925453, -16215.005959869142, -14503.39877645955, -19980.559644765814, -12095.937084667336, -6495.640456156785, -10571.302243626385, -11387.833820323209, -11753.173083445203, 0.0, 0.0, 0.0, 192.0, 0.0, 0.0, 0.0, 0.0, 0.0, 0.0, 0.0, 0.0, 0.0, 1.6444987233280587E9, 0.0, 2022-02-11 00:12:03.328
26.0, -8902.252781659698, -10920.525898996104, -10484.957454795534, -16581.75338289182, -2900.3176570317337, -2833.8882725105614, -5942.434780887936, -7100.88099251759, -16207.719291176712, -14491.373537942594, -19991.601406526734, -12104.475451049264, -6493.964075322638, -10578.365394874263, -11399.747300117886, -11760.146827715258, 0.006, -0.024, 0.988, 192.0, 0.0, 24.0, 127.5, 32.0, 15.0, 112.0, 0.0, 0.0, 0.0, 1.6444987233280663E9, 0.0, 2022-02-11 00:12:03.328
28.0, -8886.226580885243, -10910.847593646955, -10475.077983746289, -16585.32966200467, -2888.091252814681, -2822.4218276049887, -5936.064533718173, -7092.789661024769, -16208.367491765917, -14482.119915738096, -19978.257415086915, -12091.220866587266, -6495.483993945599, -10569.894083725701, -11396.908628572062, -11754.670650323707, 0.006, -0.024, 0.988, 192.0, 0.0, 0.0, 0.0, 0.0, 0.0, 0.0, 0.0, 0.0, 0.0, 1.6444987233280747E9, 0.0, 2022-02-11 00:12:03.328
30.0, -8879.006967426178, -10913.708616937234, -10481.828210571792, -16586.223731782884, -2901.926982632516, -2839.923243513494, -5948.536807124235, -7104.6137338416265, -16207.96516036572, -14487.506686151826, -19981.073734888287, -12100.318026580577, -6494.254648000557, -10565.0437551789, -11395.344006460191, -11760.884435282283, 0.006, -0.024, 0.988, 192.0, 0.0, 0.0, 0.0, 0.0, 0.0, 0.0, 0.0, 0.0, 0.0, 1.644498723328082E9, 0.0, 2022-02-11 00:12:03.328
32.0, -8861.505551517672, -10899.448203974749, -10465.824361541792, -16575.60665316661, -2882.279799256301, -2824.8134642617065, -5932.845882516609, -7089.9733412234, -16193.280064258584, -14490.300654208739, -19975.99988889693, -12083.91184615038, -6483.257589728545, -10569.692918025603, -11396.68511112751, -11757.442266636166, 0.006, -0.024, 0.988, 192.0, 0.0, 0.0, 0.0, 0.0, 0.0, 0.0, 0.0, 0.0, 0.0, 1.6444987233280892E9, 0.0, 2022-02-11 00:12:03.328
34.0, -8858.555121249572, -10888.942884080754, -10470.898207533146, -16585.307310260214, -2888.538287703787, -2834.000031232838, -5941.272490176259, -7098.556411094238, -16190.687261901769, -14487.283168707272, -19956.66562994309, -12074.747630923704, -6478.47431641511, -10558.606452775772, -11389.823125579731, -11753.553063100942, 0.009000000000000001, -0.024, 0.987, 192.0, 0.0, 48.0, 127.5, 32.0, 15.0, 104.0, 0.0, 0.0, 0.0, 1.644498723328096E9, 0.0, 2022-02-11 00:12:03.328
36.0, -8853.168350835842, -10865.115924491398, -10475.972053524501, -16582.20041778093, -2890.996979593871, -2835.899929511539, -5942.658298332489, -7102.333855907185, -16189.748488634646, -14483.48337214987, -19972.177740595074, -12086.750517696204, -6479.077813515403, -10571.90574072668, -11401.11075652966, -11758.582205603387, 0.009000000000000001, -0.024, 0.987, 192.0, 0.0, 0.0, 0.0, 0.0, 0.0, 0.0, 0.0, 0.0, 0.0, 1.6444987233281033E9, 0.0, 2022-02-11 00:12:03.328
38.0, -8832.425931981317, -10860.28794768905, -10462.963338251513, -16578.020641567786, -2867.4829444268876, -2823.315897383201, -5935.08105696214, -7093.415509869517, -16186.552189177537, -14475.615558101603, -19957.492644487935, -12073.786505912127, -6475.278016958001, -10562.80858073337, -11393.287645970304, -11754.245967179057, 0.009000000000000001, -0.024, 0.987, 192.0, 0.0, 0.0, 0.0, 0.0, 0.0, 0.0, 0.0, 0.0, 0.0, 1.6444987233281102E9, 0.0, 2022-02-11 00:12:03.328
40.0, -8833.878795370912, -10859.438581399749, -10472.105201733733, -16581.596920680633, -2880.022273066315, -2830.6249178200865, -5953.923577537964, -7105.843079786669, -16181.433639697272, -14477.515456380304, -19960.800702667322, -12066.76805815316, -6472.8416768123725, -10565.110810412265, -11389.599608135177, -11762.694926583163, 0.009000000000000001, -0.024, 0.987, 192.0, 0.0, 0.0, 0.0, 0.0, 0.0, 0.0, 0.0, 0.0, 0.0, 1.6444987233281171E9, 0.0, 2022-02-11 00:12:03.328
42.0, -8810.968257304223, -10830.426017096761, -10463.41037314062, -16578.557083434713, -2866.0077292928377, -2813.6599437785085, -5930.677763304444, -7107.765329809825, -16171.777686092579, -14467.05483997522, -19959.593708466735, -12068.355032009487, -6468.751307577051, -10558.874673709235, -11390.292512213293, -11761.175007960202, 0.009000000000000001, -0.024, 0.987, 192.0, 0.0, 0.0, 0.0, 0.0, 0.0, 0.0, 0.0, 0.0, 0.0, 1.644498723328124E9, 0.0, 2022-02-11 00:12:03.328
44.0, -8830.302516258063, -10825.799205994512, -10475.92735003559, -16585.061441071208, -2882.90564810105, -2815.5821938016647, -5951.1296094810505, -7098.467004116417, -16178.706726873725, -14469.804104543222, -19946.719103660478, -12063.638813929418, -6473.668691357218, -10556.393630074695, -11390.717195357944, -11759.588034103876, 0.009500000000000001, -0.028, 0.9875, 192.0, 0.0, 40.0, 127.5, 0.0, 15.0, 112.0, 0.0, 0.0, 0.0, 1.6444987233281815E9, 0.0, 2022-02-11 00:12:03.328
46.0, -8827.84382436798, -10840.104322445908, -10478.229579714487, -16582.066307314195, -2880.2681422553233, -2829.3732201305893, -5945.407562900492, -7081.479678330384, -16187.982700822677, -14470.497008621338, -19966.075714358773, -12076.133439079935, -6480.173048993713, -10572.24101689351, -11397.847401839186, -11763.343127172368, 0.009500000000000001, -0.028, 0.9875, 192.0, 0.0, 0.0, 0.0, 0.0, 0.0, 0.0, 0.0, 0.0, 0.0, 1.64449872332819E9, 0.0, 2022-02-11 00:12:03.328
48.0, -8807.481385169194, -10820.971229192166, -10467.567797609307, -16581.14988579153, -2867.304130471245, -2816.3645048576004, -5935.684554062433, -7092.364977880118, -16177.164456506307, -14460.818703272189, -19945.735626904443, -12059.123761549445, -6469.958301777638, -10551.23037710552, -11388.213799978948, -11757.643432336263, 0.009500000000000001, -0.028, 0.9875, 192.0, 0.0, 0.0, 0.0, 0.0, 0.0, 0.0, 0.0, 0.0, 0.0, 1.6444987233282E9, 0.0, 2022-02-11 00:12:03.328
50.0, -8805.335617701485, -10809.527136031049, -10479.21305647052, -16589.174162050982, -2882.0339300672927, -2824.835816006162, -5967.200513744416, -7115.856661302646, -16176.002165794633, -14453.777903768767, -19952.28468802985, -12047.970241066247, -6464.124496474802, -10569.312938369863, -11391.275988969326, -11764.594824861864, 0.009500000000000001, -0.028, 0.9875, 192.0, 0.0, 0.0, 0.0, 0.0, 0.0, 0.0, 0.0, 0.0, 0.0, 1.6444987233282092E9, 0.0, 2022-02-11 00:12:03.328
52.0, -8797.065472253022, -10804.319179572962, -10480.576512882295, -16583.89915035953, -2871.863886340128, -2816.6550775355195, -5953.610653115589, -7114.02381825731, -16168.983718035666, -14463.322098651184, -19948.686057172545, -12072.735973922727, -6469.75713607754, -10564.95434820108, -11403.815317608753, -11766.941758029672, 0.009500000000000001, -0.028, 0.9875, 192.0, 0.0, 0.0, 0.0, 0.0, 0.0, 0.0, 0.0, 0.0, 0.0, 1.6444987233282163E9, 0.0, 2022-02-11 00:12:03.328
54.0, -8796.193754219265, -10797.9489324032, -10475.748536079947, -16585.866103871598, -2869.539304916776, -2822.9135659830054, -5938.076190719151, -7108.279419932297, -16175.689241372258, -14465.825494030178, -19937.800757622812, -12045.444493942798, -6475.300368702456, -10554.963118429556, -11399.032044295316, -11765.08656323988, 0.00875, -0.028, 0.98675, 192.0, 0.0, 32.0, 127.5, 16.0, 15.0, 104.0, 0.0, 0.0, 0.0, 1.644498723328231E9, 0.0, 2022-02-11 00:12:03.328
56.0, -8796.372568174907, -10792.159830589275, -10477.871951803203, -16582.938025347954, -2875.350758475156, -2818.9126037255055, -5934.522263350757, -7107.541812365272, -16167.307337201517, -14464.52909285177, -19947.501414716415, -12044.192796253301, -6471.746441334062, -10548.034077648412, -11398.339140217202, -11767.209978963136, 0.00875, -0.028, 0.98675, 192.0, 0.0, 0.0, 0.0, 0.0, 0.0, 0.0, 0.0, 0.0, 0.0, 1.6444987233282378E9, 0.0, 2022-02-11 00:12:03.328
58.0, -8785.084937224978, -10782.32506302894, -10471.054669744333, -16579.585263679655, -2866.611226393131, -2808.6531530205198, -5941.3842488985365, -7098.422300627506, -16170.213063980707, -14452.123874679075, -19934.336237232237, -12035.274450215633, -6471.9029035452495, -10553.42084806214, -11394.360529704158, -11760.102124226347, 0.00875, -0.028, 0.98675, 192.0, 0.0, 0.0, 0.0, 0.0, 0.0, 0.0, 0.0, 0.0, 0.0, 1.644498723328245E9, 0.0, 2022-02-11 00:12:03.328
60.0, -8786.78366980358, -10780.603978705882, -10482.31994894981, -16579.51820844629, -2877.9435608319714, -2809.927202454472, -5939.573757597656, -7105.7313210643915, -16175.219854738696, -14450.648659545024, -19939.253621012405, -12044.013982297658, -6469.75713607754, -10551.073914894332, -11393.354701203669, -11759.297461425956, 0.00875, -0.028, 0.98675, 192.0, 0.0, 0.0, 0.0, 0.0, 0.0, 0.0, 0.0, 0.0, 0.0, 1.6444987233282523E9, 0.0, 2022-02-11 00:12:03.328
62.0, -8767.36000387192, -10742.40484743176, -10472.440477900564, -16572.432705453957, -2852.5519791307424, -2791.7552342123076, -5930.990687726819, -7091.515611590817, -16155.57267136248, -14435.203604126407, -19933.442167454024, -12029.95473503527, -6459.363574905822, -10545.217757847042, -11391.588913391699, -11753.530711356487, 0.00875, -0.028, 0.98675, 192.0, 0.0, 0.0, 0.0, 0.0, 0.0, 0.0, 0.0, 0.0, 0.0, 1.6444987233282592E9, 0.0, 2022-02-11 00:12:03.328
64.0, -8772.523256841094, -10760.979147074122, -10472.663995345116, -16576.724240389376, -2853.222531464402, -2793.1857458574473, -5940.020792486763, -7096.835326771179, -16158.500749886127, -14433.169595380974, -19925.283780727837, -12030.871156557938, -6465.510304631031, -10557.511217297462, -11377.663776596044, -11749.194472932157, 0.0063750000000000005, -0.028999999999999998, 0.987375, 192.0, 0.0, 16.0, 127.5, 8.0, 15.0, 112.0, 0.0, 0.0, 0.0, 1.6444987233282661E9, 0.0, 2022-02-11 00:12:03.328
66.0, -8777.015957476611, -10771.50681871257, -10475.055632001833, -16576.545426433735, -2855.636519865575, -2792.604600501609, -5942.278318676748, -7098.35524539414, -16157.204348707719, -14446.424179842972, -19940.393559979628, -12037.487272916707, -6455.988461493071, -10538.735751955004, -11384.34694818818, -11753.62011833431, 0.0063750000000000005, -0.028999999999999998, 0.987375, 192.0, 0.0, 0.0, 0.0, 0.0, 0.0, 0.0, 0.0, 0.0, 0.0, 1.6444987233282745E9, 0.0, 2022-02-11 00:12:03.328
68.0, -8757.458181078218, -10761.739106385601, -10467.009003997922, -16572.76798162079, -2843.0524877372372, -2778.411242772489, -5916.484405575324, -7084.743033020858, -16154.835063795455, -14441.931479207455, -19924.389710949625, -12019.739987819194, -6458.84948478335, -10529.79505417288, -11375.696823083976, -11745.28291765248, 0.0063750000000000005, -0.028999999999999998, 0.987375, 192.0, 0.0, 0.0, 0.0, 0.0, 0.0, 0.0, 0.0, 0.0, 0.0, 1.6444987233282812E9, 0.0, 2022-02-11 00:12:03.328
70.0, -8768.321128883497, -10741.711943353646, -10477.06728900281, -16577.506551445313, -2856.0388512657705, -2785.608504487098, -5940.1549029534945, -7093.393158125063, -16149.29183117054, -14433.52722329226, -19918.019463779863, -12024.322095432532, -6449.70762130113, -10525.637629704193, -11374.48982888339, -11747.249871164546, 0.0063750000000000005, -0.028999999999999998, 0.987375, 192.0, 0.0, 0.0, 0.0, 0.0, 0.0, 0.0, 0.0, 0.0, 0.0, 1.644498723328288E9, 0.0, 2022-02-11 00:12:03.328
72.0, -8767.851742249935, -10746.294050966984, -10473.35689942323, -16572.52211243178, -2840.7055545694298, -2772.823306658662, -5908.214260126861, -7067.152210134532, -16152.175206205275, -14432.253173858307, -19932.74926337591, -12031.80992982506, -6453.41801088071, -10550.537473027405, -11369.572445103222, -11746.065228708414, 0.0063750000000000005, -0.028999999999999998, 0.987375, 192.0, 0.0, 0.0, 0.0, 0.0, 0.0, 0.0, 0.0, 0.0, 0.0, 1.6444987233282948E9, 0.0, 2022-02-11 00:12:03.328
74.0, -8775.697204553748, -10758.453399950671, -10482.476411160995, -16582.111010803106, -2844.482999382377, -2783.3062748082016, -5923.636963801023, -7100.6798268174925, -16164.28985170005, -14436.052970415709, -19930.13410927464, -12026.691380344795, -6459.967072006116, -10531.963173385046, -11365.303261912259, -11744.411199618722, 0.0051875, -0.0305, 0.9896875, 192.0, 0.0, 16.0, 127.5, 0.0, 15.5, 0.0, 0.0, 0.0, 0.0, 1.6444987233283017E9, 0.0, 2022-02-11 00:12:03.328
76.0, -8777.753565043637, -10756.17352201623, -10477.000233769446, -16573.662051399, -2849.9368250294715, -2785.4967457648213, -5934.388152884025, -7096.075367459699, -16161.607642365414, -14447.00532519881, -19942.204051280507, -12029.887679801903, -6462.649281340752, -10542.624955490226, -11376.613244606644, -11754.827112534895, 0.0051875, -0.0305, 0.9896875, 192.0, 0.0, 0.0, 0.0, 0.0, 0.0, 0.0, 0.0, 0.0, 0.0, 1.6444987233283083E9, 0.0, 2022-02-11 00:12:03.328
78.0, -8754.664213021304, -10725.998667001566, -10468.037184242867, -16575.47254269988, -2831.6307463205753, -2763.5920361986205, -5922.161748666972, -7063.978262421878, -16153.963345761698, -14428.743949978823, -19924.36735920517, -12019.158842463356, -6458.424801638699, -10531.002048373468, -11370.57827360371, -11740.767865272506, 0.0051875, -0.0305, 0.9896875, 192.0, 0.0, 0.0, 0.0, 0.0, 0.0, 0.0, 0.0, 0.0, 0.0, 1.6444987233283155E9, 0.0, 2022-02-11 00:12:03.328
80.0, -8760.54272181305, -10734.894661294778, -10477.536675636373, -16573.215016509894, -2846.829932550184, -2773.091527592126, -5908.907164204975, -7084.854791743135, -16150.968212004687, -14420.47380453036, -19924.814394094275, -12029.395941423887, -6455.56377834842, -10529.102150094766, -11365.839703779186, -11737.973897215594, 0.0051875, -0.0305, 0.9896875, 192.0, 0.0, 0.0, 0.0, 0.0, 0.0, 0.0, 0.0, 0.0, 0.0, 1.644498723328323E9, 0.0, 2022-02-11 00:12:03.328
82.0, -8755.044192677045, -10725.998667001566, -10465.153809208132, -16563.26849022728, -2829.4179236195, -2766.251893788802, -5913.511623562768, -7076.450535827939, -16147.05665672501, -14424.027731898754, -19930.290571485828, -12019.851746541472, -6450.109952701325, -10538.378124043718, -11369.572445103222, -11739.538519327465, 0.0051875, -0.0305, 0.9896875, 192.0, 0.0, 0.0, 0.0, 0.0, 0.0, 0.0, 0.0, 0.0, 0.0, 1.6444987233283296E9, 0.0, 2022-02-11 00:12:03.328
84.0, -8748.226910618176, -10725.931611768201, -10462.538655106862, -16561.927385559964, -2830.2002346754357, -2755.4336494724334, -5903.006303668774, -7065.92286418949, -16140.14996768832, -14413.969446893865, -19908.341158430714, -12001.411557365842, -6437.391810106255, -10537.014667631945, -11356.29550889677, -11730.754283756529, 0.0051875, -0.0305, 0.9896875, 192.0, 0.0, 0.0, 127.5, 0.0, 15.0, 112.0, 0.0, 0.0, 0.0, 1.6444987233283367E9, 0.0, 2022-02-11 00:12:03.328
86.0, -8745.298832094531, -10706.016207458522, -10456.190759681554, -16558.842844825132, -2818.3314583696674, -2753.220826771358, -5919.323077121148, -7070.482620058373, -16138.562993831993, -14423.960676665387, -19916.678359112546, -12003.780842278105, -6432.362667603811, -10508.784414384892, -11357.524854841811, -11729.927269211683, 0.0051875, -0.0305, 0.9896875, 192.0, 0.0, 0.0, 0.0, 0.0, 0.0, 0.0, 0.0, 0.0, 0.0, 1.6444987233283467E9, 0.0, 2022-02-11 00:12:03.328
88.0, -8730.412570287297, -10708.519602837516, -10450.334602634264, -16558.731086102856, -2805.479205307866, -2742.737858621819, -5891.249286085283, -7057.0715733851885, -16126.67186578177, -14418.886830674033, -19901.12154497165, -12004.652560311863, -6425.187757633657, -10512.673617920116, -11347.645383792566, -11724.339333097856, 0.0051875, -0.0305, 0.9896875, 192.0, 0.0, 0.0, 0.0, 0.0, 0.0, 0.0, 0.0, 0.0, 0.0, 1.644498723328354E9, 0.0, 2022-02-11 00:12:03.328
90.0, -8741.789608215047, -10700.45062308915, -10466.047878986345, -16566.777714106764, -2824.1429119280474, -2741.6202713990538, -5923.905184734486, -7070.1026404026325, -16133.198575162718, -14404.51465898927, -19906.26244619637, -12009.748758047672, -6430.440417580655, -10504.202306771555, -11347.041886692274, -11730.17313840069, 0.0051875, -0.0305, 0.9896875, 192.0, 0.0, 0.0, 0.0, 0.0, 0.0, 0.0, 0.0, 0.0, 0.0, 1.6444987233283603E9, 0.0, 2022-02-11 00:12:03.328
92.0, -8732.133654610356, -10696.047329431454, -10455.83313177027, -16552.22672846636, -2818.8231967476845, -2735.741762607308, -5942.054801232195, -7078.2610271288195, -16132.505671084604, -14404.224086311351, -19916.924228301552, -12004.071414956024, -6430.909804214216, -10515.065254576833, -11360.519988598822, -11727.826205232885, 0.0051875, -0.0305, 0.9896875, 192.0, 0.0, 0.0, 0.0, 0.0, 0.0, 0.0, 0.0, 0.0, 0.0, 1.6444987233283675E9, 0.0, 2022-02-11 00:12:03.328
94.0, -8736.425189545775, -10690.034710172977, -10460.951681250535, -16552.36083893309, -2824.187615416958, -2740.1227045205483, -5917.5572893091785, -7065.676995000482, -16134.360865874394, -14404.067624100164, -19902.708518827978, -11990.146278160368, -6430.954507703127, -10527.51517623844, -11360.341174643181, -11724.786367986962, 0.004593750000000001, -0.03125, 0.99084375, 192.0, 0.0, 16.0, 127.5, 0.0, 15.5, 0.0, 0.0, 0.0, 0.0, 1.6444987233283749E9, 0.0, 2022-02-11 00:12:03.328
96.0, -8742.97425067118, -10680.848143201845, -10468.663033087616, -16556.361801190593, -2820.1419496705475, -2743.3413557221124, -5891.584562252112, -7062.033660654267, -16135.634915308347, -14393.316435017161, -19915.493716656412, -12000.025749209613, -6433.167330404202, -10529.862109406247, -11359.268290909326, -11726.015713932004, 0.004593750000000001, -0.03125, 0.99084375, 192.0, 0.0, 0.0, 0.0, 0.0, 0.0, 0.0, 0.0, 0.0, 0.0, 1.6444987233283815E9, 0.0, 2022-02-11 00:12:03.328
98.0, -8729.25027957562, -10695.957922453634, -10456.21311142601, -16555.445379667926, -2800.7853389722513, -2731.137303249515, -5892.903315174975, -7050.4331052819625, -16139.680581054758, -14414.170612593964, -19907.581199119235, -11998.103499186456, -6427.467635568099, -10514.305295265352, -11353.322726884215, -11723.355856341823, 0.004593750000000001, -0.03125, 0.99084375, 192.0, 0.0, 0.0, 0.0, 0.0, 0.0, 0.0, 0.0, 0.0, 0.0, 1.6444987233283885E9, 0.0, 2022-02-11 00:12:03.328
100.0, -8741.610794259404, -10685.899637448745, -10460.236425427966, -16565.861292584097, -2807.1332343975587, -2742.1120097770704, -5910.672952016945, -7071.689614258959, -16137.154833931309, -14419.691493474424, -19909.9504840315, -11996.985911963691, -6425.411275078211, -10510.37138824122, -11348.919433226518, -11728.3179436109, 0.004593750000000001, -0.03125, 0.99084375, 192.0, 0.0, 0.0, 0.0, 0.0, 0.0, 0.0, 0.0, 0.0, 0.0, 1.6444987233283951E9, 0.0, 2022-02-11 00:12:03.328
102.0, -8732.781855199559, -10684.692643248158, -10456.21311142601, -16558.619327380577, -2794.4821470358547, -2719.4696926438446, -5922.407617855981, -7064.537056033261, -16131.566897817482, -14411.510755003781, -19915.292550956317, -12003.982007978202, -6417.096426140836, -10513.500632464962, -11347.555976814745, -11725.546327298443, 0.004593750000000001, -0.03125, 0.99084375, 192.0, 0.0, 0.0, 0.0, 0.0, 0.0, 0.0, 0.0, 0.0, 0.0, 1.644498723328402E9, 0.0, 2022-02-11 00:12:03.328
104.0, -8724.019971373078, -10666.900654661735, -10455.564910836805, -16564.207263494405, -2801.902926195017, -2727.0469340141935, -5915.389170097014, -7065.855808956124, -16131.991580962133, -14401.452469998894, -19902.216780449962, -11983.820734479516, -6419.823338964384, -10510.393739985675, -11347.488921581378, -11722.819414474896, 0.008, -0.024, 0.99, 192.0, 0.0, 32.0, 127.5, 32.0, 15.0, 120.0, 0.0, 0.0, 0.0, 1.6444987233284087E9, 0.0, 2022-02-11 00:12:03.328
106.0, -8742.326050081974, -10673.650881487238, -10463.343317907253, -16557.837016324644, -2803.6016587736203, -2727.0469340141935, -5894.266771586749, -7050.209587837409, -16136.305467642007, -14397.071528085653, -19913.7502805889, -11997.723519530717, -6423.8913564552495, -10530.107978595255, -11348.539453570778, -11720.405426073721, 0.008, -0.024, 0.99, 192.0, 0.0, 0.0, 0.0, 0.0, 0.0, 0.0, 0.0, 0.0, 0.0, 1.6444987233284156E9, 0.0, 2022-02-11 00:12:03.328
108.0, -8722.67886670576, -10662.475009259584, -10453.888530002658, -16554.506606400802, -2791.419958045478, -2716.0275239977273, -5914.36098985207, -7038.854901654113, -16133.846775751923, -14395.238685040318, -19896.450030380493, -11990.32509211601, -6426.573565789887, -10532.432560018608, -11344.203215146448, -11714.146937626236, 0.008, -0.024, 0.99, 192.0, 0.0, 0.0, 0.0, 0.0, 0.0, 0.0, 0.0, 0.0, 0.0, 1.6444987233284228E9, 0.0, 2022-02-11 00:12:03.328
110.0, -8728.40091328632, -10669.024070384989, -10467.433687142575, -16557.300574457717, -2794.2139261023913, -2709.7913872946965, -5919.636001543522, -7056.4233727959845, -16132.23745015114, -14402.503001988292, -19894.863056524166, -11995.600103807463, -6420.203318620124, -10513.522984209418, -11349.567633815723, -11715.912725438206, 0.008, -0.024, 0.99, 192.0, 0.0, 0.0, 0.0, 0.0, 0.0, 0.0, 0.0, 0.0, 0.0, 1.6444987233284297E9, 0.0, 2022-02-11 00:12:03.328
112.0, -8722.432997516751, -10663.279672059974, -10448.769980522393, -16560.42981868146, -2772.6221409585646, -2712.294782673691, -5868.562265463146, -7040.777151677269, -16130.29284838353, -14404.916990389465, -19900.115716471162, -11991.196810149768, -6418.3704755747885, -10499.396681713662, -11335.038999919772, -11719.019617917493, 0.008, -0.024, 0.99, 192.0, 0.0, 0.0, 0.0, 0.0, 0.0, 0.0, 0.0, 0.0, 0.0, 1.6444987233284376E9, 0.0, 2022-02-11 00:12:03.328
114.0, -8733.385352299852, -10656.48474174556, -10459.342355649753, -16557.4570366689, -2779.707643950897, -2713.5911838520988, -5897.843050699598, -7046.879177913568, -16140.14996768832, -14415.601124239103, -19895.533608857826, -11983.75367924615, -6419.733931986562, -10521.077873835311, -11330.859223706631, -11717.633809761264, 0.01, -0.02, 0.998, 192.0, 0.0, 40.0, 127.5, 48.0, 15.5, 24.0, 0.0, 0.0, 0.0, 1.6444987233284445E9, 0.0, 2022-02-11 00:12:03.328
116.0, -8729.607907486905, -10651.209730054108, -10459.655280072127, -16553.009039522298, -2780.8252311736624, -2708.651448327476, -5920.731237021832, -7056.4233727959845, -16138.048903709521, -14408.023882868754, -19907.8494200527, -11992.04617643907, -6417.521109285487, -10512.517155708929, -11340.045790677761, -11719.757225484518, 0.01, -0.02, 0.998, 192.0, 0.0, 0.0, 0.0, 0.0, 0.0, 0.0, 0.0, 0.0, 0.0, 1.6444987233284516E9, 0.0, 2022-02-11 00:12:03.328
118.0, -8716.398026513818, -10644.794779395435, -10452.480370101974, -16557.14411224653, -2773.73972818133, -2702.0800354576154, -5884.052024370673, -7041.805331922214, -16130.784586761545, -14375.189170263908, -19892.382012889626, -11987.195847892268, -6412.670780738686, -10512.718321409026, -11336.178938886993, -11718.84080396185, 0.01, -0.02, 0.998, 192.0, 0.0, 0.0, 0.0, 0.0, 0.0, 0.0, 0.0, 0.0, 0.0, 1.6444987233284614E9, 0.0, 2022-02-11 00:12:03.328
120.0, -8734.34647731143, -10670.67809947468, -10463.857408029724, -16568.00706005181, -2781.1828590849473, -2717.3015734316796, -5893.618570997545, -7051.662451227004, -16141.312258399996, -14403.687644444424, -19905.524838629346, -11991.80030725006, -6418.437530808155, -10516.22754528851, -11334.122578397106, -11722.640600519253, 0.01, -0.02, 0.998, 192.0, 0.0, 0.0, 0.0, 0.0, 0.0, 0.0, 0.0, 0.0, 0.0, 1.644498723328468E9, 0.0, 2022-02-11 00:12:03.328
122.0, -8724.042323117534, -10658.205826068619, -10458.02360272689, -16563.156731505005, -2765.7825071552406, -2700.0683784566377, -5889.4387947844025, -7034.004573107311, -16133.511499585093, -14403.33001653314, -19914.577295133746, -11995.823621252015, -6411.396731304733, -10512.159527797643, -11336.96124994293, -11722.528841796977, 0.01, -0.02, 0.998, 192.0, 0.0, 0.0, 0.0, 0.0, 0.0, 0.0, 0.0, 0.0, 0.0, 1.6444987233284764E9, 0.0, 2022-02-11 00:12:03.328
124.0, -8726.72453245217, -10645.286517773453, -10465.489085374962, -16564.587243150145, -2764.1061263210927, -2699.911916245451, -5892.143355863494, -7029.377762005063, -16135.791377519534, -14402.771222921756, -19904.876638040143, -11986.391185091876, -6424.092522155348, -10493.942856066567, -11332.446197562957, -11711.50943178051, 0.01, -0.024, 0.992, 192.0, 0.0, 40.0, 127.5, 32.0, 15.5, 0.0, 0.0, 0.0, 0.0, 1.6444987233284853E9, 0.0, 2022-02-11 00:12:03.328
126.0, -8721.650686460816, -10638.1116078033, -10454.939061992058, -16566.57654840667, -2756.0594983171823, -2703.4658436138448, -5882.174477836428, -7041.268890055286, -16137.177185675764, -14402.838278155123, -19914.443184667016, -11993.90137122886, -6412.491966783044, -10494.859277589236, -11334.167281886015, -11715.80096671593, 0.01, -0.024, 0.992, 192.0, 0.0, 0.0, 0.0, 0.0, 0.0, 0.0, 0.0, 0.0, 0.0, 1.644498723328493E9, 0.0, 2022-02-11 00:12:03.328
128.0, -8704.77511939706, -10625.929907075157, -10442.153864163622, -16550.28212669875, -2742.4696376883553, -2682.343445103579, -5923.50285333429, -7038.765494676291, -16125.263705881085, -14375.189170263908, -19892.717289056458, -11981.496153056163, -6398.83505092085, -10506.951571339558, -11327.394703316058, -11712.045873647437, 0.01, -0.024, 0.992, 192.0, 0.0, 0.0, 0.0, 0.0, 0.0, 0.0, 0.0, 0.0, 0.0, 1.6444987233285005E9, 0.0, 2022-02-11 00:12:03.328
130.0, -8709.804261899502, -10630.53436643295, -10445.797198509837, -16553.053743011205, -2751.3656319815677, -2679.415366579934, -5908.527184549235, -7045.515721501794, -16122.693255268725, -14367.455466682371, -19890.37035588865, -11963.659460980829, -6388.26267579349, -10484.823344328803, -11332.356790585136, -11705.206239844114, 0.01, -0.024, 0.992, 192.0, 0.0, 0.0, 0.0, 0.0, 0.0, 0.0, 0.0, 0.0, 0.0, 1.6444987233285253E9, 0.0, 2022-02-11 00:12:03.328
132.0, -8719.01318061509, -10629.439130954639, -10447.205358410522, -16563.626118138567, -2730.2432334713026, -2682.7681282482304, -5830.631355122489, -7017.397226977018, -16121.687426768236, -14399.418461253461, -19904.161382217575, -11985.89944671386, -6394.610571218797, -10490.545390909361, -11315.14594735455, -11708.134318367758, 0.01, -0.024, 0.992, 192.0, 0.0, 0.0, 0.0, 0.0, 0.0, 0.0, 0.0, 0.0, 0.0, 1.6444987233285336E9, 0.0, 2022-02-11 00:12:03.328
134.0, -8717.314448036486, -10626.309886730896, -10453.441495113551, -16561.636812882043, -2733.774809095241, -2677.8507444680627, -5863.086088071595, -7016.793729876725, -16130.404607105806, -14377.156123775974, -19892.31495765626, -11975.237664608678, -6395.437585763644, -10501.31893173682, -11314.117767109605, -11706.03325438896, 0.008, -0.026000000000000002, 0.988, 192.0, 0.0, 32.0, 127.5, 24.0, 15.0, 112.0, 0.0, 0.0, 0.0, 1.6444987233285408E9, 0.0, 2022-02-11 00:12:03.328
136.0, -8725.361076040397, -10627.874508842768, -10455.631966070172, -16552.56200463319, -2742.3802307105343, -2664.350290817057, -5860.962672348342, -7019.140663044533, -16132.684485040247, -14387.03559482522, -19908.07293749725, -11973.963615174725, -6400.131452099258, -10500.737786380982, -11318.610467745122, -11705.228591588568, 0.008, -0.026000000000000002, 0.988, 192.0, 0.0, 0.0, 0.0, 0.0, 0.0, 0.0, 0.0, 0.0, 0.0, 1.644498723328548E9, 0.0, 2022-02-11 00:12:03.328
138.0, -8704.551601952506, -10616.296305214919, -10445.148997920633, -16555.244213967828, -2729.997364282294, -2654.2025988343476, -5886.376605794026, -7024.974468347367, -16134.025589707566, -14386.856780869579, -19904.40725140658, -11964.79939994805, -6401.629018977764, -10479.727146592993, -11316.777624699787, -11695.12560309477, 0.008, -0.026000000000000002, 0.988, 192.0, 0.0, 0.0, 0.0, 0.0, 0.0, 0.0, 0.0, 0.0, 0.0, 1.6444987233285549E9, 0.0, 2022-02-11 00:12:03.328
140.0, -8718.499090492618, -10601.499450385505, -10454.268509658397, -16560.85450182611, -2731.182006738425, -2669.513543786233, -5873.278483543216, -7030.718866672381, -16126.314237870485, -14386.32033900265, -19899.55692285978, -11967.03457439358, -6391.995417117527, -10485.516248406917, -11315.771796199298, -11702.255809576012, 0.008, -0.026000000000000002, 0.988, 192.0, 0.0, 0.0, 0.0, 0.0, 0.0, 0.0, 0.0, 0.0, 0.0, 1.644498723328562E9, 0.0, 2022-02-11 00:12:03.328
142.0, -8706.831479886947, -10593.251656681497, -10445.372515365187, -16550.95267903241, -2728.5892043816098, -2654.359061045535, -5898.044216399696, -7026.717904414882, -16123.743787258123, -14373.713955129857, -19902.149725216597, -11977.294025098567, -6389.536725227443, -10486.924408307601, -11313.201345586938, -11699.618303730287, 0.008, -0.026000000000000002, 0.988, 192.0, 0.0, 0.0, 0.0, 0.0, 0.0, 0.0, 0.0, 0.0, 0.0, 1.6444987233285687E9, 0.0, 2022-02-11 00:12:03.328
0.0, -4303.068435557894, -5084.1501455485995, -5219.489958225484, -8303.069568046281, -1195.3265899809112, -964.2989592908573, -2910.666514714541, -3395.0064653165896, -8074.768850179774, -7194.355987829685, -9962.30661419709, -5984.746633141832, -3198.9369629546363, -5243.898063170679, -5653.806704736556, -5849.876207098509, 0.012, -0.022, 0.994, 192.0, 0.0, 48.0, 127.5, 40.0, 15.5, 8.0, 0.0, 0.0, 0.0, 1.6444987234276748E9, 0.0, 2022-02-11 00:12:03.427
2.0, -8615.099920642368, -10179.699680769407, -10448.21118691101, -16603.52398199129, -2400.2197265886934, -1940.2208256984743, -5829.312602199627, -6800.987637160735, -16526.522222342755, -14491.842924576154, -19870.74552425689, -11647.717553105063, -6228.246537237947, -9930.567137070553, -11282.445345216436, -11691.392861770733, 0.012, -0.022, 0.994, 192.0, 0.0, 0.0, 0.0, 0.0, 0.0, 0.0, 0.0, 0.0, 0.0, 1.644498723906791E9, 0.0, 2022-02-11 00:12:03.906
4.0, -8603.65582748125, -10176.458677823386, -10443.472617086485, -16597.086679588163, -2392.7765956850762, -1928.8437877707229, -5832.710067356833, -6809.101320398012, -16523.191812418918, -14475.973186012887, -19873.807713247268, -11638.866262300762, -6225.117293014204, -9938.122026696448, -11288.390909241547, -11696.17613508417, 0.012, -0.022, 0.994, 192.0, 0.0, 0.0, 0.0, 0.0, 0.0, 0.0, 0.0, 0.0, 0.0, 1.644498723906802E9, 0.0, 2022-02-11 00:12:03.906
6.0, -8612.618877007828, -10188.998006462814, -10444.366686864698, -16603.032243613274, -2396.9116684093083, -1933.3364884062396, -5824.81990156411, -6795.734977213738, -16526.633981065035, -14479.415354659004, -19865.11288465415, -11626.751616805985, -6225.832548836774, -9929.941288225806, -11284.680519661966, -11693.672739705175, 0.012, -0.022, 0.994, 192.0, 0.0, 0.0, 0.0, 0.0, 0.0, 0.0, 0.0, 0.0, 0.0, 1.6444987239068167E9, 0.0, 2022-02-11 00:12:03.906
8.0, -8598.60433323435, -10171.228369620845, -10444.1655211646, -16602.272284301795, -2399.012732388107, -1926.2733371583627, -5827.7256283433, -6800.6747127383605, -16526.74573978731, -14488.736032096867, -19876.333460370715, -11647.53873914942, -6224.916127314106, -9925.91797422385, -11287.675653418977, -11697.494888007031, 0.008, -0.024, 0.992, 192.0, 0.0, 32.0, 127.5, 32.0, 15.5, 0.0, 0.0, 0.0, 0.0, 1.6444987239068244E9, 0.0, 2022-02-11 00:12:03.906
10.0, -8595.31862679942, -10165.215750362368, -10436.074189671777, -16597.71252843291, -2390.563772984001, -1916.907956231589, -5819.924869528398, -6791.309331811587, -16508.12673665604, -14465.445514374438, -19856.8874426946, -11625.388160394212, -6214.701380098031, -9907.321322837035, -11279.629025415066, -11688.308321035902, 0.008, -0.024, 0.992, 192.0, 0.0, 0.0, 0.0, 0.0, 0.0, 0.0, 0.0, 0.0, 0.0, 1.6444987239068315E9, 0.0, 2022-02-11 00:12:03.906
12.0, -8619.413807322242, -10185.868762239072, -10447.45122759953, -16603.90396164703, -2398.3198283099923, -1935.3481454072173, -5837.381581947992, -6804.675674995861, -16540.804987049698, -14491.86527632061, -19870.92433821253, -11633.412436653667, -6229.967621561006, -9922.744026511196, -11279.89724634853, -11690.945826881627, 0.008, -0.024, 0.992, 192.0, 0.0, 0.0, 0.0, 0.0, 0.0, 0.0, 0.0, 0.0, 0.0, 1.6444987239068391E9, 0.0, 2022-02-11 00:12:03.906
14.0, -8606.785071704993, -10173.77646848875, -10442.10916067471, -16599.43361275597, -2396.7775579425765, -1928.3744011371616, -5845.5846721630905, -6810.732997743249, -16530.83610902263, -14492.312311209716, -19873.7406580139, -11641.526119890943, -6225.541976158855, -9927.527299824633, -11284.389946984047, -11694.522105994476, 0.008, -0.024, 0.992, 192.0, 0.0, 0.0, 0.0, 0.0, 0.0, 0.0, 0.0, 0.0, 0.0, 1.644498723906846E9, 0.0, 2022-02-11 00:12:03.906
16.0, -8610.093129884379, -10173.172971388456, -10445.68543978756, -16602.652263957534, -2400.689113222255, -1928.6873255595358, -5832.82182607911, -6799.0877388820345, -16531.5513648452, -14484.824476817188, -19863.727076497922, -11631.937221519616, -6226.480749425978, -9921.15705265487, -11286.7145284074, -11690.69995769262, 0.009000000000000001, -0.025, 0.994, 192.0, 0.0, 40.0, 127.5, 24.0, 15.5, 16.0, 0.0, 0.0, 0.0, 1.6444987239068527E9, 0.0, 2022-02-11 00:12:03.906
18.0, -8614.451720053163, -10176.056346423191, -10446.333640376764, -16605.066252358705, -2401.694941722744, -1935.102276218209, -5827.3903521764705, -6802.641666250428, -16534.993533491317, -14490.7700408423, -19878.970966216442, -11646.219986226557, -6229.118255271704, -9931.282392893123, -11286.982749340863, -11697.941922896138, 0.009000000000000001, -0.025, 0.994, 192.0, 0.0, 0.0, 0.0, 0.0, 0.0, 0.0, 0.0, 0.0, 0.0, 1.64449872390686E9, 0.0, 2022-02-11 00:12:03.906
20.0, -8599.096071612366, -10169.529637042242, -10437.214128639, -16604.865086658607, -2392.374264284881, -1922.3841336231392, -5829.066733010618, -6798.484241781741, -16525.918725242464, -14480.063555248209, -19864.241166620395, -11640.20736696808, -6227.620688393198, -9927.527299824633, -11283.786449883753, -11694.11977459428, 0.009000000000000001, -0.025, 0.994, 192.0, 0.0, 0.0, 0.0, 0.0, 0.0, 0.0, 0.0, 0.0, 0.0, 1.6444987239068673E9, 0.0, 2022-02-11 00:12:03.906
22.0, -8611.300124084964, -10164.276977095244, -10446.266585143398, -16614.521040263302, -2406.2546975916266, -1926.8991860031113, -5846.590500663579, -6811.671771010372, -16528.220954921362, -14485.338566939661, -19866.811617232754, -11649.796265339406, -6223.329153457779, -9920.352389854479, -11281.260702760304, -11695.55028623942, 0.009000000000000001, -0.025, 0.994, 192.0, 0.0, 0.0, 0.0, 0.0, 0.0, 0.0, 0.0, 0.0, 0.0, 1.6444987239068744E9, 0.0, 2022-02-11 00:12:03.906
24.0, -8598.313760556432, -10144.160407085468, -10438.39877109513, -16602.04876685724, -2395.145880597339, -1911.6105927956812, -5832.531253401191, -6802.216983105777, -16526.74573978731, -14475.77202031279, -19871.25961437936, -11651.15972175118, -6222.7256563574865, -9930.20950915927, -11285.082851062161, -11698.254847318512, 0.009000000000000001, -0.025, 0.994, 192.0, 0.0, 0.0, 0.0, 0.0, 0.0, 0.0, 0.0, 0.0, 0.0, 1.644498723906881E9, 0.0, 2022-02-11 00:12:03.906
26.0, -8592.234086064587, -10162.354727072088, -10434.129587904166, -16591.923426618985, -2394.6094387304115, -1919.7913312663236, -5828.798512077155, -6808.296657597621, -16522.18598391843, -14479.214188958907, -19848.192614101485, -11622.325971403834, -6222.300973212836, -9922.744026511196, -11279.919598092985, -11690.811716414895, 0.007500000000000001, -0.0245, 0.993, 192.0, 0.0, 24.0, 127.5, 32.0, 15.5, 0.0, 0.0, 0.0, 0.0, 1.644498723906888E9, 0.0, 2022-02-11 00:12:03.906
28.0, -8606.472147282619, -10169.931968442437, -10439.963393207001, -16600.014758111807, -2395.0341218750623, -1921.1100841891866, -5844.400029706959, -6817.885555968947, -16524.018826963762, -14481.069383748698, -19860.776646229824, -11636.474625644045, -6220.602240634232, -9929.024866703137, -11284.300540006227, -11697.852515918317, 0.007500000000000001, -0.0245, 0.993, 192.0, 0.0, 0.0, 0.0, 0.0, 0.0, 0.0, 0.0, 0.0, 0.0, 1.6444987239068952E9, 0.0, 2022-02-11 00:12:03.906
30.0, -8594.111632598833, -10165.68513699593, -10432.497910558928, -16598.24897029984, -2385.4899269926464, -1914.1586916635863, -5850.256186754249, -6794.550334757607, -16522.901239740997, -14484.399793672537, -19856.64157350559, -11642.174320480148, -6211.549784129833, -9915.747930496686, -11282.020662071785, -11693.113946093792, 0.007500000000000001, -0.0245, 0.993, 192.0, 0.0, 0.0, 0.0, 0.0, 0.0, 0.0, 0.0, 0.0, 0.0, 1.6444987239069028E9, 0.0, 2022-02-11 00:12:03.906
32.0, -8601.510060013541, -10171.027203920747, -10445.596032809739, -16604.99919712534, -2387.143956082339, -1921.132435933642, -5811.095930468551, -6805.234468607244, -16524.08588219713, -14486.366747184606, -19858.094436895186, -11640.989678024016, -6209.091092239749, -9912.305761850568, -11276.477429446868, -11690.990530370538, 0.007500000000000001, -0.0245, 0.993, 192.0, 0.0, 0.0, 0.0, 0.0, 0.0, 0.0, 0.0, 0.0, 0.0, 1.6444987239069095E9, 0.0, 2022-02-11 00:12:03.906
34.0, -8594.111632598833, -10152.698773467395, -10429.748645990927, -16604.641569214054, -2385.8699066483864, -1915.8127207532789, -5808.927811256387, -6799.311256326588, -16520.93428622893, -14480.711755837412, -19862.631841019615, -11637.927489033638, -6210.5663073738, -9913.356293839966, -11274.175199767971, -11696.958446140105, 0.007500000000000001, -0.0245, 0.993, 192.0, 0.0, 0.0, 0.0, 0.0, 0.0, 0.0, 0.0, 0.0, 0.0, 1.6444987239069285E9, 0.0, 2022-02-11 00:12:03.906
36.0, -8593.575190731906, -10161.214788104868, -10434.35310534872, -16604.932141891975, -2390.13908983935, -1910.649467784103, -5835.615794136023, -6794.617389990973, -16522.387149618524, -14478.72245058089, -19854.27228859333, -11630.73022731903, -6212.019170763394, -9933.964602227761, -11275.18102826846, -11691.482268748554, 0.00775, -0.02725, 0.9915, 192.0, 0.0, 32.0, 127.5, 8.0, 15.0, 120.0, 0.0, 0.0, 0.0, 1.6444987239069352E9, 0.0, 2022-02-11 00:12:03.906
38.0, -8602.694702469671, -10154.978651401836, -10438.421122839585, -16604.37334828059, -2398.073959120984, -1910.9400404620221, -5834.878186568998, -6805.905020940902, -16523.325922885648, -14476.621386602092, -19865.60462303217, -11644.141273992214, -6215.126063242682, -9917.759587497663, -11285.842810373642, -11697.383129284755, 0.00775, -0.02725, 0.9915, 192.0, 0.0, 0.0, 0.0, 0.0, 0.0, 0.0, 0.0, 0.0, 0.0, 1.6444987239069448E9, 0.0, 2022-02-11 00:12:03.906
40.0, -8593.172859331711, -10152.542311256208, -10433.459035570508, -16599.970054622896, -2388.574467727479, -1905.1732903925529, -5800.43414836337, -6789.588247488528, -16519.28025713924, -14488.132534996574, -19853.534681026304, -11639.335648934324, -6213.89671729764, -9919.950058454282, -11282.17712428297, -11693.69509144963, 0.00775, -0.02725, 0.9915, 192.0, 0.0, 0.0, 0.0, 0.0, 0.0, 0.0, 0.0, 0.0, 0.0, 1.644498723906952E9, 0.0, 2022-02-11 00:12:03.906
42.0, -8600.817155935425, -10173.172971388456, -10442.10916067471, -16609.51424950531, -2401.203203344727, -1918.8972614881113, -5818.695523583356, -6795.131480113445, -16525.31522814217, -14497.699081623447, -19855.814558960745, -11637.391047166711, -6214.7460835869415, -9925.470939334744, -11280.14311553754, -11697.27137056248, 0.00775, -0.02725, 0.9915, 192.0, 0.0, 0.0, 0.0, 0.0, 0.0, 0.0, 0.0, 0.0, 0.0, 1.6444987239069588E9, 0.0, 2022-02-11 00:12:03.906
44.0, -8598.827850678903, -10168.523808541753, -10436.744742005438, -16605.75915643682, -2391.9719328846854, -1915.0080579528878, -5819.544889872657, -6795.0420731356235, -16525.963428731375, -14495.374500200094, -19864.55409104277, -11643.761294336475, -6212.823833563785, -9926.409712601866, -11284.054670817217, -11703.619265987787, 0.00775, -0.02725, 0.9915, 192.0, 0.0, 0.0, 0.0, 0.0, 0.0, 0.0, 0.0, 0.0, 0.0, 1.6444987239069731E9, 0.0, 2022-02-11 00:12:03.906
46.0, -8595.184516332689, -10160.544235771207, -10432.520262303384, -16604.75332793633, -2384.9981886146297, -1901.6417147686143, -5816.952087515841, -6794.930314413347, -16526.097539198105, -14484.735069839367, -19850.763064713843, -11628.15977670667, -6211.2815631963695, -9915.63617177441, -11276.94681608043, -11696.243190317535, 0.007875, -0.029625, 0.99275, 192.0, 0.0, 32.0, 127.5, 0.0, 15.5, 8.0, 0.0, 0.0, 0.0, 1.64449872390698E9, 0.0, 2022-02-11 00:12:03.906
48.0, -8598.827850678903, -10146.06030536417, -10434.442512326541, -16606.139136092563, -2382.8747728913754, -1898.3783600781394, -5811.207689190828, -6792.382215545442, -16522.007169962784, -14479.482409892371, -19864.419980576036, -11645.080047259336, -6204.665446837598, -9912.305761850568, -11275.449249201924, -11696.846687417828, 0.007875, -0.029625, 0.99275, 192.0, 0.0, 0.0, 0.0, 0.0, 0.0, 0.0, 0.0, 0.0, 0.0, 1.6444987239069867E9, 0.0, 2022-02-11 00:12:03.906
50.0, -8580.521771970007, -10145.412104774965, -10422.640791254138, -16602.33933953516, -2369.75429889611, -1888.1412611176088, -5805.597401332546, -6787.442480020819, -16515.189887903918, -14471.838113288655, -19851.50067228087, -11630.976096508039, -6196.641170578143, -9899.542915766588, -11272.789391611743, -11690.767012925984, 0.007875, -0.029625, 0.99275, 192.0, 0.0, 0.0, 0.0, 0.0, 0.0, 0.0, 0.0, 0.0, 0.0, 1.6444987239069939E9, 0.0, 2022-02-11 00:12:03.906
52.0, -8594.98335063259, -10158.06319213667, -10431.737951247449, -16597.846638899642, -2387.4792322491685, -1896.523165288349, -5823.322334685604, -6790.079985866545, -16515.41340534847, -14472.665127833501, -19846.06919837823, -11624.471738871543, -6197.468185122989, -9918.854822975973, -11277.013871313797, -11691.795193170929, 0.007875, -0.029625, 0.99275, 192.0, 0.0, 0.0, 0.0, 0.0, 0.0, 0.0, 0.0, 0.0, 0.0, 1.6444987239070003E9, 0.0, 2022-02-11 00:12:03.907
54.0, -8588.523696485006, -10154.375154301542, -10430.150977391122, -16598.070156344194, -2376.0574908325066, -1889.7058832294804, -5813.934602014376, -6792.069291123068, -16517.335655371626, -14473.961529011909, -19855.389875816094, -11630.260840685469, -6199.926877013073, -9918.318381109046, -11284.725223150877, -11695.662044961697, 0.007875, -0.029625, 0.99275, 192.0, 0.0, 0.0, 0.0, 0.0, 0.0, 0.0, 0.0, 0.0, 0.0, 1.644498723907007E9, 0.0, 2022-02-11 00:12:03.907
56.0, -8588.568399973918, -10149.994212388303, -10433.391980337141, -16602.406394768524, -2382.785365913554, -1895.6067437656814, -5829.267898710716, -6795.310294069087, -16518.967332716864, -14476.710793579912, -19847.11973036763, -11625.768140049951, -6200.552725857821, -9907.701302492775, -11282.490048705346, -11694.700919950119, 0.0079375, -0.028812499999999998, 0.991375, 192.0, 0.0, 32.0, 127.5, 16.0, 15.0, 120.0, 0.0, 0.0, 0.0, 1.6444987239070137E9, 0.0, 2022-02-11 00:12:03.907
58.0, -8595.363330288332, -10151.648241477997, -10440.186910651555, -16604.39570002505, -2391.5472497400347, -1900.1441478901088, -5819.209613705828, -6796.2043638473, -16524.063530452673, -14470.921691765989, -19863.727076497922, -11641.30260244639, -6199.993932246439, -9916.396131085889, -11286.80393538522, -11699.618303730287, 0.0079375, -0.028812499999999998, 0.991375, 192.0, 0.0, 0.0, 0.0, 0.0, 0.0, 0.0, 0.0, 0.0, 0.0, 1.64449872390702E9, 0.0, 2022-02-11 00:12:03.907
60.0, -8585.148583072256, -10160.678346237939, -10431.402675080619, -16602.629912213077, -2371.8106593859984, -1890.1529181185865, -5792.946313970842, -6784.58145673054, -16521.649542051502, -14482.566950627202, -19855.434579305005, -11639.11213148977, -6198.965752001495, -9911.523450794632, -11280.14311553754, -11692.130469337759, 0.0079375, -0.028812499999999998, 0.991375, 192.0, 0.0, 0.0, 0.0, 0.0, 0.0, 0.0, 0.0, 0.0, 0.0, 1.6444987239070268E9, 0.0, 2022-02-11 00:12:03.907
62.0, -8599.006664634546, -10165.260453851277, -10440.20926239601, -16611.928237906486, -2386.562810726501, -1898.847746711701, -5827.01037252073, -6800.0265121491575, -16525.806966520187, -14477.38134591357, -19856.485111294405, -11642.531948391432, -6196.41765313359, -9915.30089560758, -11282.914731849996, -11697.78546068495, 0.0079375, -0.028812499999999998, 0.991375, 192.0, 0.0, 0.0, 0.0, 0.0, 0.0, 0.0, 0.0, 0.0, 0.0, 1.6444987239070332E9, 0.0, 2022-02-11 00:12:03.907
64.0, -8597.1291181003, -10166.981538174336, -10437.437646083552, -16612.308217562226, -2381.8912961353417, -1899.6300577676366, -5810.179508945884, -6798.506593526196, -16526.544574087213, -14483.595130872147, -19867.303355610773, -11640.095608245803, -6199.435138635056, -9919.43596833181, -11289.70966216441, -11705.832088688861, 0.0079375, -0.028812499999999998, 0.991375, 192.0, 0.0, 0.0, 0.0, 0.0, 0.0, 0.0, 0.0, 0.0, 0.0, 1.64449872390704E9, 0.0, 2022-02-11 00:12:03.907
66.0, -8604.549897259461, -10174.134096400036, -10435.1130646602, -16613.023473384794, -2379.052624589518, -1903.8992409586003, -5817.91321252742, -6789.767061444171, -16533.495966612812, -14489.518343152804, -19856.663925250046, -11635.580555865832, -6200.329208413268, -9921.693494521796, -11281.059537060206, -11700.89235316424, 0.00696875, -0.02840625, 0.9876875, 192.0, 0.0, 24.0, 127.5, 16.0, 15.0, 96.0, 0.0, 0.0, 0.0, 1.6444987239070468E9, 0.0, 2022-02-11 00:12:03.907
68.0, -8609.936667673192, -10170.49076205382, -10439.628117040173, -16620.86893568861, -2388.3733020273808, -1909.3530666056952, -5835.615794136023, -6800.138270871434, -16533.07128346816, -14490.68063386448, -19864.777608487322, -11645.817654826362, -6194.9647897439945, -9926.409712601866, -11288.167391796995, -11707.374359056277, 0.00696875, -0.02840625, 0.9876875, 192.0, 0.0, 0.0, 0.0, 0.0, 0.0, 0.0, 0.0, 0.0, 0.0, 1.6444987239070537E9, 0.0, 2022-02-11 00:12:03.907
70.0, -8601.018321635524, -10169.1496573865, -10435.224823382476, -16616.219772841905, -2377.3315402664593, -1895.5173367878601, -5789.370034857993, -6773.874971136448, -16532.378379390047, -14494.7710030998, -19863.727076497922, -11652.120846762758, -6193.064891465294, -9924.822738745539, -11285.172258039984, -11701.451146775622, 0.00696875, -0.02840625, 0.9876875, 192.0, 0.0, 0.0, 0.0, 0.0, 0.0, 0.0, 0.0, 0.0, 0.0, 1.6444987239070632E9, 0.0, 2022-02-11 00:12:03.907
72.0, -8610.853089195858, -10177.196285390412, -10441.572718807784, -16618.34318856516, -2389.0662061054954, -1904.2792206143406, -5812.973477002797, -6796.472584780763, -16535.909955013987, -14495.732128111378, -19862.27421310833, -11644.074218758848, -6199.390435146146, -9925.292125379101, -11283.115897550095, -11703.082824120858, 0.00696875, -0.02840625, 0.9876875, 192.0, 0.0, 0.0, 0.0, 0.0, 0.0, 0.0, 0.0, 0.0, 0.0, 1.6444987239070811E9, 0.0, 2022-02-11 00:12:03.907
74.0, -8604.236972837089, -10166.892131196515, -10439.672820529082, -16616.063310630718, -2387.501583993624, -1902.7369502469244, -5815.163947959417, -6795.824384191559, -16535.977010247352, -14491.10531700913, -19872.6901260245, -11655.607718897787, -6199.32337991278, -9922.408750344366, -11289.888476120053, -11712.492908536544, 0.00696875, -0.02840625, 0.9876875, 192.0, 0.0, 0.0, 0.0, 0.0, 0.0, 0.0, 0.0, 0.0, 0.0, 1.6444987239071023E9, 0.0, 2022-02-11 00:12:03.907
76.0, -8602.22531583611, -10156.2974043247, -10441.170387407588, -16615.43746178597, -2387.7027496937217, -1892.4998512863938, -5830.117265000018, -6795.779680702649, -16536.044065480717, -14454.806084013711, -19857.69210549499, -11635.602907610288, -6199.345731657235, -9918.363084597955, -11289.106165064117, -11706.234420089057, 0.007484375, -0.030203125, 0.98284375, 192.0, 0.0, 32.0, 127.5, 0.0, 15.0, 72.0, 0.0, 0.0, 0.0, 1.6444987239071095E9, 0.0, 2022-02-11 00:12:03.907
78.0, -8607.120347871822, -10164.053459650691, -10447.942965977547, -16619.43842404347, -2399.638581232856, -1893.8856594426227, -5851.77610537721, -6809.391893075931, -16534.74766430231, -14493.653415877036, -19866.655155021566, -11638.218061711557, -6199.725711312975, -9914.697398507285, -11294.76115641131, -11711.487080036055, 0.007484375, -0.030203125, 0.98284375, 192.0, 0.0, 0.0, 0.0, 0.0, 0.0, 0.0, 0.0, 0.0, 0.0, 1.6444987239071164E9, 0.0, 2022-02-11 00:12:03.907
80.0, -8594.357501787843, -10162.533541027731, -10441.885643230158, -16612.978769895886, -2387.7474531826324, -1889.683531485025, -5817.488529382769, -6808.922506442369, -16527.349236887603, -14486.992596029353, -19860.530777040814, -11636.96636402206, -6197.7811095453635, -9907.72365423723, -11290.491973220345, -11707.217896845092, 0.007484375, -0.030203125, 0.98284375, 192.0, 0.0, 0.0, 0.0, 0.0, 0.0, 0.0, 0.0, 0.0, 0.0, 1.644498723907123E9, 0.0, 2022-02-11 00:12:03.907
82.0, -8610.920144429225, -10169.596692275607, -10447.428875855074, -16619.95251416594, -2390.4073107728136, -1892.298685586296, -5795.5167645832025, -6791.890477167425, -16539.352123660105, -14486.366747184606, -19860.508425296357, -11642.934279791627, -6200.552725857821, -9898.984122155205, -11282.490048705346, -11703.194582843136, 0.007484375, -0.030203125, 0.98284375, 192.0, 0.0, 0.0, 0.0, 0.0, 0.0, 0.0, 0.0, 0.0, 0.0, 1.6444987239071307E9, 0.0, 2022-02-11 00:12:03.907
84.0, -8602.717054214127, -10172.480067310342, -10440.946869963034, -16615.348054808146, -2380.304322279015, -1885.3696448051508, -5808.972514745297, -6789.320026555065, -16537.56398410368, -14485.517380895304, -19867.705687010966, -11652.433771185133, -6194.94243799954, -9914.764453740652, -11285.194609784437, -11701.3617397978, 0.007484375, -0.030203125, 0.98284375, 192.0, 0.0, 0.0, 0.0, 0.0, 0.0, 0.0, 0.0, 0.0, 0.0, 1.6444987239071407E9, 0.0, 2022-02-11 00:12:03.907
86.0, -8604.527545515008, -10171.787163232228, -10437.348239105731, -16612.911714662518, -2370.9389413522413, -1883.5144500153604, -5802.736378042267, -6783.2403520632215, -16537.56398410368, -14486.72437509589, -19853.26646009284, -11639.469759401056, -6191.880249009162, -9905.62259025843, -11278.623196914577, -11696.332597295357, 0.008, -0.028, 0.986, 192.0, 0.0, 32.0, 127.5, 16.0, 15.0, 104.0, 0.0, 0.0, 0.0, 1.6444987239071488E9, 0.0, 2022-02-11 00:12:03.907
88.0, -8611.545993273974, -10168.479105052842, -10442.377381608174, -16617.851450187143, -2378.8961623783307, -1894.1538803760864, -5809.419549634404, -6794.796203946616, -16542.637830095035, -14495.195686244451, -19865.671678265535, -11646.01882052646, -6190.60619957521, -9910.942305438793, -11280.500743448823, -11702.278161320468, 0.008, -0.028, 0.986, 192.0, 0.0, 0.0, 0.0, 0.0, 0.0, 0.0, 0.0, 0.0, 0.0, 1.6444987239071565E9, 0.0, 2022-02-11 00:12:03.907
90.0, -8604.03580713699, -10156.364459558066, -10434.39780883763, -16623.975828167895, -2367.8991041063196, -1886.6883977280138, -5798.6907122958555, -6790.77288994466, -16538.435702137434, -14487.350223940639, -19857.78151247281, -11640.20736696808, -6191.880249009162, -9916.038503174605, -11279.070231803684, -11705.496812522033, 0.008, -0.028, 0.986, 192.0, 0.0, 0.0, 0.0, 0.0, 0.0, 0.0, 0.0, 0.0, 0.0, 1.644498723907164E9, 0.0, 2022-02-11 00:12:03.907
92.0, -8615.010513664545, -10171.29542485421, -10445.618384554195, -16629.29554334826, -2384.640560703345, -1903.8545374696896, -5827.882090554487, -6809.861279709492, -16542.414312650482, -14489.384232686072, -19861.715419496944, -11655.250090986501, -6190.025054219372, -9913.557459540065, -11279.629025415066, -11708.60370500132, 0.008, -0.028, 0.986, 192.0, 0.0, 0.0, 0.0, 0.0, 0.0, 0.0, 0.0, 0.0, 0.0, 1.644498723907171E9, 0.0, 2022-02-11 00:12:03.907
94.0, -8613.80351946396, -10178.984424946837, -10445.238404898455, -16623.260572345327, -2375.297531521026, -1897.976028677944, -5817.577936360591, -6809.928334942858, -16542.838995795133, -14503.465831692914, -19874.321803369738, -11651.83027408484, -6193.333112398757, -9934.501044094688, -11287.385080741058, -11715.778614971474, 0.008, -0.028, 0.986, 192.0, 0.0, 0.0, 0.0, 0.0, 0.0, 0.0, 0.0, 0.0, 0.0, 1.6444987239072049E9, 0.0, 2022-02-11 00:12:03.907
96.0, -8616.686894498695, -10175.408145833988, -10446.423047354585, -16629.72022649291, -2373.3529297534146, -1895.651447254592, -5817.2426601937605, -6801.255858094199, -16542.391960906025, -14503.242314248362, -19861.000163674376, -11643.761294336475, -6192.327283898268, -9915.34559909649, -11283.361766739103, -11708.559001512409, 0.004, -0.024, 0.99, 192.0, 0.0, 16.0, 127.5, 32.0, 15.0, 120.0, 0.0, 0.0, 0.0, 1.644498723907213E9, 0.0, 2022-02-11 00:12:03.907
98.0, -8623.727694002115, -10179.185590646934, -10450.625175312183, -16634.168223639517, -2379.6784734342664, -1899.071264156254, -5811.632372335479, -6799.802994704604, -16545.677667340955, -14510.528982940792, -19873.003050446874, -11655.4512566866, -6191.813193775796, -9907.544840281587, -11285.03814757325, -11711.151803869225, 0.004, -0.024, 0.99, 192.0, 0.0, 0.0, 0.0, 0.0, 0.0, 0.0, 0.0, 0.0, 0.0, 1.6444987239072204E9, 0.0, 2022-02-11 00:12:03.907
100.0, -8606.069815882423, -10160.231311348834, -10447.473579343985, -16627.127424136095, -2368.1226215508727, -1889.169441362553, -5809.553660101135, -6798.0372068926345, -16540.067379482673, -14500.805974102734, -19863.391800331094, -11655.317146219868, -6189.220391418981, -9915.278543863124, -11283.51822895029, -11707.731986967563, 0.004, -0.024, 0.99, 192.0, 0.0, 0.0, 0.0, 0.0, 0.0, 0.0, 0.0, 0.0, 0.0, 1.6444987239072275E9, 0.0, 2022-02-11 00:12:03.907
102.0, -8619.704380000161, -10169.842561464615, -10446.333640376764, -16628.4238253145, -2376.951560610719, -1900.6582380125808, -5807.229078677783, -6807.022608163668, -16543.42014115097, -14501.208305502929, -19861.69306775249, -11649.59509963931, -6187.208734418004, -9909.712959493752, -11280.701909148922, -11708.022559645482, 0.004, -0.024, 0.99, 192.0, 0.0, 0.0, 0.0, 0.0, 0.0, 0.0, 0.0, 0.0, 0.0, 1.6444987239072428E9, 0.0, 2022-02-11 00:12:03.907
104.0, -8611.545993273974, -10154.889244424015, -10445.618384554195, -16624.467566545914, -2373.576447197968, -1895.1597088765752, -5826.004544020241, -6806.173241874367, -16543.241327195326, -14502.214134003418, -19874.41121034756, -11646.465855415567, -6190.427385619568, -9908.036578659605, -11283.89820860603, -11711.352969569323, 0.004, -0.024, 0.99, 192.0, 0.0, 0.0, 0.0, 0.0, 0.0, 0.0, 0.0, 0.0, 0.0, 1.64449872390725E9, 0.0, 2022-02-11 00:12:03.907
106.0, -8604.75106295956, -10158.174950858946, -10443.740838019949, -16623.014703156317, -2374.3587582539035, -1893.5056797868824, -5802.088177453063, -6803.781605217649, -16540.08973122713, -14491.038261775764, -19858.92145144003, -11643.247204214002, -6190.293275152836, -9911.791671728095, -11282.266531260793, -11710.570658513387, 0.004, -0.026000000000000002, 0.99, 192.0, 0.0, 16.0, 127.5, 24.0, 15.0, 120.0, 0.0, 0.0, 0.0, 1.6444987239072568E9, 0.0, 2022-02-11 00:12:03.907
108.0, -8609.646094995273, -10174.402317333499, -10443.047933941834, -16624.042883401264, -2375.208124543205, -1891.13639487462, -5806.178546688384, -6808.654285508906, -16539.553289360203, -14508.427918961994, -19866.722210254935, -11646.3988001822, -6187.387548373646, -9912.484575806211, -11278.019699814284, -11713.096405636836, 0.004, -0.026000000000000002, 0.99, 192.0, 0.0, 0.0, 0.0, 0.0, 0.0, 0.0, 0.0, 0.0, 0.0, 1.6444987239072638E9, 0.0, 2022-02-11 00:12:03.907
110.0, -8612.79769096347, -10175.519904556264, -10437.68351527256, -16628.848508459152, -2366.5579994390014, -1891.7398919749132, -5800.009465218719, -6789.00710213269, -16536.08876896963, -14508.182049772984, -19863.74942824238, -11644.454198414589, -6188.169859429581, -9904.706168735764, -11272.789391611743, -11708.715463723596, 0.004, -0.026000000000000002, 0.99, 192.0, 0.0, 0.0, 0.0, 0.0, 0.0, 0.0, 0.0, 0.0, 0.0, 1.644498723907271E9, 0.0, 2022-02-11 00:12:03.907
112.0, -8623.414769579742, -10181.465468581375, -10449.239367155955, -16634.503499806346, -2384.1488223253277, -1901.8875839576226, -5815.2980584261495, -6812.141157643933, -16548.315173186682, -14512.071253308208, -19869.002088189376, -11655.205387497592, -6196.171783944582, -9915.032674674116, -11275.784525368754, -11714.638676004253, 0.004, -0.026000000000000002, 0.99, 192.0, 0.0, 0.0, 0.0, 0.0, 0.0, 0.0, 0.0, 0.0, 0.0, 1.6444987239072776E9, 0.0, 2022-02-11 00:12:03.907
114.0, -8617.782129977004, -10179.699680769407, -10448.345297377742, -16633.743540494866, -2382.919476380286, -1896.880793199634, -5812.6605525804225, -6810.39772157642, -16553.18785347794, -14512.518288197314, -19881.65317555108, -11662.648518401209, -6199.278676423869, -9916.798462486084, -11289.173220297484, -11723.266449364, 0.004, -0.026000000000000002, 0.99, 192.0, 0.0, 0.0, 0.0, 0.0, 0.0, 0.0, 0.0, 0.0, 0.0, 1.6444987239072847E9, 0.0, 2022-02-11 00:12:03.907
116.0, -8607.65678973875, -10174.357613844588, -10445.73014327647, -16636.783377740787, -2379.723176923177, -1897.976028677944, -5818.807282305633, -6820.63482053695, -16550.08096099865, -14505.566895671715, -19866.766913743846, -11656.25591948699, -6197.714054311998, -9907.72365423723, -11285.686348162455, -11718.527879539477, 0.004, -0.024, 0.996, 192.0, 0.0, 16.0, 127.5, 32.0, 15.5, 16.0, 0.0, 0.0, 0.0, 1.644498723907292E9, 0.0, 2022-02-11 00:12:03.907
118.0, -8621.492519556585, -10182.82892499315, -10450.915747990102, -16641.00785744284, -2383.3218077804813, -1903.7427787474132, -5824.775198075199, -6805.390930818431, -16551.5561761327, -14504.896343338054, -19876.422867348538, -11664.391954468723, -6197.423481634079, -9917.647828775385, -11290.849601131631, -11727.312115110411, 0.004, -0.024, 0.996, 192.0, 0.0, 0.0, 0.0, 0.0, 0.0, 0.0, 0.0, 0.0, 0.0, 1.6444987239072993E9, 0.0, 2022-02-11 00:12:03.907
120.0, -8611.545993273974, -10169.306119597688, -10442.243271141442, -16633.63178177259, -2373.0623570754956, -1897.32782808874, -5809.330142656582, -6806.44146280783, -16548.784559820244, -14502.460003192426, -19873.69595452499, -11666.090687047326, -6194.7859757883525, -9935.484520850721, -11286.267493518293, -11719.220783617591, 0.004, -0.024, 0.996, 192.0, 0.0, 0.0, 0.0, 0.0, 0.0, 0.0, 0.0, 0.0, 0.0, 1.644498723907306E9, 0.0, 2022-02-11 00:12:03.907
122.0, -8627.572194048429, -10187.276922139756, -10454.492027102951, -16639.309124864238, -2391.0108078731073, -1907.1178921601645, -5821.802416062644, -6805.189765118333, -16559.13341750305, -14527.985695360387, -19876.40051560408, -11660.994489311515, -6198.876345023674, -9932.422331860344, -11285.731051651366, -11724.875774964783, 0.004, -0.024, 0.996, 192.0, 0.0, 0.0, 0.0, 0.0, 0.0, 0.0, 0.0, 0.0, 0.0, 1.6444987243862507E9, 0.0, 2022-02-11 00:12:04.386
124.0, -8619.436159066696, -10188.59567506262, -10449.418181111596, -16633.050636416752, -2386.7416246821435, -1898.4230635670501, -5828.083256254585, -6812.677599510861, -16554.908937800996, -14527.985695360387, -19881.65317555108, -11667.677660903653, -6198.317551412291, -9926.119139923947, -11293.151830810528, -11729.994324445048, 0.004, -0.024, 0.996, 192.0, 0.0, 0.0, 0.0, 0.0, 0.0, 0.0, 0.0, 0.0, 0.0, 1.6444987243862617E9, 0.0, 2022-02-11 00:12:04.386
126.0, -8616.306914842953, -10184.482954082841, -10444.433742098063, -16635.352866095647, -2381.399557757325, -1893.9974181648993, -5809.173680445395, -6810.978866932258, -16554.17133023397, -14516.005160332343, -19864.621146276135, -11658.893425332717, -6189.712129796998, -9925.15801491237, -11287.13921155205, -11726.17217614319, 0.006, -0.024, 0.986, 192.0, 0.0, 24.0, 127.5, 32.0, 15.0, 104.0, 0.0, 0.0, 0.0, 1.644498724386269E9, 0.0, 2022-02-11 00:12:04.386
128.0, -8628.980353949113, -10191.657864052995, -10459.387059138664, -16640.024380686806, -2393.491851507646, -1900.904107201589, -5816.81797704911, -6809.816576220582, -16565.011926294796, -14522.934201113487, -19882.5919488182, -11667.431791714644, -6192.573153087277, -9925.940325968306, -11287.921522607985, -11732.341257612856, 0.006, -0.024, 0.986, 192.0, 0.0, 0.0, 0.0, 0.0, 0.0, 0.0, 0.0, 0.0, 0.0, 1.644498724386278E9, 0.0, 2022-02-11 00:12:04.386
130.0, -8609.1320048728, -10176.078698167647, -10444.724314775982, -16633.698837005955, -2378.7173484226882, -1892.1422233751089, -5811.0735787240965, -6804.049826151112, -16554.84188256763, -14518.620314433612, -19875.931128970522, -11664.347250979812, -6188.169859429581, -9921.4923288217, -11286.893342363042, -11728.094426166348, 0.006, -0.024, 0.986, 192.0, 0.0, 0.0, 0.0, 0.0, 0.0, 0.0, 0.0, 0.0, 0.0, 1.6444987243862987E9, 0.0, 2022-02-11 00:12:04.386
132.0, -8619.525566044518, -10164.567549773163, -10449.64169855615, -16641.656058032044, -2386.562810726501, -1888.2753715843407, -5821.891823040464, -6813.325800100065, -16558.261699469294, -14499.15194501304, -19870.969041701443, -11662.559111423387, -6186.98521697345, -9911.791671728095, -11282.914731849996, -11727.714446510607, 0.006, -0.024, 0.986, 192.0, 0.0, 0.0, 0.0, 0.0, 0.0, 0.0, 0.0, 0.0, 0.0, 1.6444987243863065E9, 0.0, 2022-02-11 00:12:04.386
134.0, -8621.336057345397, -10187.858067495594, -10446.870082243691, -16628.557935781235, -2376.213953043694, -1888.4094820510725, -5808.167851944906, -6807.268477352676, -16554.998344778818, -14504.404604960038, -19875.864073737153, -11664.324899235356, -6186.359368128702, -9931.483558593221, -11285.127554551073, -11726.507452310021, 0.006, -0.024, 0.986, 192.0, 0.0, 0.0, 0.0, 0.0, 0.0, 0.0, 0.0, 0.0, 0.0, 1.6444987243863232E9, 0.0, 2022-02-11 00:12:04.386
136.0, -8612.37300781882, -10186.896942484014, -10441.997401952434, -16627.932086936486, -2375.7222146656773, -1879.8934674136005, -5825.132825986484, -6812.923468699869, -16556.94294654643, -14523.783567402788, -19864.8893672096, -11655.965346809071, -6187.521658840377, -9917.178442141825, -11280.791316126742, -11721.724178996585, 0.008, -0.028, 0.992, 192.0, 0.0, 32.0, 127.5, 16.0, 15.5, 0.0, 0.0, 0.0, 0.0, 1.6444987243863444E9, 0.0, 2022-02-11 00:12:04.386
138.0, -8619.57026953343, -10185.533486072241, -10453.821474769293, -16626.56863052471, -2383.5900287139452, -1889.7505867183909, -5822.29415444066, -6808.564878531084, -16555.065400012183, -14527.091625582174, -19876.042887692798, -11665.666003902676, -6184.817097761285, -9921.402921843877, -11283.317063250191, -11722.528841796977, 0.008, -0.028, 0.992, 192.0, 0.0, 0.0, 0.0, 0.0, 0.0, 0.0, 0.0, 0.0, 0.0, 1.6444987243863516E9, 0.0, 2022-02-11 00:12:04.386
140.0, -8608.528507772508, -10182.672462781962, -10447.026544454879, -16627.61916251411, -2370.1789820407607, -1879.1782115910307, -5801.171755930395, -6805.189765118333, -16555.959469790396, -14519.11205281163, -19874.5900243032, -11659.742791622019, -6185.062966950294, -9925.649753290387, -11281.305406249216, -11718.885507450761, 0.008, -0.028, 0.992, 192.0, 0.0, 0.0, 0.0, 0.0, 0.0, 0.0, 0.0, 0.0, 0.0, 1.6444987243863585E9, 0.0, 2022-02-11 00:12:04.386
142.0, -8622.386589334797, -10182.895980226514, -10453.106218946723, -16631.95540093844, -2380.7737089125767, -1888.6329994956257, -5823.501148641247, -6816.767968746182, -16558.775789591764, -14519.402625489549, -19869.7396957564, -11655.920643320162, -6180.547914570322, -9914.473881062733, -11277.416202713992, -11719.690170251151, 0.008, -0.028, 0.992, 192.0, 0.0, 0.0, 0.0, 0.0, 0.0, 0.0, 0.0, 0.0, 0.0, 1.6444987243863652E9, 0.0, 2022-02-11 00:12:04.386
144.0, -8616.977467176614, -10181.264302881278, -10450.513416589907, -16629.38495032608, -2376.884505377353, -1888.9012204290893, -5818.963744516819, -6818.556108302607, -16556.071228512672, -14524.521174969814, -19879.194483660995, -11662.290890489923, -6175.876399979163, -9917.737235753208, -11284.054670817217, -11726.686266265664, 0.008, -0.028, 0.992, 192.0, 0.0, 0.0, 0.0, 0.0, 0.0, 0.0, 0.0, 0.0, 0.0, 1.6444987243863728E9, 0.0, 2022-02-11 00:12:04.386
146.0, -8612.909449685747, -10177.308044112688, -10449.172311922588, -16629.943743937463, -2377.7338716666545, -1889.2588483403742, -5833.268860968216, -6809.660114009394, -16555.60184187911, -14524.007084847342, -19868.152721900075, -11650.533872906431, -6174.512943567389, -9907.522488537132, -11275.85158060212, -11719.913687695705, 0.006, -0.026000000000000002, 0.99, 192.0, 0.0, 24.0, 127.5, 24.0, 15.0, 120.0, 0.0, 0.0, 0.0, 1.6444987243863797E9, 0.0, 2022-02-11 00:12:04.386
148.0, -8620.307877100453, -10173.709413255383, -10453.687364302561, -16631.28484860478, -2384.305284536515, -1892.5669065197596, -5833.738247601777, -6823.764064760693, -16560.161597747996, -14525.728169170401, -19876.44521909299, -11672.863265617283, -6178.782126758352, -9909.623552515932, -11282.959435338907, -11725.278106364978, 0.006, -0.026000000000000002, 0.99, 192.0, 0.0, 0.0, 0.0, 0.0, 0.0, 0.0, 0.0, 0.0, 0.0, 1.6444987243863883E9, 0.0, 2022-02-11 00:12:04.386
150.0, -8608.349693816865, -10170.423706820453, -10443.986707208956, -16627.61916251411, -2372.861191375398, -1881.5698482477485, -5800.0988721965405, -6807.000256419213, -16552.74081858883, -14518.933238855987, -19869.51617831185, -11659.988660811026, -6177.731594768953, -9905.019093158138, -11278.42203121448, -11720.450129562632, 0.006, -0.026000000000000002, 0.99, 192.0, 0.0, 0.0, 0.0, 0.0, 0.0, 0.0, 0.0, 0.0, 0.0, 1.644498724386396E9, 0.0, 2022-02-11 00:12:04.386
152.0, -8619.346752088875, -10176.190456889923, -10453.620309069194, -16630.90486894904, -2386.85338340442, -1893.3715693201507, -5818.539061372168, -6820.1654339033885, -16556.47355991287, -14517.748596399857, -19866.923375955033, -11660.68156488914, -6177.955112213506, -9904.259133846657, -11279.494914948335, -11718.572583028386, 0.006, -0.026000000000000002, 0.99, 192.0, 0.0, 0.0, 0.0, 0.0, 0.0, 0.0, 0.0, 0.0, 0.0, 1.6444987243864038E9, 0.0, 2022-02-11 00:12:04.386
154.0, -8616.910411943247, -10181.82309649266, -10460.012907983411, -16624.825194457197, -2380.371377512381, -1894.6232670096479, -5823.4564451523365, -6822.691181026838, -16564.94487106143, -14533.30541054075, -19886.16822793105, -11669.890483604728, -6187.298141395824, -9926.38736085741, -11287.653301674522, -11725.188699387158, 0.01, -0.026000000000000002, 0.988, 192.0, 0.0, 56.0, 127.5, 24.0, 15.0, 104.0, 0.0, 0.0, 0.0, 1.6444987243864107E9, 0.0, 2022-02-11 00:12:04.386
156.0, -8615.390493320287, -10191.322587886167, -10444.724314775982, -16628.44617705896, -2376.3480635104256, -1891.6728367415474, -5818.941392772364, -6836.549262589128, -16560.8097983372, -14527.940991871475, -19869.44912307848, -11655.473608431055, -6177.441022091034, -9922.118177666447, -11282.355938238614, -11723.020580174993, 0.01, -0.026000000000000002, 0.988, 192.0, 0.0, 0.0, 0.0, 0.0, 0.0, 0.0, 0.0, 0.0, 0.0, 1.6444987243864195E9, 0.0, 2022-02-11 00:12:04.386
158.0, -8629.203871393665, -10190.83084950815, -10457.107181204223, -16633.408264328034, -2388.596819471934, -1896.7690344773573, -5822.048285251652, -6813.34815184452, -16564.453132683415, -14536.836986164688, -19879.775629016833, -11666.470666703066, -6178.066870935782, -9916.507889808165, -11282.959435338907, -11727.423873832688, 0.01, -0.026000000000000002, 0.988, 192.0, 0.0, 0.0, 0.0, 0.0, 0.0, 0.0, 0.0, 0.0, 0.0, 1.6444987243864267E9, 0.0, 2022-02-11 00:12:04.386
160.0, -8615.2340311091, -10182.024262192757, -10450.088733445256, -16626.278057846794, -2381.734833924155, -1882.5309732593266, -5825.870433553509, -6819.807805992104, -16567.895301329532, -14531.249050050861, -19881.899044740087, -11660.279233488945, -6183.297179138324, -9911.232878116713, -11283.115897550095, -11721.32184759639, 0.01, -0.026000000000000002, 0.988, 192.0, 0.0, 0.0, 0.0, 0.0, 0.0, 0.0, 0.0, 0.0, 0.0, 1.644498724386434E9, 0.0, 2022-02-11 00:12:04.386
162.0, -8622.252478868066, -10185.086451183135, -10461.666937073105, -16632.38008408309, -2391.0555113620176, -1889.3706070626506, -5830.184320233384, -6821.931221715358, -16569.6610891415, -14527.806881404744, -19875.573501059236, -11654.870111330762, -6185.487650094945, -9905.287314091602, -11284.412298728503, -11720.450129562632, 0.01, -0.026000000000000002, 0.988, 192.0, 0.0, 0.0, 0.0, 0.0, 0.0, 0.0, 0.0, 0.0, 0.0, 1.6444987243864532E9, 0.0, 2022-02-11 00:12:04.386
164.0, -8613.714112486137, -10180.392584847521, -10459.051782971834, -16634.369389339612, -2389.5132409946013, -1880.8098889362682, -5843.193035506372, -6827.317992129087, -16568.521150174278, -14526.01874184832, -19885.90000699759, -11674.02555632896, -6189.6227228191765, -9908.953000182271, -11289.910827864507, -11724.540498797955, 0.011, -0.023, 0.989, 192.0, 0.0, 48.0, 127.5, 48.0, 15.0, 120.0, 0.0, 0.0, 0.0, 1.6444987243864603E9, 0.0, 2022-02-11 00:12:04.386
166.0, -8611.277772340509, -10169.39552657551, -10455.363745136709, -16629.072025903704, -2385.4452235037356, -1889.3706070626506, -5824.529328886191, -6825.283983383654, -16565.95069956192, -14522.82244239121, -19869.292660867293, -11669.577559182353, -6187.208734418004, -9906.270790847635, -11287.13921155205, -11722.37237958579, 0.011, -0.023, 0.989, 192.0, 0.0, 0.0, 0.0, 0.0, 0.0, 0.0, 0.0, 0.0, 0.0, 1.6444987243864696E9, 0.0, 2022-02-11 00:12:04.386
168.0, -8625.404074836264, -10170.58016903164, -10460.482294616973, -16626.032188657784, -2385.109947336906, -1894.2432873539076, -5827.144482987462, -6829.463759596796, -16570.868083342088, -14535.339419286183, -19877.920434227042, -11658.714611377074, -6187.834583262752, -9925.873270734939, -11282.847676616631, -11725.971010443094, 0.011, -0.023, 0.989, 192.0, 0.0, 0.0, 0.0, 0.0, 0.0, 0.0, 0.0, 0.0, 0.0, 1.6444987243864768E9, 0.0, 2022-02-11 00:12:04.386
170.0, -8610.450757795663, -10167.20505561889, -10450.938099734558, -16620.28779033277, -2372.5482669530234, -1882.6427319816032, -5824.775198075199, -6817.483224568752, -16563.22378673837, -14524.655285436545, -19873.98652720291, -11656.59119565382, -6179.8773622366625, -9925.91797422385, -11276.14215328004, -11717.969085928093, 0.011, -0.023, 0.989, 192.0, 0.0, 0.0, 0.0, 0.0, 0.0, 0.0, 0.0, 0.0, 0.0, 1.6444987243864844E9, 0.0, 2022-02-11 00:12:04.386
172.0, -8623.258307368555, -10179.923198213959, -10456.570739337294, -16630.502537548844, -2385.177002570272, -1890.7340634744244, -5833.693544112867, -6835.565785833095, -16565.70483037291, -14523.91767786952, -19870.611413790157, -11657.753486365496, -6179.944417470028, -9916.15026189688, -11276.85740910261, -11718.393769072743, 0.011, -0.023, 0.989, 192.0, 0.0, 0.0, 0.0, 0.0, 0.0, 0.0, 0.0, 0.0, 0.0, 1.644498724386491E9, 0.0, 2022-02-11 00:12:04.386
174.0, -8622.252478868066, -10173.597654533107, -10454.872006758691, -16630.949572437952, -2374.246999531627, -1879.8487639246898, -5824.48462539728, -6829.016724707691, -16564.85546408361, -14527.046922093265, -19882.770762773845, -11663.319070734868, -6181.330225626258, -9915.926744452328, -11283.384118483558, -11726.261583121013, 0.0125, -0.0265, 0.9904999999999999, 192.0, 0.0, 56.0, 127.5, 8.0, 15.5, 0.0, 0.0, 0.0, 0.0, 1.6444987243864975E9, 0.0, 2022-02-11 00:12:04.386
176.0, -8619.592621277883, -10186.82988725065, -10453.441495113551, -16633.20709862794, -2371.3189210079818, -1874.8866766556118, -5823.612907363523, -6813.906945455903, -16555.110103501094, -14522.509517968836, -19865.962250943452, -11664.123733535258, -6179.6985482810205, -9906.114328636448, -11278.869066103587, -11719.98074292907, 0.0125, -0.0265, 0.9904999999999999, 192.0, 0.0, 0.0, 0.0, 0.0, 0.0, 0.0, 0.0, 0.0, 0.0, 1.6444987243865044E9, 0.0, 2022-02-11 00:12:04.386
178.0, -8632.735447017605, -10188.77448901826, -10461.823399284292, -16633.56472653922, -2384.104118836417, -1892.9021826865892, -5832.039515023174, -6828.1450066739335, -16562.441475682437, -14537.68635245399, -19878.389820860604, -11664.548416679909, -6181.956074471006, -9913.669218262341, -11281.573627182679, -11725.009885431515, 0.0125, -0.0265, 0.9904999999999999, 192.0, 0.0, 0.0, 0.0, 0.0, 0.0, 0.0, 0.0, 0.0, 0.0, 1.644498724386511E9, 0.0, 2022-02-11 00:12:04.386
180.0, -8611.210717107144, -10164.433439306431, -10452.480370101974, -16627.19447936946, -2373.621150686878, -1869.2540370528743, -5849.093896042574, -6828.167358418389, -16558.08288551365, -14533.126596585107, -19873.60654754717, -11660.368640466768, -6180.592618059232, -9903.029787901616, -11280.836019615654, -11723.735835997562, 0.0125, -0.0265, 0.9904999999999999, 192.0, 0.0, 0.0, 0.0, 0.0, 0.0, 0.0, 0.0, 0.0, 0.0, 1.644498724386532E9, 0.0, 2022-02-11 00:12:04.386
182.0, -8617.491557299085, -10165.171046873456, -10460.370535894697, -16630.65899976003, -2380.304322279015, -1883.782670948824, -5830.609003378035, -6831.251899153221, -16556.27239421277, -14524.923506370009, -19864.464684064948, -11658.513445676977, -6177.552780813311, -9901.91220067885, -11283.473525461379, -11721.634772018764, 0.0125, -0.0265, 0.9904999999999999, 192.0, 0.0, 0.0, 0.0, 0.0, 0.0, 0.0, 0.0, 0.0, 0.0, 1.6444987243865387E9, 0.0, 2022-02-11 00:12:04.386
184.0, -8618.31857184393, -10172.077735910147, -10458.001250982434, -16623.752310723343, -2380.5948949569342, -1879.6923017135027, -5826.809206820632, -6830.335477630553, -16556.920594801973, -14524.007084847342, -19880.960271472966, -11659.809846855385, -6179.564437814288, -9911.255229861168, -11284.702871406422, -11725.501623809532, 0.01125, -0.02525, 0.99225, 192.0, 0.0, 40.0, 127.5, 32.0, 15.5, 8.0, 0.0, 0.0, 0.0, 1.6444987243865457E9, 0.0, 2022-02-11 00:12:04.386
186.0, -8612.261249096544, -10171.004852176291, -10454.134399191666, -16627.39564506956, -2377.9350373667526, -1873.6573307105698, -5826.049247509151, -6830.626050308472, -16555.691248856932, -14527.002218604353, -19864.487035809405, -11654.177207252647, -6174.289426122836, -9904.72852048022, -11280.85837136011, -11716.248001605034, 0.01125, -0.02525, 0.99225, 192.0, 0.0, 0.0, 0.0, 0.0, 0.0, 0.0, 0.0, 0.0, 0.0, 1.6444987243865523E9, 0.0, 2022-02-11 00:12:04.386
188.0, -8624.331191102408, -10179.520866813764, -10464.21503594101, -16639.15266265305, -2390.0273311170736, -1885.2355343384188, -5853.005451322252, -6834.470550354785, -16562.530882660256, -14537.708704198445, -19875.819370248246, -11668.325861492856, -6183.565400071789, -9899.47586053322, -11288.65913017501, -11727.982667444072, 0.01125, -0.02525, 0.99225, 192.0, 0.0, 0.0, 0.0, 0.0, 0.0, 0.0, 0.0, 0.0, 0.0, 1.6444987243865592E9, 0.0, 2022-02-11 00:12:04.386
190.0, -8613.423539808218, -10170.066078909169, -10453.374439880186, -16632.15656663854, -2367.340310494937, -1883.5144500153604, -5825.445750408859, -6829.240242152244, -16555.490083156834, -14525.839927892677, -19872.846588235687, -11665.844817858317, -6178.826830247263, -9903.186250112802, -11286.580417940668, -11731.22367039009, 0.01125, -0.02525, 0.99225, 192.0, 0.0, 0.0, 0.0, 0.0, 0.0, 0.0, 0.0, 0.0, 0.0, 1.644498724386566E9, 0.0, 2022-02-11 00:12:04.386
192.0, -8619.011475922045, -10165.752192229294, -10459.78939053886, -16635.598735284657, -2372.6823774197555, -1889.8176419517567, -5824.261107952727, -6838.516216101196, -16559.222824480872, -14534.870032652621, -19866.074009665732, -11663.296718990412, -6176.8822284796515, -9901.375758811922, -11277.885589347552, -11729.569641300397, 0.01125, -0.02525, 0.99225, 192.0, 0.0, 0.0, 0.0, 0.0, 0.0, 0.0, 0.0, 0.0, 0.0, 1.6444987243865728E9, 0.0, 2022-02-11 00:12:04.386
194.0, -8616.37397007632, -10170.58016903164, -10456.481332359474, -16632.33538059418, -2372.7717843975765, -1885.4814035274273, -5831.592480134068, -6833.330611387564, -16556.965298290885, -14534.758273930345, -19876.154646415074, -11661.888559089728, -6176.636359290643, -9906.606067014465, -11284.211133028404, -11731.60365004583, 0.012625, -0.024625, 0.9921249999999999, 192.0, 0.0, 56.0, 127.5, 32.0, 15.5, 0.0, 0.0, 0.0, 0.0, 1.6444987243865798E9, 0.0, 2022-02-11 00:12:04.386
196.0, -8613.334132830398, -10180.034956936235, -10458.001250982434, -16632.71536024992, -2368.6143599288894, -1883.8720779266453, -5831.01133477823, -6827.2062334068105, -16559.289879714237, -14533.975962874409, -19865.001125931874, -11655.048925286404, -6176.278731379358, -9909.131814137914, -11280.411336471003, -11724.94283019815, 0.012625, -0.024625, 0.9921249999999999, 192.0, 0.0, 0.0, 0.0, 0.0, 0.0, 0.0, 0.0, 0.0, 0.0, 1.644498724386587E9, 0.0, 2022-02-11 00:12:04.386
198.0, -8619.838490466893, -10174.91640745597, -10460.683460317072, -16634.794072484263, -2380.4831362346576, -1898.7583397338797, -5827.189186476372, -6840.282003913165, -16566.196568750926, -14538.178090832007, -19879.663870294557, -11663.631995157242, -6178.335091869247, -9911.478747305722, -11283.495877205834, -11732.140091912759, 0.012625, -0.024625, 0.9921249999999999, 192.0, 0.0, 0.0, 0.0, 0.0, 0.0, 0.0, 0.0, 0.0, 0.0, 1.644498724386597E9, 0.0, 2022-02-11 00:12:04.386
200.0, -8617.268039854533, -10171.183666131934, -10451.653355557128, -16629.496709048355, -2369.731947151655, -1883.6709122265474, -5823.05411375214, -6836.415152122397, -16567.269452484783, -14527.784529660288, -19876.489922581903, -11662.4026492122, -6180.167934914582, -9911.545802539087, -11284.300540006227, -11730.37430410079, 0.012625, -0.024625, 0.9921249999999999, 192.0, 0.0, 0.0, 0.0, 0.0, 0.0, 0.0, 0.0, 0.0, 0.0, 1.6444987243866036E9, 0.0, 2022-02-11 00:12:04.386
202.0, -8627.169862648232, -10172.614177777074, -10460.526998105885, -16633.20709862794, -2378.113851322395, -1883.0227116373435, -5839.929680815898, -6837.73390504526, -16569.057592041205, -14534.847680908166, -19871.527835312823, -11666.962405081083, -6177.105745924205, -9907.075453648025, -11280.076060304173, -11725.836899976362, 0.012625, -0.024625, 0.9921249999999999, 192.0, 0.0, 0.0, 0.0, 0.0, 0.0, 0.0, 0.0, 0.0, 0.0, 1.6444987243866105E9, 0.0, 2022-02-11 00:12:04.386
204.0, -8619.592621277883, -10176.25751212329, -10459.722335305492, -16634.034113172784, -2377.085671077451, -1880.8098889362682, -5851.77610537721, -6825.306335128109, -16569.750496119323, -14539.630954221602, -19884.93888198601, -11668.92935859315, -6182.5595715713, -9906.069625147536, -11285.820458629187, -11731.380132601278, 0.0123125, -0.0233125, 0.9910625, 192.0, 0.0, 48.0, 127.5, 40.0, 15.0, 120.0, 0.0, 0.0, 0.0, 1.6444987243866177E9, 0.0, 2022-02-11 00:12:04.386
206.0, -8617.692722999183, -10188.39450936252, -10453.486198602463, -16636.24693587386, -2373.554095453512, -1886.2413628389077, -5819.433131150381, -6835.834006766559, -16563.916690816484, -14535.384122775093, -19869.337364356204, -11661.821503856363, -6175.36230985669, -9894.111441863948, -11277.349147480625, -11725.74749299854, 0.0123125, -0.0233125, 0.9910625, 192.0, 0.0, 0.0, 0.0, 0.0, 0.0, 0.0, 0.0, 0.0, 0.0, 1.6444987243866243E9, 0.0, 2022-02-11 00:12:04.386
208.0, -8633.294240628988, -10188.930951229448, -10466.919597020102, -16646.081703434196, -2392.441319518247, -1893.1480518755975, -5832.15127374545, -6831.900099742425, -16568.722315874376, -14552.483207283403, -19879.462704594458, -11677.624187186264, -6175.250551134414, -9909.645904260386, -11282.221827771882, -11737.951545471138, 0.0123125, -0.0233125, 0.9910625, 192.0, 0.0, 0.0, 0.0, 0.0, 0.0, 0.0, 0.0, 0.0, 0.0, 1.6444987243866313E9, 0.0, 2022-02-11 00:12:04.386
210.0, -8614.921106686725, -10167.093296896614, -10458.78356203837, -16637.588040541177, -2382.718310680188, -1881.7039587144804, -5835.146407502461, -6817.617335035484, -16571.89626358703, -14538.423960021015, -19882.189617418007, -11673.042079572926, -6182.179591915559, -9899.900543677872, -11283.451173716925, -11733.28003087998, 0.0123125, -0.0233125, 0.9910625, 192.0, 0.0, 0.0, 0.0, 0.0, 0.0, 0.0, 0.0, 0.0, 0.0, 1.644498724386638E9, 0.0, 2022-02-11 00:12:04.386
212.0, -8620.263173611544, -10185.041747694224, -10461.97986149548, -16638.34799985266, -2386.249886304127, -1890.2870285853182, -5834.878186568998, -6829.30729738561, -16568.744667618834, -14538.960401887942, -19873.092457424696, -11663.4531812016, -6176.256379634903, -9907.433081559311, -11282.691214405444, -11731.335429112367, 0.0123125, -0.0233125, 0.9910625, 192.0, 0.0, 0.0, 0.0, 0.0, 0.0, 0.0, 0.0, 0.0, 0.0, 1.6444987243866448E9, 0.0, 2022-02-11 00:12:04.386
214.0, -8627.32632485942, -10189.199172162911, -10461.063439972811, -16643.354790610647, -2389.557944483512, -1891.5163745303603, -5835.057000524641, -6831.900099742425, -16571.315118231192, -14546.35882930265, -19884.178922674528, -11682.720384922075, -6178.5586093138, -9913.53510779561, -11289.463792975403, -11739.694981538652, 0.013156250000000001, -0.02465625, 0.99253125, 192.0, 0.0, 56.0, 127.5, 24.0, 15.5, 8.0, 0.0, 0.0, 0.0, 1.6444987243866515E9, 0.0, 2022-02-11 00:12:04.386
216.0, -8624.599412035872, -10194.407128620998, -10458.44828587154, -16641.991334198872, -2381.8912961353417, -1894.4444530540054, -5831.7265906008, -6833.330611387564, -16571.181007764462, -14548.415189792537, -19872.466608579947, -11670.650442916209, -6179.6985482810205, -9909.623552515932, -11286.893342363042, -11735.626964047786, 0.013156250000000001, -0.02465625, 0.99253125, 192.0, 0.0, 0.0, 0.0, 0.0, 0.0, 0.0, 0.0, 0.0, 0.0, 1.6444987243866584E9, 0.0, 2022-02-11 00:12:04.386
218.0, -8637.42931335322, -10198.92218100097, -10469.914730777113, -16644.226508644406, -2395.816432930998, -1902.871060713656, -5841.3601924610375, -6835.834006766559, -16582.647452670033, -14559.859282953656, -19888.157533187572, -11672.796210383918, -6186.180554173059, -9913.043369417594, -11292.056595332217, -11741.058437950425, 0.013156250000000001, -0.02465625, 0.99253125, 192.0, 0.0, 0.0, 0.0, 0.0, 0.0, 0.0, 0.0, 0.0, 0.0, 1.644498724386665E9, 0.0, 2022-02-11 00:12:04.386
220.0, -8624.510005058051, -10184.952340716403, -10464.706774319027, -16638.616220786123, -2382.785365913554, -1885.5037552718825, -5828.060904510129, -6820.835986237048, -16579.69702240193, -14559.434599809003, -19887.777553531832, -11669.465800460077, -6187.454603607011, -9921.000590443682, -11290.536676709256, -11733.727065769084, 0.013156250000000001, -0.02465625, 0.99253125, 192.0, 0.0, 0.0, 0.0, 0.0, 0.0, 0.0, 0.0, 0.0, 0.0, 1.644498724386672E9, 0.0, 2022-02-11 00:12:04.386
222.0, -8631.684915028205, -10195.547067588219, -10464.170332452099, -16650.842625003173, -2381.8465926464314, -1896.389054821617, -5829.267898710716, -6839.0079544792125, -16579.071173557186, -14556.372410818627, -19877.585158060214, -11669.912835349183, -6180.927894226062, -9917.87134621994, -11285.887513862554, -11731.111911667815, 0.013156250000000001, -0.02465625, 0.99253125, 192.0, 0.0, 0.0, 0.0, 0.0, 0.0, 0.0, 0.0, 0.0, 0.0, 1.6444987243866909E9, 0.0, 2022-02-11 00:12:04.386
224.0, -8633.115426673345, -10196.798765277716, -10467.009003997922, -16652.6307645596, -2391.9048776513196, -1889.2812000848294, -5834.520558657713, -6824.97105896128, -16583.362708492605, -14567.257710368362, -19893.56665534576, -11688.688300691641, -6185.532353583855, -9917.044331675093, -11291.14017380955, -11737.75037977104, 0.012, -0.026000000000000002, 0.994, 192.0, 0.0, 48.0, 127.5, 24.0, 15.5, 8.0, 0.0, 0.0, 0.0, 1.6444987243866975E9, 0.0, 2022-02-11 00:12:04.386
226.0, -8623.124196901823, -10181.912503470481, -10457.889492260158, -16648.048656946263, -2382.2489240466266, -1886.8225081947458, -5839.415590693426, -6825.485149083752, -16581.775734636278, -14554.964250917943, -19875.931128970522, -11674.78551564044, -6186.068795450783, -9896.570133754032, -11288.748537152833, -11731.737760512562, 0.012, -0.026000000000000002, 0.994, 192.0, 0.0, 0.0, 0.0, 0.0, 0.0, 0.0, 0.0, 0.0, 0.0, 1.6444987243867044E9, 0.0, 2022-02-11 00:12:04.386
228.0, -8630.164996405245, -10181.465468581375, -10465.176160952587, -16647.10988367914, -2387.076900848973, -1892.2763338418406, -5823.188224218872, -6826.580384562062, -16577.573606678678, -14557.780570719311, -19878.32276562724, -11675.701937163109, -6180.8161355037855, -9917.111386908458, -11289.195572041937, -11736.521033825999, 0.012, -0.026000000000000002, 0.994, 192.0, 0.0, 0.0, 0.0, 0.0, 0.0, 0.0, 0.0, 0.0, 0.0, 1.6444987243867257E9, 0.0, 2022-02-11 00:12:04.386
230.0, -8622.297182356975, -10180.973730203359, -10456.59309108175, -16638.90679346404, -2379.164383311794, -1886.3531215611843, -5804.43511062087, -6817.1703001463775, -16578.937063090452, -14545.263593824338, -19881.7425825289, -11671.16453303868, -6182.760737271397, -9913.624514773432, -11283.205304527915, -11733.838824491362, 0.012, -0.026000000000000002, 0.994, 192.0, 0.0, 0.0, 0.0, 0.0, 0.0, 0.0, 0.0, 0.0, 0.0, 1.6444987243867345E9, 0.0, 2022-02-11 00:12:04.386
232.0, -8628.04158068199, -10184.862933738583, -10461.286957417364, -16642.036037687783, -2386.1828310707606, -1889.8623454406675, -5828.843215566065, -6831.296602642132, -16575.249025255325, -14538.267497809828, -19870.298489367782, -11657.999355554504, -6183.5206965828775, -9909.221221115735, -11284.099374306128, -11731.558946556921, 0.012, -0.026000000000000002, 0.994, 192.0, 0.0, 0.0, 0.0, 0.0, 0.0, 0.0, 0.0, 0.0, 0.0, 1.6444987243867412E9, 0.0, 2022-02-11 00:12:04.386
234.0, -8627.28162137051, -10184.125326171557, -10458.381230638175, -16643.354790610647, -2373.978778598163, -1885.0567203827763, -5810.045398479152, -6815.672733267872, -16576.456019455913, -14559.971041675932, -19883.530722085325, -11676.148972052213, -6183.498344838423, -9910.361160082955, -11283.160601039006, -11734.107045424826, 0.01, -0.024, 0.992, 192.0, 0.0, 40.0, 127.5, 32.0, 15.5, 0.0, 0.0, 0.0, 0.0, 1.6444987243867488E9, 0.0, 2022-02-11 00:12:04.386
236.0, -8611.74715897407, -10182.426593592954, -10446.892433988147, -16642.036037687783, -2359.3830894688476, -1885.5708105052486, -5815.1862997038725, -6819.472529825274, -16570.04106879724, -14551.522082271826, -19864.531739298312, -11666.828294614352, -6170.26611212088, -9903.186250112802, -11274.242255001338, -11729.010847689015, 0.01, -0.024, 0.992, 192.0, 0.0, 0.0, 0.0, 0.0, 0.0, 0.0, 0.0, 0.0, 0.0, 1.6444987243867679E9, 0.0, 2022-02-11 00:12:04.386
238.0, -8624.71117075815, -10189.73561402984, -10462.940986507057, -16649.859148247142, -2374.0681855759844, -1896.0984821436982, -5834.63231737999, -6832.3694863759865, -16568.722315874376, -14548.102265370164, -19866.20812013246, -11662.156780023191, -6167.226274874959, -9910.025883916127, -11272.677632889467, -11737.884490237771, 0.01, -0.024, 0.992, 192.0, 0.0, 0.0, 0.0, 0.0, 0.0, 0.0, 0.0, 0.0, 0.0, 1.6444987243867812E9, 0.0, 2022-02-11 00:12:04.386
240.0, -8627.32632485942, -10186.136983172535, -10453.73206779147, -16650.552052325256, -2376.7503949106213, -1894.6232670096479, -5829.357305688537, -6831.855396253514, -16576.254853755814, -14553.109056128153, -19876.624033048636, -11679.792306398429, -6173.641225533632, -9905.57788676952, -11278.42203121448, -11738.622097804797, 0.01, -0.024, 0.992, 192.0, 0.0, 0.0, 0.0, 0.0, 0.0, 0.0, 0.0, 0.0, 0.0, 1.6444987243867884E9, 0.0, 2022-02-11 00:12:04.386
242.0, -8632.578984806418, -10186.941645972925, -10460.169370194599, -16646.86401449013, -2383.411214758303, -1901.842880468712, -5841.20373024985, -6842.83010278107, -16582.938025347954, -14557.802922463767, -19874.858245236665, -11662.223835256558, -6179.609141303199, -9918.027808431127, -11280.456039959912, -11736.23046114808, 0.01, -0.024, 0.992, 192.0, 0.0, 0.0, 0.0, 0.0, 0.0, 0.0, 0.0, 0.0, 0.0, 1.6444987248674805E9, 0.0, 2022-02-11 00:12:04.867
244.0, -8629.986182449602, -10195.301198399211, -10456.727201548481, -16645.277040633802, -2378.784403656054, -1884.6767407270363, -5823.232927707783, -6822.311201371098, -16580.792257880243, -14562.943823688487, -19883.66483255206, -11671.656271416698, -6171.048423176816, -9911.702264750274, -11286.178086540473, -11737.884490237771, 0.012, -0.024, 0.986, 192.0, 0.0, 48.0, 127.5, 32.0, 15.0, 104.0, 0.0, 0.0, 0.0, 1.6444987248674915E9, 0.0, 2022-02-11 00:12:04.867
246.0, -8609.89196418428, -10186.44990759491, -10445.104294431721, -16646.752255767853, -2371.0954035634286, -1878.7982319352905, -5830.117265000018, -6831.184843919855, -16568.118818774085, -14545.621221735624, -19862.609489275157, -11651.025611284449, -6164.007623673395, -9899.76643321114, -11278.869066103587, -11724.741664498051, 0.012, -0.024, 0.986, 192.0, 0.0, 0.0, 0.0, 0.0, 0.0, 0.0, 0.0, 0.0, 0.0, 1.6444987248674994E9, 0.0, 2022-02-11 00:12:04.867
248.0, -8634.747104018583, -10193.20013442041, -10453.486198602463, -16652.384895370593, -2381.04192984604, -1900.591182779215, -5818.740227072266, -6840.997259735735, -16570.912786831, -14548.035210136797, -19866.61045153266, -11665.084858546837, -6165.12521089616, -9903.633285001908, -11282.244179516338, -11738.17506291569, 0.012, -0.024, 0.986, 192.0, 0.0, 0.0, 0.0, 0.0, 0.0, 0.0, 0.0, 0.0, 0.0, 1.6444987248675067E9, 0.0, 2022-02-11 00:12:04.867
250.0, -8616.709246243148, -10183.58888430463, -10441.952698463523, -16650.10501743615, -2371.1848105412496, -1886.911915172567, -5808.7266455562885, -6795.511459769185, -16584.770868393287, -14553.667849739535, -19879.50740808337, -11672.393878983723, -6171.31664411028, -9909.15416588237, -11277.662071903, -11732.430664590676, 0.012, -0.024, 0.986, 192.0, 0.0, 0.0, 0.0, 0.0, 0.0, 0.0, 0.0, 0.0, 0.0, 1.6444987248675137E9, 0.0, 2022-02-11 00:12:04.867
252.0, -8628.175691148721, -10187.299273884211, -10445.618384554195, -16659.336287896193, -2380.2819705345596, -1892.298685586296, -5826.920965542909, -6817.483224568752, -16576.56777817819, -14547.051733380764, -19865.135236398608, -11674.651405173709, -6162.174780628059, -9909.15416588237, -11273.772868367776, -11729.547289555943, 0.012, -0.024, 0.986, 192.0, 0.0, 0.0, 0.0, 0.0, 0.0, 0.0, 0.0, 0.0, 0.0, 1.6444987248675206E9, 0.0, 2022-02-11 00:12:04.867
254.0, -8627.32632485942, -10193.40130012051, -10445.148997920633, -16660.565633841234, -2375.632807687856, -1891.9857611639216, -5816.393293904459, -6820.098378670023, -16577.595958423135, -14559.345192831182, -19877.786323760312, -11685.447297745623, -6162.778277728353, -9900.213468100246, -11281.148944038028, -11738.398580360245, 0.01, -0.024, 0.984, 192.0, 0.0, 40.0, 127.5, 32.0, 15.0, 96.0, 0.0, 0.0, 0.0, 1.6444987248675275E9, 0.0, 2022-02-11 00:12:04.867
0.0, -8619.190289877688, -10189.48974484083, -10445.216053154, -16650.462645347434, -2365.9768540831633, -1888.9682756624552, -5814.024008992196, -6816.119768156978, -16574.265548499294, -14550.292736326783, -19862.609489275157, -11663.4531812016, -6164.477010306956, -9910.29410484959, -11277.013871313797, -11732.430664590676, 0.01, -0.024, 0.984, 192.0, 0.0, 0.0, 0.0, 0.0, 0.0, 0.0, 0.0, 0.0, 0.0, 1.6444987248675344E9, 0.0, 2022-02-11 00:12:04.867
2.0, -8631.595508050385, -10181.82309649266, -10446.40069561013, -16655.938822738986, -2368.8602291178977, -1897.7525112333908, -5823.6352591079785, -6829.664925296895, -16575.874874100075, -14559.278137597817, -19869.337364356204, -11674.316129006878, -6164.722879495965, -9914.496232807187, -11281.730089393866, -11739.873795494295, 0.01, -0.024, 0.984, 192.0, 0.0, 0.0, 0.0, 0.0, 0.0, 0.0, 0.0, 0.0, 0.0, 1.6444987248675413E9, 0.0, 2022-02-11 00:12:04.867
4.0, -8619.458510811151, -10190.45086985241, -10440.410428096107, -16648.071008690717, -2360.143048780328, -1885.0343686383212, -5817.890860782964, -6826.245108395232, -16571.158656020005, -14542.246108322874, -19868.242128877893, -11674.494942962521, -6160.431344560546, -9921.067645677049, -11280.523095193279, -11737.549214070943, 0.01, -0.024, 0.984, 192.0, 0.0, 0.0, 0.0, 0.0, 0.0, 0.0, 0.0, 0.0, 0.0, 1.644498724867548E9, 0.0, 2022-02-11 00:12:04.867
6.0, -8629.09211267139, -10200.151526946012, -10448.948794478036, -16653.681296549, -2371.0283483300627, -1886.3084180722735, -5826.563337631624, -6822.087683926545, -16576.523074689278, -14554.025477650819, -19864.084704409208, -11666.336556236334, -6162.130077139149, -9912.14929963938, -11278.824362614676, -11732.095388423848, 0.01, -0.024, 0.984, 192.0, 0.0, 0.0, 0.0, 0.0, 0.0, 0.0, 0.0, 0.0, 0.0, 1.6444987248675623E9, 0.0, 2022-02-11 00:12:04.867
8.0, -8626.14168240329, -10198.095166456123, -10446.646564799139, -16656.899947750564, -2364.3451767379256, -1894.489156542916, -5815.588631104068, -6826.44627409533, -16576.85835085611, -14564.284928355806, -19877.540454571303, -11683.16741981118, -6163.247664361914, -9919.324209609535, -11282.244179516338, -11737.683324537675, 0.012, -0.022, 0.988, 192.0, 0.0, 48.0, 127.5, 40.0, 15.0, 112.0, 0.0, 0.0, 0.0, 1.6444987248675697E9, 0.0, 2022-02-11 00:12:04.867
10.0, -8618.452682310663, -10184.482954082841, -10439.248137384431, -16658.553976840256, -2358.019633057074, -1886.0849006277206, -5808.950163000842, -6833.710591043305, -16570.37634496407, -14554.87484394012, -19864.50938755386, -11674.830219129351, -6158.576149770755, -9910.562325783054, -11275.89628409103, -11736.56573731491, 0.012, -0.022, 0.988, 192.0, 0.0, 0.0, 0.0, 0.0, 0.0, 0.0, 0.0, 0.0, 0.0, 1.6444987248675764E9, 0.0, 2022-02-11 00:12:04.867
12.0, -8627.840414981893, -10193.691872798428, -10448.568814822294, -16657.302279150757, -2369.37431924037, -1886.777804705835, -5823.523500385702, -6833.263556154198, -16577.32773748967, -14559.635765509101, -19869.22560563393, -11665.755410880496, -6163.404126573101, -9903.230953601713, -11274.219903256882, -11737.951545471138, 0.012, -0.022, 0.988, 192.0, 0.0, 0.0, 0.0, 0.0, 0.0, 0.0, 0.0, 0.0, 0.0, 1.6444987248675838E9, 0.0, 2022-02-11 00:12:04.867
14.0, -8616.0833973984, -10180.303177869699, -10441.68447753006, -16648.54039532428, -2362.154705781306, -1878.8652871686563, -5831.01133477823, -6816.767968746182, -16570.42104845298, -14551.745599716378, -19869.31501261175, -11663.587291668331, -6162.465353305978, -9906.337846081, -11281.528923693768, -11737.325696626389, 0.012, -0.022, 0.988, 192.0, 0.0, 0.0, 0.0, 0.0, 0.0, 0.0, 0.0, 0.0, 0.0, 1.644498724867591E9, 0.0, 2022-02-11 00:12:04.867
16.0, -8628.89094697129, -10190.2050006634, -10446.646564799139, -16652.653116304056, -2372.928246608764, -1889.6164762516592, -5826.920965542909, -6816.835023979548, -16572.589167665144, -14549.465721781937, -19866.11871315464, -11663.319070734868, -6165.482838807445, -9912.05989266156, -11282.020662071785, -11735.068170436403, 0.012, -0.022, 0.988, 192.0, 0.0, 0.0, 0.0, 0.0, 0.0, 0.0, 0.0, 0.0, 0.0, 1.6444987248675976E9, 0.0, 2022-02-11 00:12:04.867
18.0, -8633.473054584629, -10193.356596631598, -10447.585338066261, -16655.223566916415, -2366.7144616501882, -1889.0576826402764, -5820.148386972951, -6819.763102503193, -16578.378269479068, -14545.710628713445, -19877.294585382293, -11680.999300599016, -6168.7238417534645, -9926.186195157314, -11284.032319072761, -11742.019562962005, 0.008, -0.024, 0.994, 192.0, 0.0, 32.0, 127.5, 32.0, 15.5, 8.0, 0.0, 0.0, 0.0, 1.6444987248676045E9, 0.0, 2022-02-11 00:12:04.867
20.0, -8619.346752088875, -10190.11559368558, -10442.086808930257, -16656.274098905815, -2359.1595720242944, -1879.0888046132095, -5818.2931921831605, -6817.907907713403, -16575.070211299684, -14558.138198630597, -19865.001125931874, -11672.55034119491, -6168.321510353268, -9911.81402347255, -11277.974996325374, -11737.28099313748, 0.008, -0.024, 0.994, 192.0, 0.0, 0.0, 0.0, 0.0, 0.0, 0.0, 0.0, 0.0, 0.0, 1.6444987248676112E9, 0.0, 2022-02-11 00:12:04.867
22.0, -8627.974525448624, -10196.374082133065, -10448.412352611107, -16659.53745359629, -2372.570618697479, -1892.7233687309467, -5829.670230110912, -6830.938974730847, -16575.249025255325, -14553.176111361518, -19871.281966123817, -11671.83508537234, -6163.471181806467, -9908.282447848613, -11278.109106792106, -11740.544347827954, 0.008, -0.024, 0.994, 192.0, 0.0, 0.0, 0.0, 0.0, 0.0, 0.0, 0.0, 0.0, 0.0, 1.644498724867618E9, 0.0, 2022-02-11 00:12:04.867
24.0, -8617.200984621166, -10182.448945337408, -10441.460960085507, -16649.903851736053, -2369.03904307354, -1878.6641214685585, -5828.463235910325, -6829.687277041349, -16570.778676364265, -14558.965213175443, -19867.951556199976, -11666.224797514058, -6163.158257384093, -9908.282447848613, -11281.506571949312, -11739.829092005384, 0.008, -0.024, 0.994, 192.0, 0.0, 0.0, 0.0, 0.0, 0.0, 0.0, 0.0, 0.0, 0.0, 1.6444987248676248E9, 0.0, 2022-02-11 00:12:04.867
26.0, -8625.761702747548, -10187.925122728959, -10450.222843911988, -16648.38393311309, -2378.046796089029, -1888.0518541397876, -5822.338857929571, -6830.469588097285, -16576.008984566808, -14556.506521285359, -19862.631841019615, -11664.59312016882, -6167.69566150852, -9904.393244313389, -11283.540580694746, -11735.828129747884, 0.008, -0.024, 0.994, 192.0, 0.0, 0.0, 0.0, 0.0, 0.0, 0.0, 0.0, 0.0, 0.0, 1.6444987248676317E9, 0.0, 2022-02-11 00:12:04.867
28.0, -8626.298144614477, -10199.391567634531, -10455.207282925521, -16647.065180190228, -2380.371377512381, -1880.4746127694384, -5821.19891896235, -6821.148910659423, -16582.267473014294, -14561.625070765624, -19879.842684250198, -11672.706803406098, -6172.389527844135, -9902.091014634492, -11283.719394650388, -11736.3198681259, 0.008, -0.028, 0.992, 192.0, 0.0, 32.0, 127.5, 16.0, 15.5, 0.0, 0.0, 0.0, 0.0, 1.6444987248676386E9, 0.0, 2022-02-11 00:12:04.867
30.0, -8615.032865409, -10193.289541398233, -10442.802064752826, -16649.63563080259, -2370.6483686743222, -1869.2093335639638, -5825.982192275786, -6821.506538570708, -16573.796161865732, -14556.193596862984, -19860.307259596262, -11663.07320154586, -6170.93666445454, -9906.203735614268, -11281.484220204857, -11731.447187834643, 0.008, -0.028, 0.992, 192.0, 0.0, 0.0, 0.0, 0.0, 0.0, 0.0, 0.0, 0.0, 0.0, 1.6444987248676455E9, 0.0, 2022-02-11 00:12:04.867
32.0, -8622.56540329044, -10188.103936684602, -10450.11108518971, -16650.44029360298, -2379.0079211006073, -1880.9887028919106, -5837.627451137001, -6836.906890500413, -16572.27624324277, -14556.64063175209, -19863.771779986833, -11666.537721936433, -6166.600426030211, -9900.638151244897, -11283.786449883753, -11739.270298394002, 0.008, -0.028, 0.992, 192.0, 0.0, 0.0, 0.0, 0.0, 0.0, 0.0, 0.0, 0.0, 0.0, 1.6444987248676531E9, 0.0, 2022-02-11 00:12:04.867
34.0, -8616.731597987604, -10177.732727257338, -10448.322945633287, -16647.35575286815, -2374.0011303426186, -1874.4843452554162, -5826.6303928649895, -6829.933146230358, -16573.237368254348, -14537.596945476169, -19867.482169566414, -11669.30933824889, -6165.974577185461, -9903.633285001908, -11284.389946984047, -11736.163405914713, 0.008, -0.028, 0.992, 192.0, 0.0, 0.0, 0.0, 0.0, 0.0, 0.0, 0.0, 0.0, 0.0, 1.6444987248676622E9, 0.0, 2022-02-11 00:12:04.867
36.0, -8625.068798669434, -10186.695776783918, -10450.40165786763, -16654.083627949196, -2378.046796089029, -1884.3414645602065, -5822.115340485017, -6824.702838027816, -16574.13143803256, -14553.220814850429, -19860.709590996456, -11666.515370191977, -6164.700527751509, -9907.3883780704, -11282.445345216436, -11737.012772204014, 0.008, -0.028, 0.992, 192.0, 0.0, 0.0, 0.0, 0.0, 0.0, 0.0, 0.0, 0.0, 0.0, 1.64449872486767E9, 0.0, 2022-02-11 00:12:04.867
38.0, -8618.922068944225, -10178.895017969015, -10443.293803130842, -16650.261479647335, -2365.1945430272276, -1885.32494131624, -5810.157157201428, -6828.3238206295755, -16573.058554298706, -14549.488073526392, -19869.9408614565, -11681.155762810204, -6162.420649817068, -9923.146357911392, -11282.646510916533, -11743.874757751795, 0.008, -0.026000000000000002, 0.99, 192.0, 0.0, 32.0, 127.5, 24.0, 15.0, 120.0, 0.0, 0.0, 0.0, 1.6444987248676794E9, 0.0, 2022-02-11 00:12:04.867
40.0, -8606.963885660636, -10186.226390150356, -10435.627154782673, -16647.601622057155, -2354.5774644109565, -1871.9809498764218, -5812.012351991219, -6815.2927536121315, -16564.542539661234, -14548.750465959367, -19851.187747858497, -11663.609643412787, -6153.278786334848, -9904.572058269032, -11270.665975888489, -11733.168272157702, 0.008, -0.026000000000000002, 0.99, 192.0, 0.0, 0.0, 0.0, 0.0, 0.0, 0.0, 0.0, 0.0, 0.0, 1.6444987248676863E9, 0.0, 2022-02-11 00:12:04.867
42.0, -8622.923031201724, -10191.814326264182, -10445.573681065283, -16654.038924460285, -2368.502601206613, -1882.262752325863, -5810.358322901527, -6824.032285694157, -16568.05176354072, -14558.004088163863, -19857.625050261624, -11661.888559089728, -6156.788010214331, -9895.76547095364, -11273.191723011938, -11734.777597758484, 0.008, -0.026000000000000002, 0.99, 192.0, 0.0, 0.0, 0.0, 0.0, 0.0, 0.0, 0.0, 0.0, 0.0, 1.644498724867693E9, 0.0, 2022-02-11 00:12:04.867
44.0, -8613.758815975048, -10190.11559368558, -10438.35406760622, -16647.311049379237, -2367.5414761950346, -1873.6349789661144, -5815.029837492685, -6804.496861040218, -16569.70579263041, -14558.764047475344, -19862.900061953078, -11665.934224836139, -6163.404126573101, -9900.414633800345, -11273.616406156589, -11734.442321591654, 0.008, -0.026000000000000002, 0.99, 192.0, 0.0, 0.0, 0.0, 0.0, 0.0, 0.0, 0.0, 0.0, 0.0, 1.6444987248677E9, 0.0, 2022-02-11 00:12:04.867
46.0, -8620.441987567185, -10181.867799981572, -10441.282146129864, -16652.34019188168, -2370.2907407630373, -1880.0052261358771, -5816.303886926638, -6809.660114009394, -16570.778676364265, -14552.393800305583, -19856.64157350559, -11659.87690208875, -6159.246702104414, -9901.889848934396, -11271.761211366798, -11728.407350588723, 0.007, -0.026000000000000002, 0.991, 192.0, 0.0, 24.0, 127.5, 24.0, 15.5, 0.0, 0.0, 0.0, 0.0, 1.6444987248677073E9, 0.0, 2022-02-11 00:12:04.867
48.0, -8623.392417835286, -10180.929026714448, -10442.131512419166, -16647.981601712894, -2369.351967495915, -1878.0606243682653, -5814.001657247742, -6811.8282332215595, -16569.102295530116, -14553.220814850429, -19866.297527110284, -11673.578521439853, -6158.576149770755, -9911.925782194827, -11276.812705613698, -11735.60461230333, 0.007, -0.026000000000000002, 0.991, 192.0, 0.0, 0.0, 0.0, 0.0, 0.0, 0.0, 0.0, 0.0, 0.0, 1.6444987248677146E9, 0.0, 2022-02-11 00:12:04.867
50.0, -8611.925972929714, -10182.292483126223, -10442.422085097085, -16639.66675277552, -2361.595912169923, -1858.8381241367013, -5797.595476817546, -6804.1392331289335, -16570.28693798625, -14549.68923922649, -19855.568689771735, -11665.442486458121, -6158.442039304023, -9899.140584366392, -11271.403583455514, -11723.847594719839, 0.007, -0.026000000000000002, 0.991, 192.0, 0.0, 0.0, 0.0, 0.0, 0.0, 0.0, 0.0, 0.0, 0.0, 1.6444987248677216E9, 0.0, 2022-02-11 00:12:04.867
52.0, -8616.977467176614, -10176.324567356654, -10440.92451821858, -16643.690066777475, -2372.637673930845, -1873.1208888436424, -5816.5944596045565, -6817.840852480037, -16565.347202461624, -14548.21402409244, -19857.5356432838, -11659.183998010636, -6153.167027612571, -9896.145450609381, -11270.330699721659, -11723.422911575188, 0.007, -0.026000000000000002, 0.991, 192.0, 0.0, 0.0, 0.0, 0.0, 0.0, 0.0, 0.0, 0.0, 0.0, 1.64449872486773E9, 0.0, 2022-02-11 00:12:04.867
54.0, -8610.718978729126, -10171.72010799886, -10438.197605395033, -16644.762950511333, -2360.143048780328, -1871.623321965137, -5780.965778942797, -6804.698026740316, -16565.347202461624, -14538.893346654577, -19862.944765441986, -11665.64365215822, -6155.4022020581015, -9906.561363525554, -11270.978900310864, -11725.009885431515, 0.007, -0.026000000000000002, 0.991, 192.0, 0.0, 0.0, 0.0, 0.0, 0.0, 0.0, 0.0, 0.0, 0.0, 1.644498724867737E9, 0.0, 2022-02-11 00:12:04.867
56.0, -8609.489632784085, -10169.551988786698, -10439.53871006235, -16648.316877879726, -2362.3558714814035, -1874.9537318889777, -5806.647933321945, -6817.393817590931, -16565.101333272618, -14540.681486211, -19851.54537576978, -11662.536759678933, -6157.2797485923475, -9907.075453648025, -11264.295728718726, -11724.69696100914, 0.0085, -0.024, 0.9935, 192.0, 0.0, 40.0, 127.5, 40.0, 15.5, 16.0, 0.0, 0.0, 0.0, 1.644498724867744E9, 0.0, 2022-02-11 00:12:04.867
58.0, -8616.46337705414, -10184.438250593932, -10442.980878708468, -16645.880537734098, -2360.8359528584424, -1871.5115632428603, -5810.537136857169, -6817.796148991126, -16562.62028963808, -14549.443370037481, -19864.040000920297, -11658.558149165887, -6153.703469479498, -9900.839316944996, -11271.627100900067, -11729.03319943347, 0.0085, -0.024, 0.9935, 192.0, 0.0, 0.0, 0.0, 0.0, 0.0, 0.0, 0.0, 0.0, 0.0, 1.6444987248677511E9, 0.0, 2022-02-11 00:12:04.867
60.0, -8607.299161827465, -10173.709413255383, -10433.034352425857, -16642.259555132336, -2347.603720140901, -1860.1792288040197, -5780.272874864683, -6811.11297739899, -16563.961394305396, -14548.169320603529, -19855.568689771735, -11655.987698553527, -6153.211731101481, -9898.648845988375, -11260.495932161324, -11719.533708039966, 0.0085, -0.024, 0.9935, 192.0, 0.0, 0.0, 0.0, 0.0, 0.0, 0.0, 0.0, 0.0, 0.0, 1.6444987248677583E9, 0.0, 2022-02-11 00:12:04.867
62.0, -8619.860842211347, -10175.452849322897, -10443.562024064306, -16643.734770266386, -2365.798040127521, -1868.2929120412962, -5799.942409985353, -6816.835023979548, -16565.52601641727, -14546.716457213934, -19857.69210549499, -11659.608681155287, -6151.445943289512, -9903.633285001908, -11261.61351938409, -11722.88646970826, 0.0085, -0.024, 0.9935, 192.0, 0.0, 0.0, 0.0, 0.0, 0.0, 0.0, 0.0, 0.0, 0.0, 1.6444987248677652E9, 0.0, 2022-02-11 00:12:04.867
64.0, -8606.382740304798, -10164.388735817522, -10435.135416404655, -16638.549165552755, -2363.540513937535, -1856.2900252687962, -5799.04834020714, -6802.999294161713, -16562.732048360354, -14550.315088071238, -19861.335439841205, -11660.458047444588, -6152.854103190196, -9891.004549384661, -11265.882702575052, -11718.192603372647, 0.0085, -0.024, 0.9935, 192.0, 0.0, 0.0, 0.0, 0.0, 0.0, 0.0, 0.0, 0.0, 0.0, 1.6444987248677723E9, 0.0, 2022-02-11 00:12:04.867
66.0, -8607.634437994295, -10170.87074170956, -10433.794311737336, -16639.91262196453, -2363.3393482374368, -1861.4309264935168, -5808.123148455996, -6810.285962854143, -16560.56392914819, -14543.095474612175, -19850.40543680256, -11655.138332264225, -6152.004736900894, -9886.131869093404, -11261.61351938409, -11715.353931826823, 0.01025, -0.026000000000000002, 0.99175, 192.0, 0.0, 48.0, 127.5, 16.0, 15.0, 120.0, 0.0, 0.0, 0.0, 1.6444987248677793E9, 0.0, 2022-02-11 00:12:04.867
68.0, -8612.998856663567, -10168.501456797298, -10435.314230360298, -16638.86208997513, -2361.4841534476463, -1866.3259585292292, -5800.903534996932, -6808.117843641979, -16554.730123845355, -14537.149910587063, -19860.754294485367, -11664.503713191, -6145.433324031034, -9892.278598818613, -11263.871045574075, -11718.84080396185, 0.01025, -0.026000000000000002, 0.99175, 192.0, 0.0, 0.0, 0.0, 0.0, 0.0, 0.0, 0.0, 0.0, 0.0, 1.644498724867787E9, 0.0, 2022-02-11 00:12:04.867
70.0, -8603.94640015917, -10167.763849230272, -10430.39684658013, -16634.95053469545, -2352.5881591544344, -1859.7992491482794, -5783.156249899417, -6800.786471460638, -16555.355972690104, -14536.412303020037, -19848.416131546037, -11648.701029861097, -6142.907576907584, -9891.496287762677, -11257.009060026296, -11714.638676004253, 0.01025, -0.026000000000000002, 0.99175, 192.0, 0.0, 0.0, 0.0, 0.0, 0.0, 0.0, 0.0, 0.0, 0.0, 1.6444987248677983E9, 0.0, 2022-02-11 00:12:04.867
72.0, -8617.1339293878, -10169.77550623125, -10436.1635966496, -16639.175014397504, -2364.6357494158447, -1867.2870835408073, -5796.410834361414, -6811.582364032551, -16558.440513424935, -14544.369524046127, -19854.361695571148, -11655.07127703086, -6139.621870472654, -9888.434098772299, -11261.278243217259, -11716.896202194239, 0.01025, -0.026000000000000002, 0.99175, 192.0, 0.0, 0.0, 0.0, 0.0, 0.0, 0.0, 0.0, 0.0, 0.0, 1.6444987248678055E9, 0.0, 2022-02-11 00:12:04.867
74.0, -8612.37300781882, -10168.590863775118, -10430.933288447057, -16634.99523818436, -2354.8903888333307, -1859.9557113594667, -5796.544944828146, -6807.91667794188, -16559.714562858888, -14533.551279729758, -19862.900061953078, -11665.084858546837, -6147.668498476565, -9888.992892383683, -11264.452190929913, -11718.863155706305, 0.01025, -0.026000000000000002, 0.99175, 192.0, 0.0, 0.0, 0.0, 0.0, 0.0, 0.0, 0.0, 0.0, 0.0, 1.6444987248678129E9, 0.0, 2022-02-11 00:12:04.867
76.0, -8603.27584782551, -10154.643375235008, -10430.977991935968, -16635.06229341773, -2363.138182537339, -1854.3230717567292, -5829.983154533285, -6811.336494843543, -16555.28891745674, -14536.50170999786, -19850.003105402364, -11652.21025374058, -6145.634489731132, -9879.940435879284, -11262.485237417846, -11714.929248682172, 0.008125, -0.026000000000000002, 0.9918750000000001, 192.0, 0.0, 24.0, 127.5, 24.0, 15.5, 0.0, 0.0, 0.0, 0.0, 1.64449872486782E9, 0.0, 2022-02-11 00:12:04.867
78.0, -8617.960943932647, -10167.29446259671, -10436.610631538706, -16642.237203387882, -2359.18192376875, -1869.7010719419804, -5779.579970786568, -6808.96720993128, -16556.428856423958, -14546.403532791559, -19859.659059007055, -11665.21896901357, -6146.729725209442, -9875.134810821392, -11264.563949652189, -11721.098330151837, 0.008125, -0.026000000000000002, 0.9918750000000001, 192.0, 0.0, 0.0, 0.0, 0.0, 0.0, 0.0, 0.0, 0.0, 0.0, 1.6444987248678274E9, 0.0, 2022-02-11 00:12:04.867
80.0, -8612.75298747456, -10162.600596261096, -10435.805968738314, -16641.030209187295, -2352.8787318323534, -1867.8682288966454, -5776.249560862728, -6809.526003542663, -16562.396772193526, -14533.014837862831, -19853.89230893759, -11652.634936885232, -6151.691812478521, -9896.01134014265, -11259.758324594299, -11720.450129562632, 0.008125, -0.026000000000000002, 0.9918750000000001, 192.0, 0.0, 0.0, 0.0, 0.0, 0.0, 0.0, 0.0, 0.0, 0.0, 1.6444987248678348E9, 0.0, 2022-02-11 00:12:04.867
82.0, -8619.525566044518, -10173.105916155091, -10440.455131585019, -16641.81252024323, -2369.1955052847275, -1870.8633626536564, -5796.768462272699, -6807.670808752872, -16563.357897205104, -14539.765064688334, -19858.92145144003, -11657.73113462104, -6153.859931690685, -9896.570133754032, -11266.553254908713, -11723.445263319643, 0.008125, -0.026000000000000002, 0.9918750000000001, 192.0, 0.0, 0.0, 0.0, 0.0, 0.0, 0.0, 0.0, 0.0, 0.0, 1.6444987248678427E9, 0.0, 2022-02-11 00:12:04.867
84.0, -8598.626684978806, -10159.29253808171, -10430.508605302406, -16635.554031795746, -2357.1255632788616, -1860.4698014819387, -5791.7169680258, -6807.782567475148, -16553.679591855955, -14547.655230481058, -19854.27228859333, -11656.68060263164, -6149.724858966453, -9885.126040592915, -11268.766077609787, -11722.618248774797, 0.008125, -0.026000000000000002, 0.9918750000000001, 192.0, 0.0, 0.0, 0.0, 0.0, 0.0, 0.0, 0.0, 0.0, 0.0, 1.6444987248678503E9, 0.0, 2022-02-11 00:12:04.867
86.0, -8606.807423449449, -10155.91742466896, -10430.910936702603, -16640.53847080928, -2363.3393482374368, -1861.4532782379722, -5802.758729786722, -6820.2101373923, -16545.521205129768, -14534.087721596685, -19838.491957007882, -11651.606756640287, -6141.365306540169, -9878.19699981177, -11264.94392930793, -11721.277144107478, 0.0080625, -0.025, 0.9929375, 192.0, 0.0, 32.0, 127.5, 32.0, 15.5, 8.0, 0.0, 0.0, 0.0, 1.644498724867858E9, 0.0, 2022-02-11 00:12:04.867
88.0, -8614.094092141879, -10161.43830554942, -10437.124721661177, -16635.53168005129, -2372.302397764015, -1860.0004148483772, -5808.592535089557, -6802.284038339143, -16550.12566448756, -14535.205308819452, -19855.099303138173, -11661.150951522703, -6148.093181621216, -9873.883113131895, -11269.257815987805, -11723.154690641724, 0.0080625, -0.025, 0.9929375, 192.0, 0.0, 0.0, 0.0, 0.0, 0.0, 0.0, 0.0, 0.0, 0.0, 1.6444987248678648E9, 0.0, 2022-02-11 00:12:04.867
90.0, -8604.974580404112, -10150.262433321766, -10424.96537267749, -16631.73188349389, -2363.9651970821856, -1858.3240340142293, -5799.00363671823, -6803.423977306364, -16546.974068519365, -14535.138253586085, -19843.230526832405, -11642.889576302718, -6145.522731008856, -9876.252398044158, -11268.855484587608, -11719.131376639769, 0.0080625, -0.025, 0.9929375, 192.0, 0.0, 0.0, 0.0, 0.0, 0.0, 0.0, 0.0, 0.0, 0.0, 1.6444987248678715E9, 0.0, 2022-02-11 00:12:04.867
92.0, -8616.217507865133, -10156.118590369057, -10435.649506527127, -16638.66092427503, -2374.6493309318225, -1871.1539353315754, -5788.543020313146, -6812.2976198551205, -16553.590184878132, -14543.341343801183, -19851.679486236513, -11656.25591948699, -6151.133018867138, -9877.749964922663, -11264.720411863376, -11721.388902829756, 0.0080625, -0.025, 0.9929375, 192.0, 0.0, 0.0, 0.0, 0.0, 0.0, 0.0, 0.0, 0.0, 0.0, 1.6444987248678787E9, 0.0, 2022-02-11 00:12:04.867
94.0, -8612.663580496739, -10175.54225630072, -10429.100445401722, -16633.56472653922, -2365.8650953608867, -1861.810906149257, -5790.666436036401, -6810.464776809786, -16549.56687087618, -14539.295678054772, -19856.015724660843, -11653.417247941166, -6151.334184567236, -9883.360252780945, -11269.883664832552, -11721.254792363025, 0.0080625, -0.025, 0.9929375, 192.0, 0.0, 0.0, 0.0, 0.0, 0.0, 0.0, 0.0, 0.0, 0.0, 1.644498724867886E9, 0.0, 2022-02-11 00:12:04.867
96.0, -8611.501289785063, -10168.769677730761, -10427.424064567575, -16637.141005652073, -2364.144011037828, -1870.8633626536564, -5798.377787873482, -6821.461835081796, -16550.03625750974, -14536.099378597663, -19844.951611155466, -11644.454198414589, -6148.271995576858, -9881.81798241353, -11264.094563018629, -11721.813585974407, 0.00803125, -0.025500000000000002, 0.99246875, 192.0, 0.0, 32.0, 127.5, 24.0, 15.5, 0.0, 0.0, 0.0, 0.0, 1.6444987248678937E9, 0.0, 2022-02-11 00:12:04.867
98.0, -8618.1844613772, -10169.887264953526, -10434.688381515549, -16635.330514351193, -2370.2907407630373, -1870.1257550866312, -5804.748035043244, -6816.835023979548, -16550.28212669875, -14549.845701437676, -19857.78151247281, -11660.413343955677, -6151.6471089896095, -9886.757717938151, -11266.79912409772, -11725.143995898246, 0.00803125, -0.025500000000000002, 0.99246875, 192.0, 0.0, 0.0, 0.0, 0.0, 0.0, 0.0, 0.0, 0.0, 0.0, 1.6444987248679028E9, 0.0, 2022-02-11 00:12:04.867
100.0, -8617.491557299085, -10158.085543881125, -10434.755436748916, -16633.676485261498, -2373.9340751092527, -1866.258903295863, -5801.685846052867, -6817.773797246671, -16554.21603372288, -14539.228622821407, -19854.182881615507, -11655.898291575706, -6157.145638125616, -9880.119249834926, -11269.32487122117, -11720.60659177382, 0.00803125, -0.025500000000000002, 0.99246875, 192.0, 0.0, 0.0, 0.0, 0.0, 0.0, 0.0, 0.0, 0.0, 0.0, 1.6444987248679185E9, 0.0, 2022-02-11 00:12:04.867
102.0, -8638.99393546509, -10179.654977280496, -10446.668916543595, -16638.392703341568, -2391.4801945066683, -1877.747699945891, -5817.95791601633, -6813.482262311252, -16570.08577228615, -14549.108093870653, -19867.526873055325, -11659.273404988457, -6169.327338853757, -9892.345654051978, -11274.398717212525, -11722.55119354143, 0.00803125, -0.025500000000000002, 0.99246875, 192.0, 0.0, 0.0, 0.0, 0.0, 0.0, 0.0, 0.0, 0.0, 0.0, 1.6444987248679278E9, 0.0, 2022-02-11 00:12:04.867
104.0, -8621.559574789952, -10160.2983665822, -10436.230651882965, -16634.503499806346, -2372.1906390417385, -1866.460068995961, -5802.781081531177, -6808.475471553264, -16564.09550477213, -14547.968154903432, -19868.08566666671, -11677.825352886362, -6166.175742885559, -9894.290255819591, -11277.349147480625, -11723.244097619547, 0.00803125, -0.025500000000000002, 0.99246875, 192.0, 0.0, 0.0, 0.0, 0.0, 0.0, 0.0, 0.0, 0.0, 0.0, 1.6444987248679347E9, 0.0, 2022-02-11 00:12:04.867
106.0, -8627.572194048429, -10186.785183761738, -10436.320058860787, -16638.504462063847, -2369.8660576183865, -1871.0645283537542, -5789.079462180074, -6813.974000689269, -16563.22378673837, -14553.69020148399, -19853.959364170954, -11647.695201360608, -6157.302100336802, -9882.846162658472, -11271.247121244327, -11720.65129526273, 0.009015625, -0.02775, 0.991234375, 192.0, 0.0, 40.0, 127.5, 8.0, 15.0, 120.0, 0.0, 0.0, 0.0, 1.6444987253466196E9, 0.0, 2022-02-11 00:12:05.346
108.0, -8643.598394822884, -10191.926084986459, -10439.248137384431, -16635.643438773568, -2376.593932699434, -1870.326920786729, -5795.00267446073, -6808.319009342076, -16566.844769340132, -14566.430695823516, -19869.359716100662, -11665.286024246934, -6158.263225348381, -9886.400090026867, -11274.733993379354, -11722.439434819154, 0.009015625, -0.02775, 0.991234375, 192.0, 0.0, 0.0, 0.0, 0.0, 0.0, 0.0, 0.0, 0.0, 0.0, 1.6444987253468213E9, 0.0, 2022-02-11 00:12:05.346
110.0, -8648.33696464741, -10206.946457260425, -10435.582451293762, -16636.470453318412, -2369.37431924037, -1864.3813567616173, -5798.28838089566, -6814.331628600554, -16572.410353709503, -14560.395724820582, -19863.570614286735, -11660.793323611419, -6163.895864951118, -9882.309720791545, -11274.823400357176, -11716.069187649393, 0.009015625, -0.02775, 0.991234375, 192.0, 0.0, 0.0, 0.0, 0.0, 0.0, 0.0, 0.0, 0.0, 0.0, 1.6444987253468285E9, 0.0, 2022-02-11 00:12:05.346
112.0, -8693.308674491487, -10245.860844357116, -10445.193701409544, -16645.92524122301, -2382.6736071912774, -1875.0207871223436, -5804.926848998886, -6816.186823390344, -16586.46960097189, -14575.952538961476, -19877.808675504766, -11676.528951707955, -6165.482838807445, -9888.523505750121, -11274.890455590541, -11722.059455163415, 0.009015625, -0.02775, 0.991234375, 192.0, 0.0, 0.0, 0.0, 0.0, 0.0, 0.0, 0.0, 0.0, 0.0, 1.6444987253468351E9, 0.0, 2022-02-11 00:12:05.346
114.0, -8706.406796742296, -10259.428353241487, -10434.621326282184, -16639.219717886415, -2369.2625605180933, -1859.911007870556, -5819.947221272853, -6817.639686779939, -16593.42099349749, -14579.864094241155, -19891.867922767153, -11686.028443101459, -6166.332205096746, -9885.863648159939, -11276.700946891422, -11721.902992952228, 0.009015625, -0.02775, 0.991234375, 192.0, 0.0, 0.0, 0.0, 0.0, 0.0, 0.0, 0.0, 0.0, 0.0, 1.6444987253468423E9, 0.0, 2022-02-11 00:12:05.346
116.0, -8761.928529969278, -10305.830574730704, -10439.002268195423, -16644.606488300145, -2372.928246608764, -1866.7059381849692, -5792.05224419263, -6818.600811791517, -16606.67557795949, -14580.668757041545, -19888.693975054503, -11680.529913965454, -6161.437173061035, -9877.302930033557, -11268.22963574286, -11717.902030694728, 0.008, -0.03, 0.99, 192.0, 0.0, 32.0, 127.5, 8.0, 15.0, 120.0, 0.0, 0.0, 0.0, 1.6444987253468504E9, 0.0, 2022-02-11 00:12:05.346
118.0, -8817.003228307156, -10365.442677193008, -10451.206320668021, -16651.5802325702, -2371.6765489192667, -1872.3832812766173, -5772.069784649585, -6795.958494658291, -16634.39174108407, -14617.99617028191, -19925.79787085031, -11713.498737037033, -6172.389527844135, -9893.284427319102, -11270.017775299284, -11719.824280717885, 0.008, -0.03, 0.99, 192.0, 0.0, 0.0, 0.0, 0.0, 0.0, 0.0, 0.0, 0.0, 0.0, 1.6444987253468573E9, 0.0, 2022-02-11 00:12:05.346
120.0, -8833.521167459628, -10383.05585182379, -10440.052800184823, -16650.10501743615, -2356.0973830339176, -1856.5358944578047, -5770.527514282169, -6789.767061444171, -16640.78433999829, -14622.444167428515, -19927.943638318022, -11721.187737129658, -6166.868646963674, -9889.81990692853, -11265.346260708126, -11715.309228337912, 0.008, -0.03, 0.99, 192.0, 0.0, 0.0, 0.0, 0.0, 0.0, 0.0, 0.0, 0.0, 0.0, 1.644498725346864E9, 0.0, 2022-02-11 00:12:05.346
122.0, -8856.722278204237, -10396.556305474794, -10442.220919396988, -16657.928127995507, -2366.535647694546, -1854.7701066458353, -5790.5323255696685, -6805.3685790739755, -16642.348962110158, -14623.293533717817, -19930.983475563942, -11725.054588920426, -6159.000832915406, -9872.072621831016, -11262.306423462203, -11714.057530648415, 0.008, -0.03, 0.99, 192.0, 0.0, 0.0, 0.0, 0.0, 0.0, 0.0, 0.0, 0.0, 0.0, 1.644498725346871E9, 0.0, 2022-02-11 00:12:05.346
124.0, -8850.955528134768, -10390.498982727408, -10437.862329228203, -16652.25078490386, -2360.0983452914174, -1859.9780631039218, -5778.887066708454, -6797.634875492439, -16638.30329636375, -14622.354760450693, -19933.643333154123, -11729.457882578121, -6158.464391048478, -9884.679005703809, -11266.217978741883, -11719.310190595412, 0.008, -0.03, 0.99, 192.0, 0.0, 0.0, 0.0, 0.0, 0.0, 0.0, 0.0, 0.0, 0.0, 1.644498725346877E9, 0.0, 2022-02-11 00:12:05.346
126.0, -8849.569719978539, -10382.09472681221, -10446.847730499236, -16652.72017153742, -2366.6697581612775, -1867.1306213296202, -5783.29036036615, -6801.680541238849, -16646.30522087875, -14614.285780702327, -19927.206030750996, -11726.663914521208, -6160.520751538366, -9901.487517534199, -11264.787467096743, -11717.499699294533, 0.01, -0.028, 0.988, 192.0, 0.0, 40.0, 127.5, 16.0, 15.0, 112.0, 0.0, 0.0, 0.0, 1.6444987253468845E9, 0.0, 2022-02-11 00:12:05.346
128.0, -8838.326792517519, -10387.839125137225, -10442.936175219558, -16648.562747068732, -2376.1021943214173, -1866.1694963180419, -5786.777232501177, -6805.72620698526, -16641.96898245442, -14623.472347673458, -19936.258487255393, -11729.122606411293, -6164.812286473785, -9891.853915673963, -11273.594054412133, -11724.764016242507, 0.01, -0.028, 0.988, 192.0, 0.0, 0.0, 0.0, 0.0, 0.0, 0.0, 0.0, 0.0, 0.0, 1.6444987253468924E9, 0.0, 2022-02-11 00:12:05.346
