%OpenBCI Raw EEG Data
%Number of channels = 16
%Sample Rate = 125 Hz
%Board = OpenBCI_GUI$BoardCytonSerialDaisy
Sample Index, EXG Channel 0, EXG Channel 1, EXG Channel 2, EXG Channel 3, EXG Channel 4, EXG Channel 5, EXG Channel 6, EXG Channel 7, EXG Channel 8, EXG Channel 9, EXG Channel 10, EXG Channel 11, EXG Channel 12, EXG Channel 13, EXG Channel 14, EXG Channel 15, Accel Channel 0, Accel Channel 1, Accel Channel 2, Other, Other, Other, Other, Other, Other, Other, Analog Channel 0, Analog Channel 1, Analog Channel 2, Timestamp, Other, Timestamp (Formatted)
42.0, -8228.72766598793, -9758.436353020234, -10305.048263674767, -16328.128138557451, -2124.3992000102044, -1693.2787529562418, -5413.726617542103, -6365.68741389363, -17033.482138333577, -15528.226259735378, -19989.14271463665, -11294.962322111407, -5995.207249546916, -10585.47324961105, -10760.219187762641, -11350.975793716407, 0.008, -0.03, 0.986, 192.0, 0.0, 32.0, 127.5, 8.0, 15.0, 104.0, 0.0, 0.0, 0.0, 1.644498571182702E9, 0.0, 2022-02-11 00:09:31.182
44.0, -8240.261166126867, -9768.293472325024, -10310.099757921667, -16332.553783959602, -2135.6197757267687, -1695.983314035334, -5434.625498607815, -6383.010015846493, -17040.299420392446, -15536.161129017011, -19982.973633166985, -11289.106165064117, -6005.064368851706, -10593.564581103872, -10757.60403366137, -11353.43448560649, 0.008, -0.03, 0.986, 192.0, 0.0, 0.0, 0.0, 0.0, 0.0, 0.0, 0.0, 0.0, 0.0, 1.6444985711827104E9, 0.0, 2022-02-11 00:09:31.182
46.0, -8237.489549814409, -9771.042736893027, -10313.430167845509, -16330.698589169811, -2132.8481594143104, -1691.244744210809, -5436.435989908694, -6377.422079732666, -17038.71244653612, -15536.384646461565, -19997.14463915165, -11298.136269824061, -5997.643589692544, -10595.598589849305, -10765.293033753996, -11355.423790863013, 0.008, -0.03, 0.986, 192.0, 0.0, 0.0, 0.0, 0.0, 0.0, 0.0, 0.0, 0.0, 0.0, 1.644498571182718E9, 0.0, 2022-02-11 00:09:31.182
48.0, -8224.81611070825, -9764.828951934453, -10303.438938073987, -16329.312781013583, -2116.9113656176764, -1681.633494095027, -5427.651754337759, -6376.371547743267, -17035.672609290195, -15531.489614425853, -19982.817170955797, -11288.6144266861, -6003.008008361818, -10590.122412457755, -10761.716754641147, -11351.512235583334, 0.008, -0.03, 0.986, 192.0, 0.0, 0.0, 0.0, 0.0, 0.0, 0.0, 0.0, 0.0, 0.0, 1.644498571182725E9, 0.0, 2022-02-11 00:09:31.182
50.0, -8233.600346279187, -9759.397478031811, -10312.536098067296, -16330.072740325064, -2129.607156468291, -1690.8424128106133, -5437.978260276111, -6380.461916978588, -17037.438397102167, -15532.718960370894, -19987.600444269236, -11288.525019708279, -5998.224735048382, -10585.830877522336, -10764.287205253508, -11353.859168751142, 0.008, -0.03, 0.986, 192.0, 0.0, 0.0, 0.0, 0.0, 0.0, 0.0, 0.0, 0.0, 0.0, 1.64449857118274E9, 0.0, 2022-02-11 00:09:31.182
52.0, -8223.162081618557, -9751.17203607226, -10305.092967163679, -16322.964885588275, -2117.4701592290594, -1676.3361306591191, -5430.1775014612085, -6365.061565048882, -17028.676513275685, -15524.270000966788, -19987.555740780324, -11292.883609877064, -5996.7942234032425, -10580.511162341973, -10769.092830311398, -11351.914566983529, 0.006, -0.022, 0.986, 192.0, 0.0, 24.0, 127.5, 40.0, 15.0, 104.0, 0.0, 0.0, 0.0, 1.6444985711827471E9, 0.0, 2022-02-11 00:09:31.182
54.0, -8234.427360824033, -9760.604472232399, -10309.339798610186, -16330.60918219199, -2120.7111621750787, -1679.3759679050409, -5431.78682706199, -6373.912855853183, -17036.969010468605, -15523.64415212204, -19982.28072908887, -11283.250008016827, -5994.983732102362, -10572.375127360241, -10761.448533707684, -11347.265404136826, 0.006, -0.022, 0.986, 192.0, 0.0, 0.0, 0.0, 0.0, 0.0, 0.0, 0.0, 0.0, 0.0, 1.6444985711827543E9, 0.0, 2022-02-11 00:09:31.182
56.0, -8225.978401419927, -9748.266309293069, -10308.713949765439, -16324.66361816688, -2119.8170923968664, -1682.4158051509626, -5430.088094483387, -6373.4658209640775, -17030.75522551003, -15527.242782979345, -19998.083412418775, -11296.549295967734, -5995.5648774582005, -10562.115676655254, -10763.482542453115, -11350.372296616113, 0.006, -0.022, 0.986, 192.0, 0.0, 0.0, 0.0, 0.0, 0.0, 0.0, 0.0, 0.0, 0.0, 1.6444985711827612E9, 0.0, 2022-02-11 00:09:31.182
58.0, -8215.3389710592, -9756.536454741532, -10300.354397339153, -16320.036807064631, -2109.3564759917826, -1681.8570115395798, -5429.21637644963, -6374.829277375851, -17024.94377195165, -15518.704416597417, -19977.475104030982, -11282.244179516338, -5990.580438444667, -10591.642331080715, -10760.040373806998, -11345.611375047134, 0.006, -0.022, 0.986, 192.0, 0.0, 0.0, 0.0, 0.0, 0.0, 0.0, 0.0, 0.0, 0.0, 1.6444985711827683E9, 0.0, 2022-02-11 00:09:31.182
60.0, -8228.81707296575, -9757.005841375094, -10312.916077723035, -16322.98723733273, -2121.3593627642827, -1692.6752558559485, -5447.902434814267, -6382.808850146395, -17032.18573715517, -15512.512983383296, -19980.04555464334, -11285.507534206812, -5984.187839530449, -10592.581104347839, -10767.863484366357, -11350.238186149381, 0.006, -0.022, 0.986, 192.0, 0.0, 0.0, 0.0, 0.0, 0.0, 0.0, 0.0, 0.0, 0.0, 1.644498571182776E9, 0.0, 2022-02-11 00:09:31.182
62.0, -8218.803491449773, -9757.296414053013, -10302.433109573498, -16324.887135611432, -2118.23011854054, -1690.7753575772474, -5441.107504499853, -6382.361815257289, -17028.78827199796, -15521.028998020769, -19983.688888989556, -11285.060499317706, -5992.837964634653, -10584.266255410465, -10769.293996011496, -11350.86403499413, 0.006, -0.022, 0.996, 192.0, 0.0, 24.0, 127.5, 40.0, 15.5, 16.0, 0.0, 0.0, 0.0, 1.644498571182784E9, 0.0, 2022-02-11 00:09:31.182
64.0, -8234.807340479772, -9767.488809524633, -10305.830574730704, -16334.364275260483, -2124.890938388221, -1702.308857716186, -5447.678917369713, -6393.470632251577, -17035.89612673475, -15532.830719093172, -19976.75984820841, -11286.870990618587, -6005.019665362795, -10589.72008105756, -10765.047164564987, -11353.658003051043, 0.006, -0.022, 0.996, 192.0, 0.0, 0.0, 0.0, 0.0, 0.0, 0.0, 0.0, 0.0, 0.0, 1.644498571182792E9, 0.0, 2022-02-11 00:09:31.182
66.0, -8231.968668933949, -9764.247806578614, -10307.37284509812, -16331.078568825553, -2126.2767465444504, -1691.1329854885323, -5448.014193536544, -6389.939056627639, -17035.762016268018, -15537.055198795224, -19994.730650750476, -11294.403528500025, -6002.292752539248, -10579.61709256376, -10770.500990212082, -11357.144875186072, 0.006, -0.022, 0.996, 192.0, 0.0, 0.0, 0.0, 0.0, 0.0, 0.0, 0.0, 0.0, 0.0, 1.6444985711827993E9, 0.0, 2022-02-11 00:09:31.182
68.0, -8224.279668841324, -9761.677355966254, -10307.439900331487, -16334.408978749392, -2119.347705763305, -1688.0260930092447, -5431.0045160060545, -6375.790402387429, -17032.76688251101, -15535.155300516522, -19984.538255278858, -11290.871952876087, -5997.75534841482, -10566.206045890576, -10766.589434932404, -11350.662869294032, 0.006, -0.022, 0.996, 192.0, 0.0, 0.0, 0.0, 0.0, 0.0, 0.0, 0.0, 0.0, 0.0, 1.644498571182806E9, 0.0, 2022-02-11 00:09:31.182
70.0, -8244.955032462482, -9768.159361858292, -10324.293115650788, -16337.828795651056, -2128.668383201168, -1703.33703796113, -5439.297013198974, -6373.979911086549, -17041.975801226592, -15542.106693042124, -19996.205865884527, -11297.644531446043, -6000.772833916287, -10582.254598409487, -10771.730336157125, -11353.948575728962, 0.006, -0.022, 0.996, 192.0, 0.0, 0.0, 0.0, 0.0, 0.0, 0.0, 0.0, 0.0, 0.0, 1.6444985711828134E9, 0.0, 2022-02-11 00:09:31.182
72.0, -8231.58868927821, -9768.338175813935, -10313.47487133442, -16329.022208335664, -2121.739342420023, -1690.8424128106133, -5436.145417230776, -6374.181076786647, -17043.942754738662, -15539.469187196397, -20005.191267155562, -11307.121671095094, -5999.945819371441, -10584.66858681066, -10776.446554237195, -11352.875691995108, 0.012, -0.022, 0.994, 192.0, 0.0, 48.0, 127.5, 40.0, 15.5, 8.0, 0.0, 0.0, 0.0, 1.64449857118282E9, 0.0, 2022-02-11 00:09:31.182
74.0, -8245.647936540596, -9779.402289319312, -10315.844156246681, -16332.017342092675, -2122.0746185868525, -1701.3924361935183, -5431.160978217242, -6383.792326902429, -17041.081731448383, -15541.480844197375, -19987.91336869161, -11292.436574987958, -6006.226659563382, -10586.9484647451, -10766.70119365468, -11348.517101826323, 0.012, -0.022, 0.994, 192.0, 0.0, 0.0, 0.0, 0.0, 0.0, 0.0, 0.0, 0.0, 0.0, 1.644498571182832E9, 0.0, 2022-02-11 00:09:31.182
76.0, -8246.273785385345, -9771.735640971141, -10320.918002238037, -16327.636400179435, -2128.8248454123554, -1696.3409419466188, -5438.022963765021, -6380.64073093423, -17042.75811228253, -15546.532338444275, -20005.414784600114, -11301.109051836616, -6005.846679907641, -10599.24192419552, -10768.534036700015, -11353.680354795499, 0.012, -0.022, 0.994, 192.0, 0.0, 0.0, 0.0, 0.0, 0.0, 0.0, 0.0, 0.0, 0.0, 1.644498571182839E9, 0.0, 2022-02-11 00:09:31.182
78.0, -8233.376828834633, -9771.914454926784, -10315.128900424112, -16331.52560371466, -2124.7568279214893, -1690.4847848993284, -5445.130818501809, -6380.059585578392, -17039.89708899225, -15540.475015696886, -19993.81422922781, -11293.28594127726, -6003.298581039737, -10586.14380194471, -10766.142400043298, -11346.058409936239, 0.012, -0.022, 0.994, 192.0, 0.0, 0.0, 0.0, 0.0, 0.0, 0.0, 0.0, 0.0, 0.0, 1.6444985711828454E9, 0.0, 2022-02-11 00:09:31.182
80.0, -8247.905462730583, -9772.36148981589, -10325.343647640188, -16336.018304350175, -2141.7218019630673, -1707.0921310296217, -5438.827626565412, -6390.944885128127, -17048.74837979655, -15549.683934412473, -20006.867647989708, -11298.672711690988, -6016.66492422401, -10591.61997933626, -10770.679804167725, -11354.373258873613, 0.011, -0.022, 0.992, 192.0, 0.0, 40.0, 127.5, 40.0, 15.0, 120.0, 0.0, 0.0, 0.0, 1.6444985711828527E9, 0.0, 2022-02-11 00:09:31.182
82.0, -8231.67809625603, -9771.042736893027, -10317.319371380732, -16328.195193790818, -2129.2048250680955, -1692.5187936447614, -5423.315515913429, -6380.327806511857, -17041.99815297105, -15545.057123310224, -20009.080470690784, -11300.99729311434, -6006.673694452488, -10591.284703169431, -10770.389231489806, -11349.142950671072, 0.011, -0.022, 0.992, 192.0, 0.0, 0.0, 0.0, 0.0, 0.0, 0.0, 0.0, 0.0, 0.0, 1.6444985711828597E9, 0.0, 2022-02-11 00:09:31.182
84.0, -8233.510939301364, -9771.60153050441, -10316.872336491626, -16335.258345038696, -2131.7529239360006, -1695.4245204239512, -5436.190120719686, -6388.106213582303, -17039.22653665859, -15534.84237609415, -19991.869627460197, -11287.586246441157, -6013.155700344527, -10573.604473305282, -10766.544731443493, -11346.706610525443, 0.011, -0.022, 0.992, 192.0, 0.0, 0.0, 0.0, 0.0, 0.0, 0.0, 0.0, 0.0, 0.0, 1.6444985711828666E9, 0.0, 2022-02-11 00:09:31.182
86.0, -8240.350573104688, -9772.74146947163, -10315.687694035494, -16332.509080470692, -2133.0046216254977, -1691.2000407218982, -5435.005478263554, -6389.0226351049705, -17035.13616742327, -15536.384646461565, -19999.82684848629, -11300.639665203056, -6005.064368851706, -10586.970816489556, -10768.46698146665, -11350.349944871657, 0.011, -0.022, 0.992, 192.0, 0.0, 0.0, 0.0, 0.0, 0.0, 0.0, 0.0, 0.0, 0.0, 1.6444985711828732E9, 0.0, 2022-02-11 00:09:31.182
88.0, -8233.086256156714, -9769.70163222571, -10310.345627110675, -16332.263211281683, -2125.762656421978, -1685.4556423968843, -5429.708114827647, -6378.763184399985, -17033.303324377935, -15535.803501105727, -19986.795781468845, -11292.682444176966, -5989.038168077251, -10586.233208922531, -10766.634138421314, -11347.712439025932, 0.011, -0.022, 0.992, 192.0, 0.0, 0.0, 0.0, 0.0, 0.0, 0.0, 0.0, 0.0, 0.0, 1.6444985711828802E9, 0.0, 2022-02-11 00:09:31.182
90.0, -8240.194110893503, -9771.13214387085, -10320.09098769319, -16336.510042728192, -2141.9453194076204, -1701.437139682429, -5444.013231279044, -6388.26267579349, -17035.270277890002, -15540.989105819359, -19993.99304318345, -11295.610522700612, -6007.277191552782, -10580.600569319793, -10767.79642913299, -11354.574424573711, 0.0095, -0.020999999999999998, 0.99, 192.0, 0.0, 32.0, 127.5, 48.0, 15.0, 112.0, 0.0, 0.0, 0.0, 1.6444985711828873E9, 0.0, 2022-02-11 00:09:31.182
92.0, -8230.314639844257, -9766.88531242434, -10313.027836445313, -16328.485766468737, -2135.575072237858, -1691.9600000333787, -5444.9743562906215, -6384.194658302625, -17032.56571681091, -15537.770454617794, -20000.743270008956, -11297.421014001491, -6009.266496809304, -10592.648159581204, -10774.412545491761, -11352.830988506197, 0.0095, -0.020999999999999998, 0.99, 192.0, 0.0, 0.0, 0.0, 0.0, 0.0, 0.0, 0.0, 0.0, 0.0, 1.6444985711828945E9, 0.0, 2022-02-11 00:09:31.182
94.0, -8240.037648682315, -9773.926111927762, -10320.918002238037, -16333.917240371376, -2145.7227642205676, -1695.5586308906832, -5444.8849493128, -6407.999266147526, -17035.024408700992, -15538.910393585014, -19990.14854313714, -11292.883609877064, -6000.102281582628, -10595.643293338215, -10771.03743207901, -11353.00980246184, 0.0095, -0.020999999999999998, 0.99, 192.0, 0.0, 0.0, 0.0, 0.0, 0.0, 0.0, 0.0, 0.0, 0.0, 1.6444985711829011E9, 0.0, 2022-02-11 00:09:31.182
96.0, -8243.770390006352, -9772.31678632698, -10325.47775810692, -16331.391493247927, -2150.774258467467, -1699.2466687258088, -5438.3358881873955, -6375.0527948204035, -17037.639562802266, -15540.162091274511, -20010.24276140246, -11302.181935570472, -6004.95261012943, -10597.43143289464, -10775.70894667017, -11355.937880985484, 0.0095, -0.020999999999999998, 0.99, 192.0, 0.0, 0.0, 0.0, 0.0, 0.0, 0.0, 0.0, 0.0, 0.0, 1.6444985711829083E9, 0.0, 2022-02-11 00:09:31.182
98.0, -8239.38944809311, -9773.099097382916, -10317.744054525383, -16332.799653148611, -2136.826769927355, -1689.9259912879459, -5443.946176045678, -6377.667948921675, -17040.858214003827, -15536.608163906118, -19999.648034530645, -11295.677577933977, -6008.752406686832, -10589.988301991023, -10774.412545491761, -11348.941784970973, 0.0095, -0.020999999999999998, 0.99, 192.0, 0.0, 0.0, 0.0, 0.0, 0.0, 0.0, 0.0, 0.0, 0.0, 1.6444985711829157E9, 0.0, 2022-02-11 00:09:31.182
100.0, -8251.01235520987, -9769.656928736798, -10331.37861864312, -16338.61110670699, -2161.7936684839333, -1705.4381019399289, -5462.900455343778, -6392.26363805099, -17044.389789627767, -15541.234975008367, -20006.308854378327, -11307.278133306281, -6013.356866044625, -10584.534476343928, -10780.581626961426, -11357.144875186072, 0.00675, -0.0235, 0.992, 192.0, 0.0, 16.0, 127.5, 24.0, 15.5, 8.0, 0.0, 0.0, 0.0, 1.6444985711829226E9, 0.0, 2022-02-11 00:09:31.182
102.0, -8238.338916103712, -9776.608321262398, -10321.23092666041, -16330.340961258527, -2150.7072032341007, -1693.0552355116888, -5438.224129465119, -6386.630998448253, -17046.04381871746, -15539.625649407584, -20012.76850852591, -11312.530793253278, -6025.5609185172225, -10597.900819528202, -10787.153039831286, -11357.703668797454, 0.00675, -0.0235, 0.992, 192.0, 0.0, 0.0, 0.0, 0.0, 0.0, 0.0, 0.0, 0.0, 0.0, 1.6444985711829305E9, 0.0, 2022-02-11 00:09:31.182
104.0, -8242.116360916658, -9777.50239104061, -10321.610906316151, -16331.637362436935, -2146.8403514433326, -1695.3798169350407, -5452.395135449784, -6390.989588617038, -17040.455882603634, -15531.64607663704, -19993.61306352771, -11287.005101085319, -6021.247031837348, -10588.311921156874, -10778.391156004805, -11357.34604088617, 0.00675, -0.0235, 0.992, 192.0, 0.0, 0.0, 0.0, 0.0, 0.0, 0.0, 0.0, 0.0, 0.0, 1.6444985711829374E9, 0.0, 2022-02-11 00:09:31.182
106.0, -8249.090105186713, -9778.88819919684, -10327.310601152254, -16331.078568825553, -2156.697470748123, -1704.2311077393424, -5435.005478263554, -6393.627094462764, -17039.4724058476, -15538.59746916264, -20011.025072458397, -11301.28786579226, -6012.485148010868, -10601.208877707586, -10779.911074627767, -11361.950500243962, 0.00675, -0.0235, 0.992, 192.0, 0.0, 0.0, 0.0, 0.0, 0.0, 0.0, 0.0, 0.0, 0.0, 1.6444985711829464E9, 0.0, 2022-02-11 00:09:31.182
108.0, -8238.897709715095, -9775.177809617258, -10321.521499338329, -16335.168938060873, -2144.7839909534446, -1696.9891425358228, -5435.564271874938, -6387.16744031518, -17040.411179114722, -15530.103806269624, -20001.86085723172, -11295.834040145164, -6016.508462012824, -10606.550944632405, -10774.747821658591, -11356.407267619046, 0.00675, -0.0235, 0.992, 192.0, 0.0, 0.0, 0.0, 0.0, 0.0, 0.0, 0.0, 0.0, 0.0, 1.6444985711829538E9, 0.0, 2022-02-11 00:09:31.182
110.0, -8249.201863908991, -9781.101021897915, -10330.70806630946, -16341.315667786082, -2158.329148093361, -1709.6402298975265, -5452.261024983051, -6398.276257309468, -17043.540423338465, -15536.004666805824, -20007.269979389905, -11304.640627460556, -6010.719360198898, -10602.080595741343, -10773.56317920246, -11363.090439211182, 0.0063750000000000005, -0.02375, 0.992, 192.0, 0.0, 24.0, 127.5, 32.0, 15.5, 0.0, 0.0, 0.0, 0.0, 1.6444985711829605E9, 0.0, 2022-02-11 00:09:31.182
112.0, -8237.601308536687, -9765.812428690486, -10323.622563317129, -16334.699551427311, -2147.3320898213497, -1700.8336425821356, -5445.846074324379, -6391.526030483965, -17041.774635526497, -15541.279678497278, -20009.773374768898, -11302.003121614829, -6018.117787613605, -10613.614095880283, -10780.51457172806, -11367.24786367987, 0.0063750000000000005, -0.02375, 0.992, 192.0, 0.0, 0.0, 0.0, 0.0, 0.0, 0.0, 0.0, 0.0, 0.0, 1.6444985711829677E9, 0.0, 2022-02-11 00:09:31.182
114.0, -8246.92198597455, -9769.723983970163, -10327.71293255245, -16338.90167938491, -2157.435078315148, -1708.0309042967444, -5456.217283751641, -6400.734949199552, -17042.646353560252, -15534.574155160684, -19993.881284461175, -11297.666883190499, -6017.76015970232, -10596.894991027713, -10776.75947865957, -11363.470418866924, 0.0063750000000000005, -0.02375, 0.992, 192.0, 0.0, 0.0, 0.0, 0.0, 0.0, 0.0, 0.0, 0.0, 0.0, 1.6444985711829743E9, 0.0, 2022-02-11 00:09:31.182
116.0, -8259.3495558917, -9778.93290268575, -10331.736246554405, -16337.448815995314, -2168.990930198542, -1708.3214769746635, -5465.761478634057, -6405.250001579524, -17048.36840014081, -15541.41378896401, -20012.76850852591, -11312.91077290902, -6026.007953406329, -10617.52565115996, -10786.549542730992, -11369.415982892035, 0.0063750000000000005, -0.02375, 0.992, 192.0, 0.0, 0.0, 0.0, 0.0, 0.0, 0.0, 0.0, 0.0, 0.0, 1.6444985711829813E9, 0.0, 2022-02-11 00:09:31.182
118.0, -8247.771352263851, -9782.419774820779, -10322.147348183078, -16334.543089216126, -2151.802438712411, -1700.632476882038, -5456.306690729462, -6401.740777700041, -17049.75420829704, -15544.230108765378, -20005.370081111203, -11296.728109923377, -6021.4481975374465, -10615.245773225519, -10782.213304306664, -11362.241072921881, 0.0063750000000000005, -0.02375, 0.992, 192.0, 0.0, 0.0, 0.0, 0.0, 0.0, 0.0, 0.0, 0.0, 0.0, 1.6444985711829884E9, 0.0, 2022-02-11 00:09:31.182
120.0, -8260.802419281295, -9787.203048134214, -10332.183281443511, -16339.482824740748, -2165.861685974799, -1707.852090341102, -5471.46117347016, -6400.9361148996495, -17049.84361527486, -15539.55859417422, -20007.180572412082, -11299.991464613851, -6025.247994094849, -10612.943543546622, -10780.201647305686, -11365.10209621216, 0.0051875, -0.022875, 0.993, 192.0, 0.0, 16.0, 127.5, 40.0, 15.5, 8.0, 0.0, 0.0, 0.0, 1.6444985711829956E9, 0.0, 2022-02-11 00:09:31.182
122.0, -8244.709163273474, -9776.295396840025, -10321.409740616053, -16334.051350838108, -2153.098839890819, -1697.592639636116, -5455.166751762242, -6398.320960798378, -17048.457807118633, -15547.426408222487, -20013.5731713263, -11305.512345494313, -6019.302430069737, -10614.9552005476, -10782.101545584386, -11360.944671743473, 0.0051875, -0.022875, 0.993, 192.0, 0.0, 0.0, 0.0, 0.0, 0.0, 0.0, 0.0, 0.0, 0.0, 1.6444985711830027E9, 0.0, 2022-02-11 00:09:31.183
124.0, -8252.644032555108, -9782.799754476519, -10322.70614179446, -16340.04161835213, -2159.1338108937516, -1704.5887356506273, -5462.922807088234, -6393.962370629593, -17047.98842048507, -15539.178614518478, -20002.151429909638, -11296.146964567539, -6009.869993909597, -10606.394482421218, -10775.865408881356, -11360.899968254564, 0.0051875, -0.022875, 0.993, 192.0, 0.0, 0.0, 0.0, 0.0, 0.0, 0.0, 0.0, 0.0, 0.0, 1.6444985711830096E9, 0.0, 2022-02-11 00:09:31.183
126.0, -8259.908349503083, -9779.849324208419, -10324.360170884154, -16338.09701658452, -2159.8714184607766, -1700.3642559485743, -5447.7906760919905, -6388.21797230458, -17046.28968790647, -15551.002687335336, -20020.54691559636, -11312.642551975556, -6014.250935822837, -10609.836651067335, -10779.352281016385, -11365.05739272325, 0.0051875, -0.022875, 0.993, 192.0, 0.0, 0.0, 0.0, 0.0, 0.0, 0.0, 0.0, 0.0, 0.0, 1.6444985711830165E9, 0.0, 2022-02-11 00:09:31.183
128.0, -8240.685849271518, -9771.623882248865, -10310.837365488693, -16332.03969383713, -2149.8801886892547, -1685.7685668192587, -5453.400963950273, -6373.711690153085, -17040.1206064368, -15541.458492452919, -20003.29136887686, -11294.04590058874, -6017.38018004658, -10596.850287538802, -10772.087964068409, -11356.72019204142, 0.0051875, -0.022875, 0.993, 192.0, 0.0, 0.0, 0.0, 0.0, 0.0, 0.0, 0.0, 0.0, 0.0, 1.6444985711830237E9, 0.0, 2022-02-11 00:09:31.183
130.0, -8246.989041207915, -9770.93097817075, -10319.979228970913, -16332.218507792773, -2168.5662470538914, -1698.0620262696775, -5469.851847869379, -6388.173268815669, -17037.393693613256, -15542.263155253311, -20001.883208976175, -11291.52015346529, -6015.055598623228, -10608.674360355659, -10774.658414680769, -11358.754200786854, 0.00559375, -0.0234375, 0.9915, 192.0, 0.0, 24.0, 127.5, 32.0, 15.0, 120.0, 0.0, 0.0, 0.0, 1.6444985711830304E9, 0.0, 2022-02-11 00:09:31.183
132.0, -8231.38752357811, -9754.278928551546, -10309.13863291009, -16327.412882734881, -2145.968633409576, -1683.2875231847195, -5426.042428736977, -6379.433736733644, -17031.4704813326, -15535.177652260978, -20004.252493888438, -11295.118784322594, -6014.317991056203, -10614.48581391404, -10775.03839433651, -11357.189578674983, 0.00559375, -0.0234375, 0.9915, 192.0, 0.0, 0.0, 0.0, 0.0, 0.0, 0.0, 0.0, 0.0, 0.0, 1.6444985711830373E9, 0.0, 2022-02-11 00:09:31.183
134.0, -8239.657669026574, -9765.991242646127, -10309.205688143455, -16331.257382781194, -2147.3991450547155, -1689.2330872098312, -5430.624536350315, -6388.575600215865, -17031.671647032697, -15530.327323714177, -19988.583921025267, -11281.417164971492, -6009.422959020491, -10614.418758680673, -10765.9412343432, -11354.395610618069, 0.00559375, -0.0234375, 0.9915, 192.0, 0.0, 0.0, 0.0, 0.0, 0.0, 0.0, 0.0, 0.0, 0.0, 1.644498571183045E9, 0.0, 2022-02-11 00:09:31.183
136.0, -8239.188282393014, -9765.164228101281, -10311.954952711458, -16331.793824648123, -2145.409839798193, -1689.7695290767585, -5436.1677689752305, -6387.323902526367, -17028.85532723133, -15534.529451671775, -20007.091165434264, -11294.202362799926, -6012.440444521957, -10612.362398190786, -10766.880007610323, -11356.876654252608, 0.00559375, -0.0234375, 0.9915, 192.0, 0.0, 0.0, 0.0, 0.0, 0.0, 0.0, 0.0, 0.0, 0.0, 1.6444985711830516E9, 0.0, 2022-02-11 00:09:31.183
138.0, -8231.499282300387, -9764.31486181198, -10307.216382886932, -16332.509080470692, -2141.6547467297014, -1687.5567063756832, -5442.739181845091, -6385.893390881228, -17028.631809786773, -15529.656771380518, -19994.797705983845, -11281.99831032733, -6003.142118828549, -10605.835688809835, -10764.13074304232, -11350.506407082845, 0.00559375, -0.0234375, 0.9915, 192.0, 0.0, 0.0, 0.0, 0.0, 0.0, 0.0, 0.0, 0.0, 0.0, 1.6444985711830606E9, 0.0, 2022-02-11 00:09:31.183
140.0, -8250.2970993873, -9765.164228101281, -10320.605077815662, -16337.918202628876, -2162.799496984422, -1701.4147879379736, -5453.088039527898, -6399.662065465697, -17031.71635052161, -15533.88125108257, -19999.312758363816, -11283.317063250191, -6007.791281675253, -10614.731683103048, -10767.550559943982, -11355.714363540932, 0.007796875, -0.02671875, 0.99075, 192.0, 0.0, 40.0, 127.5, 8.0, 15.0, 120.0, 0.0, 0.0, 0.0, 1.6444985711830673E9, 0.0, 2022-02-11 00:09:31.183
142.0, -8232.080427656225, -9757.877559408851, -10308.110452665145, -16332.598487448513, -2148.1144008772853, -1681.8793632840352, -5438.425295165217, -6385.31224552539, -17026.687208019164, -15533.79184410475, -20005.414784600114, -11295.208191300415, -6010.09351135415, -10615.156366247698, -10772.311481512963, -11354.44031410698, 0.007796875, -0.02671875, 0.99075, 192.0, 0.0, 0.0, 0.0, 0.0, 0.0, 0.0, 0.0, 0.0, 0.0, 1.6444985711830745E9, 0.0, 2022-02-11 00:09:31.183
144.0, -8237.623660281142, -9775.781306717552, -10312.84902248967, -16331.480900225748, -2148.986118911042, -1685.4556423968843, -5441.845112066879, -6377.019748332471, -17025.3684550963, -15530.774358603283, -19989.969729181495, -11284.166429539495, -6003.589153717656, -10592.826973536847, -10763.057859308465, -11344.516139568823, 0.007796875, -0.02671875, 0.99075, 192.0, 0.0, 0.0, 0.0, 0.0, 0.0, 0.0, 0.0, 0.0, 0.0, 1.6444985711830816E9, 0.0, 2022-02-11 00:09:31.183
146.0, -8243.904500473083, -9776.094231139927, -10316.827633002715, -16329.55865020259, -2154.350537580316, -1684.0921859851107, -5447.813027836446, -6381.31128326789, -17029.123548164793, -15533.434216193464, -20008.924008479597, -11291.788374398753, -6000.7281304273765, -10602.661741097181, -10770.925673356733, -11346.885424481086, 0.007796875, -0.02671875, 0.99075, 192.0, 0.0, 0.0, 0.0, 0.0, 0.0, 0.0, 0.0, 0.0, 0.0, 1.6444985711830885E9, 0.0, 2022-02-11 00:09:31.183
148.0, -8229.644087510596, -9764.806600189997, -10303.99773168537, -16327.368179245972, -2142.99585139702, -1676.6714068259487, -5446.136647002298, -6385.803983903406, -17026.351931852332, -15522.2136404769, -19993.47895306098, -11282.355938238614, -6012.909831155519, -10594.928037515645, -10768.176408788731, -11343.107979668139, 0.007796875, -0.02671875, 0.99075, 192.0, 0.0, 0.0, 0.0, 0.0, 0.0, 0.0, 0.0, 0.0, 0.0, 1.6444985711830957E9, 0.0, 2022-02-11 00:09:31.183
150.0, -8245.200901651491, -9768.69580372522, -10316.157080669056, -16325.289467011627, -2157.345671337327, -1689.2330872098312, -5457.759554119058, -6386.251018792513, -17029.727045265085, -15528.561535902207, -19996.652900773635, -11282.490048705346, -6011.8816509105745, -10609.34491268932, -10770.299824511985, -11349.500578582356, 0.007898437500000001, -0.029359375, 0.989375, 192.0, 0.0, 32.0, 127.5, 0.0, 15.0, 112.0, 0.0, 0.0, 0.0, 1.6444985711831024E9, 0.0, 2022-02-11 00:09:31.183
152.0, -8229.91230844406, -9756.961137886185, -10307.216382886932, -16320.41678672037, -2143.509941519492, -1675.3303021586303, -5435.541920130482, -6368.414326717178, -17023.781481239974, -15531.377855703577, -20001.592636298257, -11287.206266785415, -6004.1926508179495, -10606.23802021003, -10770.32217625644, -11345.410209347036, 0.007898437500000001, -0.029359375, 0.989375, 192.0, 0.0, 0.0, 0.0, 0.0, 0.0, 0.0, 0.0, 0.0, 0.0, 1.6444985711831093E9, 0.0, 2022-02-11 00:09:31.183
154.0, -8237.176625392036, -9754.927129140751, -10308.110452665145, -16327.7034554128, -2141.386525796238, -1682.304046428686, -5442.873292311823, -6382.250056535013, -17027.581277797377, -15523.130061999567, -19995.267092617403, -11281.506571949312, -6009.579421231678, -10603.086424241832, -10762.052030807976, -11343.331497112691, 0.007898437500000001, -0.029359375, 0.989375, 192.0, 0.0, 0.0, 0.0, 0.0, 0.0, 0.0, 0.0, 0.0, 0.0, 1.6444985711831162E9, 0.0, 2022-02-11 00:09:31.183
156.0, -8241.311698116268, -9767.801733947008, -10314.391292857086, -16329.066911824575, -2144.8733979312656, -1691.401206421996, -5442.627423122814, -6386.161611814691, -17023.89323996225, -15531.109634770113, -20009.974540468997, -11293.911790122009, -6011.255802065826, -10608.003808022, -10769.472809967137, -11352.942747228473, 0.007898437500000001, -0.029359375, 0.989375, 192.0, 0.0, 0.0, 0.0, 0.0, 0.0, 0.0, 0.0, 0.0, 0.0, 1.644498571183123E9, 0.0, 2022-02-11 00:09:31.183
158.0, -8233.130959645625, -9768.964024658684, -10304.80239448576, -16331.570307203569, -2135.150389093207, -1690.4400814104179, -5437.777094576013, -6379.612550689287, -17024.69790276264, -15532.338980715154, -20000.56445605331, -11296.526944223278, -6000.035226349262, -10604.204011464599, -10768.712850655658, -11351.109904183138, 0.007898437500000001, -0.029359375, 0.989375, 192.0, 0.0, 0.0, 0.0, 0.0, 0.0, 0.0, 0.0, 0.0, 0.0, 1.6444985711831303E9, 0.0, 2022-02-11 00:09:31.183
160.0, -8249.425381353543, -9777.122411384871, -10315.732397524405, -16332.799653148611, -2153.1658951241848, -1703.4935001723172, -5459.279472742018, -6397.471594509077, -17029.3694173538, -15542.956059331425, -20003.023147943397, -11295.968150611896, -6007.277191552782, -10617.927982560157, -10772.244426279596, -11357.368392630624, 0.008, -0.03, 0.988, 192.0, 0.0, 32.0, 127.5, 8.0, 15.0, 112.0, 0.0, 0.0, 0.0, 1.6444985711831372E9, 0.0, 2022-02-11 00:09:31.183
162.0, -8236.3943143361, -9765.4548007792, -10311.79849050027, -16329.268077524672, -2139.6430897287237, -1686.5061743862839, -5445.846074324379, -6379.970178600572, -17025.904896963228, -15539.826815107683, -20007.62760730119, -11302.76308092631, -6009.959400887418, -10612.183584235143, -10775.440725736706, -11354.350907129157, 0.008, -0.03, 0.988, 192.0, 0.0, 0.0, 0.0, 0.0, 0.0, 0.0, 0.0, 0.0, 0.0, 1.6444985711831443E9, 0.0, 2022-02-11 00:09:31.183
0.0, -4156.843323331275, -4984.662530978028, -5114.861442430191, -8134.224490430891, -1016.8702622497395, -789.9330007950069, -2579.2795514201584, -3051.147228616146, -8517.02046597248, -7771.947416299274, -10002.249181538724, -5653.06909716953, -3001.369893714177, -5307.377017423752, -5384.915218939212, -5676.963111992253, 0.008, -0.028, 0.99, 192.0, 0.0, 32.0, 127.5, 24.0, 15.5, 0.0, 0.0, 0.0, 0.0, 1.6444985713046489E9, 0.0, 2022-02-11 00:09:31.304
2.0, -8326.807120657817, -9978.779849860652, -10239.758818120816, -16267.577262828025, -2029.1584168861411, -1589.1643272834215, -5165.599902343739, -6122.031047586328, -17025.100234162837, -15674.00433707289, -19976.111647619207, -11414.96883809195, -6448.99236547856, -10729.59729785887, -10602.170002719165, -11233.718542303866, 0.008, -0.028, 0.99, 192.0, 0.0, 0.0, 0.0, 0.0, 0.0, 0.0, 0.0, 0.0, 0.0, 1.644498571784423E9, 0.0, 2022-02-11 00:09:31.784
4.0, -8312.434948973054, -9976.634082392942, -10229.544070904742, -16264.582129071014, -2019.1671871146189, -1577.764937611215, -5153.127628937677, -6109.871698602641, -17023.356798095323, -15679.43581097553, -19976.692792975045, -11418.746282904898, -6449.506455601032, -10728.479710636106, -10603.019369008467, -11234.143225448517, 0.008, -0.028, 0.99, 192.0, 0.0, 0.0, 0.0, 0.0, 0.0, 0.0, 0.0, 0.0, 0.0, 1.644498571784516E9, 0.0, 2022-02-11 00:09:31.784
6.0, -8324.706056679017, -9981.97614931776, -10231.35456220562, -16268.270166906139, -2026.7667802294231, -1589.8348796170808, -5153.418201615596, -6110.475195702934, -17026.03900742996, -15677.424153974553, -19968.93673764905, -11410.5431926898, -6458.894188272261, -10759.101600539876, -10596.090328227321, -11230.477539357846, 0.008, -0.028, 0.99, 192.0, 0.0, 0.0, 0.0, 0.0, 0.0, 0.0, 0.0, 0.0, 0.0, 1.6444985717845328E9, 0.0, 2022-02-11 00:09:31.784
8.0, -8322.493233977943, -9980.635044650442, -10231.823948839183, -16269.231291917718, -2027.5714430298142, -1587.2420772602652, -5158.290881906853, -6111.302210247781, -17023.982646940072, -15682.185075543533, -19982.77246746689, -11423.507204473879, -6452.792162035962, -10735.8334345619, -10594.078671226343, -11233.919708003963, 0.012, -0.022, 0.992, 192.0, 0.0, 48.0, 127.5, 40.0, 15.5, 0.0, 0.0, 0.0, 0.0, 1.6444985717845397E9, 0.0, 2022-02-11 00:09:31.784
10.0, -8322.448530489031, -9985.3065592416, -10227.912393559503, -16269.901844251377, -2024.2186813615183, -1585.5880481705724, -5156.770963283892, -6112.30803874827, -17026.530745807977, -15682.542703454817, -19970.52371150538, -11412.621904924144, -6464.9738627641045, -10732.145396726775, -10592.268179925464, -11233.204452181393, 0.012, -0.022, 0.992, 192.0, 0.0, 0.0, 0.0, 0.0, 0.0, 0.0, 0.0, 0.0, 0.0, 1.6444985717845464E9, 0.0, 2022-02-11 00:09:31.784
12.0, -8342.587452243264, -9998.605847192508, -10243.69272514495, -16276.40620188787, -2041.0271931919092, -1595.4004639864522, -5176.21698096001, -6132.134036080127, -17039.673571547697, -15691.304587281298, -19986.169932624096, -11428.513995231868, -6473.80280182395, -10709.83835576038, -10602.304113185897, -11242.480426130347, 0.012, -0.022, 0.992, 192.0, 0.0, 0.0, 0.0, 0.0, 0.0, 0.0, 0.0, 0.0, 0.0, 1.6444985717845533E9, 0.0, 2022-02-11 00:09:31.784
14.0, -8321.420350244087, -9986.468849953277, -10237.59069890865, -16265.610309315958, -2033.293489610373, -1582.7046731358378, -5174.764117570415, -6123.9980010983945, -17033.482138333577, -15683.995566844413, -19985.81230471281, -11425.988248108417, -6461.308176673434, -10772.780868146523, -10608.003808022, -11240.55817610719, 0.012, -0.022, 0.992, 192.0, 0.0, 0.0, 0.0, 0.0, 0.0, 0.0, 0.0, 0.0, 0.0, 1.64449857178456E9, 0.0, 2022-02-11 00:09:31.784
16.0, -8333.98203062797, -9999.388158248445, -10240.809350110216, -16276.69677456579, -2037.6073762902472, -1590.8630598620248, -5176.038167004367, -6127.328411022236, -17035.963181968116, -15682.028613332346, -19977.05042088633, -11421.652009684089, -6466.694947087163, -10762.27554825253, -10608.517898144471, -11239.977030751352, 0.011, -0.023, 0.992, 192.0, 0.0, 40.0, 127.5, 32.0, 15.5, 0.0, 0.0, 0.0, 0.0, 1.6444985717845669E9, 0.0, 2022-02-11 00:09:31.784
18.0, -8338.072399863291, -10002.495050727732, -10242.172806521989, -16275.847408276488, -2040.0884199247862, -1592.2935715071646, -5167.2092279445205, -6129.362419767669, -17038.555984324932, -15694.210314060489, -19993.255435616426, -11437.722913947453, -6470.807668066939, -10740.035562519499, -10612.42945342415, -11245.363801165082, 0.011, -0.023, 0.992, 192.0, 0.0, 0.0, 0.0, 0.0, 0.0, 0.0, 0.0, 0.0, 0.0, 1.644498571784574E9, 0.0, 2022-02-11 00:09:31.784
20.0, -8326.114216579703, -9996.12480355797, -10232.203928494922, -16274.372193142439, -2033.3828965881942, -1586.2362487597763, -5155.139285938655, -6113.962067837962, -17035.158519167726, -15686.700127923505, -19977.296290075337, -11427.977553364939, -6469.8465430553615, -10743.969469543634, -10606.662703354681, -11238.457112128392, 0.011, -0.023, 0.992, 192.0, 0.0, 0.0, 0.0, 0.0, 0.0, 0.0, 0.0, 0.0, 0.0, 1.6444985717845807E9, 0.0, 2022-02-11 00:09:31.784
22.0, -8335.1666730841, -9996.951818102816, -10241.010515810314, -16274.528655353626, -2037.9873559459872, -1596.9427343538684, -5165.599902343739, -6123.796835398297, -17036.812548257418, -15697.004282117401, -19987.332223335772, -11430.458596999479, -6477.021453025514, -10741.041391019988, -10604.360473675784, -11238.74768480631, 0.011, -0.023, 0.992, 192.0, 0.0, 0.0, 0.0, 0.0, 0.0, 0.0, 0.0, 0.0, 0.0, 1.6444985717845876E9, 0.0, 2022-02-11 00:09:31.784
24.0, -8312.636114673152, -9982.445535951321, -10233.545033162241, -16264.269204648639, -2028.5102162969372, -1580.7600713682261, -5155.832190016769, -6112.106873048172, -17031.246963888047, -15687.86241863518, -19984.828827956775, -11426.122358575149, -6471.500572145053, -10721.483614621595, -10607.824994066357, -11233.919708003963, 0.011, -0.023, 0.992, 192.0, 0.0, 0.0, 0.0, 0.0, 0.0, 0.0, 0.0, 0.0, 0.0, 1.6444985717845948E9, 0.0, 2022-02-11 00:09:31.784
26.0, -8318.291106020344, -9985.865352852983, -10235.936669818959, -16265.342088382495, -2026.0068209179428, -1593.5452691966618, -5166.046937232845, -6124.310925520769, -17027.13424290827, -15682.63211043264, -19968.556757993312, -11413.873602613641, -6458.357746405333, -10734.425274661216, -10601.81237480788, -11231.93040274744, 0.0095, -0.0245, 0.991, 192.0, 0.0, 32.0, 127.5, 24.0, 15.0, 120.0, 0.0, 0.0, 0.0, 1.6444985717846017E9, 0.0, 2022-02-11 00:09:31.784
28.0, -8320.772149654884, -9988.413451720888, -10235.847262841138, -16262.816341259044, -2031.482998309493, -1591.8688883625136, -5167.097469222244, -6124.579146454233, -17020.40636782722, -15682.654462177094, -19977.676269731077, -11429.45276849899, -6455.809647537429, -10741.041391019988, -10607.62382836626, -11236.266641171771, 0.0095, -0.0245, 0.991, 192.0, 0.0, 0.0, 0.0, 0.0, 0.0, 0.0, 0.0, 0.0, 0.0, 1.6444985717846081E9, 0.0, 2022-02-11 00:09:31.784
30.0, -8317.084111819759, -9984.814820863583, -10235.534338418764, -16264.470370348738, -2023.4363703055824, -1578.9495800673462, -5161.241312174954, -6124.266222031859, -17025.256696374025, -15679.212293530976, -19969.674345216077, -11424.40127425209, -6459.296519672456, -10739.8343968194, -10601.454746896596, -11232.533899847735, 0.0095, -0.0245, 0.991, 192.0, 0.0, 0.0, 0.0, 0.0, 0.0, 0.0, 0.0, 0.0, 0.0, 1.644498571784615E9, 0.0, 2022-02-11 00:09:31.784
32.0, -8331.299821293333, -9998.02470183667, -10245.883196101571, -16266.303213394072, -2043.3294228708057, -1590.594838928561, -5167.276283177886, -6123.081579575727, -17033.54919356694, -15690.522276225362, -19982.548950022334, -11432.559660978277, -6471.031185511492, -10744.818835832935, -10606.05920625439, -11237.943022005918, 0.0095, -0.0245, 0.991, 192.0, 0.0, 0.0, 0.0, 0.0, 0.0, 0.0, 0.0, 0.0, 0.0, 1.6444985717846217E9, 0.0, 2022-02-11 00:09:31.784
34.0, -8315.474786218976, -9985.753594130707, -10234.908489574014, -16261.341126124995, -2034.8357599777892, -1572.020539286201, -5159.855504018725, -6099.835765342208, -17027.55892605292, -15688.108287824189, -19978.503284275925, -11431.039742355317, -6472.394641923266, -10743.41067593225, -10608.942581289122, -11227.638867812022, 0.0095, -0.0245, 0.991, 192.0, 0.0, 0.0, 0.0, 0.0, 0.0, 0.0, 0.0, 0.0, 0.0, 1.644498571784629E9, 0.0, 2022-02-11 00:09:31.784
36.0, -8325.823643901784, -9989.016948821181, -10243.469207700397, -16270.103009951474, -2031.2594808649399, -1578.211972500321, -5163.364727898208, -6113.000942826384, -17025.882545218774, -15683.168552299567, -19966.992135881443, -11433.319620289758, -6470.874723300305, -10722.578850099904, -10600.180697462643, -11226.834205011632, 0.00875, -0.02425, 0.9924999999999999, 192.0, 0.0, 32.0, 127.5, 32.0, 15.5, 8.0, 0.0, 0.0, 0.0, 1.6444985717846355E9, 0.0, 2022-02-11 00:09:31.784
38.0, -8332.260946304912, -9998.494088470232, -10249.079495558679, -16266.325565138528, -2042.4353530925935, -1589.0749203056002, -5177.334568182775, -6121.628716186133, -17028.18477489767, -15697.697186195515, -19987.71220299151, -11439.622812226155, -6466.829057553895, -10734.291164194485, -10607.266200454975, -11235.976068493852, 0.00875, -0.02425, 0.9924999999999999, 192.0, 0.0, 0.0, 0.0, 0.0, 0.0, 0.0, 0.0, 0.0, 0.0, 1.6444985717846446E9, 0.0, 2022-02-11 00:09:31.784
40.0, -8332.216242816, -10001.623332693975, -10250.353544992631, -16273.478123364226, -2030.8795012091998, -1589.119623794511, -5143.002288699423, -6112.799777126286, -17037.974838969094, -15701.340520541731, -19981.409011055115, -11432.224384811449, -6471.768793078518, -10740.929632297712, -10604.651046353703, -11234.07617021515, 0.00875, -0.02425, 0.9924999999999999, 192.0, 0.0, 0.0, 0.0, 0.0, 0.0, 0.0, 0.0, 0.0, 0.0, 1.6444985717846513E9, 0.0, 2022-02-11 00:09:31.784
42.0, -8345.403772044632, -10003.83615539505, -10262.244673042855, -16273.45577161977, -2045.6316525497023, -1596.5851064425835, -5158.5814545847725, -6120.131149307626, -17043.741589038564, -15705.386186288142, -19989.746211736943, -11436.001829624394, -6471.992310523071, -10737.085132251399, -10606.215668465575, -11239.820568540164, 0.00875, -0.02425, 0.9924999999999999, 192.0, 0.0, 0.0, 0.0, 0.0, 0.0, 0.0, 0.0, 0.0, 0.0, 1.644498571784658E9, 0.0, 2022-02-11 00:09:31.784
44.0, -8324.50489097892, -9990.559219188597, -10245.994954823847, -16260.737629024701, -2033.8746349662108, -1586.1915452708656, -5150.266605647398, -6108.709407890965, -17035.314981378913, -15693.428003004552, -19984.538255278858, -11432.067922600261, -6474.987444280082, -10748.216300990141, -10608.070863255365, -11233.36091439258, 0.00875, -0.02425, 0.9924999999999999, 192.0, 0.0, 0.0, 0.0, 0.0, 0.0, 0.0, 0.0, 0.0, 0.0, 1.6444985717846646E9, 0.0, 2022-02-11 00:09:31.784
46.0, -8329.958716626015, -9989.553390688108, -10252.052277571234, -16266.057344205065, -2033.740524499479, -1591.1312807954885, -5163.275320920387, -6119.505300462878, -17028.698865020142, -15693.383299515643, -19969.00379288242, -11418.679227671531, -6463.99038600807, -10742.74012359859, -10602.90761028619, -11233.092693459117, 0.009375000000000001, -0.025125, 0.99225, 192.0, 0.0, 40.0, 127.5, 24.0, 15.5, 0.0, 0.0, 0.0, 0.0, 1.6444985717846713E9, 0.0, 2022-02-11 00:09:31.784
48.0, -8331.925670138082, -9998.427033236865, -10252.70047816044, -16268.158408183863, -2042.9941467039762, -1588.2032022718433, -5174.428841403585, -6134.078637847739, -17029.637638287262, -15696.780764672849, -19986.99694716894, -11432.246736555904, -6477.334377447889, -10736.07930375091, -10611.66949411267, -11240.446417384914, 0.009375000000000001, -0.025125, 0.99225, 192.0, 0.0, 0.0, 0.0, 0.0, 0.0, 0.0, 0.0, 0.0, 0.0, 1.6444985717846785E9, 0.0, 2022-02-11 00:09:31.784
50.0, -8329.84695790374, -10001.93625711635, -10250.375896737087, -16269.767733784645, -2034.4334285775935, -1593.0982343075557, -5158.849675518236, -6117.225422528437, -17032.252792388535, -15692.466877992974, -19977.922138920087, -11424.155405063082, -6483.212886239635, -10745.489388166594, -10611.468328412573, -11236.55721384969, 0.009375000000000001, -0.025125, 0.99225, 192.0, 0.0, 0.0, 0.0, 0.0, 0.0, 0.0, 0.0, 0.0, 0.0, 1.6444985717846851E9, 0.0, 2022-02-11 00:09:31.784
52.0, -8346.856635434227, -10011.547507232131, -10258.958966607925, -16277.680251321824, -2043.865864737733, -1600.7648826557258, -5167.656262833627, -6124.713256920964, -17043.518071594008, -15706.101442110712, -19994.19420888355, -11435.577146479744, -6469.511266888531, -10758.229882506119, -10612.250639468508, -11241.787522052231, 0.009375000000000001, -0.025125, 0.99225, 192.0, 0.0, 0.0, 0.0, 0.0, 0.0, 0.0, 0.0, 0.0, 0.0, 1.644498571784692E9, 0.0, 2022-02-11 00:09:31.784
54.0, -8323.208489800512, -9994.336664001545, -10240.87640534358, -16268.158408183863, -2020.709457482035, -1576.245018988254, -5153.68642254906, -6110.5422509363, -17029.83880398736, -15696.780764672849, -19989.880322203677, -11431.21855631096, -6463.141019718769, -10743.589489887892, -10611.714197601581, -11236.244289427315, 0.009375000000000001, -0.025125, 0.99225, 192.0, 0.0, 0.0, 0.0, 0.0, 0.0, 0.0, 0.0, 0.0, 0.0, 1.6444985717846985E9, 0.0, 2022-02-11 00:09:31.784
56.0, -8328.79642591434, -9996.325969258067, -10242.753951877827, -16274.752172798178, -2028.5325680413926, -1582.12352778, -5169.176181456588, -6120.600535941188, -17018.394710826244, -15687.571845957262, -19969.00379288242, -11417.963971848962, -6451.808685279928, -10745.735257355602, -10603.600514364305, -11234.79142603772, 0.009687500000000002, -0.0245625, 0.9881249999999999, 192.0, 0.0, 40.0, 127.5, 32.0, 15.0, 96.0, 0.0, 0.0, 0.0, 1.6444985717847052E9, 0.0, 2022-02-11 00:09:31.784
58.0, -8334.071437605791, -10005.244315295735, -10249.03479206977, -16272.673460563836, -2033.3828965881942, -1584.5598679256284, -5167.253931433432, -6122.254565030881, -17025.390806840755, -15693.405651260096, -19991.19907512654, -11432.000867366894, -6457.396621393755, -10737.331001440407, -10607.221496966064, -11238.680629572944, 0.009687500000000002, -0.0245625, 0.9881249999999999, 192.0, 0.0, 0.0, 0.0, 0.0, 0.0, 0.0, 0.0, 0.0, 0.0, 1.644498571784712E9, 0.0, 2022-02-11 00:09:31.784
60.0, -8329.489329992453, -10005.400777506922, -10245.726733890384, -16276.629719332424, -2023.3469633277612, -1578.9942835562567, -5137.30259386332, -6110.16227128056, -17030.151728409735, -15689.941130869525, -19983.174798867083, -11424.73655041892, -6470.874723300305, -10722.064759977433, -10606.126261487754, -11234.880833015543, 0.009687500000000002, -0.0245625, 0.9881249999999999, 192.0, 0.0, 0.0, 0.0, 0.0, 0.0, 0.0, 0.0, 0.0, 0.0, 1.6444985717847188E9, 0.0, 2022-02-11 00:09:31.784
62.0, -8334.764341683906, -10008.910001386404, -10253.996879338847, -16275.780353043123, -2028.420809319116, -1591.4218534734075, -5156.078059205778, -6135.576204726244, -17030.866984232307, -15696.847819906214, -19990.684985004067, -11434.392504023614, -6460.414106895221, -10719.918992509723, -10603.533459130938, -11239.082960973139, 0.009687500000000002, -0.0245625, 0.9881249999999999, 192.0, 0.0, 0.0, 0.0, 0.0, 0.0, 0.0, 0.0, 0.0, 0.0, 1.6444985717847257E9, 0.0, 2022-02-11 00:09:31.784
64.0, -8325.957754368515, -10002.182126305357, -10244.743257134349, -16269.499512851182, -2022.3411348272725, -1580.7824231126815, -5144.633966044661, -6100.640428142599, -17024.183812640167, -15695.462011749985, -19987.309871591315, -11434.325448790247, -6457.821304538406, -10762.342603485895, -10608.33908418883, -11236.043123727219, 0.009687500000000002, -0.0245625, 0.9881249999999999, 192.0, 0.0, 0.0, 0.0, 0.0, 0.0, 0.0, 0.0, 0.0, 0.0, 1.644498571784732E9, 0.0, 2022-02-11 00:09:31.784
66.0, -8335.70311495103, -10007.07715834107, -10250.2194345259, -16274.819228031545, -2027.3926290741717, -1587.4655947048182, -5162.448306375541, -6110.765768380853, -17027.827146986383, -15692.712747181982, -19979.91144417661, -11422.5460794623, -6454.557949847931, -10747.836321334402, -10604.986322520534, -11233.539728348223, 0.010843750000000001, -0.030281250000000003, 0.9890625, 192.0, 0.0, 48.0, 127.0, 112.0, 15.0, 120.0, 0.0, 0.0, 0.0, 1.6444985717847388E9, 0.0, 2022-02-11 00:09:31.784
68.0, -8344.643812733151, -10012.50863224371, -10254.332155505677, -16278.104934466475, -2034.6345942776913, -1587.309132493631, -5166.315158166309, -6118.20889928447, -17032.90099297774, -15697.272503050865, -20001.5702845538, -11437.186472080526, -6474.562761135431, -10745.869367822334, -10613.368226691275, -11245.27439418726, 0.010843750000000001, -0.030281250000000003, 0.9890625, 192.0, 0.0, 0.0, 0.0, 0.0, 0.0, 0.0, 0.0, 0.0, 0.0, 1.644498571784746E9, 0.0, 2022-02-11 00:09:31.784
70.0, -8330.36104802621, -10003.702044928319, -10247.2690042578, -16275.243911176196, -2021.938803427077, -1581.4529754463406, -5173.847696047747, -6117.024256828339, -17035.337333123367, -15692.042194848324, -19989.634453014667, -11425.675323686042, -6457.9330632606825, -10741.577832886915, -10610.842479567824, -11242.927461019453, 0.010843750000000001, -0.030281250000000003, 0.9890625, 192.0, 0.0, 0.0, 0.0, 0.0, 0.0, 0.0, 0.0, 0.0, 0.0, 1.6444985717847548E9, 0.0, 2022-02-11 00:09:31.784
72.0, -8342.810969687816, -10004.50670772871, -10254.108638061123, -16276.629719332424, -2036.1098094117415, -1590.2372110172762, -5170.919617524102, -6127.97661161144, -17035.42674010119, -15694.567941971773, -19992.875455960686, -11427.821091153752, -6468.103106987847, -10748.864501579345, -10612.585915635338, -11242.458074385891, 0.010843750000000001, -0.030281250000000003, 0.9890625, 192.0, 0.0, 0.0, 0.0, 0.0, 0.0, 0.0, 0.0, 0.0, 0.0, 1.6444985717847614E9, 0.0, 2022-02-11 00:09:31.784
74.0, -8333.155016083123, -10000.952780360316, -10249.325364747687, -16277.970823999744, -2023.8163499613227, -1579.1730975118992, -5155.698079550038, -6117.40423648408, -17028.877678975783, -15691.036366347835, -19994.28361586137, -11432.872585400652, -6473.646339612764, -10731.161919970742, -10613.748206347014, -11240.401713896003, 0.010843750000000001, -0.030281250000000003, 0.9890625, 192.0, 0.0, 0.0, 0.0, 0.0, 0.0, 0.0, 0.0, 0.0, 0.0, 1.644498571784768E9, 0.0, 2022-02-11 00:09:31.784
76.0, -8339.480559763975, -10008.93235313086, -10252.991050838358, -16279.691908322802, -2034.4334285775935, -1588.985513327779, -5163.096506964745, -6125.4061609990795, -17032.74453076655, -15701.742851941926, -19985.20880761252, -11429.720989432453, -6470.382984922288, -10737.822739818423, -10608.987284778033, -11238.211242939382, 0.011421875000000001, -0.026140625, 0.98853125, 192.0, 0.0, 48.0, 127.5, 40.0, 15.0, 112.0, 0.0, 0.0, 0.0, 1.6444985717847753E9, 0.0, 2022-02-11 00:09:31.784
78.0, -8337.334792296266, -10007.188917063346, -10248.297184502744, -16275.489780365204, -2037.6073762902472, -1588.7172923943153, -5166.851600033236, -6124.512091220867, -17030.4199493432, -15703.195715331522, -19999.849200230743, -11440.718047704464, -6471.031185511492, -10753.55836791496, -10614.396406936217, -11244.670897086966, 0.011421875000000001, -0.026140625, 0.98853125, 192.0, 0.0, 0.0, 0.0, 0.0, 0.0, 0.0, 0.0, 0.0, 0.0, 1.6444985717847817E9, 0.0, 2022-02-11 00:09:31.784
80.0, -8327.656486947119, -10002.316236772089, -10239.088265787157, -16274.863931520455, -2027.4596843075378, -1575.730928865782, -5156.92742549508, -6116.443111472501, -17026.4189870857, -15695.216142560977, -19985.074697145785, -11426.16706206406, -6447.18187417768, -10734.514681639039, -10606.327427187853, -11239.03825748423, 0.011421875000000001, -0.026140625, 0.98853125, 192.0, 0.0, 0.0, 0.0, 0.0, 0.0, 0.0, 0.0, 0.0, 0.0, 1.6444985717847884E9, 0.0, 2022-02-11 00:09:31.784
82.0, -8338.206510330023, -10004.394949006433, -10248.833626369671, -16273.969861742242, -2033.9863936884874, -1581.9447138243574, -5161.040146474856, -6123.30509702028, -17028.967085953605, -15700.848782163714, -19988.025127413886, -11433.565489478766, -6468.058403498937, -10741.778998587013, -10604.673398098159, -11240.13349296254, 0.011421875000000001, -0.026140625, 0.98853125, 192.0, 0.0, 0.0, 0.0, 0.0, 0.0, 0.0, 0.0, 0.0, 0.0, 1.6444985717847953E9, 0.0, 2022-02-11 00:09:31.784
84.0, -8306.981123325959, -9984.434841207843, -10230.438140682953, -16268.180759928318, -2014.3392103122726, -1562.4763444037849, -5141.415314843097, -6102.361512465658, -17012.337388078857, -15692.645691948617, -19982.23602559996, -11428.82691965424, -6445.1925689211575, -10713.481690106593, -10602.617037608272, -11234.36674289307, 0.011421875000000001, -0.026140625, 0.98853125, 192.0, 0.0, 0.0, 0.0, 0.0, 0.0, 0.0, 0.0, 0.0, 0.0, 1.644498571784802E9, 0.0, 2022-02-11 00:09:31.784
86.0, -8331.188062571056, -9997.622370436475, -10241.904585588525, -16274.215730931252, -2023.0116871609316, -1571.3946904414524, -5150.44541960304, -6113.962067837962, -17007.151783365225, -15684.420249989063, -19970.18843533855, -11412.957181090973, -6456.033164981981, -10712.811137772935, -10590.256522924486, -11229.136434690528, 0.008, -0.018000000000000002, 0.988, 192.0, 0.0, 32.0, 127.5, 56.0, 15.0, 112.0, 0.0, 0.0, 0.0, 1.6444985717848089E9, 0.0, 2022-02-11 00:09:31.784
88.0, -8348.46596103501, -10012.441577010344, -10256.164998551012, -16277.903768766377, -2022.1176173827193, -1576.7144056218156, -5154.021698715889, -6117.225422528437, -17035.203222656637, -15701.899314153114, -20002.19613339855, -11433.252565056393, -6456.7037173156405, -10732.36891417133, -10597.543191616916, -11238.770036550766, 0.008, -0.018000000000000002, 0.988, 192.0, 0.0, 0.0, 0.0, 0.0, 0.0, 0.0, 0.0, 0.0, 0.0, 1.6444985717848155E9, 0.0, 2022-02-11 00:09:31.784
90.0, -8339.972298141993, -10013.35799853301, -10252.3204985047, -16279.557797856069, -2021.0447336488646, -1580.6930161348603, -5154.111105693711, -6117.381884739624, -17040.925269237196, -15706.660235722095, -19993.367194338705, -11433.185509823026, -6458.625967338797, -10738.962678785645, -10595.799755549402, -11235.819606282665, 0.008, -0.018000000000000002, 0.988, 192.0, 0.0, 0.0, 0.0, 0.0, 0.0, 0.0, 0.0, 0.0, 0.0, 1.6444985717848222E9, 0.0, 2022-02-11 00:09:31.784
92.0, -8353.539807026364, -10017.314257301601, -10259.69657417495, -16279.960129256266, -2039.9543094580545, -1589.343141239064, -5168.59503610075, -6139.085428605727, -17041.841690759862, -15711.287046824344, -19999.40216534164, -11436.895899402607, -6466.314967431423, -10754.877120837822, -10600.538325373927, -11245.341449420626, 0.008, -0.018000000000000002, 0.988, 192.0, 0.0, 0.0, 0.0, 0.0, 0.0, 0.0, 0.0, 0.0, 0.0, 1.6444985717848291E9, 0.0, 2022-02-11 00:09:31.784
94.0, -8336.708943451518, -10003.50087922822, -10250.442951970454, -16277.166161199351, -2019.323649325806, -1571.3276352080866, -5149.528998080373, -6110.20697476947, -17034.93500172317, -15703.374529287164, -19996.54114205136, -11435.040704612817, -6451.898092257749, -10735.811082817447, -10603.66756959767, -11243.396847653014, 0.008, -0.018000000000000002, 0.988, 192.0, 0.0, 0.0, 0.0, 0.0, 0.0, 0.0, 0.0, 0.0, 0.0, 1.6444985717848356E9, 0.0, 2022-02-11 00:09:31.784
96.0, -8337.804178929828, -9995.476602968765, -10254.55567295023, -16278.596672844491, -2020.3518295707502, -1576.1779637548882, -5154.692251049549, -6106.183660767515, -17032.99039995556, -15697.451317006507, -19983.77829596738, -11421.272030028347, -6454.401487636744, -10733.50885313855, -10594.458650882085, -11237.071303972161, 0.002, -0.024, 0.986, 192.0, 0.0, 8.0, 127.5, 32.0, 15.0, 104.0, 0.0, 0.0, 0.0, 1.6444985717848425E9, 0.0, 2022-02-11 00:09:31.784
98.0, -8341.782789442872, -9998.851716381516, -10255.717963661906, -16276.853236776977, -2025.9844691734875, -1582.4141004579187, -5155.832190016769, -6111.324561992235, -17026.620152785796, -15700.692319952526, -19997.166990896105, -11429.341009776714, -6460.7493830620515, -10727.429178646706, -10599.420738151162, -11239.12766446205, 0.002, -0.024, 0.986, 192.0, 0.0, 0.0, 0.0, 0.0, 0.0, 0.0, 0.0, 0.0, 0.0, 1.6444985717848492E9, 0.0, 2022-02-11 00:09:31.784
100.0, -8327.052989846825, -9996.460079724799, -10246.799617624238, -16273.813399531056, -2011.3887800441719, -1584.9621993258238, -5142.0858671767555, -6108.821166613241, -17025.14493765175, -15698.211276317988, -19983.487723289458, -11416.220535781447, -6464.906807530739, -10736.503986895561, -10595.33036891584, -11237.920670261463, 0.002, -0.024, 0.986, 192.0, 0.0, 0.0, 0.0, 0.0, 0.0, 0.0, 0.0, 0.0, 0.0, 1.6444985717848558E9, 0.0, 2022-02-11 00:09:31.784
102.0, -8337.893585907648, -9997.3094460141, -10253.058106071723, -16279.043707733597, -2031.6171087762248, -1587.59970517155, -5159.386117385164, -6122.16515805306, -17025.435510329666, -15697.853648406703, -19991.020261170896, -11428.603402209688, -6458.916540016716, -10755.905301082767, -10595.419775893663, -11244.067399986674, 0.002, -0.024, 0.986, 192.0, 0.0, 0.0, 0.0, 0.0, 0.0, 0.0, 0.0, 0.0, 0.0, 1.6444985717848644E9, 0.0, 2022-02-11 00:09:31.784
104.0, -8316.033579830359, -9988.2569895097, -10236.763684363805, -16270.348879140483, -2011.7464079554568, -1570.2547514742319, -5137.392000841141, -6101.020407798339, -17013.27616134598, -15692.265712292876, -19985.745249479445, -11425.250640541391, -6455.027336481493, -10738.739161341091, -10597.923171272656, -11235.864309771576, 0.002, -0.024, 0.986, 192.0, 0.0, 0.0, 0.0, 0.0, 0.0, 0.0, 0.0, 0.0, 0.0, 1.644498571784871E9, 0.0, 2022-02-11 00:09:31.784
106.0, -8324.057856089814, -9994.046091323626, -10242.999821066836, -16279.826018789534, -2017.6249167472026, -1581.3859202129747, -5151.741820781448, -6119.25943127387, -17013.902010190726, -15692.399822759608, -19973.876473173677, -11413.314809002259, -6447.450095111143, -10716.789748285979, -10589.585970590828, -11231.997457980808, 0.004, -0.024, 0.99, 192.0, 0.0, 16.0, 127.5, 32.0, 15.0, 120.0, 0.0, 0.0, 0.0, 1.6444985717848775E9, 0.0, 2022-02-11 00:09:31.784
108.0, -8327.3659142692, -9989.240466265735, -10242.016344310803, -16274.595710586991, -2018.0495998918534, -1588.0690918051114, -5157.776791784381, -6126.5460999663, -17012.80677471242, -15699.619436218672, -19986.885188446664, -11425.11653007466, -6453.663880069719, -10731.631306604304, -10599.420738151162, -11246.190815709928, 0.004, -0.024, 0.99, 192.0, 0.0, 0.0, 0.0, 0.0, 0.0, 0.0, 0.0, 0.0, 0.0, 1.6444985717848845E9, 0.0, 2022-02-11 00:09:31.784
110.0, -8314.983047840959, -9980.612692905986, -10236.808387852716, -16275.6909460653, -2011.7687596999122, -1587.3538359825416, -5151.54065508135, -6114.386750982613, -17009.45401304412, -15690.544627969817, -19973.407086540115, -11417.226364281936, -6445.70665904363, -10736.816911317936, -10596.447956138607, -11242.7039435749, 0.004, -0.024, 0.99, 192.0, 0.0, 0.0, 0.0, 0.0, 0.0, 0.0, 0.0, 0.0, 0.0, 1.6444985717848911E9, 0.0, 2022-02-11 00:09:31.784
112.0, -8330.964545126504, -9996.21421053579, -10249.370068236598, -16281.345937412494, -2028.0184779189203, -1597.7250454098041, -5154.245216160442, -6120.309963263269, -17018.193545126145, -15697.96540712898, -19988.203941369527, -11426.949373119996, -6450.624042823797, -10733.419446160728, -10596.336197416329, -11249.543577378223, 0.004, -0.024, 0.99, 192.0, 0.0, 0.0, 0.0, 0.0, 0.0, 0.0, 0.0, 0.0, 0.0, 1.6444985717848976E9, 0.0, 2022-02-11 00:09:31.784
114.0, -8317.397036242131, -9993.710815156795, -10238.373009964587, -16274.930986753821, -2018.8542626922444, -1590.9748185843014, -5155.429858616574, -6110.296381747292, -17015.824260213885, -15687.705956423993, -19984.024165156385, -11422.300210273292, -6458.8718365278055, -10737.621574118326, -10599.688959084626, -11246.079056987652, 0.004, -0.024, 0.99, 192.0, 0.0, 0.0, 0.0, 0.0, 0.0, 0.0, 0.0, 0.0, 0.0, 1.6444985717849045E9, 0.0, 2022-02-11 00:09:31.784
116.0, -8326.784768913361, -9995.722472157773, -10244.318573989698, -16278.261396677663, -2030.521873297915, -1598.5520599546505, -5172.372480913697, -6122.343972008703, -17014.259638102012, -15702.525162997863, -19970.724877205477, -11414.298285758292, -6458.044821982959, -10744.997649788576, -10596.984398005534, -11246.637850599034, 0.004, -0.032, 0.99, 192.0, 0.0, 16.0, 127.5, 0.0, 15.0, 120.0, 0.0, 0.0, 0.0, 1.6444985717849112E9, 0.0, 2022-02-11 00:09:31.784
118.0, -8325.64482994614, -9990.73803314424, -10246.777265879782, -16275.243911176196, -2028.7784372304009, -1594.2605250192316, -5161.420126130596, -6113.760902137864, -17019.087614904358, -15705.72146245497, -19991.042612915353, -11428.469291742957, -6469.958301777638, -10738.247422963075, -10609.031988266945, -11252.315193690682, 0.004, -0.032, 0.99, 192.0, 0.0, 0.0, 0.0, 0.0, 0.0, 0.0, 0.0, 0.0, 0.0, 1.6444985717849178E9, 0.0, 2022-02-11 00:09:31.784
120.0, -8311.809100128306, -9988.368748231978, -10237.523643675286, -16275.489780365204, -2019.97184991501, -1588.113795294022, -5147.360878868209, -6111.168099781049, -17013.074995645882, -15693.606816960195, -19976.983365652963, -11417.82986138223, -6459.497685372554, -10730.401960659261, -10602.102947485799, -11245.497911631814, 0.004, -0.032, 0.99, 192.0, 0.0, 0.0, 0.0, 0.0, 0.0, 0.0, 0.0, 0.0, 0.0, 1.6444985717849245E9, 0.0, 2022-02-11 00:09:31.784
122.0, -8331.948021882537, -9995.186030290846, -10251.202911281933, -16278.484914122215, -2037.8085419903448, -1601.860118134036, -5169.936140768068, -6124.176815054037, -17019.020559670993, -15699.641787963128, -19983.688888989556, -11421.182623050527, -6448.925310245194, -10742.673068365226, -10602.035892252434, -11253.186911724439, 0.004, -0.032, 0.99, 192.0, 0.0, 0.0, 0.0, 0.0, 0.0, 0.0, 0.0, 0.0, 0.0, 1.644498572263924E9, 0.0, 2022-02-11 00:09:32.263
124.0, -8320.101597321225, -9994.73899540174, -10239.177672764978, -16276.070925721042, -2022.3411348272725, -1584.6939783923601, -5147.87496899068, -6107.904745090574, -17018.908800948717, -15697.786593173338, -19986.080525646274, -11425.049474841295, -6460.816438295417, -10736.749856084569, -10606.48388939904, -11252.471655901869, 0.004, -0.032, 0.99, 192.0, 0.0, 0.0, 0.0, 0.0, 0.0, 0.0, 0.0, 0.0, 0.0, 1.644498572263932E9, 0.0, 2022-02-11 00:09:32.263
126.0, -8318.559326953808, -9990.603922677508, -10237.031905297268, -16274.573358842536, -2021.9611551715323, -1585.3645307260194, -5152.054745203823, -6109.312904991259, -17015.354873580323, -15689.471744235963, -19971.99892663943, -11413.44891946899, -6446.3101561439225, -10714.711036051636, -10597.207915450086, -11245.006173253796, 0.004, -0.032, 0.99, 192.0, 0.0, 0.0, 127.5, 16.0, 15.5, 0.0, 0.0, 0.0, 0.0, 1.6444985722639391E9, 0.0, 2022-02-11 00:09:32.263
128.0, -8320.772149654884, -9989.084004054548, -10241.211681510411, -16267.51020759466, -2021.3576580712388, -1587.9796848272902, -5149.886625991658, -6111.548079436789, -17013.45497530162, -15690.119944825166, -19986.43815355756, -11419.68505617202, -6469.064231999426, -10726.736274568591, -10598.169040461666, -11244.447379642414, 0.004, -0.032, 0.99, 192.0, 0.0, 0.0, 0.0, 0.0, 0.0, 0.0, 0.0, 0.0, 0.0, 1.644498572263958E9, 0.0, 2022-02-11 00:09:32.263
130.0, -8311.093844305735, -9991.050957566615, -10237.657754142017, -16267.085524450009, -2016.7308469689904, -1577.3849579554746, -5145.885663734158, -6106.49658518989, -17013.142050879247, -15680.665156920571, -19973.876473173677, -11410.766710134354, -6461.263473184523, -10734.69349559468, -10594.659816582182, -11238.948850506407, 0.004, -0.032, 0.99, 192.0, 0.0, 0.0, 0.0, 0.0, 0.0, 0.0, 0.0, 0.0, 0.0, 1.6444985722639647E9, 0.0, 2022-02-11 00:09:32.263
132.0, -8328.17057706959, -9997.510611714199, -10246.419637968498, -16273.7910477866, -2030.3430593422725, -1589.7007691503488, -5158.559102840317, -6113.291515504303, -17020.160498638215, -15696.557247228295, -19981.47606628848, -11416.980495092928, -6467.0302232539925, -10712.654675561747, -10597.789060805924, -11242.770998808266, 0.004, -0.032, 0.99, 192.0, 0.0, 0.0, 0.0, 0.0, 0.0, 0.0, 0.0, 0.0, 0.0, 1.6444985722639713E9, 0.0, 2022-02-11 00:09:32.263
134.0, -8309.998608827425, -9990.64862616642, -10238.64123089805, -16265.431495360315, -2008.036018375876, -1572.668739875405, -5130.127683893166, -6096.773576351831, -17012.42679505668, -15693.91974138257, -19981.632528499667, -11417.136957304116, -6440.6775165411855, -10715.895678507768, -10593.855153781791, -11239.440588884425, 0.004, -0.032, 0.99, 192.0, 0.0, 0.0, 0.0, 0.0, 0.0, 0.0, 0.0, 0.0, 0.0, 1.644498572263985E9, 0.0, 2022-02-11 00:09:32.263
136.0, -8319.654562432119, -9989.039300565637, -10244.296222245244, -16269.41010587336, -2021.424713304605, -1573.9427893093575, -5145.013945700401, -6102.115643276649, -17016.673626503187, -15686.990700601424, -19973.04945862883, -11406.92221008804, -6450.579339334887, -10717.370893641817, -10590.815316535869, -11232.824472525654, 0.006, -0.028, 0.992, 192.0, 0.0, 24.0, 127.5, 16.0, 15.5, 0.0, 0.0, 0.0, 0.0, 1.644498572263991E9, 0.0, 2022-02-11 00:09:32.263
138.0, -8319.475748476476, -9995.700120413318, -10245.883196101571, -16269.141884939896, -2027.4596843075378, -1577.921399822402, -5152.613538815205, -6115.63844867211, -17018.99820792654, -15693.182133815544, -19990.506171048426, -11424.244812040903, -6478.094336759369, -10719.159033198242, -10602.639389352726, -11241.295783674215, 0.006, -0.028, 0.992, 192.0, 0.0, 0.0, 0.0, 0.0, 0.0, 0.0, 0.0, 0.0, 0.0, 1.6444985722639978E9, 0.0, 2022-02-11 00:09:32.263
140.0, -8315.295972263333, -9997.287094269645, -10240.004687309825, -16270.08065820702, -2021.06708539332, -1567.9748735397905, -5146.9585474680125, -6095.4101199400575, -17017.5676962814, -15693.830334404747, -19979.8667406877, -11415.617038681155, -6460.391755150767, -10713.526393595504, -10597.386729405729, -11235.50668186029, 0.006, -0.028, 0.992, 192.0, 0.0, 0.0, 0.0, 0.0, 0.0, 0.0, 0.0, 0.0, 0.0, 1.6444985722640057E9, 0.0, 2022-02-11 00:09:32.264
142.0, -8326.941231124549, -9998.337626259045, -10249.571233936696, -16273.522826853137, -2035.416905333627, -1580.6259609014942, -5153.664070804604, -6111.838652114708, -17025.211992885113, -15701.96636938648, -19987.57809252478, -11418.276896271336, -6457.03899348247, -10714.778091285001, -10599.621903851259, -11239.172367950961, 0.006, -0.028, 0.992, 192.0, 0.0, 0.0, 0.0, 0.0, 0.0, 0.0, 0.0, 0.0, 0.0, 1.6444985722640123E9, 0.0, 2022-02-11 00:09:32.264
144.0, -8317.017056586392, -9993.21907677878, -10243.536262933763, -16269.320698895539, -2018.675448736602, -1572.0428910306564, -5130.194739126532, -6087.63171286961, -17015.734853236063, -15697.406613517596, -19989.545046036845, -11420.936753861519, -6467.656072098741, -10722.444739633173, -10601.410043407684, -11240.89345227402, 0.006, -0.028, 0.992, 192.0, 0.0, 0.0, 0.0, 0.0, 0.0, 0.0, 0.0, 0.0, 0.0, 1.6444985722640188E9, 0.0, 2022-02-11 00:09:32.264
146.0, -8320.213356043501, -9996.907114613905, -10245.21264376791, -16272.65110881938, -2024.35279182825, -1579.9330568233797, -5145.393925356141, -6099.321675219736, -17022.239210872558, -15694.456183249496, -19979.79968545433, -11410.990227578906, -6470.651205855752, -10705.479765591594, -10590.591799091317, -11235.596088838112, 0.004, -0.022, 0.99, 192.0, 0.0, 16.0, 127.5, 40.0, 15.0, 120.0, 0.0, 0.0, 0.0, 1.6444985722640257E9, 0.0, 2022-02-11 00:09:32.264
148.0, -8329.019943358891, -9994.604884935008, -10245.614975168106, -16267.17493142783, -2035.3274983558058, -1582.145879524455, -5142.5552538103175, -6106.585992167711, -17019.98168468257, -15697.428965262052, -19991.400240826635, -11422.5460794623, -6474.003967524049, -10717.63911457528, -10595.62094159376, -11241.072266229661, 0.004, -0.022, 0.99, 192.0, 0.0, 0.0, 0.0, 0.0, 0.0, 0.0, 0.0, 0.0, 0.0, 1.6444985722640326E9, 0.0, 2022-02-11 00:09:32.264
150.0, -8313.440777473543, -9985.3065592416, -10238.663582642506, -16267.957242483764, -2025.6268412622026, -1571.7523183527373, -5140.655355531616, -6098.49466067489, -17018.662931759707, -15686.63307269014, -19977.028069141874, -11413.560678191267, -6480.865953071828, -10713.012303473033, -10595.173906704655, -11236.020771982763, 0.004, -0.022, 0.99, 192.0, 0.0, 0.0, 0.0, 0.0, 0.0, 0.0, 0.0, 0.0, 0.0, 1.6444985722640393E9, 0.0, 2022-02-11 00:09:32.264
152.0, -8333.490292249953, -10002.584457705552, -10248.587757180663, -16273.500475108682, -2039.194350146574, -1592.0700540626115, -5147.8973207351355, -6113.895012604597, -17019.959332938117, -15695.909046639092, -19985.275862845883, -11422.479024228935, -6476.105031502847, -10725.708094323647, -10601.00771200749, -11242.122798219061, 0.004, -0.022, 0.99, 192.0, 0.0, 0.0, 0.0, 0.0, 0.0, 0.0, 0.0, 0.0, 0.0, 1.6444985722640457E9, 0.0, 2022-02-11 00:09:32.264
154.0, -8322.403827000122, -9987.698195898318, -10238.440065197954, -16262.503416836671, -2016.2838120798842, -1575.283893976676, -5134.754494995415, -6089.866887315141, -17017.634751514765, -15691.617511703673, -19987.48868554696, -11426.010599852872, -6468.237217454579, -10731.608954859848, -10597.163211961177, -11238.278298172749, 0.004, -0.022, 0.99, 192.0, 0.0, 0.0, 0.0, 0.0, 0.0, 0.0, 0.0, 0.0, 0.0, 1.6444985722640529E9, 0.0, 2022-02-11 00:09:32.264
156.0, -8323.186138056057, -9999.589323948541, -10239.02121055379, -16264.380963370915, -2029.8513209642556, -1573.6298648869831, -5146.243291645443, -6099.098157775183, -17017.65710325922, -15684.666119178071, -19971.99892663943, -11411.750186890387, -6461.777563306995, -10717.862632019835, -10591.597627591806, -11233.070341714661, 0.004, -0.028, 0.994, 192.0, 0.0, 16.0, 127.5, 16.0, 15.5, 8.0, 0.0, 0.0, 0.0, 1.6444985722640595E9, 0.0, 2022-02-11 00:09:32.264
158.0, -8326.851824146726, -9998.471736725776, -10239.289431487256, -16259.21771040174, -2034.9922221889763, -1578.8378213450696, -5147.450285846029, -6105.82603285623, -17015.354873580323, -15691.326939025754, -19984.605310512223, -11410.833765367719, -6474.875685557805, -10722.064759977433, -10597.766709061469, -11237.18306269444, 0.004, -0.028, 0.994, 192.0, 0.0, 0.0, 0.0, 0.0, 0.0, 0.0, 0.0, 0.0, 0.0, 1.6444985722640665E9, 0.0, 2022-02-11 00:09:32.264
160.0, -8316.301800763822, -9995.968341346783, -10228.471187170886, -16267.93489073931, -2024.4645505505266, -1570.0759375185894, -5148.366707368697, -6098.248791485881, -17012.18092586767, -15683.883808122137, -19968.646164971135, -11405.692864142999, -6470.651205855752, -10702.171707412208, -10589.921246757656, -11230.678705057944, 0.004, -0.028, 0.994, 192.0, 0.0, 0.0, 0.0, 0.0, 0.0, 0.0, 0.0, 0.0, 0.0, 1.644498572264073E9, 0.0, 2022-02-11 00:09:32.264
162.0, -8336.440722518055, -10007.16656531889, -10242.284565244267, -16272.673460563836, -2043.5305885709035, -1590.3936732284635, -5166.02458548839, -6116.912498106062, -17018.282952103968, -15694.858514649692, -19977.922138920087, -11421.406140495079, -6476.037976269481, -10722.444739633173, -10592.312883414375, -11237.60774583909, 0.004, -0.028, 0.994, 192.0, 0.0, 0.0, 0.0, 0.0, 0.0, 0.0, 0.0, 0.0, 0.0, 1.6444985722640796E9, 0.0, 2022-02-11 00:09:32.264
164.0, -8326.851824146726, -10003.187954805846, -10239.602355909628, -16266.482027349715, -2026.6997249960573, -1572.5569811531284, -5140.58830029825, -6092.370282694135, -17019.42289107119, -15702.078128108757, -19988.114534391705, -11425.474157985946, -6482.967017050626, -10731.765417071036, -10603.064072497376, -11237.451283627903, 0.004, -0.025, 0.995, 192.0, 0.0, 16.0, 127.5, 40.0, 15.5, 16.0, 0.0, 0.0, 0.0, 1.644498572264086E9, 0.0, 2022-02-11 00:09:32.264
166.0, -8329.466978247998, -10006.563068218598, -10235.35552446312, -16273.053440219575, -2036.2662716229288, -1579.731891123282, -5156.815666772803, -6104.484928188912, -17026.486042319066, -15701.25111356391, -19978.36917380919, -11419.327428260736, -6471.478220400599, -10700.137698666776, -10594.011615992978, -11230.7010568024, 0.004, -0.025, 0.995, 192.0, 0.0, 0.0, 0.0, 0.0, 0.0, 0.0, 0.0, 0.0, 0.0, 1.6444985722640948E9, 0.0, 2022-02-11 00:09:32.264
168.0, -8337.670068463096, -10010.496975242731, -10237.054257041724, -16274.595710586991, -2033.8746349662108, -1587.666760404916, -5139.068381675289, -6086.82705006922, -17024.89906846274, -15708.426023534063, -19991.489647804457, -11429.005733609883, -6470.248874455557, -10733.106521738353, -10595.66564508267, -11235.596088838112, 0.004, -0.025, 0.995, 192.0, 0.0, 0.0, 0.0, 0.0, 0.0, 0.0, 0.0, 0.0, 0.0, 1.6444985722641015E9, 0.0, 2022-02-11 00:09:32.264
170.0, -8324.16961481209, -10009.245277553235, -10229.588774393651, -16274.014565231153, -2017.0884748802753, -1578.1002137780445, -5135.916785707091, -6075.539419119289, -17021.188678883158, -15707.1072706112, -19979.598519754236, -11427.843442898207, -6484.509287418043, -10736.45928340665, -10586.479078111539, -11229.874042257554, 0.004, -0.025, 0.995, 192.0, 0.0, 0.0, 0.0, 0.0, 0.0, 0.0, 0.0, 0.0, 0.0, 1.644498572264108E9, 0.0, 2022-02-11 00:09:32.264
172.0, -8350.432914547077, -10025.897327172439, -10247.783094380271, -16278.239044933207, -2034.1428558996745, -1584.112833036522, -5148.992556213446, -6091.990303038395, -17024.49673706254, -15712.672854980572, -19985.320566334794, -11434.996001123905, -6471.969958778615, -10715.962733741133, -10588.401328134696, -11231.572774836157, 0.004, -0.025, 0.995, 192.0, 0.0, 0.0, 0.0, 0.0, 0.0, 0.0, 0.0, 0.0, 0.0, 1.6444985722641146E9, 0.0, 2022-02-11 00:09:32.264
174.0, -8335.613707973207, -10016.55429799012, -10238.685934386962, -16273.008736730664, -2018.6978004810574, -1577.3179027221088, -5134.978012439968, -6087.117622747139, -17021.23338237207, -15714.0586631368, -19990.8190954708, -11437.566451736266, -6469.220694210612, -10723.919954767223, -10592.491697370016, -11230.097559702106, 0.004, -0.025, 0.995, 192.0, 0.0, 0.0, 127.5, 32.0, 15.5, 0.0, 0.0, 0.0, 0.0, 1.6444985722641213E9, 0.0, 2022-02-11 00:09:32.264
176.0, -8340.821664431294, -10023.282173071168, -10240.541129176752, -16278.55196935558, -2030.030134919898, -1582.794080113659, -5143.426971844074, -6093.890201317096, -17025.32375160739, -15708.381320045153, -19982.370136066693, -11430.302134788291, -6485.492764174076, -10718.376722142306, -10587.037871722921, -11229.918745746463, 0.004, -0.025, 0.995, 192.0, 0.0, 0.0, 0.0, 0.0, 0.0, 0.0, 0.0, 0.0, 0.0, 1.6444985722641275E9, 0.0, 2022-02-11 00:09:32.264
178.0, -8341.671030720596, -10015.727283445274, -10245.905547846025, -16279.535446111615, -2044.1117339267414, -1587.4432429603628, -5144.276338133376, -6093.644332128088, -17025.971952196593, -15712.896372425124, -19994.842409472752, -11438.080541858739, -6485.023377540515, -10723.115291966831, -10593.922209015156, -11235.46197837138, 0.004, -0.025, 0.995, 192.0, 0.0, 0.0, 0.0, 0.0, 0.0, 0.0, 0.0, 0.0, 0.0, 1.644498572264134E9, 0.0, 2022-02-11 00:09:32.264
180.0, -8332.484463749464, -10017.336609046055, -10243.2680420003, -16277.83671353301, -2037.965004201532, -1584.3363504810752, -5143.4940270774405, -6092.638503627599, -17026.37428359679, -15708.20250608951, -19980.157313365617, -11428.201070809493, -6481.804726338951, -10718.130852953298, -10590.9494270026, -11232.17627193645, 0.004, -0.025, 0.995, 192.0, 0.0, 0.0, 0.0, 0.0, 0.0, 0.0, 0.0, 0.0, 0.0, 1.6444985722641406E9, 0.0, 2022-02-11 00:09:32.264
182.0, -8345.694344722551, -10019.057693369114, -10250.197082781444, -16278.46256237776, -2046.1680944166299, -1598.4850047212847, -5153.172332426588, -6108.552945679778, -17032.90099297774, -15712.20346834701, -19987.71220299151, -11433.230213311937, -6487.23620024159, -10714.085187206887, -10594.011615992978, -11236.870138272065, 0.004, -0.025, 0.995, 192.0, 0.0, 0.0, 0.0, 0.0, 0.0, 0.0, 0.0, 0.0, 0.0, 1.6444985722641473E9, 0.0, 2022-02-11 00:09:32.264
184.0, -8331.232766059968, -10011.681617698863, -10239.177672764978, -16278.529617611126, -2027.2138151185293, -1580.7600713682261, -5138.263718874899, -6095.767747851342, -17026.351931852332, -15711.801136946815, -19992.160200138118, -11439.041666870316, -6472.595807623364, -10703.110480679332, -10595.397424149207, -11234.724370804355, 0.003, -0.0225, 0.9944999999999999, 192.0, 0.0, 8.0, 127.5, 48.0, 15.5, 8.0, 0.0, 0.0, 0.0, 1.6444985722641537E9, 0.0, 2022-02-11 00:09:32.264
186.0, -8342.676859221085, -10024.802091694128, -10244.564443178708, -16284.139905469407, -2036.5568443008476, -1593.0758825631003, -5145.796256756336, -6101.355683965169, -17026.84367023035, -15714.617456748183, -19979.732630220966, -11435.711256946475, -6466.404374409244, -10704.205716157641, -10587.730775801037, -11232.533899847735, 0.003, -0.0225, 0.9944999999999999, 192.0, 0.0, 0.0, 0.0, 0.0, 0.0, 0.0, 0.0, 0.0, 0.0, 1.6444985722641604E9, 0.0, 2022-02-11 00:09:32.264
188.0, -8349.851769191238, -10017.60482997952, -10251.828760126682, -16280.384812400916, -2045.4081351051493, -1593.6570279189382, -5150.266605647398, -6103.233230499414, -17030.174080154193, -15713.052834636312, -19995.356499595226, -11444.339030306224, -6480.865953071828, -10746.137588755797, -10596.917342772167, -11241.295783674215, 0.003, -0.0225, 0.9944999999999999, 192.0, 0.0, 0.0, 0.0, 0.0, 0.0, 0.0, 0.0, 0.0, 0.0, 1.6444985722641668E9, 0.0, 2022-02-11 00:09:32.264
190.0, -8337.960641141015, -10011.703969443319, -10246.620803668595, -16282.575283357535, -2033.0252686769093, -1582.9728940693014, -5137.794332241337, -6098.762881608353, -17034.84559474535, -15704.849744421213, -19985.61113901271, -11433.967820878963, -6486.677406630208, -10727.272716435518, -10596.894991027713, -11236.244289427315, 0.003, -0.0225, 0.9944999999999999, 192.0, 0.0, 0.0, 0.0, 0.0, 0.0, 0.0, 0.0, 0.0, 0.0, 1.6444985722641735E9, 0.0, 2022-02-11 00:09:32.264
192.0, -8352.55633027033, -10013.447405510833, -10253.773361894293, -16281.74826881269, -2053.6335770647024, -1591.3324464955863, -5138.196663641532, -6099.120509519638, -17036.70078953514, -15707.509602011396, -19991.936682693566, -11434.437207512523, -6489.739595620585, -10721.282448921496, -10601.834726552335, -11238.613574339579, 0.003, -0.0225, 0.9944999999999999, 192.0, 0.0, 0.0, 0.0, 0.0, 0.0, 0.0, 0.0, 0.0, 0.0, 1.64449857226418E9, 0.0, 2022-02-11 00:09:32.264
194.0, -8334.540824239353, -9997.801184392118, -10239.043562298246, -16271.578225085525, -2028.7560854859455, -1578.7707661117038, -5125.500872790918, -6095.745396106887, -17024.98847544056, -15704.894447910125, -19989.746211736943, -11434.906594146085, -6480.128345504802, -10699.109518421832, -10605.321598687364, -11232.779769036742, 0.0045000000000000005, -0.02225, 0.99225, 192.0, 0.0, 24.0, 127.5, 40.0, 15.0, 120.0, 0.0, 0.0, 0.0, 1.6444985722641864E9, 0.0, 2022-02-11 00:09:32.264
196.0, -8341.067533620302, -10011.994542121238, -10243.64802165604, -16279.580149600524, -2031.348887842761, -1591.310094751131, -5130.306497848809, -6092.4149861830465, -17026.441338830155, -15698.188924573533, -19973.787066195855, -11420.40031199459, -6459.22946443909, -10714.420463373717, -10595.173906704655, -11232.019809725263, 0.0045000000000000005, -0.02225, 0.99225, 192.0, 0.0, 0.0, 0.0, 0.0, 0.0, 0.0, 0.0, 0.0, 0.0, 1.6444985722641933E9, 0.0, 2022-02-11 00:09:32.264
198.0, -8352.668088992606, -10023.4162835379, -10249.41477172551, -16281.725917068234, -2041.5189315699258, -1600.0049233442455, -5140.387134598152, -6099.545192664289, -17034.19739415615, -15704.58152348775, -19998.77631649689, -11440.69569596001, -6482.229409483602, -10725.216355945631, -10601.588857363327, -11242.74864706381, 0.0045000000000000005, -0.02225, 0.99225, 192.0, 0.0, 0.0, 0.0, 0.0, 0.0, 0.0, 0.0, 0.0, 0.0, 1.6444985722642016E9, 0.0, 2022-02-11 00:09:32.264
200.0, -8336.328963795777, -10012.64274271044, -10242.865710600105, -16281.055364734575, -2030.7006872535574, -1583.4869841917734, -5140.230672386965, -6096.840631585197, -17034.689132534164, -15699.373567029665, -19988.09218264725, -11432.850233656196, -6488.107918275347, -10721.394207643772, -10599.487793384527, -11238.926498761952, 0.0045000000000000005, -0.02225, 0.99225, 192.0, 0.0, 0.0, 0.0, 0.0, 0.0, 0.0, 0.0, 0.0, 0.0, 1.644498572264208E9, 0.0, 2022-02-11 00:09:32.264
202.0, -8347.460132534521, -10017.537774746153, -10252.544015949252, -16281.07771647903, -2046.8609984947443, -1601.5471937116617, -5144.298689877831, -6107.323599734736, -17039.047722702948, -15708.716596211982, -19988.650976258636, -11436.6500302136, -6493.941723578182, -10720.678951821203, -10601.342988174318, -11240.46876912937, 0.0045000000000000005, -0.02225, 0.99225, 192.0, 0.0, 0.0, 0.0, 0.0, 0.0, 0.0, 0.0, 0.0, 0.0, 1.6444985722642148E9, 0.0, 2022-02-11 00:09:32.264
204.0, -8341.514568509408, -10011.726321187774, -10246.55374843523, -16273.187550686307, -2036.5568443008476, -1582.5929144135612, -5141.549425309829, -6102.987361310406, -17036.924306979694, -15709.767128201382, -19995.20003738404, -11435.73360869093, -6493.405281711255, -10722.422387888717, -10606.9532760326, -11238.568870850668, 0.00725, -0.023125, 0.993125, 192.0, 0.0, 40.0, 127.5, 32.0, 15.5, 8.0, 0.0, 0.0, 0.0, 1.6444985722642212E9, 0.0, 2022-02-11 00:09:32.264
206.0, -8344.196777844045, -10020.93523990336, -10249.705344403428, -16279.31192866706, -2043.3741263597165, -1588.2702575052092, -5149.797219013836, -6116.577221939233, -17036.097292434846, -15707.554305500307, -19977.832731942264, -11425.049474841295, -6471.768793078518, -10714.711036051636, -10602.326464930353, -11234.903184759998, 0.00725, -0.023125, 0.993125, 192.0, 0.0, 0.0, 0.0, 0.0, 0.0, 0.0, 0.0, 0.0, 0.0, 1.6444985722642276E9, 0.0, 2022-02-11 00:09:32.264
208.0, -8346.677821478585, -10015.347303789533, -10247.514873446808, -16283.916388024854, -2047.3750886172163, -1588.7843476276814, -5140.767114253893, -6103.233230499414, -17029.995266198548, -15713.276352080866, -19992.13784839366, -11435.688905202021, -6486.543296163475, -10698.886000977278, -10607.467366155073, -11239.082960973139, 0.00725, -0.023125, 0.993125, 192.0, 0.0, 0.0, 0.0, 0.0, 0.0, 0.0, 0.0, 0.0, 0.0, 1.6444985722642343E9, 0.0, 2022-02-11 00:09:32.264
210.0, -8327.03063810237, -10010.139347331447, -10239.915280332003, -16279.446039133793, -2026.8338354627892, -1578.860173089525, -5132.452265316519, -6083.854268056663, -17024.13910915126, -15702.34634904222, -19975.485798774458, -11429.408065010079, -6478.273150715012, -10695.086204419877, -10599.040758495423, -11230.768112035765, 0.00725, -0.023125, 0.993125, 192.0, 0.0, 0.0, 0.0, 0.0, 0.0, 0.0, 0.0, 0.0, 0.0, 1.6444985722642407E9, 0.0, 2022-02-11 00:09:32.264
212.0, -8338.184158585567, -10010.69814094283, -10250.621765926095, -16272.628757074925, -2046.8609984947443, -1594.1040628080443, -5158.73791679596, -6100.618076398144, -17030.151728409735, -15703.106308353701, -19981.967804666496, -11424.423625996546, -6494.8581451008495, -10716.387416885784, -10602.058243996888, -11233.785597537231, 0.00725, -0.023125, 0.993125, 192.0, 0.0, 0.0, 0.0, 0.0, 0.0, 0.0, 0.0, 0.0, 0.0, 1.6444985722642474E9, 0.0, 2022-02-11 00:09:32.264
214.0, -8332.663277705107, -10005.98192286276, -10249.325364747687, -16265.811475016055, -2037.8755972237109, -1581.0282923016898, -5137.995497941434, -6095.946561806984, -17028.385940597767, -15686.81188664578, -19987.756906480423, -11419.50624221638, -6490.186630509691, -10712.92289649521, -10607.512069643983, -11235.41727488247, 0.008625, -0.0215625, 0.9925625, 192.0, 0.0, 40.0, 127.5, 48.0, 15.5, 0.0, 0.0, 0.0, 0.0, 1.644498572264254E9, 0.0, 2022-02-11 00:09:32.264
216.0, -8342.051010376335, -10019.571783491587, -10250.26413801481, -16278.686079822313, -2040.647213536169, -1591.5559639401395, -5133.592204283739, -6102.272105487837, -17034.778539511986, -15692.131601826144, -19979.307947076315, -11419.30507651628, -6488.733767120096, -10703.915143479722, -10603.980494020045, -11237.250117927804, 0.008625, -0.0215625, 0.9925625, 192.0, 0.0, 0.0, 0.0, 0.0, 0.0, 0.0, 0.0, 0.0, 0.0, 1.6444985722642608E9, 0.0, 2022-02-11 00:09:32.264
218.0, -8343.012135387915, -10015.637876467452, -10256.120295062101, -16283.111725224464, -2041.608338547747, -1596.607458187039, -5140.655355531616, -6103.948486321984, -17034.97970521208, -15708.649540978617, -19996.04940367334, -11440.628640726643, -6487.482069430598, -10704.161012668732, -10608.786119077937, -11244.022696497763, 0.008625, -0.0215625, 0.9925625, 192.0, 0.0, 0.0, 0.0, 0.0, 0.0, 0.0, 0.0, 0.0, 0.0, 1.6444985722642672E9, 0.0, 2022-02-11 00:09:32.264
220.0, -8328.394094514144, -10010.116995586992, -10246.039658312757, -16281.7929723016, -2026.7667802294231, -1588.2032022718433, -5140.454189831518, -6098.137032763605, -17031.425777843688, -15699.552380985306, -19981.163141866105, -11433.16315807857, -6492.041825299481, -10712.542916839471, -10603.600514364305, -11239.529995862245, 0.008625, -0.0215625, 0.9925625, 192.0, 0.0, 0.0, 0.0, 0.0, 0.0, 0.0, 0.0, 0.0, 0.0, 1.6444985722642736E9, 0.0, 2022-02-11 00:09:32.264
222.0, -8337.424199274088, -10009.64760895343, -10254.801542139237, -16280.407164145372, -2038.8143704908337, -1598.216783787821, -5160.056669718822, -6116.823091128242, -17031.984571455072, -15703.77686068736, -19980.269072087893, -11434.705428445986, -6485.47041242962, -10702.55168706795, -10603.131127730743, -11242.279260430249, 0.008625, -0.0215625, 0.9925625, 192.0, 0.0, 0.0, 0.0, 0.0, 0.0, 0.0, 0.0, 0.0, 0.0, 1.64449857226428E9, 0.0, 2022-02-11 00:09:32.264
224.0, -8325.041332845847, -10002.78562340565, -10249.727696147884, -16276.093277465498, -2030.54422504237, -1587.5102981937289, -5145.30451837832, -6098.919343819541, -17023.736777751063, -15699.462974007485, -19981.788990710855, -11429.341009776714, -6494.008778811548, -10706.530297580994, -10606.975627777056, -11243.50860637529, 0.009312500000000001, -0.02178125, 0.99228125, 192.0, 0.0, 40.0, 127.5, 40.0, 15.5, 0.0, 0.0, 0.0, 0.0, 1.6444985722642868E9, 0.0, 2022-02-11 00:09:32.264
226.0, -8328.79642591434, -10010.586382220554, -10252.722829904895, -16280.384812400916, -2026.8338354627892, -1589.343141239064, -5142.421143343585, -6097.600590896677, -17028.877678975783, -15692.377471015154, -19967.640336470646, -11413.918306102552, -6484.911618818238, -10689.677082261693, -10602.170002719165, -11237.875966772554, 0.009312500000000001, -0.02178125, 0.99228125, 192.0, 0.0, 0.0, 0.0, 0.0, 0.0, 0.0, 0.0, 0.0, 0.0, 1.6444985722642937E9, 0.0, 2022-02-11 00:09:32.264
228.0, -8336.954812640526, -10011.547507232131, -10258.243710785355, -16272.7405157972, -2034.098152410764, -1597.6132866875275, -5149.998384713935, -6114.364399238158, -17030.26348713201, -15699.351215285209, -19988.829790214277, -11430.771521421853, -6493.494688689076, -10720.187213443187, -10607.221496966064, -11243.93328951994, 0.009312500000000001, -0.02178125, 0.99228125, 192.0, 0.0, 0.0, 0.0, 0.0, 0.0, 0.0, 0.0, 0.0, 0.0, 1.6444985722643E9, 0.0, 2022-02-11 00:09:32.264
230.0, -8330.182234070568, -10007.434786252355, -10250.487655459363, -16273.388716386406, -2022.0729138938086, -1577.049681788645, -5147.360878868209, -6096.661817629554, -17029.950562709637, -15696.333729783742, -19983.644185500645, -11426.725855675442, -6500.401377725766, -10708.161974926232, -10605.500412643005, -11240.200548195906, 0.009312500000000001, -0.02178125, 0.99228125, 192.0, 0.0, 0.0, 0.0, 0.0, 0.0, 0.0, 0.0, 0.0, 0.0, 1.6444985722643082E9, 0.0, 2022-02-11 00:09:32.264
232.0, -8335.256080061923, -10012.039245610147, -10251.2699665153, -16275.713297809756, -2030.0748384088085, -1587.7785191271926, -5152.501780092929, -6104.931963078018, -17025.055530673926, -15701.407575775096, -19980.38083081017, -11430.525652232845, -6486.878572330305, -10697.321378865407, -10603.332293430842, -11239.597051095612, 0.009312500000000001, -0.02178125, 0.99228125, 192.0, 0.0, 0.0, 0.0, 0.0, 0.0, 0.0, 0.0, 0.0, 0.0, 1.644498572264315E9, 0.0, 2022-02-11 00:09:32.264
234.0, -8323.610821200708, -10002.249181538724, -10242.97746932238, -16269.052477962075, -2019.5471667703591, -1582.8834870914802, -5129.032448414856, -6096.103024018172, -17017.388882325755, -15698.479497251452, -19981.252548843928, -11431.553832477788, -6489.069043286925, -10692.627512529793, -10596.805584049891, -11242.346315663615, 0.008, -0.03, 0.99, 192.0, 0.0, 32.0, 127.5, 8.0, 15.0, 120.0, 0.0, 0.0, 0.0, 1.644498572264321E9, 0.0, 2022-02-11 00:09:32.264
236.0, -8326.673010191085, -10008.753539175217, -10247.581928680174, -16265.40914361586, -2021.1341406266858, -1582.5929144135612, -5137.503759563418, -6103.188527010504, -17026.575449296888, -15699.194753074022, -19972.200092339528, -11413.940657847006, -6502.927124849216, -10715.06866396292, -10595.57623810485, -11237.428931883447, 0.008, -0.03, 0.99, 192.0, 0.0, 0.0, 0.0, 0.0, 0.0, 0.0, 0.0, 0.0, 0.0, 1.6444985722643278E9, 0.0, 2022-02-11 00:09:32.264
238.0, -8335.926632395582, -10015.257896811712, -10252.387553738065, -16266.996117472187, -2031.5277017984035, -1580.4918504347625, -5138.196663641532, -6094.87367807313, -17031.291667376958, -15702.480459508952, -19991.24377861545, -11428.11166383167, -6503.396511482777, -10689.565323539415, -10600.851249796302, -11238.591222595123, 0.008, -0.03, 0.99, 192.0, 0.0, 0.0, 0.0, 0.0, 0.0, 0.0, 0.0, 0.0, 0.0, 1.6444985722643344E9, 0.0, 2022-02-11 00:09:32.264
240.0, -8322.381475255666, -10003.79145190614, -10240.854053599127, -16264.269204648639, -2014.4733207790043, -1572.9146090644133, -5138.844864230736, -6100.081634531216, -17028.162423153215, -15690.00818610289, -19982.258377344417, -11414.521803202844, -6510.839642386394, -10693.141602652264, -10601.00771200749, -11236.55721384969, 0.008, -0.03, 0.99, 192.0, 0.0, 0.0, 0.0, 0.0, 0.0, 0.0, 0.0, 0.0, 0.0, 1.6444985722643409E9, 0.0, 2022-02-11 00:09:32.264
242.0, -8334.920803895093, -10019.191803835845, -10251.202911281933, -16270.952376240777, -2032.3994198321607, -1590.8183563731143, -5138.666050275094, -6100.081634531216, -17034.93500172317, -15702.279293808853, -19982.10191513323, -11423.663666685065, -6499.037921313992, -10700.49532657806, -10603.19818296411, -11241.69811507441, 0.008, -0.03, 0.99, 192.0, 0.0, 0.0, 0.0, 0.0, 0.0, 0.0, 0.0, 0.0, 0.0, 1.644498572744876E9, 0.0, 2022-02-11 00:09:32.744
244.0, -8332.484463749464, -10019.594135236042, -10245.950251334936, -16269.477161106726, -2022.899928438655, -1586.3927109709634, -5122.751608222915, -6092.638503627599, -17029.972914454094, -15710.325921812764, -19989.29917684784, -11433.87841390114, -6510.90669761976, -10710.88888774978, -10602.86290679728, -11242.03339124124, 0.004, -0.028, 0.992, 192.0, 0.0, 16.0, 127.5, 16.0, 15.5, 0.0, 0.0, 0.0, 0.0, 1.6444985727448847E9, 0.0, 2022-02-11 00:09:32.744
246.0, -8340.821664431294, -10024.4668155273, -10251.940518848958, -16271.51116985216, -2029.739562241979, -1586.5268214376954, -5131.312326349298, -6096.840631585197, -17033.638600544764, -15710.236514834944, -19981.09608663274, -11427.463463242468, -6502.90477310476, -10714.666332562725, -10594.86098228228, -11239.194719695417, 0.004, -0.028, 0.992, 192.0, 0.0, 0.0, 0.0, 0.0, 0.0, 0.0, 0.0, 0.0, 0.0, 1.6444985727448921E9, 0.0, 2022-02-11 00:09:32.744
248.0, -8343.906205166126, -10025.18207134987, -10253.482789216374, -16267.711373294756, -2039.6860885245908, -1583.4869841917734, -5133.547500794828, -6106.697750889987, -17030.91168772122, -15710.594142746228, -19997.546970551848, -11436.6500302136, -6521.479072747121, -10721.774187299514, -10601.164174218677, -11242.74864706381, 0.004, -0.028, 0.992, 192.0, 0.0, 0.0, 0.0, 0.0, 0.0, 0.0, 0.0, 0.0, 0.0, 1.6444985727449002E9, 0.0, 2022-02-11 00:09:32.744
250.0, -8326.494196235442, -10016.911925901404, -10241.681068143973, -16262.570472070036, -2020.9553266710434, -1567.8184113286034, -5120.941116922035, -6085.620055868632, -17028.721216764596, -15706.079090366256, -19984.38179306767, -11423.909535874074, -6521.702590191673, -10688.827715972391, -10598.660778839681, -11233.562080092679, 0.004, -0.028, 0.992, 192.0, 0.0, 0.0, 0.0, 0.0, 0.0, 0.0, 0.0, 0.0, 0.0, 1.6444985727449071E9, 0.0, 2022-02-11 00:09:32.744
252.0, -8337.446551018542, -10017.627181723974, -10253.75101014984, -16266.37026862744, -2026.6550215071468, -1581.8776585909914, -5133.882776961658, -6096.170079251538, -17032.69982727764, -15702.994549631423, -19982.19132211105, -11423.037817840317, -6503.485918460598, -10701.076471933899, -10593.38576714823, -11233.36091439258, 0.004, -0.028, 0.992, 192.0, 0.0, 0.0, 0.0, 0.0, 0.0, 0.0, 0.0, 0.0, 0.0, 1.6444985727449138E9, 0.0, 2022-02-11 00:09:32.744
254.0, -8329.13170208117, -10015.704931700819, -10243.044524555746, -16264.470370348738, -2026.0515244068533, -1568.4889636622624, -5132.184044383054, -6086.961160535951, -17031.537536565964, -15703.598046731717, -19992.115496649207, -11428.692809187509, -6508.783281896506, -10708.899582493255, -10598.504316628494, -11238.926498761952, 0.006, -0.028, 0.992, 192.0, 0.0, 24.0, 127.5, 16.0, 15.5, 0.0, 0.0, 0.0, 0.0, 1.6444985727449205E9, 0.0, 2022-02-11 00:09:32.744
0.0, -8327.70119043603, -10014.632047966963, -10240.541129176752, -16262.592823814492, -2015.9485359130547, -1565.7620508387151, -5120.695247733027, -6084.547172134778, -17030.934039465672, -15701.96636938648, -19976.62573774168, -11413.806547380274, -6496.378063723811, -10684.44677405915, -10590.457688624583, -11233.830301026142, 0.006, -0.028, 0.992, 192.0, 0.0, 0.0, 0.0, 0.0, 0.0, 0.0, 0.0, 0.0, 0.0, 1.6444985727449272E9, 0.0, 2022-02-11 00:09:32.744
2.0, -8335.680763206574, -10014.453234011322, -10245.257347256822, -16257.653088289868, -2023.6598877501356, -1570.6123793855168, -5119.7788262103595, -6093.420814683534, -17028.542402808955, -15700.379395530153, -19986.885188446664, -11427.709332431476, -6528.519872250542, -10710.665370305225, -10587.1496304452, -11232.153920191995, 0.006, -0.028, 0.992, 192.0, 0.0, 0.0, 0.0, 0.0, 0.0, 0.0, 0.0, 0.0, 0.0, 1.6444985727449353E9, 0.0, 2022-02-11 00:09:32.744
4.0, -8325.421312501587, -10009.491146742243, -10239.065914042701, -16253.31684986554, -2022.16232087163, -1557.536608879162, -5124.383285568152, -6086.961160535951, -17024.027350428983, -15694.143258827122, -19982.034859899864, -11420.959105605973, -6507.911563862749, -10692.716919507613, -10586.501429855995, -11229.60582132409, 0.006, -0.028, 0.992, 192.0, 0.0, 0.0, 0.0, 0.0, 0.0, 0.0, 0.0, 0.0, 0.0, 1.6444985727449422E9, 0.0, 2022-02-11 00:09:32.744
6.0, -8342.02865863188, -10012.530983988165, -10250.398248481542, -16262.034030203109, -2032.35471634325, -1568.1313357509775, -5118.5494802653175, -6089.218686725937, -17028.296533619945, -15689.359985513687, -19988.67332800309, -11418.053378826784, -6501.80953762645, -10677.338919322363, -10585.182676933131, -11228.041199212217, 0.006, -0.028, 0.992, 192.0, 0.0, 0.0, 0.0, 0.0, 0.0, 0.0, 0.0, 0.0, 0.0, 1.6444985727449567E9, 0.0, 2022-02-11 00:09:32.744
8.0, -8330.092827092747, -10004.752576917717, -10251.515835704307, -16258.971841212731, -2021.3353063267837, -1554.2732541886871, -5111.262811572888, -6083.809564567753, -17030.66581853221, -15687.258921534887, -19997.43521182957, -11426.725855675442, -6492.734729377596, -10694.996797442056, -10591.776441547447, -11230.969277735863, 0.008, -0.032, 0.99, 192.0, 0.0, 32.0, 127.5, 0.0, 15.0, 120.0, 0.0, 0.0, 0.0, 1.6444985727449636E9, 0.0, 2022-02-11 00:09:32.744
10.0, -8331.053952104325, -10010.765196176195, -10245.726733890384, -16265.900881993877, -2029.873672708711, -1562.8563240595252, -5127.132550136155, -6086.961160535951, -17031.157556910224, -15688.197694802011, -19980.961976166007, -11416.846384626197, -6509.43148248571, -10698.193096899164, -10590.61415083577, -11232.668010314466, 0.008, -0.032, 0.99, 192.0, 0.0, 0.0, 0.0, 0.0, 0.0, 0.0, 0.0, 0.0, 0.0, 1.6444985727449703E9, 0.0, 2022-02-11 00:09:32.744
12.0, -8352.109295381224, -10018.588306735553, -10250.46530371491, -16266.07969594952, -2031.0583151648423, -1573.1604782534216, -5135.380343840164, -6103.479099688423, -17033.303324377935, -15709.655369479106, -19992.696642005045, -11430.50330048839, -6522.6190117143415, -10714.107538951343, -10593.38576714823, -11239.440588884425, 0.008, -0.032, 0.99, 192.0, 0.0, 0.0, 0.0, 0.0, 0.0, 0.0, 0.0, 0.0, 0.0, 1.6444985727449772E9, 0.0, 2022-02-11 00:09:32.744
14.0, -8338.944117897048, -10016.330780545566, -10243.35744897812, -16266.638489560903, -2018.0719516363088, -1563.7056903488267, -5115.86727093068, -6093.800794339275, -17038.399522113745, -15701.027596119357, -19988.874493703188, -11424.244812040903, -6532.38672404131, -10707.200849914652, -10586.479078111539, -11236.55721384969, 0.008, -0.032, 0.99, 192.0, 0.0, 0.0, 0.0, 0.0, 0.0, 0.0, 0.0, 0.0, 0.0, 1.644498572744984E9, 0.0, 2022-02-11 00:09:32.744
16.0, -8348.331850568276, -10016.442539267844, -10252.856940371626, -16265.587957571503, -2032.6899925100795, -1569.2265712292876, -5129.8147594707925, -6098.8746403306295, -17038.064245946916, -15697.138392584133, -19988.29334834735, -11424.334219018725, -6504.089415560891, -10685.854933959834, -10581.964025731568, -11235.46197837138, 0.008, -0.032, 0.99, 192.0, 0.0, 0.0, 0.0, 0.0, 0.0, 0.0, 0.0, 0.0, 0.0, 1.6444985727449913E9, 0.0, 2022-02-11 00:09:32.744
18.0, -8337.22303357399, -10010.429920009366, -10249.325364747687, -16260.804684258066, -2026.744428484968, -1562.0963647480446, -5136.319117107287, -6099.321675219736, -17030.03996968746, -15690.29875878081, -19992.58488328277, -11424.758902163376, -6506.212831284146, -10695.801460242446, -10591.016482235967, -11234.813777782176, 0.004, -0.026000000000000002, 0.988, 192.0, 0.0, 16.0, 127.5, 24.0, 15.0, 112.0, 0.0, 0.0, 0.0, 1.644498572744998E9, 0.0, 2022-02-11 00:09:32.744
20.0, -8341.045181875847, -10014.855565411517, -10247.738390891362, -16267.59961457248, -2027.8620157077332, -1573.0934230200558, -5131.8711199606805, -6102.450919443479, -17032.76688251101, -15693.048023348812, -19980.760810465912, -11421.78612015082, -6515.444101744188, -10698.506021321538, -10586.635540322726, -11236.512510360779, 0.004, -0.026000000000000002, 0.988, 192.0, 0.0, 0.0, 0.0, 0.0, 0.0, 0.0, 0.0, 0.0, 0.0, 1.644498572745005E9, 0.0, 2022-02-11 00:09:32.745
22.0, -8352.668088992606, -10014.542640989142, -10253.907472361025, -16267.778428528123, -2035.2157396335292, -1577.988455055768, -5127.49017804744, -6095.655989129065, -17035.247926145545, -15698.255979806898, -20000.855028731232, -11432.917288889563, -6524.697723948685, -10704.585695813383, -10587.32844440084, -11238.568870850668, 0.004, -0.026000000000000002, 0.988, 192.0, 0.0, 0.0, 0.0, 0.0, 0.0, 0.0, 0.0, 0.0, 0.0, 1.6444985727450116E9, 0.0, 2022-02-11 00:09:32.745
24.0, -8340.374629542188, -10011.480451998765, -10250.26413801481, -16266.705544794268, -2020.485940037482, -1562.8116205706144, -5118.214204098488, -6086.022387268828, -17036.119644179304, -15690.969311114468, -19995.20003738404, -11429.586878965722, -6520.249726802079, -10709.525431338005, -10579.751203030492, -11232.93623124793, 0.004, -0.026000000000000002, 0.988, 192.0, 0.0, 0.0, 0.0, 0.0, 0.0, 0.0, 0.0, 0.0, 0.0, 1.6444985727450185E9, 0.0, 2022-02-11 00:09:32.745
26.0, -8355.46205704952, -10016.84487066804, -10262.199969553945, -16269.946547740288, -2031.1477221426635, -1569.3830334404747, -5131.088808904745, -6097.108852518661, -17040.232365159078, -15695.372604772165, -19998.597502541244, -11431.889108644618, -6516.315819777945, -10683.396242069752, -10579.795906519403, -11230.745760291311, 0.004, -0.026000000000000002, 0.988, 192.0, 0.0, 0.0, 0.0, 0.0, 0.0, 0.0, 0.0, 0.0, 0.0, 1.6444985727450254E9, 0.0, 2022-02-11 00:09:32.745
28.0, -8339.547614997342, -10010.161699075901, -10252.164036293512, -16258.010716201154, -2020.6871057375797, -1559.5482658801398, -5128.473654803473, -6096.080672273716, -17030.88933597676, -15689.29293028032, -20002.48670607647, -11431.911460389074, -6515.734674422107, -10673.740288465058, -10579.103002441288, -11233.807949281687, 0.008, -0.024, 0.992, 192.0, 0.0, 32.0, 127.5, 32.0, 15.5, 0.0, 0.0, 0.0, 0.0, 1.6444985727450323E9, 0.0, 2022-02-11 00:09:32.745
30.0, -8339.70407720853, -10017.448367768333, -10254.443914227953, -16256.133169666908, -2024.2633848504288, -1570.925303807891, -5129.837111215247, -6094.896029817585, -17028.56475455341, -15684.643767433618, -19986.035822157362, -11417.628695682133, -6519.489767490598, -10679.194114112153, -10580.33234838633, -11229.337600390625, 0.008, -0.024, 0.992, 192.0, 0.0, 0.0, 0.0, 0.0, 0.0, 0.0, 0.0, 0.0, 0.0, 1.6444985727450516E9, 0.0, 2022-02-11 00:09:32.745
32.0, -8355.84203670526, -10022.455158526322, -10264.949234121947, -16262.034030203109, -2029.6725070086131, -1580.9388853238686, -5139.984803197957, -6107.815338112752, -17034.353856367332, -15699.86530540768, -20005.794764255854, -11435.800663924298, -6527.692857705696, -10690.615855528815, -10589.8988950132, -11235.998420238308, 0.008, -0.024, 0.992, 192.0, 0.0, 0.0, 0.0, 0.0, 0.0, 0.0, 0.0, 0.0, 0.0, 1.644498572745058E9, 0.0, 2022-02-11 00:09:32.745
34.0, -8341.2686993204, -10015.146138089436, -10257.327289262688, -16264.202149415274, -2024.6210127617137, -1575.8426875880584, -5130.909994949102, -6094.270180972837, -17037.997190713548, -15695.283197794342, -19998.083412418775, -11431.531480733334, -6523.468378003643, -10693.9239137082, -10583.014557720966, -11232.355085892092, 0.008, -0.024, 0.992, 192.0, 0.0, 0.0, 0.0, 0.0, 0.0, 0.0, 0.0, 0.0, 0.0, 1.6444985727450645E9, 0.0, 2022-02-11 00:09:32.745
36.0, -8356.624347761197, -10019.817652680595, -10264.390440510564, -16265.252681404672, -2033.7181727550237, -1586.50446969324, -5139.87304447568, -6099.746358364387, -17040.858214003827, -15688.57767445775, -19998.48574381897, -11434.996001123905, -6519.042732601492, -10704.11630917982, -10582.299301898396, -11232.84682427011, 0.008, -0.024, 0.992, 192.0, 0.0, 0.0, 0.0, 0.0, 0.0, 0.0, 0.0, 0.0, 0.0, 1.6444985727450712E9, 0.0, 2022-02-11 00:09:32.745
38.0, -8352.444571548054, -10019.527080002676, -10255.829722384182, -16261.966974969742, -2015.5909080017698, -1576.379129454986, -5134.553329295317, -6095.25365772887, -17038.176004669192, -15699.105346096201, -20007.135868923175, -11446.685963474032, -6519.847395401883, -10717.192079686176, -10583.774517032447, -11232.422141125458, 0.006, -0.028, 0.988, 192.0, 0.0, 24.0, 127.5, 16.0, 15.0, 112.0, 0.0, 0.0, 0.0, 1.64449857274508E9, 0.0, 2022-02-11 00:09:32.745
40.0, -8350.79054245836, -10019.46002476931, -10259.182484052479, -16261.095256935985, -2023.6151842612248, -1585.7892138706702, -5141.862349732202, -6108.977628824428, -17042.17696692669, -15698.770069929371, -19993.300139105337, -11434.638373212621, -6502.882421360305, -10691.800497984947, -10580.891141997712, -11231.885699258532, 0.006, -0.028, 0.988, 192.0, 0.0, 0.0, 0.0, 0.0, 0.0, 0.0, 0.0, 0.0, 0.0, 1.6444985727450864E9, 0.0, 2022-02-11 00:09:32.745
42.0, -8350.835245947272, -10013.000370621727, -10263.474018987898, -16261.095256935985, -2033.1370273991856, -1581.184754512877, -5132.116989149688, -6102.49562293239, -17034.867946489805, -15697.607779217695, -20001.838505487267, -11435.264222057369, -6525.681200704718, -10698.438966088172, -10591.307054913887, -11239.574699351157, 0.006, -0.028, 0.988, 192.0, 0.0, 0.0, 0.0, 0.0, 0.0, 0.0, 0.0, 0.0, 0.0, 1.644498572745093E9, 0.0, 2022-02-11 00:09:32.745
44.0, -8335.971335884493, -10013.961495633304, -10257.170827051501, -16263.330431381517, -2018.004896402943, -1572.5793328975838, -5118.594183754228, -6085.217724468437, -17035.314981378913, -15687.393032001619, -19996.563493795813, -11428.089312087217, -6524.921241393237, -10683.530352536483, -10585.09326995531, -11231.550423091701, 0.006, -0.028, 0.988, 192.0, 0.0, 0.0, 0.0, 0.0, 0.0, 0.0, 0.0, 0.0, 0.0, 1.6444985727450998E9, 0.0, 2022-02-11 00:09:32.745
46.0, -8355.596167516253, -10027.84192894005, -10269.285472546277, -16265.923233738333, -2033.3381930992834, -1592.986475585279, -5142.979936954968, -6104.887259589107, -17043.830996016382, -15697.831296662247, -20003.783107254876, -11431.978515622439, -6524.585965226408, -10706.083262691887, -10585.070918210855, -11237.630097583546, 0.006, -0.03, 0.99, 192.0, 0.0, 24.0, 127.5, 0.0, 15.5, 0.0, 0.0, 0.0, 0.0, 1.6444985727451065E9, 0.0, 2022-02-11 00:09:32.745
48.0, -8349.829417446783, -10026.634934739463, -10269.106658590634, -16265.923233738333, -2021.8940999381662, -1582.0117690577233, -5135.670916518083, -6095.387768195602, -17047.496682107056, -15699.954712385503, -20018.06587196182, -11444.719009961964, -6517.008723856059, -10703.222239401608, -10594.816278793369, -11237.317173161171, 0.006, -0.03, 0.99, 192.0, 0.0, 0.0, 0.0, 0.0, 0.0, 0.0, 0.0, 0.0, 0.0, 1.6444985727451136E9, 0.0, 2022-02-11 00:09:32.745
50.0, -8354.165655871113, -10031.194690608347, -10264.636309699574, -16271.131190196418, -2024.6657162506244, -1580.178926012388, -5139.671878775583, -6102.5403264213, -17047.74255129606, -15700.379395530153, -20007.38173811218, -11439.175777337048, -6525.323572793433, -10661.15625633672, -10589.697729313104, -11236.445455127414, 0.006, -0.03, 0.99, 192.0, 0.0, 0.0, 0.0, 0.0, 0.0, 0.0, 0.0, 0.0, 0.0, 1.64449857274512E9, 0.0, 2022-02-11 00:09:32.745
52.0, -8354.657394249129, -10032.55814702012, -10265.597434711151, -16262.771637770134, -2027.3032220963505, -1589.3654929835193, -5136.430875829563, -6100.640428142599, -17044.85917626133, -15705.430889777052, -20017.372967883704, -11444.875472173151, -6522.931936136715, -10708.31843713742, -10590.994130491512, -11242.927461019453, 0.006, -0.03, 0.99, 192.0, 0.0, 0.0, 0.0, 0.0, 0.0, 0.0, 0.0, 0.0, 0.0, 1.6444985727451267E9, 0.0, 2022-02-11 00:09:32.745
54.0, -8333.512643994409, -10014.341475289044, -10250.510007203819, -16260.670573791334, -2004.8620706632223, -1572.6240363864943, -5131.960526938502, -6095.723044362431, -17035.024408700992, -15691.729270425949, -20001.324415364794, -11422.724893417942, -6504.871726616827, -10696.44966083165, -10585.585008333328, -11237.250117927804, 0.006, -0.03, 0.99, 192.0, 0.0, 0.0, 0.0, 0.0, 0.0, 0.0, 0.0, 0.0, 0.0, 1.6444985727451332E9, 0.0, 2022-02-11 00:09:32.745
56.0, -8355.216187860511, -10027.797225451139, -10262.155266065034, -16269.566568084547, -2026.8785389516997, -1587.8679261050138, -5133.413390328096, -6103.903782833074, -17039.494757592056, -15694.545590227317, -20006.10768867823, -11430.860928399674, -6519.668581446241, -10699.087166677376, -10585.272083910953, -11239.798216795709, 0.008, -0.032, 0.991, 192.0, 0.0, 40.0, 127.0, 120.0, 15.5, 0.0, 0.0, 0.0, 0.0, 1.6444985727451398E9, 0.0, 2022-02-11 00:09:32.745
58.0, -8351.75166746994, -10032.312277831112, -10261.12708582009, -16265.073867449031, -2019.3460010702613, -1583.889315591969, -5135.87208221818, -6100.68513163151, -17042.6240018158, -15702.569866486772, -20017.931761495085, -11441.746227949408, -6518.439235501199, -10697.768413754513, -10589.697729313104, -11238.680629572944, 0.008, -0.032, 0.991, 192.0, 0.0, 0.0, 0.0, 0.0, 0.0, 0.0, 0.0, 0.0, 0.0, 1.6444985727451465E9, 0.0, 2022-02-11 00:09:32.745
60.0, -8351.729315725484, -10035.285059843667, -10258.489579974364, -16266.906710494366, -2018.5413382698703, -1589.8125278726254, -5131.848768216225, -6102.361512465658, -17039.606516314332, -15698.166572829077, -20002.129078165184, -11432.380847022636, -6517.254593045068, -10702.931666723689, -10586.255560666987, -11237.093655716617, 0.008, -0.032, 0.991, 192.0, 0.0, 0.0, 0.0, 0.0, 0.0, 0.0, 0.0, 0.0, 0.0, 1.6444985727451532E9, 0.0, 2022-02-11 00:09:32.745
62.0, -8361.117048396713, -10037.922565689394, -10267.676146945494, -16268.516036095149, -2026.967945929521, -1598.1720802989103, -5140.58830029825, -6117.985381839917, -17047.34021989587, -15710.2588665794, -20022.02213073041, -11448.161178608081, -6519.199194812679, -10711.626495316803, -10594.14572645971, -11245.27439418726, 0.008, -0.032, 0.991, 192.0, 0.0, 0.0, 0.0, 0.0, 0.0, 0.0, 0.0, 0.0, 0.0, 1.6444985727451596E9, 0.0, 2022-02-11 00:09:32.745
64.0, -8350.052934891335, -10031.082931886069, -10255.561501450718, -16265.31973663804, -2014.0039341454428, -1590.281914506187, -5136.788503740848, -6098.15938450806, -17047.921365251706, -15692.086898337235, -20013.19319167056, -11438.304059303291, -6537.594680499396, -10702.55168706795, -10592.536400858928, -11242.636888341534, 0.008, -0.032, 0.991, 192.0, 0.0, 0.0, 0.0, 0.0, 0.0, 0.0, 0.0, 0.0, 0.0, 1.6444985727451663E9, 0.0, 2022-02-11 00:09:32.745
66.0, -8362.212283875024, -10036.000315666237, -10268.167885323512, -16263.799818015077, -2028.5996232747584, -1603.7153129238263, -5152.25591090392, -6117.203070783981, -17049.597746085852, -15704.246247320922, -20010.24276140246, -11435.64420171311, -6524.988296626604, -10695.35442535334, -10591.66468282517, -11241.496949374314, 0.007, -0.03, 0.9915, 192.0, 0.0, 24.0, 127.5, 16.0, 15.5, 0.0, 0.0, 0.0, 0.0, 1.6444985727451727E9, 0.0, 2022-02-11 00:09:32.745
68.0, -8351.885777936672, -10026.813748695105, -10261.46236198692, -16259.664745290846, -2023.995163916965, -1583.889315591969, -5144.54455906684, -6097.265314729848, -17049.351876896846, -15702.480459508952, -20022.290351663873, -11440.606288982188, -6526.642325716296, -10703.78103301299, -10598.86194453978, -11240.871100529565, 0.007, -0.03, 0.9915, 192.0, 0.0, 0.0, 0.0, 0.0, 0.0, 0.0, 0.0, 0.0, 0.0, 1.6444985727451792E9, 0.0, 2022-02-11 00:09:32.745
70.0, -8351.32698432529, -10025.070312627591, -10260.456533486431, -16265.11857093794, -2018.6978004810574, -1584.3139987366199, -5135.402695584619, -6096.237134484903, -17046.446150117656, -15698.121869340166, -20004.319549121803, -11435.465387757467, -6506.704569662163, -10691.666387518215, -10593.519877614961, -11236.244289427315, 0.007, -0.03, 0.9915, 192.0, 0.0, 0.0, 0.0, 0.0, 0.0, 0.0, 0.0, 0.0, 0.0, 1.6444985727451875E9, 0.0, 2022-02-11 00:09:32.745
72.0, -8362.70402225304, -10030.591193508053, -10263.809295154726, -16267.644318061391, -2026.967945929521, -1586.727987137793, -5134.888605462147, -6099.992227553395, -17049.75420829704, -15700.91583739708, -20019.384624884682, -11444.182568095037, -6531.135026351813, -10691.599332284848, -10593.43047063714, -11237.406580138992, 0.007, -0.03, 0.9915, 192.0, 0.0, 0.0, 0.0, 0.0, 0.0, 0.0, 0.0, 0.0, 0.0, 1.644498572745194E9, 0.0, 2022-02-11 00:09:32.745
74.0, -8347.370725556699, -10022.656324226418, -10258.713097418917, -16264.783294771112, -2010.1147306102193, -1582.6823213913824, -5130.01592517089, -6102.428567699024, -17049.84361527486, -15697.093689095223, -20018.71407255102, -11443.176739594548, -6515.891136633294, -10701.434099845184, -10593.497525870505, -11235.46197837138, 0.007, -0.03, 0.9915, 192.0, 0.0, 0.0, 0.0, 0.0, 0.0, 0.0, 0.0, 0.0, 0.0, 1.6444985727452147E9, 0.0, 2022-02-11 00:09:32.745
76.0, -8351.662260492118, -10013.961495633304, -10256.343812506653, -16263.062210448054, -2019.0107249034318, -1586.0797865485893, -5149.126666680178, -6114.140881793604, -17046.535557095474, -15695.305549538798, -20007.560552067825, -11433.83371041223, -6520.652058202274, -10696.762585254024, -10590.658854324682, -11238.233594683838, 0.0075, -0.027, 0.99275, 192.0, 0.0, 32.0, 127.5, 32.0, 15.5, 8.0, 0.0, 0.0, 0.0, 1.6444985727452216E9, 0.0, 2022-02-11 00:09:32.745
78.0, -8348.242443590456, -10020.711722458807, -10253.482789216374, -16253.339201609995, -2008.6171637317138, -1573.0934230200558, -5122.192814611532, -6079.026291254318, -17038.779501769484, -15687.214218045978, -20010.53333408038, -11433.409027267578, -6509.386778996799, -10703.02107370151, -10592.402290392196, -11230.79046378022, 0.0075, -0.027, 0.99275, 192.0, 0.0, 0.0, 0.0, 0.0, 0.0, 0.0, 0.0, 0.0, 0.0, 1.6444985727452283E9, 0.0, 2022-02-11 00:09:32.745
80.0, -8348.51066452392, -10020.354094547522, -10252.02992582678, -16249.919384708332, -2000.7046461945351, -1573.0040160422345, -5113.565041251783, -6085.217724468437, -17041.506414593034, -15686.208389545489, -19998.35163335224, -11422.233155039925, -6506.279886517512, -10695.35442535334, -10586.210857178075, -11225.180175921938, 0.0075, -0.027, 0.99275, 192.0, 0.0, 0.0, 0.0, 0.0, 0.0, 0.0, 0.0, 0.0, 0.0, 1.6444985727452352E9, 0.0, 2022-02-11 00:09:32.745
82.0, -8357.250196605944, -10022.3657515485, -10255.829722384182, -16257.228405145217, -2014.5403760123702, -1581.2071062573323, -5115.308477319298, -6080.5015063883675, -17041.439359359665, -15691.215180303478, -20012.165011425615, -11434.191338323515, -6510.079683074914, -10688.738308994569, -10588.177810690142, -11231.237498669327, 0.0075, -0.027, 0.99275, 192.0, 0.0, 0.0, 0.0, 0.0, 0.0, 0.0, 0.0, 0.0, 0.0, 1.644498572745242E9, 0.0, 2022-02-11 00:09:32.745
84.0, -8348.04127789036, -10019.482376513764, -10252.521664204796, -16258.413047601349, -2009.7571026989344, -1571.886428819469, -5119.756474465904, -6083.809564567753, -17036.723141279595, -15687.504790723897, -20006.465316589514, -11431.285611544325, -6513.47714823212, -10688.380681083285, -10587.350796145296, -11228.51058584578, 0.0075, -0.027, 0.99275, 192.0, 0.0, 0.0, 0.0, 0.0, 0.0, 0.0, 0.0, 0.0, 0.0, 1.6444985727452488E9, 0.0, 2022-02-11 00:09:32.745
86.0, -8360.804123974338, -10026.74669346174, -10263.965757365913, -16264.671536048834, -2017.5355097693814, -1586.4374144598742, -5134.218053128488, -6097.913515319052, -17046.55790883993, -15690.678738436549, -20009.48280209098, -11435.30892554628, -6520.786168669006, -10688.313625849918, -10596.71617707207, -11232.690362058922, 0.00775, -0.025500000000000002, 0.991375, 192.0, 0.0, 32.0, 127.5, 32.0, 15.0, 120.0, 0.0, 0.0, 0.0, 1.6444985727452557E9, 0.0, 2022-02-11 00:09:32.745
88.0, -8350.947004669548, -10019.728245702774, -10254.287452016766, -16255.97670745572, -2010.450006777049, -1581.6541411464384, -5120.807006455303, -6097.019445540839, -17045.619135572808, -15689.67290993606, -20016.747119038955, -11444.4507890285, -6515.198232555179, -10693.16395439672, -10601.030063751945, -11235.193757437917, 0.00775, -0.025500000000000002, 0.991375, 192.0, 0.0, 0.0, 0.0, 0.0, 0.0, 0.0, 0.0, 0.0, 0.0, 1.6444985727452629E9, 0.0, 2022-02-11 00:09:32.745
90.0, -8342.229824331978, -10014.252068311223, -10252.70047816044, -16253.69682952128, -2010.2041375880408, -1576.4461846883519, -5121.745779722426, -6095.164250751049, -17042.13226343778, -15686.230741289943, -19998.865723474708, -11436.225347068948, -6517.679276189719, -10700.383567855784, -10590.010653735479, -11229.628173068544, 0.00775, -0.025500000000000002, 0.991375, 192.0, 0.0, 0.0, 0.0, 0.0, 0.0, 0.0, 0.0, 0.0, 0.0, 1.6444985727452695E9, 0.0, 2022-02-11 00:09:32.745
92.0, -8360.692365252062, -10020.845832925539, -10265.664489944516, -16254.12151266593, -2026.4762075515043, -1581.765899868715, -5136.050896173822, -6102.875602588129, -17046.490853606567, -15689.136468069133, -20016.68006380559, -11438.84050117022, -6513.499499976576, -10703.803384757446, -10593.586932848328, -11232.46684461437, 0.00775, -0.025500000000000002, 0.991375, 192.0, 0.0, 0.0, 0.0, 0.0, 0.0, 0.0, 0.0, 0.0, 0.0, 1.6444985727452767E9, 0.0, 2022-02-11 00:09:32.745
94.0, -8350.567025013808, -10021.136405603458, -10258.243710785355, -16255.663783033346, -2015.1438731126636, -1574.8368590875698, -5132.094637405234, -6096.550058907278, -17045.75324603954, -15688.823543646758, -20009.505153835435, -11433.45373075649, -6508.984447596604, -10693.342768352362, -10598.86194453978, -11233.517376603768, 0.00775, -0.025500000000000002, 0.991375, 192.0, 0.0, 0.0, 0.0, 0.0, 0.0, 0.0, 0.0, 0.0, 0.0, 1.644498572745284E9, 0.0, 2022-02-11 00:09:32.745
96.0, -8367.42024033311, -10035.016838910204, -10267.474981245397, -16268.069001206042, -2022.7658179719233, -1585.0963097925558, -5135.089771162245, -6111.346913736691, -17055.543310110967, -15697.048985606312, -20014.57899982679, -11439.01931512586, -6522.820177414439, -10706.329131880895, -10597.72200557256, -11239.440588884425, 0.008875000000000001, -0.025750000000000002, 0.9896875, 192.0, 0.0, 40.0, 127.5, 24.0, 15.0, 112.0, 0.0, 0.0, 0.0, 1.6444985727452908E9, 0.0, 2022-02-11 00:09:32.745
98.0, -8362.480504808487, -10030.300620830134, -10262.848170143148, -16266.37026862744, -2016.3285155687947, -1576.2897224771646, -5125.29970709082, -6098.807585097264, -17051.765865298017, -15703.44158452053, -20025.799575543355, -11454.106742633194, -6521.09909309138, -10693.320416607907, -10599.733662573537, -11238.904147017498, 0.008875000000000001, -0.025750000000000002, 0.9896875, 192.0, 0.0, 0.0, 0.0, 0.0, 0.0, 0.0, 0.0, 0.0, 0.0, 1.644498572745298E9, 0.0, 2022-02-11 00:09:32.745
100.0, -8363.218112375513, -10027.75252196223, -10265.1727515665, -16263.59865231498, -2011.8581666777334, -1574.8145073431144, -5140.074210175778, -6098.427605441524, -17054.738647310573, -15698.859476907191, -20014.75781378243, -11449.457579786489, -6533.169035097246, -10668.375869795784, -10600.113642229277, -11234.187928937428, 0.008875000000000001, -0.025750000000000002, 0.9896875, 192.0, 0.0, 0.0, 0.0, 0.0, 0.0, 0.0, 0.0, 0.0, 0.0, 1.6444985727453046E9, 0.0, 2022-02-11 00:09:32.745
102.0, -8366.369708343711, -10027.819577195594, -10271.028908613791, -16257.809550501055, -2026.5432627848702, -1586.0797865485893, -5147.539692823851, -6109.692884646998, -17054.649240332754, -15696.177267572555, -20026.313665665828, -11444.875472173151, -6520.853223902372, -10694.92974220869, -10603.801680064402, -11237.808911539187, 0.008875000000000001, -0.025750000000000002, 0.9896875, 192.0, 0.0, 0.0, 0.0, 0.0, 0.0, 0.0, 0.0, 0.0, 0.0, 1.6444985727453136E9, 0.0, 2022-02-11 00:09:32.745
104.0, -8350.991708158459, -10022.74573120424, -10259.0707253302, -16256.379038855915, -2006.9854863864764, -1576.7144056218156, -5123.936250679047, -6093.219648983437, -17047.675496062697, -15687.594197701717, -20014.53429633788, -11438.438169770023, -6519.512119235053, -10689.855896217334, -10598.213743950575, -11235.193757437917, 0.008875000000000001, -0.025750000000000002, 0.9896875, 192.0, 0.0, 0.0, 0.0, 0.0, 0.0, 0.0, 0.0, 0.0, 0.0, 1.64449857274532E9, 0.0, 2022-02-11 00:09:32.745
106.0, -8366.682632766084, -10033.966306920804, -10272.83939991467, -16261.385829613904, -2022.6987627385574, -1585.990379570768, -5135.067419417789, -6092.839669327697, -17054.492778121567, -15697.473668750963, -20015.20484867154, -11445.277803573348, -6538.712267722162, -10698.30485562144, -10595.844459038313, -11235.909013260487, 0.0074375000000000005, -0.024875, 0.99084375, 192.0, 0.0, 24.0, 127.5, 32.0, 15.5, 0.0, 0.0, 0.0, 0.0, 1.644498573224398E9, 0.0, 2022-02-11 00:09:33.224
108.0, -8350.924652925092, -10025.584402750064, -10264.971585866402, -16254.74736151068, -2007.9913148869653, -1571.9981875417457, -5131.312326349298, -6089.576314637222, -17046.08852220637, -15695.909046639092, -20023.095014464263, -11453.033858899338, -6514.728845921618, -10695.801460242446, -10602.14765097471, -11233.584431837135, 0.0074375000000000005, -0.024875, 0.99084375, 192.0, 0.0, 0.0, 0.0, 0.0, 0.0, 0.0, 0.0, 0.0, 0.0, 1.6444985732245634E9, 0.0, 2022-02-11 00:09:33.224
110.0, -8348.13068486818, -10022.276344570679, -10261.752934664839, -16257.876605734422, -2003.677428207091, -1579.4189667009077, -5135.425047329074, -6096.68416937401, -17042.75811228253, -15691.081069836746, -20004.00662469943, -11440.02514362635, -6527.178767583224, -10690.414689828718, -10599.711310829081, -11231.259850413782, 0.0074375000000000005, -0.024875, 0.99084375, 192.0, 0.0, 0.0, 0.0, 0.0, 0.0, 0.0, 0.0, 0.0, 0.0, 1.6444985732245705E9, 0.0, 2022-02-11 00:09:33.224
112.0, -8360.871179207705, -10030.121806874491, -10269.240769057365, -16263.375134870426, -2018.9883731589764, -1594.9757808418015, -5143.717544521993, -6114.342047493702, -17047.31786815141, -15700.804078674804, -20017.328264394793, -11449.390524553124, -6523.267212303545, -10694.862686975323, -10606.729758588048, -11241.027562740752, 0.0074375000000000005, -0.024875, 0.99084375, 192.0, 0.0, 0.0, 0.0, 0.0, 0.0, 0.0, 0.0, 0.0, 0.0, 1.6444985732245786E9, 0.0, 2022-02-11 00:09:33.224
114.0, -8344.442647033055, -10023.371580048988, -10258.288414274266, -16260.60351855797, -2005.3761607856943, -1581.7435481242596, -5134.687439762049, -6096.862983329652, -17037.550155824443, -15698.144221084622, -20008.43227010158, -11448.943489664018, -6536.186520598712, -10680.669329246204, -10602.728796330548, -11237.808911539187, 0.0074375000000000005, -0.024875, 0.99084375, 192.0, 0.0, 0.0, 0.0, 0.0, 0.0, 0.0, 0.0, 0.0, 0.0, 1.6444985732245855E9, 0.0, 2022-02-11 00:09:33.224
116.0, -8356.46788555001, -10022.656324226418, -10274.448725515453, -16258.837730746, -2015.25563183494, -1589.276086005698, -5149.059611446812, -6109.983457324917, -17042.199318671148, -15698.121869340166, -20005.370081111203, -11439.622812226155, -6539.226357844635, -10689.744137495058, -10599.733662573537, -11236.445455127414, 0.008, -0.026000000000000002, 0.99, 192.0, 0.0, 32.0, 127.5, 24.0, 15.0, 120.0, 0.0, 0.0, 0.0, 1.6444985732245922E9, 0.0, 2022-02-11 00:09:33.224
118.0, -8350.947004669548, -10016.956629390315, -10268.301995790243, -16256.177873155819, -2002.6715997066021, -1576.8261643440921, -5141.482370076463, -6098.6958263749875, -17042.98162972708, -15690.410517503085, -20019.004645228943, -11441.478007015945, -6518.19336631219, -10707.245553403563, -10605.478060898551, -11232.265678914271, 0.008, -0.026000000000000002, 0.99, 192.0, 0.0, 0.0, 0.0, 0.0, 0.0, 0.0, 0.0, 0.0, 0.0, 1.6444985732245994E9, 0.0, 2022-02-11 00:09:33.224
120.0, -8351.706963981029, -10018.901231157926, -10265.508027733329, -16262.726934281223, -2005.4432160190602, -1579.1283940229887, -5133.480445561462, -6099.589896153199, -17040.724103537097, -15686.498962223408, -20003.71605202151, -11429.251602798891, -6557.06304991997, -10701.814079500924, -10598.705482328593, -11227.683571300933, 0.008, -0.026000000000000002, 0.99, 192.0, 0.0, 0.0, 0.0, 0.0, 0.0, 0.0, 0.0, 0.0, 0.0, 1.644498573224606E9, 0.0, 2022-02-11 00:09:33.224
122.0, -8376.27153113741, -10036.492054044254, -10277.26504531682, -16270.907672751866, -2013.2216230895071, -1591.4665569623182, -5148.25494864642, -6116.644277172599, -17051.22942343109, -15698.948883885014, -20024.68198832059, -11454.889053689129, -6543.495541035598, -10704.272771391008, -10608.495546400018, -11238.658277828488, 0.008, -0.026000000000000002, 0.99, 192.0, 0.0, 0.0, 0.0, 0.0, 0.0, 0.0, 0.0, 0.0, 0.0, 1.6444985732246127E9, 0.0, 2022-02-11 00:09:33.224
124.0, -8357.160789628124, -10027.730170217774, -10265.999766111347, -16262.056381947565, -2001.9786956284877, -1574.3227689650976, -5146.757381767915, -6104.574335166733, -17045.932059995182, -15702.078128108757, -20012.120307936708, -11450.84338794272, -6542.266195090556, -10704.250419646552, -10608.361435933284, -11238.121835961561, 0.008, -0.026000000000000002, 0.99, 192.0, 0.0, 0.0, 0.0, 0.0, 0.0, 0.0, 0.0, 0.0, 0.0, 1.6444985732246196E9, 0.0, 2022-02-11 00:09:33.224
126.0, -8366.839094977271, -10034.905080187928, -10275.789830182772, -16267.286690150106, -2011.835814933278, -1583.59874291405, -5132.6981345055265, -6087.788175080797, -17045.08269370588, -15701.698148453015, -20009.929836980085, -11446.998887896407, -6518.729808179118, -10691.286407862473, -10605.835688809835, -11235.886661516031, 0.008, -0.022, 0.988, 192.0, 0.0, 32.0, 127.5, 40.0, 15.0, 112.0, 0.0, 0.0, 0.0, 1.6444985732246263E9, 0.0, 2022-02-11 00:09:33.224
128.0, -8354.657394249129, -10022.611620737509, -10267.385574267575, -16258.681268534812, -1996.8824978926777, -1578.1225655224998, -5134.0615909173, -6098.002922296872, -17035.493795334554, -15695.417308261074, -20019.026996973396, -11447.155350107592, -6527.402285027777, -10676.53425652197, -10601.141822474221, -11234.254984170793, 0.008, -0.022, 0.988, 192.0, 0.0, 0.0, 0.0, 0.0, 0.0, 0.0, 0.0, 0.0, 0.0, 1.644498573224634E9, 0.0, 2022-02-11 00:09:33.224
