%OpenBCI Raw EEG Data
%Number of channels = 16
%Sample Rate = 125 Hz
%Board = OpenBCI_GUI$BoardCytonSerialDaisy
Sample Index, EXG Channel 0, EXG Channel 1, EXG Channel 2, EXG Channel 3, EXG Channel 4, EXG Channel 5, EXG Channel 6, EXG Channel 7, EXG Channel 8, EXG Channel 9, EXG Channel 10, EXG Channel 11, EXG Channel 12, EXG Channel 13, EXG Channel 14, EXG Channel 15, Accel Channel 0, Accel Channel 1, Accel Channel 2, Other, Other, Other, Other, Other, Other, Other, Analog Channel 0, Analog Channel 1, Analog Channel 2, Timestamp, Other, Timestamp (Formatted)
204.0, -7486.001549482531, -9400.875496968687, -10394.365834518176, -15877.539322082917, -2513.3866087659135, -2807.021475675282, -6541.550939267986, -7361.904664266666, -16968.63972766873, -14807.762480707466, -22219.556238598376, -11461.84044621473, -6072.611340595644, -11129.939392797874, -11001.08158601303, -11419.483890471924, 0.0, 0.0, 0.0, 192.0, 0.0, 0.0, 0.0, 0.0, 0.0, 0.0, 0.0, 0.0, 0.0, 1.6444984517425015E9, 0.0, 2022-02-11 00:07:31.742
206.0, -7500.731349078578, -9406.619895293701, -10404.58058173425, -15878.321633138852, -2522.081437359028, -2813.257612378313, -6547.831779459927, -7355.8473415192775, -16970.249053269512, -14819.117166890761, -22233.526078882944, -11472.971614953472, -6065.950520747962, -11138.276593479704, -11009.530545417136, -11423.64131494061, 0.0, 0.0, 0.0, 192.0, 0.0, 0.0, 0.0, 0.0, 0.0, 0.0, 0.0, 0.0, 0.0, 1.6444984517425096E9, 0.0, 2022-02-11 00:07:31.742
208.0, -7486.582694838369, -9407.044578438352, -10391.974197861457, -15869.38093535673, -2508.9609633637624, -2806.440330319444, -6538.689915977707, -7354.8862165077, -16973.445352726623, -14809.528268519434, -22227.759328813474, -11459.113533391183, -6066.375203892613, -11150.30183199666, -11006.423652937849, -11417.718102659954, 0.0, 0.0, 0.0, 192.0, 0.0, 0.0, 0.0, 0.0, 0.0, 0.0, 0.0, 0.0, 0.0, 1.6444984517425165E9, 0.0, 2022-02-11 00:07:31.742
210.0, -7502.094805490352, -9406.99987494944, -10406.860459668691, -15872.063144691367, -2518.7286756907315, -2816.3645048576004, -6545.775418970039, -7368.654891092168, -16982.475457486566, -14821.084120402827, -22233.347264927303, -11459.806437469297, -6076.232323197404, -11146.367924972526, -11003.540277903114, -11420.333256761225, 0.007, -0.013000000000000001, 0.496, 192.0, 0.0, 56.0, 127.5, 24.0, 15.5, 0.0, 0.0, 0.0, 0.0, 1.6444984517425241E9, 0.0, 2022-02-11 00:07:31.742
212.0, -7491.701244318634, -9396.42749982208, -10401.160764832588, -15868.039830689411, -2512.4478354987905, -2804.2498593628243, -6542.735581724118, -7351.332289139305, -16976.194617294626, -14812.657512743177, -22243.673770865655, -11464.343841593723, -6067.9398260044845, -11137.181358001395, -11007.496536671702, -11419.50624221638, 0.007, -0.013000000000000001, 0.496, 192.0, 0.0, 0.0, 0.0, 0.0, 0.0, 0.0, 0.0, 0.0, 0.0, 1.644498451742531E9, 0.0, 2022-02-11 00:07:31.742
214.0, -7493.042348985952, -9399.62379927919, -10401.920724144069, -15878.768668027958, -2517.49932974569, -2814.0175716897934, -6541.640346245807, -7362.776382300423, -16979.212102796093, -14814.423300555147, -22227.289942179912, -11455.492550789422, -6059.4908666003785, -11145.809131361144, -11005.350769203993, -11420.601477694689, 0.007, -0.013000000000000001, 0.496, 192.0, 0.0, 0.0, 0.0, 0.0, 0.0, 0.0, 0.0, 0.0, 0.0, 1.6444984517425377E9, 0.0, 2022-02-11 00:07:31.742
216.0, -7503.637075857768, -9405.926991215587, -10408.045102124823, -15885.205970431087, -2524.294260060103, -2824.858167750617, -6550.648099261296, -7370.957120771065, -16981.000242352515, -14824.861565215775, -22239.15871848568, -11472.658690531098, -6075.539419119289, -11150.860625608042, -11012.503327429691, -11429.922155132552, 0.007, -0.013000000000000001, 0.496, 192.0, 0.0, 0.0, 0.0, 0.0, 0.0, 0.0, 0.0, 0.0, 0.0, 1.6444984517425447E9, 0.0, 2022-02-11 00:07:31.742
218.0, -7493.131755963774, -9407.826889494287, -10403.708863700493, -15880.601511073293, -2517.7004954457875, -2820.119597926092, -6547.652965504285, -7369.07957423682, -16981.93901561964, -14825.21919312706, -22235.269514950458, -11473.865684731685, -6078.422794154024, -11155.241567521283, -11014.98437106423, -11432.157329578082, 0.007, -0.013000000000000001, 0.496, 192.0, 0.0, 0.0, 0.0, 0.0, 0.0, 0.0, 0.0, 0.0, 0.0, 1.644498451742551E9, 0.0, 2022-02-11 00:07:31.742
220.0, -7513.985933540575, -9416.208793665028, -10414.527108016862, -15882.970795985557, -2527.1776350948376, -2817.705609524919, -6548.72584923814, -7366.911455024655, -16994.098364603327, -14827.767291994965, -22239.762215585975, -11466.400202083612, -6083.7872128232975, -11163.265843780739, -11013.330341974539, -11432.157329578082, 0.008, -0.032, 0.986, 192.0, 0.0, 32.0, 127.5, 0.0, 15.0, 104.0, 0.0, 0.0, 0.0, 1.6444984517425582E9, 0.0, 2022-02-11 00:07:31.742
222.0, -7500.530183378481, -9403.62476153669, -10412.314285315786, -15878.165170927665, -2518.907489646374, -2808.4743390648773, -6545.618956758852, -7363.201065445074, -16988.80100116742, -14820.413568069169, -22249.26170697948, -11472.099896919715, -6077.551076120267, -11151.844102364077, -11015.27494374215, -11431.062094099772, 0.008, -0.032, 0.986, 192.0, 0.0, 0.0, 0.0, 0.0, 0.0, 0.0, 0.0, 0.0, 0.0, 1.6444984517425652E9, 0.0, 2022-02-11 00:07:31.742
224.0, -7493.779956552978, -9402.462470825014, -10414.370645805675, -15882.143781440709, -2523.266079815159, -2809.3907605875447, -6546.736543981618, -7363.022251489431, -16989.78447792345, -14822.201707625594, -22232.274381193445, -11460.432286314046, -6073.527762118311, -11141.316430725627, -11013.375045463448, -11425.898841130596, 0.008, -0.032, 0.986, 192.0, 0.0, 0.0, 0.0, 0.0, 0.0, 0.0, 0.0, 0.0, 0.0, 1.6444984517425718E9, 0.0, 2022-02-11 00:07:31.742
226.0, -7509.157956738229, -9411.202002907039, -10422.037294153846, -15881.942615740612, -2530.463341529768, -2820.32076362619, -6549.977546927637, -7374.868676050744, -16988.75629767851, -14826.426187327646, -22241.997390031505, -11472.993966697928, -6084.927151790518, -11152.671116908923, -11022.025170567653, -11433.051399356294, 0.008, -0.032, 0.986, 192.0, 0.0, 0.0, 0.0, 0.0, 0.0, 0.0, 0.0, 0.0, 0.0, 1.6444984517425785E9, 0.0, 2022-02-11 00:07:31.742
228.0, -7489.510773362014, -9405.122328415195, -10403.418291022575, -15878.388688372219, -2516.851129156486, -2811.313010610701, -6537.751142710584, -7361.927016011121, -16984.621224954277, -14828.08021641734, -22228.854564291785, -11465.640242772131, -6078.556904620756, -11158.616680934034, -11017.957153076786, -11428.6481056986, 0.008, -0.032, 0.986, 192.0, 0.0, 0.0, 0.0, 0.0, 0.0, 0.0, 0.0, 0.0, 0.0, 1.6444984517425852E9, 0.0, 2022-02-11 00:07:31.742
230.0, -7496.216296698606, -9402.417767336103, -10414.370645805675, -15881.584987829327, -2527.1105798614717, -2811.1118449106034, -6548.368221326855, -7368.945463770087, -16992.064355857892, -14835.903326976697, -22231.73793932652, -11465.819056727774, -6082.759032578353, -11151.374715730515, -11015.096129786507, -11430.369190021658, 0.01, -0.03, 0.986, 192.0, 0.0, 40.0, 127.5, 8.0, 15.0, 104.0, 0.0, 0.0, 0.0, 1.644498451742592E9, 0.0, 2022-02-11 00:07:31.742
232.0, -7483.878133759276, -9393.991159676452, -10407.955695147002, -15875.371202870752, -2519.6450972133994, -2808.7425599983408, -6542.467360790653, -7365.905626524166, -16980.016765596483, -14820.011236668974, -22231.60382885979, -11462.756867737398, -6075.673529586021, -11146.278517994704, -11020.929935089343, -11428.290477787314, 0.01, -0.03, 0.986, 192.0, 0.0, 0.0, 0.0, 0.0, 0.0, 0.0, 0.0, 0.0, 0.0, 1.6444984517425988E9, 0.0, 2022-02-11 00:07:31.742
234.0, -7482.313511647405, -9392.29242709785, -10407.39690153562, -15874.655947048182, -2519.0639518575613, -2809.547222798732, -6538.667564233251, -7354.97562348552, -16986.588178466343, -14821.329989591837, -22221.053805476884, -11450.485760031434, -6077.908704031552, -11150.838273863588, -11015.766682120167, -11423.417797496057, 0.01, -0.03, 0.986, 192.0, 0.0, 0.0, 0.0, 0.0, 0.0, 0.0, 0.0, 0.0, 0.0, 1.6444984517426057E9, 0.0, 2022-02-11 00:07:31.742
236.0, -7483.855782014822, -9384.156392116118, -10409.386206792142, -15869.246824889999, -2522.2826030591254, -2806.037998919249, -6544.0990381358915, -7364.184542201107, -16979.793248151927, -14823.587515781823, -22228.988674758515, -11453.480893788445, -6070.242055683381, -11143.05986679314, -11019.99116182222, -11426.435282997523, 0.01, -0.03, 0.986, 192.0, 0.0, 0.0, 0.0, 0.0, 0.0, 0.0, 0.0, 0.0, 0.0, 1.644498451742617E9, 0.0, 2022-02-11 00:07:31.742
238.0, -7470.064755685897, -9385.788069461354, -10399.104404342701, -15867.19046440011, -2505.854070884475, -2790.8611644340954, -6535.58302349842, -7352.6733938066245, -16970.517274202975, -14813.88685868822, -22210.973168727538, -11447.602384996699, -6068.185695193493, -11126.6760381074, -11016.772510620656, -11419.238021282914, 0.01, -0.03, 0.986, 192.0, 0.0, 0.0, 0.0, 0.0, 0.0, 0.0, 0.0, 0.0, 0.0, 1.6444984517426233E9, 0.0, 2022-02-11 00:07:31.742
240.0, -7488.750814050533, -9385.89982818363, -10412.850727182715, -15877.405211616186, -2517.789902423609, -2800.248897105324, -6544.546073024997, -7355.914396752643, -16974.652346927207, -14821.687617503121, -22212.224866417037, -11451.178664109548, -6066.889294015085, -11123.546793883657, -11016.459586198282, -11417.606343937678, 0.014, -0.032, 0.99, 192.0, 0.0, 56.0, 127.5, 0.0, 15.0, 120.0, 0.0, 0.0, 0.0, 1.64449845174263E9, 0.0, 2022-02-11 00:07:31.742
242.0, -7481.978235480576, -9379.931912414064, -10409.900296914613, -15873.538359825418, -2508.335114519014, -2797.566687770687, -6525.658848960263, -7353.276890906917, -16977.580425450855, -14813.305713332382, -22227.625218346744, -11463.449771815513, -6066.956349248451, -11145.876186594509, -11019.253554255194, -11424.334219018725, 0.014, -0.032, 0.99, 192.0, 0.0, 0.0, 0.0, 0.0, 0.0, 0.0, 0.0, 0.0, 0.0, 1.644498451742637E9, 0.0, 2022-02-11 00:07:31.742
244.0, -7476.8149825114, -9390.794860219343, -10398.2550380534, -15873.806580758881, -2502.657771427366, -2796.0691208921817, -6526.329401293922, -7351.220530417029, -16979.189751051636, -14821.955838436585, -22215.220000174046, -11455.492550789422, -6066.039927725784, -11154.72747739881, -11008.36825470546, -11420.6461811836, 0.014, -0.032, 0.99, 192.0, 0.0, 0.0, 0.0, 0.0, 0.0, 0.0, 0.0, 0.0, 0.0, 1.6444984517426436E9, 0.0, 2022-02-11 00:07:31.742
246.0, -7480.52537209098, -9380.602464747722, -10405.318189301275, -15864.374144598742, -2513.721884932743, -2794.5268505247655, -6534.979526398126, -7350.862902505744, -16974.674698671664, -14824.995675682507, -22220.45030837659, -11455.69371648952, -6054.953462475952, -11140.802340603155, -11011.251629740194, -11421.942582362008, 0.014, -0.032, 0.99, 192.0, 0.0, 0.0, 0.0, 0.0, 0.0, 0.0, 0.0, 0.0, 0.0, 1.6444984517426505E9, 0.0, 2022-02-11 00:07:31.742
248.0, -7461.14640964823, -9376.66855772359, -10391.415404250074, -15864.955289954578, -2501.361370248958, -2781.7193009518746, -6525.658848960263, -7346.280794892406, -16957.217986252068, -14804.07444287234, -22201.40662210067, -11439.712219203975, -6052.181846163493, -11130.788759087178, -11011.475147184748, -11417.248716026392, 0.014, -0.032, 0.99, 192.0, 0.0, 0.0, 0.0, 0.0, 0.0, 0.0, 0.0, 0.0, 0.0, 1.6444984517426572E9, 0.0, 2022-02-11 00:07:31.742
250.0, -7480.503020346525, -9386.324511328283, -10400.713729943482, -15877.785191271925, -2514.8618238999634, -2793.7445394688298, -6538.578157255431, -7357.367260142239, -16969.109114302293, -14837.020914199462, -22204.2899971354, -11460.544045036322, -6054.9087589870405, -11142.188148759384, -11010.55872566208, -11424.222460296449, 0.01, -0.022, 0.99, 192.0, 0.0, 40.0, 127.5, 40.0, 15.0, 120.0, 0.0, 0.0, 0.0, 1.644498451742664E9, 0.0, 2022-02-11 00:07:31.742
252.0, -7474.803325510422, -9383.441136293548, -10395.349311274209, -15871.57140631335, -2508.1786523078267, -2792.6269522460643, -6533.079628119425, -7357.009632230954, -16959.98960256453, -14829.93541120713, -22210.526133838433, -11465.796704983319, -6053.031212452795, -11143.037515048685, -11014.22441175275, -11427.798739409298, 0.01, -0.022, 0.99, 192.0, 0.0, 0.0, 0.0, 0.0, 0.0, 0.0, 0.0, 0.0, 0.0, 1.6444984517426708E9, 0.0, 2022-02-11 00:07:31.742
254.0, -7473.059889442908, -9379.775450202877, -10396.422195008063, -15871.034964446422, -2508.625687196933, -2795.6891412364416, -6529.525700751031, -7354.528588596415, -16972.819503881874, -14834.003428697995, -22199.640834288697, -11455.783123467341, -6063.96121549144, -11150.123018041018, -11010.603429150991, -11424.31186727427, 0.01, -0.022, 0.99, 192.0, 0.0, 0.0, 0.0, 0.0, 0.0, 0.0, 0.0, 0.0, 0.0, 1.6444984517426777E9, 0.0, 2022-02-11 00:07:31.742
0.0, -7479.8771715017765, -9378.769621702388, -10408.894468414124, -15870.0961911793, -2512.045504098595, -2801.500594794821, -6525.882366404816, -7352.047544961875, -16967.34332649032, -14830.360094351781, -22211.844886761297, -11461.192245625525, -6052.740639774876, -11144.758599371744, -11009.821118095055, -11427.21759405346, 0.01, -0.022, 0.99, 192.0, 0.0, 0.0, 0.0, 0.0, 0.0, 0.0, 0.0, 0.0, 0.0, 1.6444984517426848E9, 0.0, 2022-02-11 00:07:31.742
2.0, -7464.566226549891, -9383.083508382262, -10392.041253094823, -15873.180731914132, -2499.30500975907, -2796.247934847824, -6524.250689059579, -7347.107809437252, -16961.64363165422, -14826.6497047722, -22206.614578558754, -11454.374963566657, -6050.371354862614, -11135.907308567443, -11008.100033771996, -11424.937716119019, 0.01, -0.022, 0.99, 192.0, 0.0, 0.0, 0.0, 0.0, 0.0, 0.0, 0.0, 0.0, 0.0, 1.6444984517426915E9, 0.0, 2022-02-11 00:07:31.742
4.0, -7481.91118024721, -9394.14762188764, -10407.620418980172, -15878.299281394397, -2517.521681490145, -2808.049655920226, -6536.611203743363, -7362.351699155772, -16965.398724722712, -14837.423245599657, -22206.68163379212, -11458.465332801978, -6053.478247341901, -11143.596308660068, -11006.51305991567, -11431.062094099772, 0.006, -0.026000000000000002, 0.984, 192.0, 0.0, 24.0, 127.5, 24.0, 15.0, 96.0, 0.0, 0.0, 0.0, 1.6444984517426984E9, 0.0, 2022-02-11 00:07:31.742
6.0, -7474.512752832503, -9382.032976392862, -10402.144241588621, -15869.515045823462, -2509.005666852673, -2795.5550307697094, -6534.53249150902, -7352.114600195241, -16962.87297759926, -14839.725475278554, -22216.941084497106, -11465.662594516587, -6052.114790930127, -11149.49716919627, -11015.409054208882, -11434.50426274589, 0.006, -0.026000000000000002, 0.984, 192.0, 0.0, 0.0, 0.0, 0.0, 0.0, 0.0, 0.0, 0.0, 0.0, 1.644498451742705E9, 0.0, 2022-02-11 00:07:31.742
8.0, -7476.09972668883, -9387.486802039957, -10397.852706653202, -15868.218644645054, -2499.953210348274, -2794.8397749471396, -6528.408113528266, -7347.9795274710095, -16966.762181134483, -14831.142405407716, -22199.95375871107, -11449.368172808669, -6058.10505844415, -11145.339744727582, -11008.36825470546, -11427.128187075637, 0.006, -0.026000000000000002, 0.984, 192.0, 0.0, 0.0, 0.0, 0.0, 0.0, 0.0, 0.0, 0.0, 0.0, 1.644498451742712E9, 0.0, 2022-02-11 00:07:31.742
10.0, -7481.24062791355, -9381.250665336927, -10406.34636954622, -15868.933900467624, -2508.268059285648, -2802.6628855064973, -6536.72296246564, -7360.049469476876, -16970.114942802782, -14825.062730915874, -22214.705910051576, -11459.739382235932, -6045.945709460462, -11144.535081927192, -11006.446004682304, -11430.458596999479, 0.006, -0.026000000000000002, 0.984, 192.0, 0.0, 0.0, 0.0, 0.0, 0.0, 0.0, 0.0, 0.0, 0.0, 1.6444984517427187E9, 0.0, 2022-02-11 00:07:31.742
12.0, -7469.8412382413435, -9389.632569507667, -10395.841049652225, -15866.721077766548, -2496.8910213578965, -2795.5550307697094, -6529.279831562023, -7348.225396660018, -16962.247128754512, -14834.785739753932, -22203.999424457485, -11447.289460574326, -6057.032174710295, -11135.549680656157, -11004.657865125879, -11428.692809187509, 0.006, -0.026000000000000002, 0.984, 192.0, 0.0, 0.0, 0.0, 0.0, 0.0, 0.0, 0.0, 0.0, 0.0, 1.6444984517427278E9, 0.0, 2022-02-11 00:07:31.742
14.0, -7482.335863391861, -9393.924104443086, -10409.833241681248, -15867.548092311394, -2506.9716581072403, -2808.8096152317066, -6531.827930429928, -7358.574254342825, -16968.34915499081, -14836.864451988275, -22203.01594770145, -11449.16700710857, -6054.752296775854, -11142.702238881855, -11001.953304046787, -11430.123320832648, 0.006, -0.026000000000000002, 0.992, 192.0, 0.0, 24.0, 127.5, 24.0, 15.5, 0.0, 0.0, 0.0, 0.0, 1.6444984517427347E9, 0.0, 2022-02-11 00:07:31.742
16.0, -7480.078337201874, -9383.932874671564, -10403.641808467128, -15863.301260864886, -2504.9600011062626, -2799.7124552383966, -6533.459607775165, -7354.93091999661, -16967.58919567933, -14837.087969432829, -22217.522229852944, -11459.940547936028, -6060.161418934038, -11137.538985912679, -11006.669522126856, -11430.279783043836, 0.006, -0.026000000000000002, 0.992, 192.0, 0.0, 0.0, 0.0, 0.0, 0.0, 0.0, 0.0, 0.0, 0.0, 1.6444984517427413E9, 0.0, 2022-02-11 00:07:31.742
18.0, -7482.648787814234, -9388.00089216243, -10398.97029387597, -15863.927109709635, -2503.238916783204, -2807.1108826531035, -6533.861939175361, -7360.340042154795, -16973.378297493255, -14838.563184566878, -22200.289034877904, -11447.892957674618, -6059.267349155825, -11139.885919080487, -11003.294408714106, -11430.033913854828, 0.006, -0.026000000000000002, 0.992, 192.0, 0.0, 0.0, 0.0, 0.0, 0.0, 0.0, 0.0, 0.0, 0.0, 1.6444984517427485E9, 0.0, 2022-02-11 00:07:31.742
20.0, -7489.130793706274, -9388.00089216243, -10410.0567591258, -15866.586967299816, -2510.391475008902, -2816.2750978797794, -6545.663660247763, -7367.961987014054, -16974.652346927207, -14842.184167168638, -22211.710776294563, -11453.525597277356, -6062.329538146203, -11144.468026693825, -11009.172917505852, -11435.867719157663, 0.006, -0.026000000000000002, 0.992, 192.0, 0.0, 0.0, 0.0, 0.0, 0.0, 0.0, 0.0, 0.0, 0.0, 1.644498451742755E9, 0.0, 2022-02-11 00:07:31.742
22.0, -7472.8140202539, -9383.910522927108, -10400.221991565466, -15865.737601010514, -2492.5771346780225, -2809.7930919877404, -6532.945517652693, -7364.296300923384, -16971.590157936833, -14836.037437443429, -22209.654415804674, -11455.090219389227, -6060.966081734429, -11152.134675041994, -11008.61412389447, -11435.331277290736, 0.006, -0.026000000000000002, 0.992, 192.0, 0.0, 0.0, 0.0, 0.0, 0.0, 0.0, 0.0, 0.0, 0.0, 1.6444984517427619E9, 0.0, 2022-02-11 00:07:31.742
24.0, -7491.164802451707, -9387.710319484511, -10408.849764925215, -15871.750220268992, -2507.619858696444, -2813.212908889402, -6537.259404332567, -7360.116524710242, -16980.26263478549, -14839.658420045189, -22207.329834381322, -11451.73745772093, -6054.171151420016, -11147.150236028461, -11006.714225615768, -11436.538271491323, 0.004, -0.028, 0.99, 192.0, 0.0, 16.0, 127.5, 16.0, 15.0, 120.0, 0.0, 0.0, 0.0, 1.6444984517427688E9, 0.0, 2022-02-11 00:07:31.742
26.0, -7480.592427324346, -9380.602464747722, -10402.524221244363, -15867.145760911199, -2498.7685678921425, -2804.69689425193, -6529.168072839746, -7360.7200218105345, -16971.50075095901, -14837.6020595553, -22212.895418750697, -11457.772428723863, -6055.19933166496, -11143.082218537596, -11010.961057062275, -11437.678210458544, 0.004, -0.028, 0.99, 192.0, 0.0, 0.0, 0.0, 0.0, 0.0, 0.0, 0.0, 0.0, 0.0, 1.6444984517427754E9, 0.0, 2022-02-11 00:07:31.742
28.0, -7471.651729542224, -9379.28371182486, -10399.39497702062, -15867.19046440011, -2493.1806317783157, -2807.4238070754777, -6526.172939082735, -7361.547036355381, -16971.388992236734, -14834.964553709575, -22195.170485397637, -11444.942527406518, -6059.133238689094, -11142.165797014928, -11002.579152891536, -11433.140806334115, 0.004, -0.028, 0.99, 192.0, 0.0, 0.0, 0.0, 0.0, 0.0, 0.0, 0.0, 0.0, 0.0, 1.6444984517428176E9, 0.0, 2022-02-11 00:07:31.742
30.0, -7484.816907026399, -9381.51888627039, -10404.424119523062, -15865.536435310416, -2501.942515604796, -2812.229432133369, -6535.024229887036, -7359.714193310046, -16971.03136432545, -14833.466986831068, -22208.894456493195, -11452.273899587859, -6053.232378152893, -11145.853834850053, -11003.517926158658, -11436.69473370251, 0.004, -0.028, 0.99, 192.0, 0.0, 0.0, 0.0, 0.0, 0.0, 0.0, 0.0, 0.0, 0.0, 1.6444984517428255E9, 0.0, 2022-02-11 00:07:31.742
32.0, -7481.732366291567, -9380.088374625251, -10400.512564243385, -15865.581138799327, -2491.4148439663463, -2794.8174232026845, -6521.523776236031, -7351.220530417029, -16972.59598643732, -14827.476719317046, -22204.580569813323, -11450.910443176084, -6059.379107878102, -11134.29798296666, -11003.473222669749, -11432.045570855806, 0.005, -0.028, 0.989, 192.0, 0.0, 24.0, 127.5, 16.0, 15.0, 112.0, 0.0, 0.0, 0.0, 1.6444984517428331E9, 0.0, 2022-02-11 00:07:31.742
34.0, -7490.382491395771, -9385.586903761257, -10410.101462614712, -15868.576272556338, -2499.0814923145167, -2801.3888360725446, -6532.900814163782, -7353.723925796024, -16982.18488480865, -14847.190957926627, -22206.748689025484, -11451.469236787467, -6057.412154366035, -11137.047247534663, -11004.27788547014, -11431.531480733334, 0.005, -0.028, 0.989, 192.0, 0.0, 0.0, 0.0, 0.0, 0.0, 0.0, 0.0, 0.0, 0.0, 1.64449845174284E9, 0.0, 2022-02-11 00:07:31.742
36.0, -7485.263941915506, -9383.195267104538, -10407.955695147002, -15861.468417819551, -2492.845355611486, -2801.478243050366, -6527.67050596124, -7350.482922850004, -16971.232530025547, -14832.036475185929, -22214.77296528494, -11454.93375717804, -6045.901005971552, -11137.58368940159, -11006.51305991567, -11431.553832477788, 0.005, -0.028, 0.989, 192.0, 0.0, 0.0, 0.0, 0.0, 0.0, 0.0, 0.0, 0.0, 0.0, 1.6444984517428474E9, 0.0, 2022-02-11 00:07:31.742
38.0, -7481.710014547112, -9379.775450202877, -10402.367759033175, -15866.117580666254, -2489.582000921011, -2802.059388406204, -6522.462549503154, -7352.293414150884, -16973.534759704442, -14834.495167076013, -22197.830342987818, -11443.132036105639, -6052.315956630226, -11150.681811652401, -10999.829888323533, -11428.31282953177, 0.005, -0.028, 0.989, 192.0, 0.0, 0.0, 0.0, 0.0, 0.0, 0.0, 0.0, 0.0, 0.0, 1.6444984517428544E9, 0.0, 2022-02-11 00:07:31.742
40.0, -7486.6273983272795, -9382.85999093771, -10407.843936424726, -15866.586967299816, -2501.5401842046003, -2806.082702408159, -6533.571366497442, -7353.12042869573, -16976.529893461455, -14843.569975324866, -22216.069366463347, -11456.118399634172, -6063.156552691049, -11144.378619716004, -11003.428519180838, -11431.039742355317, 0.005, -0.028, 0.989, 192.0, 0.0, 0.0, 0.0, 0.0, 0.0, 0.0, 0.0, 0.0, 0.0, 1.6444984517428615E9, 0.0, 2022-02-11 00:07:31.742
42.0, -7467.740174262545, -9373.09227861074, -10393.784689162338, -15863.033039931423, -2486.609218908455, -2794.5044987803103, -6519.422712257232, -7353.031021717909, -16969.198521280112, -14834.74103626502, -22200.73606976701, -11441.969745393963, -6058.86501775563, -11135.572032400612, -11004.344940703504, -11426.412931253068, 0.0035, -0.027000000000000003, 0.9895, 192.0, 0.0, 8.0, 127.5, 24.0, 15.0, 120.0, 0.0, 0.0, 0.0, 1.6444984517428684E9, 0.0, 2022-02-11 00:07:31.742
44.0, -7479.161915679207, -9365.716202940488, -10400.713729943482, -15863.703592265081, -2495.169937034838, -2802.931106439961, -6523.446026259187, -7353.679222307113, -16969.176169535658, -14830.807129240888, -22195.326947608824, -11444.473140772956, -6050.930148473996, -11143.305735982149, -11000.098109256996, -11428.670457443055, 0.0035, -0.027000000000000003, 0.9895, 192.0, 0.0, 0.0, 0.0, 0.0, 0.0, 0.0, 0.0, 0.0, 0.0, 1.6444984517428796E9, 0.0, 2022-02-11 00:07:31.742
46.0, -7476.993796467042, -9357.602519703212, -10397.785651419837, -15862.273080619942, -2486.3857014639025, -2794.325684824668, -6518.506290734565, -7344.224434402518, -16965.331669489344, -14830.270687373959, -22210.839058260808, -11459.26999560237, -6044.559901304234, -11144.266860993726, -11003.875554069944, -11425.921192875052, 0.0035, -0.027000000000000003, 0.9895, 192.0, 0.0, 0.0, 0.0, 0.0, 0.0, 0.0, 0.0, 0.0, 0.0, 1.6444984517428865E9, 0.0, 2022-02-11 00:07:31.742
48.0, -7478.6478255567345, -9378.6131594912, -10390.990721105423, -15862.071914919845, -2481.848297339475, -2793.2751528352683, -6513.275982532023, -7341.095190178775, -16969.60085268031, -14836.663286288178, -22195.01402318645, -11441.567413993766, -6035.619203522111, -11128.955916041841, -10995.203077221284, -11420.69088467251, 0.0035, -0.027000000000000003, 0.9895, 192.0, 0.0, 0.0, 0.0, 0.0, 0.0, 0.0, 0.0, 0.0, 0.0, 1.644498451742894E9, 0.0, 2022-02-11 00:07:31.742
50.0, -7479.631302312769, -9375.528618756369, -10401.943075888525, -15857.266289861953, -2487.950323575774, -2797.6560947485086, -6523.289564048, -7344.291489635884, -16968.147989290715, -14847.235661415538, -22202.63596804571, -11446.820073940764, -6044.336383859681, -11133.985058544285, -10999.98635053472, -11423.037817840317, 0.0035, -0.027000000000000003, 0.9895, 192.0, 0.0, 0.0, 0.0, 0.0, 0.0, 0.0, 0.0, 0.0, 0.0, 1.6444984517429008E9, 0.0, 2022-02-11 00:07:31.742
52.0, -7463.582749793858, -9365.336223284748, -10384.173439046555, -15860.216720130054, -2474.8074978360532, -2780.288789306735, -6503.865898116338, -7333.920280208622, -16960.83896885383, -14834.517518820468, -22196.26572087595, -11441.567413993766, -6042.3470786031585, -11106.984151242275, -10996.857106310978, -11415.013541580862, 0.00475, -0.0245, 0.99175, 192.0, 0.0, 24.0, 127.5, 40.0, 15.5, 8.0, 0.0, 0.0, 0.0, 1.6444984517429082E9, 0.0, 2022-02-11 00:07:31.742
54.0, -7475.33976737735, -9365.492685495936, -10397.673892697561, -15858.607394529272, -2486.6986258862767, -2795.4432720474333, -6512.448967987177, -7340.379934356205, -16967.16451253468, -14826.895573961208, -22193.11412490775, -11434.817187168264, -6052.025383952307, -11130.453482920348, -10993.839620809511, -11416.220535781447, 0.00475, -0.0245, 0.99175, 192.0, 0.0, 0.0, 0.0, 0.0, 0.0, 0.0, 0.0, 0.0, 0.0, 1.6444984517429152E9, 0.0, 2022-02-11 00:07:31.742
56.0, -7480.324206390883, -9370.052441364818, -10396.221029307966, -15858.85326371828, -2486.273942741626, -2793.9457051689274, -6507.799805140473, -7338.4129808441385, -16962.090666543325, -14835.702161276598, -22204.848790746786, -11447.714143718977, -6046.2809856272925, -11139.684753380388, -10999.718129601257, -11419.483890471924, 0.00475, -0.0245, 0.99175, 192.0, 0.0, 0.0, 0.0, 0.0, 0.0, 0.0, 0.0, 0.0, 0.0, 1.644498451742922E9, 0.0, 2022-02-11 00:07:31.742
58.0, -7479.921874990688, -9366.386755274149, -10395.796346163315, -15864.195330643099, -2484.955189818763, -2795.4656237918884, -6515.354694766366, -7345.029097202909, -16973.26653877098, -14840.776007267954, -22194.052898174872, -11443.489664016923, -6050.751334518353, -11140.981154558796, -10995.895981299398, -11422.568431206755, 0.00475, -0.0245, 0.99175, 192.0, 0.0, 0.0, 0.0, 0.0, 0.0, 0.0, 0.0, 0.0, 0.0, 1.6444984517429287E9, 0.0, 2022-02-11 00:07:31.742
60.0, -7485.442755871148, -9379.127249613673, -10407.329846302253, -15865.961118455067, -2497.2262975247263, -2798.639571504542, -6526.91054664976, -7349.879425749711, -16976.284024272445, -14833.332876364337, -22205.564046569354, -11453.257376343892, -6036.982659933885, -11138.656573135446, -11002.534449402625, -11427.798739409298, 0.00475, -0.0245, 0.99175, 192.0, 0.0, 0.0, 0.0, 0.0, 0.0, 0.0, 0.0, 0.0, 0.0, 1.644498451742936E9, 0.0, 2022-02-11 00:07:31.742
62.0, -7470.6011975528245, -9369.001909375418, -10396.355139774698, -15858.607394529272, -2483.882306084908, -2779.5958852286203, -6504.111767305347, -7331.506291807448, -16969.44439046912, -14841.781835768443, -22197.025680187427, -11442.528539005345, -6051.801866507753, -11130.162910242429, -10997.371196433449, -11420.802643394785, 0.007375, -0.02425, 0.9938750000000001, 192.0, 0.0, 40.0, 127.5, 32.0, 15.5, 16.0, 0.0, 0.0, 0.0, 1.6444984517429433E9, 0.0, 2022-02-11 00:07:31.742
64.0, -7480.167744179696, -9374.835714678255, -10397.852706653202, -15860.060257918867, -2495.5052132016676, -2793.4986702798215, -6514.214755799146, -7349.097114693775, -16972.283062014947, -14844.352286380803, -22193.58351154131, -11435.778312179842, -6050.997203707362, -11133.292154466171, -10994.89015279891, -11419.103910816182, 0.007375, -0.02425, 0.9938750000000001, 192.0, 0.0, 0.0, 0.0, 0.0, 0.0, 0.0, 0.0, 0.0, 0.0, 1.644498451742951E9, 0.0, 2022-02-11 00:07:31.742
66.0, -7475.518581332992, -9368.398412275126, -10397.808003164293, -15857.981545684523, -2489.425538709824, -2787.866030677084, -6514.840604643894, -7341.385762856694, -16965.97987007855, -14839.859585745286, -22203.39592735719, -11439.22048082596, -6048.046773439261, -11132.398084687959, -11000.232219723728, -11423.395445751601, 0.007375, -0.02425, 0.9938750000000001, 192.0, 0.0, 0.0, 0.0, 0.0, 0.0, 0.0, 0.0, 0.0, 0.0, 1.6444984517429578E9, 0.0, 2022-02-11 00:07:31.742
68.0, -7477.373776122782, -9364.173932573072, -10393.471764739963, -15859.814388729857, -2487.235067753204, -2786.4355190319443, -6517.612220956353, -7334.8814052202, -16973.043021326426, -14840.79835901241, -22187.079153904815, -11431.151501077593, -6051.511293829834, -11127.435997418881, -10996.946513288798, -11418.746282904898, 0.007375, -0.02425, 0.9938750000000001, 192.0, 0.0, 0.0, 0.0, 0.0, 0.0, 0.0, 0.0, 0.0, 0.0, 1.6444984517429645E9, 0.0, 2022-02-11 00:07:31.742
0.0, -2405.6959039802437, -3365.479810891129, -3895.596134137647, -6655.41072552332, -285.56588716100305, -558.5253904492129, -2378.180906555761, -2671.9498839318617, -8489.080785403346, -7425.495377242015, -11102.58085758458, -5725.801673627099, -3021.575870701775, -5568.266578706095, -5500.026702884043, -5711.787129853622, 0.014, -0.028, 0.994, 192.0, 0.0, 56.0, 127.5, 16.0, 15.5, 8.0, 0.0, 0.0, 0.0, 1.6444984518383293E9, 0.0, 2022-02-11 00:07:31.838
2.0, -4810.743607371283, -6736.793427085094, -7798.4342334788125, -13310.530878368721, -570.5282772217128, -1112.7592459630068, -4759.692223035362, -5340.994041084533, -13906.830716947403, -12203.493678986273, -18229.144004481317, -8566.21665551861, -3643.8037328486125, -9340.704600895, -8471.288796816922, -8514.561774082396, 0.014, -0.028, 0.994, 192.0, 0.0, 0.0, 0.0, 0.0, 0.0, 0.0, 0.0, 0.0, 0.0, 1.6444984523183587E9, 0.0, 2022-02-11 00:07:32.318
4.0, -4801.445281677876, -6725.1258164794235, -7798.009550334162, -13320.455052906878, -564.8062306411541, -1104.3773417922666, -4755.780667755684, -5341.083448062354, -13909.915257682236, -12204.633617953494, -18219.08571947643, -8567.93773984167, -3642.373221203473, -9333.976725813953, -8472.92047416216, -8519.16623344019, 0.014, -0.028, 0.994, 192.0, 0.0, 0.0, 0.0, 0.0, 0.0, 0.0, 0.0, 0.0, 0.0, 1.644498452318369E9, 0.0, 2022-02-11 00:07:32.318
6.0, -4825.138130800501, -6734.021810772635, -7817.366161032458, -13334.894279825006, -582.7546814387657, -1124.0021734240263, -4771.203371429846, -5345.754962653514, -13920.04059792049, -12208.031083110702, -18233.592001627923, -8578.957149858135, -3648.207026506308, -9335.6531066481, -8481.34708182181, -8526.11762596579, 0.014, -0.028, 0.994, 192.0, 0.0, 0.0, 0.0, 0.0, 0.0, 0.0, 0.0, 0.0, 0.0, 1.6444984523183825E9, 0.0, 2022-02-11 00:07:32.318
8.0, -4833.140055315502, -6732.412485171853, -7818.394341277402, -13334.760169358275, -582.3523500385702, -1124.6503740132302, -4773.4608976198315, -5356.372041269785, -13929.651848036272, -12207.740510432783, -18245.997219800618, -8590.691815697171, -3653.05735505311, -9349.175912043562, -8493.260561616487, -8535.572413870384, 0.012, -0.03, 0.99, 192.0, 0.0, 48.0, 127.5, 8.0, 15.0, 120.0, 0.0, 0.0, 0.0, 1.6444984523183897E9, 0.0, 2022-02-11 00:07:32.318
10.0, -4840.7843519192165, -6746.2035115007775, -7827.647963481899, -13351.345163744112, -598.6914752353997, -1131.1547316497245, -4791.409348417443, -5374.834582189868, -13947.443836622697, -12199.962103362335, -18251.406341958802, -8604.952228659658, -3671.25167503973, -9368.912502397598, -8500.100195419813, -8546.681230864671, 0.012, -0.03, 0.99, 192.0, 0.0, 0.0, 0.0, 0.0, 0.0, 0.0, 0.0, 0.0, 0.0, 1.6444984523183963E9, 0.0, 2022-02-11 00:07:32.318
12.0, -4852.809590436172, -6758.4075639733755, -7840.231995610237, -13346.852463108597, -597.9985711572851, -1133.9263479621825, -4797.623133376019, -5371.213599588108, -13951.601261091384, -12221.375074550519, -18268.684240422757, -8606.852126938358, -3671.050509339632, -9361.916406383087, -8509.264410646489, -8551.084524522368, 0.012, -0.03, 0.99, 192.0, 0.0, 0.0, 0.0, 0.0, 0.0, 0.0, 0.0, 0.0, 0.0, 1.6444984523184032E9, 0.0, 2022-02-11 00:07:32.318
14.0, -4856.3411660601105, -6777.808878160582, -7834.487597285223, -13356.508416713288, -592.7235594658326, -1124.7621327355066, -4785.821412303617, -5359.456582004617, -13955.736333815616, -12251.95226096538, -18261.308164752503, -8601.308894313443, -3674.8056024081234, -9357.84838889222, -8509.018541457479, -8549.475198921586, 0.012, -0.03, 0.99, 192.0, 0.0, 0.0, 0.0, 0.0, 0.0, 0.0, 0.0, 0.0, 0.0, 1.64449845231841E9, 0.0, 2022-02-11 00:07:32.318
16.0, -4882.604465795096, -6783.776793930148, -7855.02885043965, -13371.484085498345, -615.8352632326202, -1147.2256359130904, -4808.776653859217, -5381.428346804184, -13972.030755523534, -12264.312775649165, -18276.015612604097, -8611.993028163079, -3681.086442600065, -9377.42851703507, -8514.651181060217, -8561.366326971809, 0.01, -0.026, 0.991, 192.0, 0.0, 32.0, 127.5, 40.0, 15.5, 0.0, 0.0, 0.0, 0.0, 1.6444984523184168E9, 0.0, 2022-02-11 00:07:32.318
18.0, -4875.563666291674, -6779.395852016909, -7854.045373683617, -13374.233350066346, -610.2920306077041, -1139.0672491869032, -4812.643505649985, -5382.948265427144, -13978.95979630468, -12260.535330836217, -18288.465534265702, -8634.836510996403, -3689.244829326252, -9386.57038051729, -8527.816358544393, -8572.273978266, 0.01, -0.026, 0.991, 192.0, 0.0, 0.0, 0.0, 0.0, 0.0, 0.0, 0.0, 0.0, 0.0, 1.6444984523184235E9, 0.0, 2022-02-11 00:07:32.318
20.0, -4884.34790186261, -6794.595038246517, -7867.389365123435, -13381.698832714419, -619.6350597900224, -1152.9029790047382, -4826.14395930099, -5392.313646353919, -13988.347528975908, -12267.66553731746, -18294.165229101807, -8625.448778325173, -3699.1019486310424, -9383.821115949288, -8529.939774267646, -8576.654920179239, 0.01, -0.026, 0.991, 192.0, 0.0, 0.0, 0.0, 0.0, 0.0, 0.0, 0.0, 0.0, 0.0, 1.6444984523184302E9, 0.0, 2022-02-11 00:07:32.318
22.0, -4893.087433944635, -6785.654340464394, -7869.781001780153, -13388.069079884182, -619.8362254901201, -1148.0302987134814, -4821.38303773201, -5394.459413821628, -13993.756651134092, -12259.551854080184, -18311.331368843483, -8638.323383131432, -3698.7443207197575, -9384.603427005224, -8535.907690037215, -8585.908542383737, 0.01, -0.026, 0.991, 192.0, 0.0, 0.0, 0.0, 0.0, 0.0, 0.0, 0.0, 0.0, 0.0, 1.644498452318437E9, 0.0, 2022-02-11 00:07:32.318
24.0, -4891.075776943658, -6793.4550992792965, -7865.064783700083, -13391.801821208219, -615.7905597437095, -1148.1867609246685, -4807.592011403085, -5394.370006843807, -13997.690558158227, -12269.341918151607, -18299.216723348705, -8638.122217431333, -3698.4090445529278, -9403.91533421461, -8532.68903883565, -8588.03195810699, 0.01, -0.026, 0.991, 192.0, 0.0, 0.0, 0.0, 0.0, 0.0, 0.0, 0.0, 0.0, 0.0, 1.6444984523184452E9, 0.0, 2022-02-11 00:07:32.318
26.0, -4910.5217946197745, -6805.815613963082, -7888.779984567164, -13409.07971967217, -641.6738798229552, -1159.8990750192495, -4825.071075567135, -5411.1561669297425, -14003.524363461062, -12294.353520197097, -18311.19725837675, -8652.270871671542, -3706.9474109348553, -9395.511078299412, -8541.1156464953, -8600.32541755741, 0.007, -0.024, 0.9915, 192.0, 0.0, 16.0, 127.5, 40.0, 15.5, 0.0, 0.0, 0.0, 0.0, 1.644498452318452E9, 0.0, 2022-02-11 00:07:32.318
28.0, -4912.555803365208, -6797.590172003529, -7882.856772286507, -13410.264362128302, -642.5008943678015, -1161.7989732979504, -4835.3305262721215, -5413.458396608638, -14012.353302520909, -12292.744194596315, -18327.268162640117, -8668.05120325699, -3707.014466168221, -9413.347770374749, -8556.940681569658, -8607.165051360733, 0.007, -0.024, 0.9915, 192.0, 0.0, 0.0, 0.0, 0.0, 0.0, 0.0, 0.0, 0.0, 0.0, 1.6444984523184588E9, 0.0, 2022-02-11 00:07:32.318
30.0, -4917.83081505666, -6818.667867024883, -7897.765385838197, -13416.344036620145, -655.8895892965304, -1169.7561943240398, -4862.219674851856, -5434.804312563457, -14028.983000395656, -12291.246627717808, -18322.440185837768, -8658.797581052493, -3723.241832642774, -9429.731599060487, -8563.623853161795, -8614.630534008806, 0.007, -0.024, 0.9915, 192.0, 0.0, 0.0, 0.0, 0.0, 0.0, 0.0, 0.0, 0.0, 0.0, 1.6444984523184657E9, 0.0, 2022-02-11 00:07:32.318
32.0, -4938.416771699997, -6834.269384654687, -7906.549621409134, -13424.502423346332, -667.6019033911114, -1179.4344996731877, -4875.854238969593, -5447.500103414071, -14035.979096410168, -12316.459395463395, -18342.28853491408, -8668.587645123916, -3728.986230967788, -9422.10965420123, -8579.404184747242, -8627.683952770705, 0.007, -0.024, 0.9915, 192.0, 0.0, 0.0, 0.0, 0.0, 0.0, 0.0, 0.0, 0.0, 0.0, 1.644498452318473E9, 0.0, 2022-02-11 00:07:32.318
34.0, -4933.409980942009, -6834.381143376964, -7904.828537086075, -13433.33136240618, -662.5504091442119, -1173.6453978592633, -4868.9028464439925, -5438.64881260977, -14038.840119700448, -12314.850069862614, -18336.164156933326, -8668.319424190453, -3736.205844426852, -9422.91431700162, -8580.387661503275, -8629.405037093764, 0.007, -0.024, 0.9915, 192.0, 0.0, 0.0, 0.0, 0.0, 0.0, 0.0, 0.0, 0.0, 0.0, 1.6444984523184798E9, 0.0, 2022-02-11 00:07:32.318
36.0, -4948.899739849537, -6828.25676539621, -7920.4077029714235, -13448.508196891333, -668.3171592136812, -1186.14002300978, -4870.936855189426, -5449.467056926139, -14049.88188146137, -12321.175613543464, -18352.123302474418, -8683.228037742143, -3739.7374200507907, -9424.568346091311, -8585.953245872646, -8639.753894776572, 0.0055, -0.025, 0.98975, 192.0, 0.0, 16.0, 127.5, 24.0, 15.0, 112.0, 0.0, 0.0, 0.0, 1.6444984523184867E9, 0.0, 2022-02-11 00:07:32.318
38.0, -4953.347736996143, -6842.1148469585005, -7910.461176688812, -13445.4236561565, -667.646606880022, -1184.8659735758274, -4877.307102359188, -5456.709022129658, -14058.286137376565, -12327.031770590756, -18368.14950324887, -8703.34460775192, -3746.7335160653015, -9461.24755874247, -8597.03971112248, -8647.666412313749, 0.0055, -0.025, 0.98975, 192.0, 0.0, 0.0, 0.0, 0.0, 0.0, 0.0, 0.0, 0.0, 0.0, 1.6444984523184955E9, 0.0, 2022-02-11 00:07:32.318
40.0, -4962.556655711729, -6848.798018550637, -7926.599136185544, -13453.872615560605, -685.3268367441699, -1193.8960783357713, -4895.836698512638, -5458.631272152815, -14071.205445671732, -12348.176520845476, -18361.756904334656, -8683.920941820257, -3757.8870365485, -9449.758762092444, -8602.851164680858, -8654.394287394796, 0.0055, -0.025, 0.98975, 192.0, 0.0, 0.0, 0.0, 0.0, 0.0, 0.0, 0.0, 0.0, 0.0, 1.6444984523185022E9, 0.0, 2022-02-11 00:07:32.318
42.0, -4972.324368038699, -6868.3557949490305, -7935.875110134496, -13461.740429608873, -696.4133019940022, -1197.6735231487182, -4912.73461732085, -5467.884894357311, -14077.97802424169, -12354.92674767098, -18386.50028544668, -8708.977247354656, -3764.0337662737093, -9452.731544105, -8617.871536954824, -8663.111467732366, 0.0055, -0.025, 0.98975, 192.0, 0.0, 0.0, 0.0, 0.0, 0.0, 0.0, 0.0, 0.0, 0.0, 1.6444984523185089E9, 0.0, 2022-02-11 00:07:32.318
44.0, -4971.5644087272185, -6869.652196127438, -7931.628278687987, -13467.61893840062, -687.8078803787089, -1194.6113341583414, -4890.762852521283, -5468.957778091166, -14078.693280064259, -12356.089038382655, -18379.72770687672, -8698.963665838679, -3763.452620917871, -9456.374878451214, -8618.586792777394, -8669.504066646585, 0.0055, -0.025, 0.98975, 192.0, 0.0, 0.0, 0.0, 0.0, 0.0, 0.0, 0.0, 0.0, 0.0, 1.6444984523185155E9, 0.0, 2022-02-11 00:07:32.318
46.0, -4987.1212228681115, -6872.35675720653, -7948.9955841297615, -13476.827857116206, -706.5609939767115, -1202.3450377398776, -4903.324532905166, -5483.151135820286, -14096.373509928408, -12356.312555827208, -18395.10570706197, -8709.737206666137, -3770.4263651879273, -9465.829666355809, -8623.66063876875, -8679.092965017911, 0.00675, -0.0225, 0.988875, 192.0, 0.0, 32.0, 127.5, 48.0, 15.0, 112.0, 0.0, 0.0, 0.0, 1.6444984523185225E9, 0.0, 2022-02-11 00:07:32.318
48.0, -4981.220362331911, -6867.573483893095, -7953.28711906518, -13477.721926894419, -698.514365972801, -1195.4159969587324, -4900.932896248448, -5478.814897395957, -14095.390033172374, -12372.852846724136, -18403.800535655086, -8718.0073521146, -3779.9035048369774, -9464.712079133044, -8629.539147560496, -8686.692558132716, 0.00675, -0.0225, 0.988875, 192.0, 0.0, 0.0, 0.0, 0.0, 0.0, 0.0, 0.0, 0.0, 0.0, 1.6444984523185298E9, 0.0, 2022-02-11 00:07:32.318
50.0, -4999.258220107344, -6873.3402339625645, -7957.198674344859, -13489.344834011179, -709.4890725003568, -1209.072912820925, -4912.287582431743, -5494.349359792395, -14106.901181566856, -12373.702213013437, -18394.569265195045, -8719.795491671026, -3787.659560162969, -9477.810201383854, -8630.254403383065, -8690.805279112492, 0.00675, -0.0225, 0.988875, 192.0, 0.0, 0.0, 0.0, 0.0, 0.0, 0.0, 0.0, 0.0, 0.0, 1.6444984523185365E9, 0.0, 2022-02-11 00:07:32.318
52.0, -5000.286400352287, -6885.656045157439, -7967.391069816479, -13494.642197447087, -718.1615493490159, -1213.6326686898076, -4918.702533090417, -5494.885801659322, -14112.824393847513, -12374.797448491747, -18413.009454370673, -8730.501977265118, -3786.8325456181224, -9472.87046585923, -8644.738333790105, -8701.377654239852, 0.00675, -0.0225, 0.988875, 192.0, 0.0, 0.0, 0.0, 0.0, 0.0, 0.0, 0.0, 0.0, 0.0, 1.6444984523185432E9, 0.0, 2022-02-11 00:07:32.318
54.0, -5003.75092074286, -6893.903838861446, -7965.379412815501, -13500.34189228319, -717.870976671097, -1213.006819845059, -4926.302126205222, -5496.875106915844, -14120.736911384693, -12391.896533000057, -18410.416652013857, -8726.568070240983, -3792.9122201099663, -9491.333006779314, -8649.94629024819, -8702.785814140536, 0.00675, -0.0225, 0.988875, 192.0, 0.0, 0.0, 0.0, 0.0, 0.0, 0.0, 0.0, 0.0, 0.0, 1.6444984523185503E9, 0.0, 2022-02-11 00:07:32.318
56.0, -5023.040476207791, -6897.502469718751, -7980.019805433728, -13513.372959300634, -737.0487734137504, -1229.2788898085225, -4938.729696122372, -5509.146214621808, -14132.113949312443, -12397.797393536257, -18423.090091120015, -8732.893613921835, -3800.5118132247703, -9492.092966090795, -8653.589624594406, -8711.34653226692, 0.005375, -0.02225, 0.9894375, 192.0, 0.0, 16.0, 127.5, 40.0, 15.0, 120.0, 0.0, 0.0, 0.0, 1.6444984523185573E9, 0.0, 2022-02-11 00:07:32.318
58.0, -5024.672153553028, -6903.3362750215865, -7978.589293788588, -13518.96089541446, -725.4035145525354, -1219.2206048036344, -4941.903643835026, -5512.074293145453, -14134.863213880446, -12398.825573781201, -18433.483652291736, -8743.980079171668, -3803.1269673260413, -9501.234829573015, -8660.675127586737, -8721.717741694181, 0.005375, -0.02225, 0.9894375, 192.0, 0.0, 0.0, 0.0, 0.0, 0.0, 0.0, 0.0, 0.0, 0.0, 1.644498452318564E9, 0.0, 2022-02-11 00:07:32.318
60.0, -5029.254261166366, -6907.806623912647, -7992.648541050976, -13524.571183272743, -735.1712268795046, -1233.9280526552263, -4955.806428886227, -5526.491168319127, -14149.727123943225, -12411.208440209442, -18431.717864479764, -8752.607852531417, -3815.4427785209155, -9507.962704654063, -8663.33498517692, -8727.86447141939, 0.005375, -0.02225, 0.9894375, 192.0, 0.0, 0.0, 0.0, 0.0, 0.0, 0.0, 0.0, 0.0, 0.0, 1.6444984523185709E9, 0.0, 2022-02-11 00:07:32.318
62.0, -5040.206615949466, -6909.304190791153, -7991.732119528308, -13528.527442041332, -745.7212502624095, -1230.329421797922, -4952.855998618126, -5521.2161566276745, -14148.564833231549, -12411.946047776468, -18448.682838521345, -8763.917835225802, -3817.94617389991, -9503.335893551814, -8676.276645216543, -8735.642878489838, 0.005375, -0.02225, 0.9894375, 192.0, 0.0, 0.0, 0.0, 0.0, 0.0, 0.0, 0.0, 0.0, 0.0, 1.6444984523185775E9, 0.0, 2022-02-11 00:07:32.318
64.0, -5033.881072268614, -6925.665667732438, -7991.061567194649, -13532.751921743384, -735.3053373462365, -1227.4013432742768, -4951.067859061702, -5522.2219851281625, -14155.51622575715, -12418.159832735042, -18443.18430938534, -8744.672983249782, -3819.086112867131, -9512.231887845026, -8678.780040595537, -8736.134616867856, 0.005375, -0.02225, 0.9894375, 192.0, 0.0, 0.0, 0.0, 0.0, 0.0, 0.0, 0.0, 0.0, 0.0, 1.6444984523185844E9, 0.0, 2022-02-11 00:07:32.318
66.0, -5065.464087183963, -6942.943566196391, -8012.295724427191, -13548.241680650912, -752.2703113878144, -1247.0932301394023, -4980.616865231617, -5548.060601718498, -14172.034164909623, -12434.297792231775, -18458.294088637125, -8762.174399158288, -3826.8645199375774, -9531.655553776689, -8688.681863389238, -8750.193864130242, 0.0066875, -0.021124999999999998, 0.98771875, 192.0, 0.0, 32.0, 127.5, 48.0, 15.0, 104.0, 0.0, 0.0, 0.0, 1.644498452318591E9, 0.0, 2022-02-11 00:07:32.318
68.0, -5067.6545581405835, -6939.054362661167, -8011.915744771451, -13552.242642908412, -748.4258113415017, -1238.6889742242067, -4963.920112123503, -5530.112150920886, -14181.310138858575, -12434.923641076522, -18477.427181890867, -8775.943073742757, -3833.9053194409994, -9535.768274756465, -8701.645875173315, -8756.519407811094, 0.0066875, -0.021124999999999998, 0.98771875, 192.0, 0.0, 0.0, 0.0, 0.0, 0.0, 0.0, 0.0, 0.0, 0.0, 1.644498452318598E9, 0.0, 2022-02-11 00:07:32.318
70.0, -5065.464087183963, -6944.597595286084, -8022.376361176534, -13566.436000637532, -757.1429916790714, -1245.6850702387178, -4988.395272302065, -5550.876921519866, -14194.0506331981, -12448.960536594455, -18475.773152801175, -8787.49892562615, -3845.684688768946, -9530.292097364914, -8704.283381019042, -8758.441657834252, 0.0066875, -0.021124999999999998, 0.98771875, 192.0, 0.0, 0.0, 0.0, 0.0, 0.0, 0.0, 0.0, 0.0, 0.0, 1.6444984523186069E9, 0.0, 2022-02-11 00:07:32.318
72.0, -5084.664235671072, -6956.622833803039, -8024.879756555529, -13564.960785503483, -765.1672679385267, -1253.776401731539, -4996.531307283796, -5551.323956408973, -14191.837810497023, -12458.370621010139, -18489.117144240994, -8789.398823904852, -3842.622499778569, -9538.830463746843, -8712.732340423148, -8766.667099793804, 0.0066875, -0.021124999999999998, 0.98771875, 192.0, 0.0, 0.0, 0.0, 0.0, 0.0, 0.0, 0.0, 0.0, 0.0, 1.6444984523186133E9, 0.0, 2022-02-11 00:07:32.318
74.0, -5082.540819947818, -6958.4556768483735, -8018.464805896856, -13575.801381564306, -755.8912939895743, -1253.1729046312457, -4967.69755693645, -5555.48138087766, -14197.917484988868, -12462.237472800907, -18475.527283612166, -8786.493097125662, -3848.6351190370465, -9538.048152690906, -8708.999599099112, -8771.964463229711, 0.0066875, -0.021124999999999998, 0.98771875, 192.0, 0.0, 0.0, 0.0, 0.0, 0.0, 0.0, 0.0, 0.0, 0.0, 1.64449845231862E9, 0.0, 2022-02-11 00:07:32.318
76.0, -5100.981009123446, -6966.457601363373, -8038.581375906632, -13587.312529958788, -773.0350819867948, -1265.2204948926562, -4980.750975698349, -5565.092630993442, -14209.652150827904, -12469.837065915712, -18492.447554164835, -8808.509565414139, -3853.7089650284015, -9552.93441449814, -8710.787738655537, -8784.973178502702, 0.00934375, -0.0245625, 0.987859375, 192.0, 0.0, 48.0, 127.5, 16.0, 15.0, 112.0, 0.0, 0.0, 0.0, 1.6444984523186269E9, 0.0, 2022-02-11 00:07:32.318
78.0, -5105.227840569954, -6977.5887701021165, -8041.598861408099, -13588.474820670464, -769.6152650851328, -1263.4994105695976, -4991.613923503629, -5567.283101950062, -14214.144851463421, -12474.955615395978, -18510.261894495714, -8807.369626446918, -3856.4135261074935, -9565.294929181926, -8723.595288228427, -8792.59512336196, 0.00934375, -0.0245625, 0.987859375, 192.0, 0.0, 0.0, 0.0, 0.0, 0.0, 0.0, 0.0, 0.0, 0.0, 1.6444984523186336E9, 0.0, 2022-02-11 00:07:32.318
80.0, -5123.779788467859, -6993.48086040984, -8048.572605678154, -13595.985006807448, -779.3606256676467, -1269.7578990170837, -5008.265973122832, -5572.714575852701, -14233.635572628447, -12479.872999176145, -18504.584551404067, -8801.558172888539, -3867.9917297353427, -9565.004356504007, -8726.791587685537, -8795.746719330158, 0.00934375, -0.0245625, 0.987859375, 192.0, 0.0, 0.0, 0.0, 0.0, 0.0, 0.0, 0.0, 0.0, 0.0, 1.6444984523186405E9, 0.0, 2022-02-11 00:07:32.318
82.0, -5128.339544336742, -6978.684005580427, -8059.54731220571, -13602.198791766024, -787.9660472829398, -1267.2768553825445, -5008.6683045230275, -5576.380261943372, -14239.759950609203, -12498.156726140587, -18530.19965054985, -8821.965315576233, -3873.110279215608, -9561.025745990963, -8739.465026791695, -8803.815699078525, 0.00934375, -0.0245625, 0.987859375, 192.0, 0.0, 0.0, 0.0, 0.0, 0.0, 0.0, 0.0, 0.0, 0.0, 1.6444984523186471E9, 0.0, 2022-02-11 00:07:32.318
84.0, -5110.77107319487, -6986.417709161963, -8052.908844102484, -13606.356216234712, -774.0409104872836, -1255.1175063988576, -4995.771347972316, -5564.869113548889, -14233.702627861814, -12486.131487623632, -18519.023778322196, -8826.703885400759, -3870.1151454585965, -9572.268673451981, -8735.86639593439, -8798.719501342715, 0.00934375, -0.0245625, 0.987859375, 192.0, 0.0, 0.0, 0.0, 0.0, 0.0, 0.0, 0.0, 0.0, 0.0, 1.644498452318654E9, 0.0, 2022-02-11 00:07:32.318
86.0, -5129.278317603865, -7001.572191902661, -8063.794143652219, -13614.961637850003, -793.6880938634985, -1274.9211519862595, -5017.810168005249, -5584.8515730919335, -14241.413979698895, -12503.85642097669, -18528.65738018243, -8815.416254450829, -3879.1452502185407, -9572.514542640989, -8739.666192491793, -8806.833184579991, 0.006, -0.026000000000000002, 0.988, 192.0, 0.0, 24.0, 127.5, 24.0, 15.0, 112.0, 0.0, 0.0, 0.0, 1.6444984523186612E9, 0.0, 2022-02-11 00:07:32.318
88.0, -5133.502797305918, -6997.571229645161, -8068.040975098726, -13622.248306542435, -794.9844950419063, -1271.814259506972, -5021.185281418, -5582.169363757296, -14247.49365419074, -12513.37826411465, -18545.845871668564, -8831.97889709221, -3883.1909159649513, -9571.352251929315, -8752.250224620131, -8816.578545162505, 0.006, -0.026000000000000002, 0.988, 192.0, 0.0, 0.0, 0.0, 0.0, 0.0, 0.0, 0.0, 0.0, 0.0, 1.644498452318668E9, 0.0, 2022-02-11 00:07:32.318
90.0, -5139.984803197957, -7001.773357602759, -8076.847562414117, -13629.982010123971, -806.4732916919342, -1283.1242422013572, -5034.819845535737, -5597.815584876012, -14261.016459586199, -12511.56777281377, -18537.687484942377, -8830.883661613901, -3897.3172184607056, -9583.75747010201, -8758.709878767715, -8828.022638323622, 0.006, -0.026000000000000002, 0.988, 192.0, 0.0, 0.0, 0.0, 0.0, 0.0, 0.0, 0.0, 0.0, 0.0, 1.6444984523186748E9, 0.0, 2022-02-11 00:07:32.318
92.0, -5147.539692823851, -7015.251459509309, -8083.150754350514, -13628.663257201108, -810.0048673158726, -1278.8327072659383, -5033.501092612874, -5603.872907623399, -14264.43627648786, -12517.938019983534, -18552.14906360496, -8837.097446572478, -3894.1432707480517, -9581.544647400933, -8771.226855662688, -8835.868100627435, 0.006, -0.026000000000000002, 0.988, 192.0, 0.0, 0.0, 0.0, 0.0, 0.0, 0.0, 0.0, 0.0, 0.0, 1.6444984523186815E9, 0.0, 2022-02-11 00:07:32.318
94.0, -5142.577605554772, -7009.842337351124, -8081.452021771911, -13631.79250142485, -804.8192626022415, -1279.0562247104913, -5045.57103461874, -5602.800023889545, -14258.848340374034, -12510.606647802193, -18543.92362164541, -8831.062475569544, -3892.5562968917247, -9584.428022435668, -8771.83035276298, -8836.404542494362, 0.006, -0.026000000000000002, 0.988, 192.0, 0.0, 0.0, 0.0, 0.0, 0.0, 0.0, 0.0, 0.0, 0.0, 1.6444984523186884E9, 0.0, 2022-02-11 00:07:32.318
96.0, -5163.230617431476, -7019.744160144825, -8098.640513258042, -13643.951850408537, -816.5986319301883, -1287.259314925589, -5039.7148775714495, -5604.364646001416, -14277.355584783028, -12526.275220665362, -18562.900252687963, -8841.187815807798, -3903.0169132968085, -9593.122851028784, -8775.54074234256, -8847.423952510828, 0.006, -0.026000000000000002, 0.982, 192.0, 0.0, 24.0, 127.5, 24.0, 15.0, 88.0, 0.0, 0.0, 0.0, 1.6444984523186953E9, 0.0, 2022-02-11 00:07:32.318
98.0, -5155.921596994591, -7011.474014696362, -8098.528754535766, -13648.377495810688, -809.7589981268643, -1287.259314925589, -5037.077371725723, -5606.555116958037, -14277.48969524976, -12538.322810926773, -18572.735020248296, -8851.022583368132, -3900.58057315118, -9601.840031366353, -8779.45229762224, -8855.112952603455, 0.006, -0.026000000000000002, 0.982, 192.0, 0.0, 0.0, 0.0, 0.0, 0.0, 0.0, 0.0, 0.0, 0.0, 1.644498452318702E9, 0.0, 2022-02-11 00:07:32.318
100.0, -5175.367614670708, -7034.809235907703, -8109.056426174216, -13661.56502503932, -823.9300041115289, -1298.7034080867063, -5047.359174175164, -5619.496776997659, -14291.325425067596, -12545.363610430195, -18571.215101625337, -8855.045897370088, -3916.293849503261, -9605.840993623853, -8782.536838357073, -8860.633833483915, 0.006, -0.026000000000000002, 0.982, 192.0, 0.0, 0.0, 0.0, 0.0, 0.0, 0.0, 0.0, 0.0, 0.0, 1.6444984523187087E9, 0.0, 2022-02-11 00:07:32.318
102.0, -5186.029396775889, -7048.399096536529, -8124.74735078184, -13665.074248918801, -839.3303560412355, -1304.2019372227119, -5068.459220940974, -5626.179948589796, -14304.132974640486, -12562.753267616425, -18596.20435192637, -8878.984615681722, -3925.2121955409284, -9613.194717549648, -8799.971199032212, -8872.480258045229, 0.006, -0.026000000000000002, 0.982, 192.0, 0.0, 0.0, 0.0, 0.0, 0.0, 0.0, 0.0, 0.0, 0.0, 1.6444984523187172E9, 0.0, 2022-02-11 00:07:32.318
104.0, -5170.78550705737, -7030.897680628023, -8116.924240222484, -13669.209321643035, -831.7307629264311, -1299.6645330982844, -5065.888770328614, -5626.090541611975, -14306.54696304166, -12553.164369245098, -18587.777744266717, -8870.625063255437, -3932.1188845776182, -9622.113063587316, -8802.876925811403, -8871.742650478203, 0.006, -0.026000000000000002, 0.982, 192.0, 0.0, 0.0, 0.0, 0.0, 0.0, 0.0, 0.0, 0.0, 0.0, 1.644498452318724E9, 0.0, 2022-02-11 00:07:32.318
106.0, -5208.805824375847, -7059.105582130621, -8132.816330530207, -13681.70394679355, -849.7909724463192, -1315.3331059614547, -5081.870267614158, -5637.9146144288325, -14312.805451489146, -12560.160465259609, -18595.623206570534, -8882.51619130566, -3931.224814799406, -9613.619400694299, -8808.621324136415, -8878.604636025982, 0.006, -0.026000000000000002, 0.994, 192.0, 0.0, 24.0, 127.5, 24.0, 15.5, 8.0, 0.0, 0.0, 0.0, 1.6444984523187308E9, 0.0, 2022-02-11 00:07:32.318
108.0, -5206.213022019032, -7061.452515298429, -8128.189519427958, -13682.486257849487, -841.5431787423109, -1301.586783121441, -5073.8236396102475, -5636.68526848379, -14314.21361138983, -12575.024375322388, -18604.78742179721, -8878.448173814795, -3930.0625240877303, -9601.862383110809, -8818.992533563678, -8885.578380296038, 0.006, -0.026000000000000002, 0.994, 192.0, 0.0, 0.0, 0.0, 0.0, 0.0, 0.0, 0.0, 0.0, 0.0, 1.6444984523187382E9, 0.0, 2022-02-11 00:07:32.318
110.0, -5212.449158722063, -7068.962701435412, -8143.075781235192, -13689.974092242015, -850.2603590798807, -1314.841367583438, -5085.893581616114, -5648.330527345005, -14328.988114474789, -12579.293558513351, -18600.339424650603, -8871.765002222659, -3936.0527916017527, -9621.308400786926, -8818.992533563678, -8890.898095476401, 0.006, -0.026000000000000002, 0.994, 192.0, 0.0, 0.0, 0.0, 0.0, 0.0, 0.0, 0.0, 0.0, 0.0, 1.644498452318745E9, 0.0, 2022-02-11 00:07:32.318
112.0, -5229.682353697104, -7050.813084937702, -8150.362449927623, -13691.270493420423, -859.3351673287353, -1318.037667040547, -5092.397939252608, -5645.693021499279, -14338.97934424631, -12593.509267986927, -18621.752395838786, -8895.413147856372, -3951.006108642353, -9636.485235272079, -8833.521167459628, -8899.928200236345, 0.006, -0.026000000000000002, 0.994, 192.0, 0.0, 0.0, 0.0, 0.0, 0.0, 0.0, 0.0, 0.0, 0.0, 1.6444984523187516E9, 0.0, 2022-02-11 00:07:32.318
114.0, -5219.624068692216, -7077.813992239713, -8152.575272628698, -13701.105260980758, -848.9192544125623, -1318.775274607572, -5087.480555472441, -5649.716335501234, -14344.164948959942, -12593.35280577574, -18619.383110926523, -8888.32764486404, -3952.324861565216, -9632.104293358838, -8833.387056992897, -8904.66677006087, 0.006, -0.026000000000000002, 0.994, 192.0, 0.0, 0.0, 0.0, 0.0, 0.0, 0.0, 0.0, 0.0, 0.0, 1.6444984523187585E9, 0.0, 2022-02-11 00:07:32.318
116.0, -5237.8854439122015, -7084.810088254224, -8165.963967557427, -13712.974037286525, -865.4371935650341, -1335.9861178381584, -5109.765244694382, -5665.071983942031, -14355.385524676505, -12596.526753488393, -18629.77667209824, -8902.051615959599, -3955.252940088861, -9651.10327614585, -8835.935155860801, -8916.513194622183, 0.016, -0.024, 0.992, 192.0, 0.0, 64.0, 127.5, 32.0, 15.5, 0.0, 0.0, 0.0, 0.0, 1.6444984523187652E9, 0.0, 2022-02-11 00:07:32.318
118.0, -5246.356755060763, -7092.387329624574, -8165.002842545849, -13717.779662344416, -869.1699348890704, -1339.1377138063567, -5118.750645965415, -5673.386832879404, -14360.727591601324, -12617.02330315391, -18644.59587867211, -8906.968999739767, -3959.902102935565, -9655.283052358991, -8848.295670544585, -8929.231337217252, 0.016, -0.024, 0.992, 192.0, 0.0, 0.0, 0.0, 0.0, 0.0, 0.0, 0.0, 0.0, 0.0, 1.644498452318772E9, 0.0, 2022-02-11 00:07:32.318
120.0, -5251.497656285484, -7098.802280283247, -8173.585912416686, -13725.938049070604, -879.9211239720731, -1346.64789994334, -5127.1101983917, -5685.724995818734, -14369.422420194438, -12625.539317791381, -18639.32086698066, -8908.086586962532, -3973.7378327534, -9653.919595947218, -8851.9390048908, -8938.86493907749, 0.016, -0.024, 0.992, 192.0, 0.0, 0.0, 0.0, 0.0, 0.0, 0.0, 0.0, 0.0, 0.0, 1.6444984523187785E9, 0.0, 2022-02-11 00:07:32.318
122.0, -5276.084575186322, -7092.141460435565, -8185.946427100472, -13736.152796286678, -890.0464642103273, -1348.5701499664963, -5125.1208931351775, -5673.0739084570305, -14379.212484265863, -12623.818233468322, -18663.214881803382, -8932.62880237446, -3981.4268328460257, -9665.475447830611, -8864.098353874488, -8945.838683347545, 0.016, -0.024, 0.992, 192.0, 0.0, 0.0, 0.0, 0.0, 0.0, 0.0, 0.0, 0.0, 0.0, 1.6444984527986176E9, 0.0, 2022-02-11 00:07:32.798
124.0, -5263.478191313528, -7106.111300720132, -8186.862848623139, -13734.76698813045, -879.764661760886, -1339.7635626511053, -5113.989724396435, -5675.711414302757, -14387.147353547498, -12637.251631885962, -18663.661916692487, -8927.331438938552, -3987.394748615593, -9670.929273477706, -8867.048784142587, -8943.849378091023, 0.016, -0.024, 0.992, 192.0, 0.0, 0.0, 0.0, 0.0, 0.0, 0.0, 0.0, 0.0, 0.0, 1.6444984527987049E9, 0.0, 2022-02-11 00:07:32.798
126.0, -5288.020406725455, -7129.625335887115, -8196.541153972286, -13736.309258497866, -895.8132142797965, -1357.4884960041638, -5135.357992095708, -5699.650132614391, -14399.418461253461, -12649.634498314203, -18664.73480042634, -8928.560784883593, -3990.9486759839865, -9672.695061289676, -8871.027394655634, -8951.471322950283, 0.012, -0.024, 0.996, 192.0, 0.0, 48.0, 127.5, 32.0, 15.5, 16.0, 0.0, 0.0, 0.0, 1.6444984527987125E9, 0.0, 2022-02-11 00:07:32.798
128.0, -5264.774592491936, -7112.280382189797, -8191.467307980933, -13737.471549209542, -884.7043972855089, -1346.8490656434376, -5131.915823449591, -5686.93199001932, -14395.261036784774, -12646.21468141254, -18673.496684252823, -8933.411113430395, -3983.1255654246293, -9675.556084579955, -8877.844676714501, -8958.556825942615, 0.012, -0.024, 0.996, 192.0, 0.0, 0.0, 0.0, 0.0, 0.0, 0.0, 0.0, 0.0, 0.0, 1.6444984527987192E9, 0.0, 2022-02-11 00:07:32.798
130.0, -5281.583104322327, -7120.125844493609, -8200.877392396616, -13751.597851705295, -887.5654205757882, -1354.1133825914126, -5137.570814796783, -5690.150641220885, -14387.147353547498, -12644.761818022946, -18659.906823623995, -8930.594793629027, -3984.131393925118, -9668.403526354257, -8874.33545283502, -8960.903759110422, 0.012, -0.024, 0.996, 192.0, 0.0, 0.0, 0.0, 0.0, 0.0, 0.0, 0.0, 0.0, 0.0, 1.644498452798726E9, 0.0, 2022-02-11 00:07:32.798
132.0, -5316.496529161516, -7146.74677213988, -8221.753921717873, -13763.287814055422, -911.5711941207879, -1364.5069437631303, -5153.954643482523, -5703.22641172724, -14427.291086589228, -12670.980414269021, -18699.335300843155, -8960.792000388146, -4004.672647079545, -9690.10707022036, -8891.300426876596, -8971.654948193425, 0.012, -0.024, 0.996, 192.0, 0.0, 0.0, 0.0, 0.0, 0.0, 0.0, 0.0, 0.0, 0.0, 1.6444984527987332E9, 0.0, 2022-02-11 00:07:32.798
134.0, -5295.999979496, -7130.586460898693, -8214.489604769899, -13762.572558232852, -906.8326242962628, -1360.3942227833538, -5159.184951685065, -5707.137967006918, -14429.325095334661, -12669.79577181289, -18693.32268158468, -8949.817293860591, -4010.484100637925, -9686.575494596422, -8896.441328101317, -8975.767669173201, 0.012, -0.024, 0.996, 192.0, 0.0, 0.0, 0.0, 0.0, 0.0, 0.0, 0.0, 0.0, 0.0, 1.6444984527987475E9, 0.0, 2022-02-11 00:07:32.798
136.0, -5322.129168764254, -7153.117019309643, -8229.264107854857, -13771.289738570422, -919.7742843358857, -1376.4204235578088, -5176.820478060303, -5729.221490528762, -14440.255098373307, -12688.32536796634, -18701.36930958859, -8960.68024166587, -4020.6317926206343, -9696.343206923391, -8905.158508438886, -8987.479983267784, 0.012, -0.024, 0.994, 192.0, 0.0, 48.0, 127.5, 32.0, 15.5, 8.0, 0.0, 0.0, 0.0, 1.6444984527987545E9, 0.0, 2022-02-11 00:07:32.798
138.0, -5310.0815785028435, -7138.2531092468635, -8228.951183432482, -13769.3004333139, -911.6829528430645, -1359.4107460273203, -5174.317082681308, -5715.4528159442925, -14435.42712157096, -12685.374937698238, -18709.99708294834, -8964.368279500995, -4017.122568741151, -9692.968093510639, -8910.232354430242, -8988.530515257182, 0.012, -0.024, 0.994, 192.0, 0.0, 0.0, 0.0, 0.0, 0.0, 0.0, 0.0, 0.0, 0.0, 1.6444984527987611E9, 0.0, 2022-02-11 00:07:32.798
140.0, -5319.1787384961535, -7148.780780885313, -8227.744189231895, -13779.53753227443, -919.7295808469751, -1362.003548384136, -5175.702890837538, -5720.817234613566, -14443.38434259705, -12684.994958042498, -18701.637530522054, -8964.122410311988, -4019.670667609056, -9676.740727036087, -8907.125461950955, -8986.16123034492, 0.012, -0.024, 0.994, 192.0, 0.0, 0.0, 0.0, 0.0, 0.0, 0.0, 0.0, 0.0, 0.0, 1.644498452798768E9, 0.0, 2022-02-11 00:07:32.798
142.0, -5328.700581634114, -7156.693298422492, -8239.769427748852, -13781.280968341944, -931.7548193639302, -1377.3815485693872, -5176.172277471099, -5729.355600995494, -14451.855653745612, -12680.345795195795, -18717.574324318688, -8976.885256395968, -4026.3761909456484, -9713.06231177596, -8914.345075410018, -8999.862849696023, 0.012, -0.024, 0.994, 192.0, 0.0, 0.0, 0.0, 0.0, 0.0, 0.0, 0.0, 0.0, 0.0, 1.6444984527987747E9, 0.0, 2022-02-11 00:07:32.798
144.0, -5322.844424586824, -7155.553359455271, -8238.607137037176, -13785.1031166438, -925.116351260704, -1369.804307199038, -5179.435632161574, -5725.935784093832, -14456.236595658851, -12693.08628953532, -18713.32749287218, -8990.519820513704, -4033.126417771151, -9719.052579289983, -8916.848470789013, -9002.54505903066, 0.012, -0.024, 0.994, 192.0, 0.0, 0.0, 0.0, 0.0, 0.0, 0.0, 0.0, 0.0, 0.0, 1.6444984527987816E9, 0.0, 2022-02-11 00:07:32.798
146.0, -5337.395410227229, -7177.815696932757, -8254.767448278362, -13793.462669070086, -945.0764590592933, -1385.5399352955742, -5211.040998821378, -5748.555749482603, -14465.646680074535, -12704.329216996339, -18725.486841855865, -8991.346835058552, -4039.7648858743773, -9708.077872762427, -8920.782377813146, -9010.345817845562, 0.008, -0.026000000000000002, 0.992, 192.0, 0.0, 32.0, 127.5, 24.0, 15.5, 0.0, 0.0, 0.0, 0.0, 1.6444984527987883E9, 0.0, 2022-02-11 00:07:32.798
148.0, -5335.719029393081, -7172.495981752394, -8251.168817421058, -13796.100174915813, -937.856845600229, -1384.6235137729066, -5180.955550784534, -5746.477037248259, -14466.741915552846, -12699.23301926053, -18734.22637393789, -8983.836648921568, -4041.1506940306062, -9720.393683957302, -8932.695857607825, -9018.995942949765, 0.008, -0.026000000000000002, 0.992, 192.0, 0.0, 0.0, 0.0, 0.0, 0.0, 0.0, 0.0, 0.0, 0.0, 1.6444984527987952E9, 0.0, 2022-02-11 00:07:32.798
150.0, -5355.477971491572, -7171.490153251905, -8255.058020956281, -13809.086538444346, -941.3660694797122, -1384.8470312174597, -5201.74267312797, -5749.271005305172, -14477.649566847036, -12702.384615228728, -18723.005798221326, -8992.196201347853, -4044.5258074433577, -9726.808634615974, -8933.075837263565, -9022.683980784892, 0.008, -0.026000000000000002, 0.992, 192.0, 0.0, 0.0, 0.0, 0.0, 0.0, 0.0, 0.0, 0.0, 0.0, 1.644498452798802E9, 0.0, 2022-02-11 00:07:32.798
152.0, -5373.716994967102, -7195.652389008092, -8272.000643253403, -13819.770672293982, -949.8597323727289, -1397.9228017238142, -5195.595943402761, -5758.792848443133, -14488.646625119047, -12708.687807165124, -18749.00087702285, -9004.512012542727, -4041.865949853176, -9725.221660759647, -8946.933918825856, -9033.792797779179, 0.008, -0.026000000000000002, 0.992, 192.0, 0.0, 0.0, 0.0, 0.0, 0.0, 0.0, 0.0, 0.0, 0.0, 1.6444984527988086E9, 0.0, 2022-02-11 00:07:32.798
154.0, -5363.725765195581, -7190.466784294461, -8257.896692502105, -13817.177869937166, -941.0978485462485, -1386.1657841403228, -5205.006027818445, -5762.346775811527, -14490.144191997551, -12721.383598015738, -18746.94451653296, -9006.411910821427, -4050.650185424112, -9734.095303308404, -8948.00680255971, -9039.492492615282, 0.006, -0.028, 0.994, 192.0, 0.0, 16.0, 127.5, 8.0, 15.5, 16.0, 0.0, 0.0, 0.0, 1.6444984527988155E9, 0.0, 2022-02-11 00:07:32.798
156.0, -5383.909390438723, -7197.775804731346, -8277.968559022971, -13827.996114253536, -959.403927255145, -1407.7128657952387, -5228.341249029786, -5773.880275950465, -14493.385194943572, -12719.7519206705, -18748.017400266817, -9012.916268457922, -4050.091391812729, -9734.162358541771, -8953.728849140269, -9045.147483962475, 0.006, -0.028, 0.994, 192.0, 0.0, 0.0, 0.0, 0.0, 0.0, 0.0, 0.0, 0.0, 0.0, 1.6444984527988224E9, 0.0, 2022-02-11 00:07:32.798
158.0, -5384.132907883276, -7205.353046101695, -8280.337843935233, -13827.97376250908, -958.599264454754, -1404.4718628492192, -5219.93699311459, -5778.685901008356, -14503.644645648557, -12738.125054612763, -18770.346792977667, -9020.314695872628, -4057.4004122496144, -9743.952422613194, -8968.212779547308, -9054.311699189151, 0.006, -0.028, 0.994, 192.0, 0.0, 0.0, 0.0, 0.0, 0.0, 0.0, 0.0, 0.0, 0.0, 1.6444984527988293E9, 0.0, 2022-02-11 00:07:32.798
160.0, -5389.340864341362, -7215.098406684209, -8284.204695726, -13841.205995226623, -970.7362616939857, -1416.9441362552807, -5243.383973048208, -5803.809261776121, -14517.212154532928, -12751.379639074761, -18766.65875514254, -9023.935678474389, -4070.744403689433, -9756.067068107972, -8970.515009226205, -9062.715955104346, 0.006, -0.028, 0.994, 192.0, 0.0, 0.0, 0.0, 0.0, 0.0, 0.0, 0.0, 0.0, 0.0, 1.6444984527988358E9, 0.0, 2022-02-11 00:07:32.798
162.0, -5406.842280249868, -7231.728104558958, -8303.985989568948, -13851.890129076259, -984.0131979004382, -1425.6613165928504, -5247.295528327886, -5793.818032004599, -14523.716512169423, -12756.587595532847, -18788.317595519733, -9036.363248391539, -4074.320682802282, -9772.585007260443, -8986.608265234026, -9076.775202366734, 0.006, -0.028, 0.994, 192.0, 0.0, 0.0, 0.0, 0.0, 0.0, 0.0, 0.0, 0.0, 0.0, 1.6444984527988424E9, 0.0, 2022-02-11 00:07:32.798
164.0, -5401.16493715822, -7233.873872026667, -8306.511736692397, -13847.822111585392, -971.2280000720025, -1413.5690228425292, -5239.025382879422, -5794.4662325938025, -14527.493956982371, -12754.017144920486, -18793.25733104436, -9038.821940281623, -4081.897924172631, -9772.786172960541, -8988.284646068174, -9077.982196567322, 0.005, -0.027000000000000003, 0.993, 192.0, 0.0, 16.0, 127.5, 24.0, 15.5, 0.0, 0.0, 0.0, 0.0, 1.644498452798849E9, 0.0, 2022-02-11 00:07:32.798
166.0, -5424.947193258667, -7237.897186028623, -8311.719693150484, -13854.058248288424, -986.9412764240833, -1425.415447403842, -5257.152647632676, -5806.402064132937, -14537.999276876364, -12773.440810852147, -18789.90456937606, -9034.418646623928, -4082.3449590617374, -9760.02332687656, -8989.066957124109, -9083.03369081422, 0.005, -0.027000000000000003, 0.993, 192.0, 0.0, 0.0, 0.0, 0.0, 0.0, 0.0, 0.0, 0.0, 0.0, 1.644498452798858E9, 0.0, 2022-02-11 00:07:32.798
168.0, -5419.40396063375, -7227.928308001556, -8309.305704749311, -13855.488759933563, -979.7663664539298, -1411.2667931636327, -5260.840685467802, -5802.2669914087055, -14540.50267225536, -12770.088049183852, -18797.839438657695, -9046.957975263354, -4087.3741015641813, -9762.839646677929, -8998.477041539794, -9088.755737394778, 0.005, -0.027000000000000003, 0.993, 192.0, 0.0, 0.0, 0.0, 0.0, 0.0, 0.0, 0.0, 0.0, 0.0, 1.6444984527988648E9, 0.0, 2022-02-11 00:07:32.798
170.0, -5421.236803679086, -7235.930232516555, -8317.50879496441, -13863.26716700401, -984.2590670894465, -1427.3600491714537, -5262.114734901755, -5802.62461931999, -14546.381181047105, -12768.590482305346, -18787.222360041425, -9044.432228139905, -4091.1068428882177, -9785.057280666504, -8996.890067683467, -9093.270789774751, 0.005, -0.027000000000000003, 0.993, 192.0, 0.0, 0.0, 0.0, 0.0, 0.0, 0.0, 0.0, 0.0, 0.0, 1.644498452798872E9, 0.0, 2022-02-11 00:07:32.798
172.0, -5428.344658415873, -7254.7056978590135, -8328.975239869982, -13869.41389672922, -992.0374741598933, -1432.3891916738978, -5262.51706630195, -5804.85979376552, -14553.64549799508, -12788.90821801522, -18817.330159822723, -9066.51575166175, -4095.7336539904663, -9789.03589117955, -9006.344855588062, -9102.36794976806, 0.005, -0.027000000000000003, 0.993, 192.0, 0.0, 0.0, 0.0, 0.0, 0.0, 0.0, 0.0, 0.0, 0.0, 1.6444984527988787E9, 0.0, 2022-02-11 00:07:32.798
174.0, -5435.385457919295, -7247.217863466485, -8323.342600267244, -13868.564530439919, -979.6322559871979, -1418.3746479004203, -5262.204141879576, -5802.781081531177, -14554.87484394012, -12797.312473930417, -18808.47886901842, -9062.60419638207, -4097.365331335704, -9778.865847452385, -9002.053320652643, -9099.126946822042, 0.0045000000000000005, -0.0235, 0.9904999999999999, 192.0, 0.0, 16.0, 127.5, 48.0, 15.0, 112.0, 0.0, 0.0, 0.0, 1.6444984527988856E9, 0.0, 2022-02-11 00:07:32.798
176.0, -5448.707097614658, -7251.107067001709, -8335.032562617369, -13878.578111955896, -992.0151224154381, -1431.830398062515, -5261.533589545917, -5811.632372335479, -14566.721268501435, -12798.184191964174, -18814.424433043532, -9059.519655647237, -4099.041712169852, -9779.290530597036, -9009.384692833984, -9105.608952714081, 0.0045000000000000005, -0.0235, 0.9904999999999999, 192.0, 0.0, 0.0, 0.0, 0.0, 0.0, 0.0, 0.0, 0.0, 0.0, 1.6444984527988923E9, 0.0, 2022-02-11 00:07:32.798
178.0, -5453.378612205817, -7259.19839849453, -8331.903318393626, -13878.242835789066, -995.211421872547, -1422.8226450470263, -5265.512200058961, -5812.034703735674, -14569.112905158152, -12793.065642483907, -18825.332084337722, -9061.374850437029, -4099.6675610146, -9778.642330007831, -9014.9279254589, -9110.66044696098, 0.0045000000000000005, -0.0235, 0.9904999999999999, 192.0, 0.0, 0.0, 0.0, 0.0, 0.0, 0.0, 0.0, 0.0, 0.0, 1.6444984527988987E9, 0.0, 2022-02-11 00:07:32.798
180.0, -5465.269740256041, -7275.045785313343, -8343.682687721574, -13899.409937788241, -1000.5087853084548, -1441.5534069005737, -5285.7852322799245, -5833.782951090688, -14583.97681522093, -12807.460165913126, -18825.712063993462, -9067.70039411788, -4109.882308230675, -9792.4110045923, -9016.492547570771, -9117.813005186677, 0.0045000000000000005, -0.0235, 0.9904999999999999, 192.0, 0.0, 0.0, 0.0, 0.0, 0.0, 0.0, 0.0, 0.0, 0.0, 1.6444984527989056E9, 0.0, 2022-02-11 00:07:32.798
182.0, -5478.300807273485, -7276.990387080955, -8357.831341961783, -13905.55666751345, -1012.1316924252144, -1441.441648178297, -5290.590857337816, -5829.267898710716, -14592.515181602857, -12824.40278821025, -18849.471968349455, -9099.08224333313, -4118.510081590424, -9797.015463950094, -9029.255393654752, -9133.99566817232, 0.0045000000000000005, -0.0235, 0.9904999999999999, 192.0, 0.0, 0.0, 0.0, 0.0, 0.0, 0.0, 0.0, 0.0, 0.0, 1.6444984527989123E9, 0.0, 2022-02-11 00:07:32.798
184.0, -5468.622501924337, -7283.852372628734, -8350.209397102522, -13899.298179065965, -1000.5534887973654, -1433.0150405186464, -5273.312958873864, -5822.495320140758, -14593.588065336713, -12825.475671944103, -18842.58763105722, -9085.537086193215, -4118.800654268343, -9805.240905909646, -9026.014390708731, -9126.932516924444, 0.00625, -0.02475, 0.98725, 192.0, 0.0, 32.0, 127.5, 24.0, 15.0, 96.0, 0.0, 0.0, 0.0, 1.6444984527989192E9, 0.0, 2022-02-11 00:07:32.798
186.0, -5488.850830656389, -7286.981616852477, -8367.308481610833, -13909.021187904023, -1024.2910414089015, -1453.221017506244, -5294.9941509955115, -5841.159026760939, -14603.22166719695, -12832.404712725249, -18843.951087468995, -9084.643016415002, -4120.208814169027, -9819.94835376124, -9029.613021566036, -9136.454360062404, 0.00625, -0.02475, 0.98725, 192.0, 0.0, 0.0, 0.0, 0.0, 0.0, 0.0, 0.0, 0.0, 0.0, 1.6444984527989268E9, 0.0, 2022-02-11 00:07:32.798
188.0, -5488.381444022828, -7299.342131536261, -8374.66220553663, -13913.670350750728, -1015.9761924715273, -1453.0645552950568, -5282.47717410054, -5841.96368956133, -14613.257600457384, -12839.601974439856, -18865.855797035194, -9104.8489934026, -4126.981392738985, -9818.674304327287, -9043.31464091714, -9146.467941578381, 0.00625, -0.02475, 0.98725, 192.0, 0.0, 0.0, 0.0, 0.0, 0.0, 0.0, 0.0, 0.0, 0.0, 1.6444984527989335E9, 0.0, 2022-02-11 00:07:32.798
190.0, -5500.2055168396855, -7317.06706488932, -8374.03635669188, -13921.046426420979, -1025.0510007203818, -1456.7302413857271, -5298.9280580196455, -5842.433076194892, -14622.578277895247, -12850.174349567218, -18862.05600047779, -9094.589542697615, -4132.479921874991, -9820.641257839354, -9043.381696150505, -9147.518473567781, 0.00625, -0.02475, 0.98725, 192.0, 0.0, 0.0, 0.0, 0.0, 0.0, 0.0, 0.0, 0.0, 0.0, 1.6444984527989404E9, 0.0, 2022-02-11 00:07:32.798
192.0, -5509.23562159963, -7323.25849810344, -8391.1801446891, -13928.020170691034, -1039.601986360787, -1462.8546193664813, -5316.675343117159, -5862.035556082196, -14636.32460073526, -12858.958585138153, -18885.234759477946, -9114.415540029471, -4149.556654638845, -9825.960973019717, -9060.905463803467, -9159.588415573648, 0.00625, -0.02475, 0.98725, 192.0, 0.0, 0.0, 0.0, 0.0, 0.0, 0.0, 0.0, 0.0, 0.0, 1.644498452798947E9, 0.0, 2022-02-11 00:07:32.798
194.0, -5502.395987796305, -7321.470358547015, -8389.146135943667, -13933.988086460602, -1036.1598177146695, -1457.7807733751267, -5312.406159926196, -5856.49232345728, -14633.597687911713, -12866.602881741868, -18874.707087839495, -9122.171595355463, -4149.400192427658, -9823.502281129633, -9065.867551072544, -9163.589377831147, 0.006125, -0.025375, 0.985625, 192.0, 0.0, 24.0, 127.5, 24.0, 15.0, 96.0, 0.0, 0.0, 0.0, 1.6444984527989545E9, 0.0, 2022-02-11 00:07:32.798
196.0, -5525.1500636518085, -7324.174919626108, -8403.048920994868, -13947.510891856062, -1054.600006890298, -1470.3424537590092, -5326.308944977396, -5865.947111361875, -14647.23225202945, -12877.93521618071, -18885.100649011212, -9131.604031515602, -4163.772364112421, -9830.5207288886, -9070.472010430338, -9173.938235513955, 0.006125, -0.025375, 0.985625, 192.0, 0.0, 0.0, 0.0, 0.0, 0.0, 0.0, 0.0, 0.0, 0.0, 1.6444984527989612E9, 0.0, 2022-02-11 00:07:32.798
198.0, -5522.892537461822, -7317.335285822784, -8401.618409349729, -13945.253365666076, -1049.6826231101302, -1467.5931891910063, -5322.19622399762, -5872.965559120841, -14649.065095074786, -12879.633948759312, -18895.561265416298, -9131.246403604318, -4160.0619745328395, -9840.288441215569, -9079.636225657014, -9179.123840227585, 0.006125, -0.025375, 0.985625, 192.0, 0.0, 0.0, 0.0, 0.0, 0.0, 0.0, 0.0, 0.0, 0.0, 1.6444984527989695E9, 0.0, 2022-02-11 00:07:32.798
200.0, -5537.063543446487, -7342.8162745018335, -8408.301580941867, -13959.826703050936, -1054.9799865460382, -1477.0479770956013, -5331.651011902215, -5871.088012586595, -14662.610252214701, -12881.26562610455, -18890.733288613952, -9129.458264047893, -4167.1027740362615, -9835.616926624409, -9076.618740155547, -9182.901285040532, 0.006125, -0.025375, 0.985625, 192.0, 0.0, 0.0, 0.0, 0.0, 0.0, 0.0, 0.0, 0.0, 0.0, 1.644498452798977E9, 0.0, 2022-02-11 00:07:32.798
202.0, -5548.038249974043, -7361.50233286647, -8426.160624761656, -13964.632328108828, -1068.882771597239, -1489.6990644573052, -5352.39343075674, -5884.342597048592, -14675.306043065315, -12903.84088800441, -18921.31047502881, -9153.128761426064, -4175.2611607624485, -9869.457467729744, -9089.918028106455, -9196.759366602822, 0.006125, -0.025375, 0.985625, 192.0, 0.0, 0.0, 0.0, 0.0, 0.0, 0.0, 0.0, 0.0, 0.0, 1.6444984527989836E9, 0.0, 2022-02-11 00:07:32.798
204.0, -5543.210273171696, -7350.0358879608975, -8410.782624576404, -13969.639118866817, -1058.8915418257168, -1483.1500033319, -5333.774427625469, -5883.314416803649, -14672.936758153053, -12898.096489679396, -18910.40282373462, -9160.728354540868, -4181.363186998748, -9870.642110185876, -9094.410728741972, -9202.235543994373, 0.0060625, -0.0226875, 0.9848125, 192.0, 0.0, 24.0, 127.5, 48.0, 15.0, 96.0, 0.0, 0.0, 0.0, 1.6444984527989905E9, 0.0, 2022-02-11 00:07:32.798
206.0, -5559.035308246053, -7358.238978175996, -8428.865185840748, -13980.47971492764, -1072.3249402433564, -1493.7223784592604, -5354.270977290986, -5893.842088442098, -14681.698641979534, -12899.83992574691, -18918.36004476071, -9152.10058118112, -4184.313617266848, -9876.006528855149, -9098.478746232837, -9208.44932895295, 0.0060625, -0.0226875, 0.9848125, 192.0, 0.0, 0.0, 0.0, 0.0, 0.0, 0.0, 0.0, 0.0, 0.0, 1.6444984527989972E9, 0.0, 2022-02-11 00:07:32.798
208.0, -5562.186904214252, -7365.257425934962, -8428.865185840748, -13980.345604460908, -1066.334672729334, -1488.2014975787995, -5369.9171984097, -5894.669102986944, -14686.481915292969, -12913.809766031476, -18929.200640821535, -9162.38238363056, -4182.056091076862, -9863.28838626008, -9111.42040627246, -9214.81957612271, 0.0060625, -0.0226875, 0.9848125, 192.0, 0.0, 0.0, 0.0, 0.0, 0.0, 0.0, 0.0, 0.0, 0.0, 1.644498452799004E9, 0.0, 2022-02-11 00:07:32.799
210.0, -5572.9157415528, -7372.74526032749, -8430.3404009748, -13986.090002785922, -1069.7321378865406, -1494.2811720706432, -5354.472142991083, -5901.911068190464, -14697.546028798346, -12925.566783614968, -18922.405710507122, -9152.122932925575, -4185.364149256247, -9862.640185670876, -9108.335865537629, -9215.646590667557, 0.0060625, -0.0226875, 0.9848125, 192.0, 0.0, 0.0, 0.0, 0.0, 0.0, 0.0, 0.0, 0.0, 0.0, 1.6444984527990108E9, 0.0, 2022-02-11 00:07:32.799
212.0, -5590.975951072687, -7367.000862002476, -8443.90790985917, -13996.237694768632, -1081.1538793032025, -1508.1392536329333, -5351.968747612089, -5913.846899729598, -14707.984293458974, -12940.117769255374, -18945.11508287371, -9178.587398360658, -4196.607076717267, -9879.359290523445, -9114.907278407489, -9228.25297454035, 0.0060625, -0.0226875, 0.9848125, 192.0, 0.0, 0.0, 0.0, 0.0, 0.0, 0.0, 0.0, 0.0, 0.0, 1.6444984527990177E9, 0.0, 2022-02-11 00:07:32.799
214.0, -5576.24615147664, -7379.339024941805, -8447.037154082913, -14001.043319826524, -1070.6709111536636, -1497.0974918720117, -5354.807419157913, -5903.207469368872, -14709.191287659562, -12923.733940569633, -18942.254059583433, -9185.181162974974, -4201.949143642085, -9877.682909689298, -9122.193947099919, -9235.45023625496, 0.00603125, -0.025343749999999998, 0.9864062499999999, 192.0, 0.0, 24.0, 127.5, 16.0, 15.0, 112.0, 0.0, 0.0, 0.0, 1.6444984527990243E9, 0.0, 2022-02-11 00:07:32.799
216.0, -5590.0148260611095, -7392.951237315087, -8452.066296585357, -14005.021930339568, -1085.847745638817, -1508.5862885220395, -5384.82581196139, -5914.897431718998, -14718.690779053066, -12927.55608887149, -18945.11508287371, -9188.91390429901, -4205.88305066622, -9887.115345849437, -9128.765359969779, -9238.914756645532, 0.00603125, -0.025343749999999998, 0.9864062499999999, 192.0, 0.0, 0.0, 0.0, 0.0, 0.0, 0.0, 0.0, 0.0, 0.0, 1.6444984527990313E9, 0.0, 2022-02-11 00:07:32.799
218.0, -5585.7903463590565, -7392.615961148258, -8451.976889607537, -14003.993750094623, -1080.3939199917222, -1503.445387297319, -5366.519733252494, -5915.746798008299, -14717.461433108025, -12948.454969937202, -18955.41923706761, -9182.700119340434, -4204.206669832071, -9887.517677249632, -9134.599165272613, -9244.010954381341, 0.00603125, -0.025343749999999998, 0.9864062499999999, 192.0, 0.0, 0.0, 0.0, 0.0, 0.0, 0.0, 0.0, 0.0, 0.0, 1.644498452799038E9, 0.0, 2022-02-11 00:07:32.799
220.0, -5584.806869603022, -7383.965836044054, -8455.91079663167, -14008.77702340806, -1081.2432862810238, -1510.1285588894557, -5373.560532755916, -5923.6593155454775, -14720.814194776322, -12945.728057113654, -18948.937231175572, -9189.360939188116, -4210.956896657574, -9906.695473992286, -9132.14047338253, -9247.654288727557, 0.00603125, -0.025343749999999998, 0.9864062499999999, 192.0, 0.0, 0.0, 0.0, 0.0, 0.0, 0.0, 0.0, 0.0, 0.0, 1.6444984527990448E9, 0.0, 2022-02-11 00:07:32.799
222.0, -5620.860233409433, -7409.178603789641, -8470.52883750544, -14024.06561661549, -1093.7602631759958, -1512.408436823897, -5386.323378839896, -5923.771074267755, -14724.748101800455, -12961.731906143656, -18963.84584472726, -9194.658302624024, -4215.583707759823, -9903.342712323989, -9140.343563597628, -9254.315108575238, 0.00603125, -0.025343749999999998, 0.9864062499999999, 192.0, 0.0, 0.0, 0.0, 0.0, 0.0, 0.0, 0.0, 0.0, 0.0, 1.6444984527990515E9, 0.0, 2022-02-11 00:07:32.799
224.0, -5617.9545066302435, -7417.046417837909, -8464.605625224785, -14024.110320104399, -1089.8040044074064, -1515.381218836453, -5395.107614410832, -5934.254042417293, -14740.796654319365, -12964.414115478292, -18968.673821529606, -9202.034378294275, -4216.187204860116, -9896.637188987397, -9147.250252634318, -9259.813637711244, 0.01, -0.03, 0.988, 192.0, 0.0, 40.0, 127.5, 8.0, 15.0, 112.0, 0.0, 0.0, 0.0, 1.6444984527990584E9, 0.0, 2022-02-11 00:07:32.799
226.0, -5634.360687060438, -7429.004601121498, -8479.402480054197, -14031.486395774651, -1103.88560341425, -1515.6941432588271, -5412.83254776389, -5945.362859411581, -14751.570195146824, -12968.37037424688, -18971.020754697412, -9206.884706841076, -4229.21827187756, -9912.216354872746, -9152.838188748145, -9266.161533136552, 0.01, -0.03, 0.988, 192.0, 0.0, 0.0, 0.0, 0.0, 0.0, 0.0, 0.0, 0.0, 0.0, 1.644498452799065E9, 0.0, 2022-02-11 00:07:32.799
228.0, -5626.336410800983, -7416.219403293062, -8473.054584628891, -14039.220099356187, -1101.9410016466381, -1507.3345908325423, -5396.40401558924, -5934.678725561944, -14745.91520379963, -12984.754202932621, -18979.313251890333, -9211.73503538788, -4224.725571242043, -9901.979255912216, -9161.734183041357, -9269.35783259366, 0.01, -0.03, 0.988, 192.0, 0.0, 0.0, 0.0, 0.0, 0.0, 0.0, 0.0, 0.0, 0.0, 1.644498452799072E9, 0.0, 2022-02-11 00:07:32.799
230.0, -5628.839806179978, -7419.929792872643, -8477.882561431237, -14047.289079104554, -1096.4424725106326, -1515.247108369721, -5392.090128909365, -5944.692307077922, -14754.833549837298, -12977.199313306728, -18973.121818676213, -9212.718512143912, -4230.671135267155, -9902.091014634492, -9155.699212038424, -9268.620225026634, 0.01, -0.03, 0.988, 192.0, 0.0, 0.0, 0.0, 0.0, 0.0, 0.0, 0.0, 0.0, 0.0, 1.644498452799081E9, 0.0, 2022-02-11 00:07:32.799
232.0, -5663.149733918874, -7454.195017122629, -8496.881544218248, -14051.11122740641, -1115.2402895975458, -1525.4842073302518, -5419.538071100482, -5955.868179305575, -14769.7868668779, -13001.942694418753, -18999.51922887793, -9230.421093752515, -4234.448580080102, -9927.77316901364, -9167.657395322012, -9283.126507178129, 0.01, -0.03, 0.988, 192.0, 0.0, 0.0, 0.0, 0.0, 0.0, 0.0, 0.0, 0.0, 0.0, 1.6444984527990875E9, 0.0, 2022-02-11 00:07:32.799
234.0, -5658.12059141643, -7446.573072263369, -8496.032177928946, -14052.899366962834, -1107.3948272937332, -1513.0119339241903, -5403.802443003946, -5937.495045363313, -14772.983166335007, -13000.489831029157, -18998.491048632986, -9224.430826238493, -4238.203673148593, -9918.67600902033, -9173.602959347125, -9282.679472289023, 0.012, -0.03, 0.982, 192.0, 0.0, 48.0, 127.5, 8.0, 15.0, 88.0, 0.0, 0.0, 0.0, 1.6444984527990944E9, 0.0, 2022-02-11 00:07:32.799
236.0, -5679.399452137882, -7454.083258400352, -8511.723102536573, -14064.946957224245, -1123.7116007461073, -1531.6756405443718, -5413.592507075371, -5960.316176452181, -14787.422393253137, -13012.448014312748, -19001.016795756437, -9240.30056480176, -4245.959728474585, -9930.790654515107, -9174.921712269988, -9289.675568303534, 0.012, -0.03, 0.982, 192.0, 0.0, 0.0, 0.0, 0.0, 0.0, 0.0, 0.0, 0.0, 0.0, 1.6444984527991014E9, 0.0, 2022-02-11 00:07:32.799
238.0, -5675.577303836025, -7462.174589893173, -8520.373227640775, -14065.461047346718, -1128.2937083594452, -1525.5289108191623, -5420.700361812158, -5961.970205541874, -14793.636178211711, -13002.367377563403, -19023.279133233922, -9251.8340649407, -4246.630280808244, -9946.548634356099, -9192.937218300965, -9302.281952176327, 0.012, -0.03, 0.982, 192.0, 0.0, 0.0, 0.0, 0.0, 0.0, 0.0, 0.0, 0.0, 0.0, 1.6444984527991085E9, 0.0, 2022-02-11 00:07:32.799
240.0, -5686.820231297044, -7488.415537883704, -8514.025332215468, -14066.243358402653, -1126.5949757808419, -1523.6513642849166, -5422.756722302047, -5966.46290617739, -14803.873277172243, -13015.912534703319, -19013.220848229033, -9244.189768336984, -4256.4426966241235, -9940.133683697424, -9191.86433456711, -9302.349007409694, 0.012, -0.03, 0.982, 192.0, 0.0, 0.0, 0.0, 0.0, 0.0, 0.0, 0.0, 0.0, 0.0, 1.6444984527991152E9, 0.0, 2022-02-11 00:07:32.799
242.0, -5717.777397367644, -7514.991762041064, -8526.83288178836, -14075.608739329427, -1134.753362507029, -1531.7426957777377, -5428.1211409713205, -5968.787487600743, -14817.038454656418, -13048.411971141335, -19032.57745892733, -9242.491035758381, -4260.153086203705, -9933.942250483306, -9194.926523557488, -9309.948600524498, 0.012, -0.03, 0.982, 192.0, 0.0, 0.0, 0.0, 0.0, 0.0, 0.0, 0.0, 0.0, 0.0, 1.6444984532796974E9, 0.0, 2022-02-11 00:07:33.279
244.0, -5718.202080512296, -7516.221107986106, -8523.524823608974, -14082.783649299581, -1126.885548458761, -1524.4560270853076, -5420.365085645329, -5964.3394904541365, -14823.386350081724, -13045.103912961951, -19033.002142071982, -9249.442428283981, -4261.98592924904, -9932.57879407153, -9197.944009058954, -9312.787272070322, 0.012, -0.028, 0.984, 192.0, 0.0, 48.0, 127.5, 16.0, 15.0, 96.0, 0.0, 0.0, 0.0, 1.644498453279707E9, 0.0, 2022-02-11 00:07:33.279
246.0, -5760.201008343817, -7544.987803100086, -8541.74149534005, -14098.921608796312, -1148.6784993026852, -1547.120695962989, -5446.717792358136, -5988.054691321217, -14843.301754391403, -13058.20203521276, -19045.87674687824, -9263.524027290825, -4270.837220053341, -9946.950965756294, -9203.219020750406, -9326.51124316588, 0.012, -0.028, 0.984, 192.0, 0.0, 0.0, 0.0, 0.0, 0.0, 0.0, 0.0, 0.0, 0.0, 1.6444984532797143E9, 0.0, 2022-02-11 00:07:33.279
248.0, -5780.4293370758705, -7567.540713255491, -8544.490759908052, -14099.189829729776, -1144.811647511917, -1541.577463338073, -5445.197873735175, -5987.361787243103, -14854.03059172995, -13075.211712743248, -19070.217796590066, -9291.150783437584, -4273.117097987783, -9950.63900359142, -9217.993523835365, -9338.536481682835, 0.012, -0.028, 0.984, 192.0, 0.0, 0.0, 0.0, 0.0, 0.0, 0.0, 0.0, 0.0, 0.0, 1.6444984532797213E9, 0.0, 2022-02-11 00:07:33.279
250.0, -5821.981230018286, -7599.771928760044, -8552.492684423052, -14106.945885055768, -1146.1304004347803, -1537.151817935922, -5454.563254661948, -5993.352054757125, -14872.448429161124, -13081.067869790539, -19070.016630889968, -9289.876734003632, -4282.0354440254505, -9951.957756514283, -9217.479433712893, -9338.46942644947, 0.012, -0.028, 0.984, 192.0, 0.0, 0.0, 0.0, 0.0, 0.0, 0.0, 0.0, 0.0, 0.0, 1.6444984532797277E9, 0.0, 2022-02-11 00:07:33.279
252.0, -5876.787707422699, -7646.621185138368, -8567.64716716375, -14116.020693304623, -1155.138153450269, -1540.0351929706567, -5454.563254661948, -5983.450231963424, -14897.169458528693, -13101.609122944967, -19102.40430860571, -9316.855289561188, -4286.37168244978, -9964.63119562044, -9223.313239015728, -9343.23034801845, 0.012, -0.028, 0.984, 192.0, 0.0, 0.0, 0.0, 0.0, 0.0, 0.0, 0.0, 0.0, 0.0, 1.644498453279735E9, 0.0, 2022-02-11 00:07:33.279
254.0, -5900.525260034235, -7696.6667409738, -8568.228312519588, -14125.743702142681, -1143.649356800241, -1532.7261725337712, -5451.255196482563, -5983.450231963424, -14908.166516800704, -13114.237858562215, -19110.853268009814, -9328.120568766662, -4288.740967362042, -9959.937329284827, -9225.011971594331, -9345.286708508338, 0.008, -0.028, 0.984, 192.0, 0.0, 32.0, 127.5, 16.0, 15.0, 96.0, 0.0, 0.0, 0.0, 1.6444984532797418E9, 0.0, 2022-02-11 00:07:33.279
0.0, -5937.293879663215, -7714.123453393395, -8574.687966667172, -14139.959411616257, -1158.5356186074757, -1548.7523733082264, -5458.899493086278, -6001.018703105296, -14926.606705976334, -13131.672219237355, -19117.82701227987, -9333.08265603574, -4292.18313600816, -9960.518474640665, -9224.855509383144, -9354.674441179568, 0.008, -0.028, 0.984, 192.0, 0.0, 0.0, 0.0, 0.0, 0.0, 0.0, 0.0, 0.0, 0.0, 1.6444984532797484E9, 0.0, 2022-02-11 00:07:33.279
2.0, -5938.612632586078, -7713.005866170629, -8581.1252690703, -14141.993420361689, -1160.2567029305344, -1545.824294784581, -5455.524379673527, -5994.246124535337, -14935.592107247367, -13141.93166994234, -19142.92802130318, -9372.980519888464, -4300.609743667811, -9975.382384703444, -9236.59017522218, -9363.145752328128, 0.008, -0.028, 0.984, 192.0, 0.0, 0.0, 0.0, 0.0, 0.0, 0.0, 0.0, 0.0, 0.0, 1.6444984532797554E9, 0.0, 2022-02-11 00:07:33.279
4.0, -5934.8128360286755, -7719.934906951775, -8581.706414426139, -14138.215975548743, -1153.5958830828529, -1544.4384866283522, -5459.927673331222, -5991.675673922977, -14940.867118938819, -13132.11925412646, -19132.668570598194, -9347.477179464959, -4303.604877424822, -9987.385271475945, -9231.426922253004, -9360.508246482403, 0.008, -0.028, 0.984, 192.0, 0.0, 0.0, 0.0, 0.0, 0.0, 0.0, 0.0, 0.0, 0.0, 1.6444984532797625E9, 0.0, 2022-02-11 00:07:33.279
6.0, -5949.363821669081, -7744.030087474595, -8600.37012104632, -14148.52012974264, -1169.6667873462186, -1555.8378763005587, -5467.236693768107, -5993.530868712767, -14946.991496919572, -13159.678955039853, -19148.69477137265, -9356.999022602919, -4307.47172921559, -9994.627236679464, -9241.999297380364, -9367.884322152653, 0.008, -0.028, 0.984, 192.0, 0.0, 0.0, 0.0, 0.0, 0.0, 0.0, 0.0, 0.0, 0.0, 1.6444984532797775E9, 0.0, 2022-02-11 00:07:33.279
8.0, -5937.204472685394, -7744.588881085978, -8595.184516332689, -14151.627022221926, -1166.6045983558415, -1550.406402397919, -5460.866446598345, -5998.291790281748, -14944.108121884838, -13159.298975384114, -19143.620925381296, -9356.730801669455, -4312.836147884864, -9977.572855660064, -9248.436599783492, -9370.253607064917, 0.006, -0.022, 0.988, 192.0, 0.0, 24.0, 127.5, 40.0, 15.0, 112.0, 0.0, 0.0, 0.0, 1.6444984532797844E9, 0.0, 2022-02-11 00:07:33.279
10.0, -5932.354144138592, -7727.512148322124, -8609.020246150523, -14159.18191184782, -1181.2226392296122, -1565.8514578165364, -5476.758536906068, -6015.14500560105, -14956.53569180199, -13162.338812630036, -19141.69867535814, -9353.020412089874, -4326.627174213788, -9990.514515699688, -9253.97983240841, -9382.748232215434, 0.006, -0.022, 0.988, 192.0, 0.0, 0.0, 0.0, 0.0, 0.0, 0.0, 0.0, 0.0, 0.0, 1.6444984532797909E9, 0.0, 2022-02-11 00:07:33.279
12.0, -5921.491196333313, -7700.421834042291, -8615.591659020383, -14160.254795581675, -1169.6220838573079, -1563.5939316265503, -5475.484487472116, -6013.960363144918, -14946.745627730565, -13154.627460792955, -19147.577184149886, -9366.565569229791, -4325.867214902308, -10003.143251316937, -9261.937053434498, -9389.476107296481, 0.006, -0.022, 0.988, 192.0, 0.0, 0.0, 0.0, 0.0, 0.0, 0.0, 0.0, 0.0, 0.0, 1.6444984532797973E9, 0.0, 2022-02-11 00:07:33.279
14.0, -5904.079187402629, -7682.115755333395, -8609.1320048728, -14166.51328402916, -1176.4840694050872, -1566.3878996834637, -5487.017987611054, -6021.828177193186, -14949.785464976487, -13148.860710723486, -19138.59178287885, -9355.054420835308, -4330.449322515646, -10000.975132104772, -9260.97592842292, -9389.14083112965, 0.006, -0.022, 0.988, 192.0, 0.0, 0.0, 0.0, 0.0, 0.0, 0.0, 0.0, 0.0, 0.0, 1.644498453279804E9, 0.0, 2022-02-11 00:07:33.279
16.0, -5916.752626508788, -7684.172115823283, -8620.509042800551, -14168.502589285683, -1189.4927846780759, -1579.5530771676395, -5502.686560474224, -6030.970040675407, -14960.313136614936, -13166.429181865356, -19161.815245367914, -9361.826999405266, -4336.774866196498, -10021.404626536922, -9273.381146595615, -9402.373063847192, 0.006, -0.022, 0.988, 192.0, 0.0, 0.0, 0.0, 0.0, 0.0, 0.0, 0.0, 0.0, 0.0, 1.6444984532798104E9, 0.0, 2022-02-11 00:07:33.279
18.0, -5900.50290828978, -7684.641502456845, -8610.964847918136, -14167.116781129454, -1181.1108805073359, -1572.7581468532262, -5494.036435370021, -6026.879671440086, -14952.087694655384, -13142.222242620259, -19153.83567259737, -9361.916406383087, -4338.004212141539, -10013.35799853301, -9274.878713474121, -9400.00377893493, 0.008, -0.024, 0.986, 192.0, 0.0, 32.0, 127.5, 32.0, 15.0, 104.0, 0.0, 0.0, 0.0, 1.644498453279817E9, 0.0, 2022-02-11 00:07:33.279
20.0, -5907.364893837559, -7683.367453022892, -8623.906507957758, -14179.030260924133, -1198.0535028044585, -1584.4257574588964, -5504.988790153121, -6044.828122237697, -14962.727125016108, -13167.636176065944, -19152.539271418962, -9365.783258173855, -4347.749572724053, -10012.21805956579, -9278.678510031523, -9408.028055194385, 0.008, -0.024, 0.986, 192.0, 0.0, 0.0, 0.0, 0.0, 0.0, 0.0, 0.0, 0.0, 0.0, 1.6444984532798235E9, 0.0, 2022-02-11 00:07:33.279
22.0, -5897.105443132573, -7665.553112692012, -8624.42059808023, -14177.867970212457, -1196.399473714766, -1579.8436498455585, -5502.150118607297, -6041.296546613758, -14958.189720891682, -13168.351431888514, -19161.79289362346, -9374.723955955978, -4343.838017444375, -10008.865297897495, -9284.445260100993, -9416.097034942752, 0.008, -0.024, 0.986, 192.0, 0.0, 0.0, 0.0, 0.0, 0.0, 0.0, 0.0, 0.0, 0.0, 1.6444984532798305E9, 0.0, 2022-02-11 00:07:33.279
24.0, -5888.656483728467, -7664.033194069051, -8627.0357521815, -14185.512266816171, -1201.9874098285925, -1582.5929144135612, -5516.254069358596, -6043.218796636916, -14963.688250027688, -13163.009364963695, -19151.578146407384, -9359.122438326172, -4351.616424514821, -10001.489222227243, -9283.662949045056, -9416.454662854036, 0.008, -0.024, 0.986, 192.0, 0.0, 0.0, 0.0, 0.0, 0.0, 0.0, 0.0, 0.0, 0.0, 1.644498453279837E9, 0.0, 2022-02-11 00:07:33.279
26.0, -5895.2502483427825, -7664.033194069051, -8642.145531433289, -14190.42965059634, -1222.327497282922, -1595.7133884088264, -5529.933336965244, -6045.901005971552, -14976.294633900481, -13177.470943626278, -19168.341954748867, -9375.6627292231, -4362.211151386637, -10038.660173256418, -9297.878658518632, -9428.39049439317, 0.008, -0.024, 0.986, 192.0, 0.0, 0.0, 0.0, 0.0, 0.0, 0.0, 0.0, 0.0, 0.0, 1.6444984532798433E9, 0.0, 2022-02-11 00:07:33.279
28.0, -5879.5146202462465, -7646.665888627278, -8642.1902349222, -14191.726051774747, -1210.7269419106176, -1585.2080685148321, -5496.875106915844, -6039.798979735253, -14972.271319898526, -13174.006423235705, -19167.11260880382, -9380.691871725545, -4364.379270598802, -10041.565900035608, -9300.493812619903, -9430.6256688387, 0.008, -0.024, 0.99, 192.0, 0.0, 32.0, 127.5, 32.0, 15.0, 120.0, 0.0, 0.0, 0.0, 1.64449845327985E9, 0.0, 2022-02-11 00:07:33.279
30.0, -5884.476707515324, -7639.356868190393, -8642.369048877841, -14195.90582798789, -1222.7074769386622, -1592.8076616296366, -5510.353208822395, -6055.288738642781, -14972.561892576445, -13161.020059707173, -19157.523710432495, -9373.315796055293, -4366.614445044333, -10037.65434475593, -9296.984588740419, -9427.474072870502, 0.008, -0.024, 0.99, 192.0, 0.0, 0.0, 0.0, 0.0, 0.0, 0.0, 0.0, 0.0, 0.0, 1.6444984532798567E9, 0.0, 2022-02-11 00:07:33.279
32.0, -5878.777012679221, -7647.738772361133, -8643.173711678233, -14197.71631928877, -1214.8396628903943, -1588.5831819275836, -5514.912964691278, -6057.568616577222, -14973.120686187827, -13165.378649875958, -19174.443980985165, -9369.672461709079, -4366.368575855324, -10038.079027900581, -9305.433548144525, -9440.415732910125, 0.008, -0.024, 0.99, 192.0, 0.0, 0.0, 0.0, 0.0, 0.0, 0.0, 0.0, 0.0, 0.0, 1.644498453279863E9, 0.0, 2022-02-11 00:07:33.279
34.0, -5872.742041676288, -7640.697972857711, -8645.878272757325, -14204.086566458533, -1214.2361657901008, -1590.1701557839103, -5513.728322235146, -6049.924319973507, -14978.06042171245, -13168.440838866334, -19166.442056470165, -9368.465467508491, -4367.106183422349, -10036.380295321977, -9309.658027846579, -9441.667430599622, 0.008, -0.024, 0.99, 192.0, 0.0, 0.0, 0.0, 0.0, 0.0, 0.0, 0.0, 0.0, 0.0, 1.6444984532798696E9, 0.0, 2022-02-11 00:07:33.279
36.0, -5889.304684317671, -7648.208158994694, -8655.735392062115, -14211.261476428686, -1230.8211601759388, -1601.79306290067, -5533.599023055915, -6064.698823058466, -14984.475372371124, -13185.629330352465, -19182.155332822244, -9392.180668375573, -4374.236389903592, -10048.070257672103, -9316.698827350001, -9451.882177815698, 0.008, -0.024, 0.99, 192.0, 0.0, 0.0, 0.0, 0.0, 0.0, 0.0, 0.0, 0.0, 0.0, 1.6444984532798765E9, 0.0, 2022-02-11 00:07:33.279
38.0, -5870.01512885274, -7639.245109468116, -8648.068743713946, -14209.272171172164, -1216.3148780244444, -1586.3927109709634, -5526.8040927415, -6057.00982296584, -14980.67557581372, -13186.143420474938, -19175.51686471902, -9376.959130401508, -4377.9467794831735, -10045.343344848556, -9321.862080319177, -9452.038640026885, 0.004, -0.024, 0.988, 192.0, 0.0, 16.0, 127.5, 32.0, 15.0, 112.0, 0.0, 0.0, 0.0, 1.6444984532799091E9, 0.0, 2022-02-11 00:07:33.279
40.0, -5877.659425456456, -7642.620222880867, -8660.272796186542, -14221.073892244565, -1226.619032218341, -1605.1905280578767, -5538.605813813903, -6075.874695286119, -14982.173142692227, -13188.445650153835, -19169.50424546054, -9381.362424059203, -4375.5998463153655, -10049.076086172592, -9324.052551275796, -9455.614919139734, 0.004, -0.024, 0.988, 192.0, 0.0, 0.0, 0.0, 0.0, 0.0, 0.0, 0.0, 0.0, 0.0, 1.6444984532799163E9, 0.0, 2022-02-11 00:07:33.279
42.0, -5878.620550468034, -7628.829196551943, -8668.118258490356, -14224.33724693504, -1231.134084598313, -1606.0622460916336, -5554.475552377171, -6084.7259860904205, -14991.96320676365, -13193.675958356376, -19194.337033550386, -9401.814270235809, -4385.904000509262, -10050.886577473471, -9341.308097995294, -9470.881160602708, 0.004, -0.024, 0.988, 192.0, 0.0, 0.0, 0.0, 0.0, 0.0, 0.0, 0.0, 0.0, 0.0, 1.6444984532799232E9, 0.0, 2022-02-11 00:07:33.279
44.0, -5858.34751824707, -7617.094530712907, -8663.938482277214, -14219.553973621605, -1223.8250641614277, -1599.8708128775136, -5551.122790708875, -6081.842611055686, -14991.762041063554, -13186.791621064142, -19180.791876410472, -9389.163182874106, -4385.456965620157, -10057.770914765706, -9340.481083450448, -9469.294186746381, 0.004, -0.024, 0.988, 192.0, 0.0, 0.0, 0.0, 0.0, 0.0, 0.0, 0.0, 0.0, 0.0, 1.64449845327993E9, 0.0, 2022-02-11 00:07:33.279
46.0, -5883.426175525925, -7642.597871136412, -8671.739241092115, -14229.969886537778, -1240.3206515694442, -1612.2313275612985, -5559.459991390704, -6099.545192664289, -14997.34997717738, -13186.724565830777, -19195.499324262062, -9390.884267197165, -4388.005064488061, -10062.308318890133, -9344.303231752305, -9478.234884528505, 0.005, -0.023, 0.993, 192.0, 0.0, 24.0, 127.5, 40.0, 15.5, 24.0, 0.0, 0.0, 0.0, 1.6444984532799373E9, 0.0, 2022-02-11 00:07:33.279
48.0, -5872.987910865297, -7631.421998908759, -8668.185313723721, -14224.650171357414, -1236.2749858230336, -1607.8727373925135, -5576.894352065844, -6092.079710016216, -14997.171163221738, -13189.630292609965, -19189.419649770218, -9387.978540417975, -4385.926352253718, -10063.291795646168, -9347.007792831397, -9481.006500840962, 0.005, -0.023, 0.993, 192.0, 0.0, 0.0, 0.0, 0.0, 0.0, 0.0, 0.0, 0.0, 0.0, 1.6444984532799444E9, 0.0, 2022-02-11 00:07:33.279
50.0, -5890.824602940632, -7639.915661801775, -8682.021043541556, -14238.508252919704, -1254.0446226650029, -1620.6355834764938, -5560.532875124559, -6094.717215861942, -15010.06811977245, -13212.80905161012, -19190.22431257061, -9400.651979524133, -4398.443329148689, -10069.840856771572, -9352.014583589385, -9487.309692777359, 0.005, -0.023, 0.993, 192.0, 0.0, 0.0, 0.0, 0.0, 0.0, 0.0, 0.0, 0.0, 0.0, 1.6444984532799513E9, 0.0, 2022-02-11 00:07:33.279
52.0, -5876.474783000324, -7634.283022199038, -8683.76447960907, -14231.780377838657, -1259.2749308675445, -1618.2662985642314, -5573.027500275076, -6095.119547262138, -15010.425747683734, -13205.388272450957, -19205.75877496705, -9402.14954640264, -4399.7844338160085, -10060.408420611433, -9365.716202940488, -9493.031739357917, 0.005, -0.023, 0.993, 192.0, 0.0, 0.0, 0.0, 0.0, 0.0, 0.0, 0.0, 0.0, 0.0, 1.644498453279958E9, 0.0, 2022-02-11 00:07:33.279
54.0, -5876.765355678243, -7625.543490117013, -8686.357281965886, -14238.262383730696, -1250.6695092522514, -1620.9261561544129, -5580.023596289587, -6115.6608004165655, -15011.073948272939, -13209.411586452912, -19188.972614881113, -9395.175802132584, -4411.384989188313, -10070.824333527606, -9365.202112818017, -9497.032701615417, 0.005, -0.023, 0.993, 192.0, 0.0, 0.0, 0.0, 0.0, 0.0, 0.0, 0.0, 0.0, 0.0, 1.6444984532799647E9, 0.0, 2022-02-11 00:07:33.279
56.0, -5898.6924169889, -7649.526911917557, -8701.020026328568, -14251.136988536953, -1274.004730463592, -1635.5441970281836, -5592.205297017729, -6114.967896338451, -15019.679369888232, -13225.326028505091, -19205.9822924116, -9424.233069924483, -4411.899079310784, -10069.907912004937, -9369.963034386998, -9508.253277331982, 0.006500000000000001, -0.0225, 0.9935, 192.0, 0.0, 32.0, 127.5, 40.0, 15.5, 8.0, 0.0, 0.0, 0.0, 1.6444984532799718E9, 0.0, 2022-02-11 00:07:33.279
58.0, -5887.248323827783, -7645.3471357044145, -8697.488450704628, -14247.448950701828, -1265.287550126022, -1626.8270166906138, -5582.348177712939, -6114.073826560239, -15026.541355436011, -13231.964496608318, -19214.073623904424, -9408.653904039134, -4420.2139282481585, -10072.590121339575, -9379.641339736145, -9513.483585534525, 0.006500000000000001, -0.0225, 0.9935, 192.0, 0.0, 0.0, 0.0, 0.0, 0.0, 0.0, 0.0, 0.0, 0.0, 1.6444984532799785E9, 0.0, 2022-02-11 00:07:33.279
60.0, -5902.492213546302, -7654.220778253171, -8709.692503177226, -14261.68701191986, -1277.0222159650584, -1636.8629499510469, -5589.143108027352, -6123.97564935394, -15034.185652039725, -13232.85856638653, -19211.36906282533, -9412.788976763366, -4423.432579449723, -10066.398688125455, -9382.43530779306, -9518.982114670529, 0.006500000000000001, -0.0225, 0.9935, 192.0, 0.0, 0.0, 0.0, 0.0, 0.0, 0.0, 0.0, 0.0, 0.0, 1.6444984532799973E9, 0.0, 2022-02-11 00:07:33.279
62.0, -5906.493175803802, -7654.109019530895, -8714.699293935215, -14267.476113733783, -1282.744262545617, -1632.8172842046363, -5597.279143009084, -6124.825015643241, -15039.907698620285, -13222.174432536893, -19231.642095046296, -9432.592622350767, -4426.695934140198, -10087.52108663572, -9390.593694519246, -9524.145367639705, 0.006500000000000001, -0.0225, 0.9935, 192.0, 0.0, 0.0, 0.0, 0.0, 0.0, 0.0, 0.0, 0.0, 0.0, 1.644498453280004E9, 0.0, 2022-02-11 00:07:33.280
64.0, -5907.990742682307, -7656.27713874306, -8719.057884104, -14273.533436481172, -1284.3982916353098, -1642.6520517649712, -5609.505547226137, -6136.604384971188, -15051.396495270312, -13247.923642149406, -19225.3389031099, -9429.91041301613, -4434.742562144108, -10094.248961716767, -9392.09126139775, -9527.65459151919, 0.006500000000000001, -0.0225, 0.9935, 192.0, 0.0, 0.0, 0.0, 0.0, 0.0, 0.0, 0.0, 0.0, 0.0, 1.6444984532800107E9, 0.0, 2022-02-11 00:07:33.280
66.0, -5929.806045270687, -7679.433545998758, -8732.558337755007, -14273.667546947903, -1297.6975795862174, -1652.2185983918428, -5626.045838123065, -6147.668498476565, -15063.60054774291, -13266.09561039157, -19242.661505062762, -9441.019230010419, -4444.3314605154355, -10101.3344647091, -9402.037787680363, -9535.611812545278, 0.009250000000000001, -0.02225, 0.99275, 192.0, 0.0, 48.0, 127.5, 40.0, 15.5, 0.0, 0.0, 0.0, 0.0, 1.6444984532800171E9, 0.0, 2022-02-11 00:07:33.280
68.0, -5914.249231129794, -7666.916569103786, -8730.144349353832, -14273.533436481172, -1289.87446902686, -1642.629700020516, -5621.441378765271, -6143.578129241244, -15064.494617521123, -13257.154912609449, -19242.482691107118, -9441.935651533086, -4442.096286069905, -10097.71348210734, -9407.938648216565, -9539.501016080501, 0.009250000000000001, -0.02225, 0.99275, 192.0, 0.0, 0.0, 0.0, 0.0, 0.0, 0.0, 0.0, 0.0, 0.0, 1.6444984532800243E9, 0.0, 2022-02-11 00:07:33.280
70.0, -5919.45718758788, -7664.882560358354, -8744.181244871765, -14275.790962671157, -1298.9939807646253, -1650.4304588354182, -5629.555062002548, -6159.514923037877, -15070.037850146038, -13257.132560864993, -19239.733426539115, -9441.48861664398, -4442.6327279368315, -10094.651293116964, -9406.664598782612, -9542.294984137414, 0.009250000000000001, -0.02225, 0.99275, 192.0, 0.0, 0.0, 0.0, 0.0, 0.0, 0.0, 0.0, 0.0, 0.0, 1.6444984532800329E9, 0.0, 2022-02-11 00:07:33.280
72.0, -5929.515472592768, -7666.424830725769, -8742.169587870787, -14282.809410430124, -1296.4682336411756, -1651.2798251247198, -5620.390846775871, -6143.444018774512, -15067.042716389027, -13259.457142288345, -19261.973412272146, -9454.631442383701, -4446.074896582949, -10103.346121710078, -9415.448834353547, -9548.21819641807, 0.009250000000000001, -0.02225, 0.99275, 192.0, 0.0, 0.0, 0.0, 0.0, 0.0, 0.0, 0.0, 0.0, 0.0, 1.64449845328004E9, 0.0, 2022-02-11 00:07:33.280
74.0, -5940.803103542698, -7662.043888812529, -8742.393105315341, -14296.555733270137, -1295.9988470076141, -1644.6860605104043, -5629.711524213734, -6148.920196166062, -15083.828876474963, -13263.011069656739, -19255.938441269212, -9457.49246567398, -4461.363489790379, -10106.497717678276, -9413.906563986131, -9550.98981273053, 0.009250000000000001, -0.02225, 0.99275, 192.0, 0.0, 0.0, 0.0, 0.0, 0.0, 0.0, 0.0, 0.0, 0.0, 1.6444984532800465E9, 0.0, 2022-02-11 00:07:33.280
76.0, -5957.052821761707, -7691.794060682543, -8752.809018231514, -14291.660701234425, -1311.8015303375162, -1656.688947282904, -5646.765905233134, -6154.821056702263, -15089.126239910871, -13275.460991318345, -19268.522473397552, -9464.689727388588, -4458.346004288913, -10114.745511382283, -9424.456587369035, -9557.538873855934, 0.007625000000000001, -0.023125, 0.989375, 192.0, 0.0, 24.0, 127.5, 32.0, 15.0, 104.0, 0.0, 0.0, 0.0, 1.6444984532800534E9, 0.0, 2022-02-11 00:07:33.280
78.0, -5949.27441469126, -7709.04960740204, -8747.377544328874, -14292.353605312539, -1297.675227841762, -1644.5743017881277, -5606.242192535662, -6145.410972286579, -15095.004748702617, -13284.468744333833, -19267.404886174787, -9449.602299881257, -4459.195370578214, -10110.409272957953, -9424.568346091311, -9556.063658721883, 0.007625000000000001, -0.023125, 0.989375, 192.0, 0.0, 0.0, 0.0, 0.0, 0.0, 0.0, 0.0, 0.0, 0.0, 1.64449845328006E9, 0.0, 2022-02-11 00:07:33.280
80.0, -5947.106295479095, -7696.0632438735065, -8751.356154841918, -14297.963893170821, -1304.648972111818, -1658.790011261703, -5629.1080271134415, -6162.107725394693, -15099.69861503823, -13289.497886836278, -19263.113351239368, -9449.892872559176, -4464.1798095917475, -10115.684284649407, -9421.439101867569, -9559.461123879091, 0.007625000000000001, -0.023125, 0.989375, 192.0, 0.0, 0.0, 0.0, 0.0, 0.0, 0.0, 0.0, 0.0, 0.0, 1.6444984532800665E9, 0.0, 2022-02-11 00:07:33.280
82.0, -5950.459057147391, -7696.175002595784, -8755.848855477436, -14300.780212972191, -1307.6664576132844, -1652.598578047583, -5630.247966080662, -6147.087353120727, -15092.993091701639, -13290.414308358946, -19276.144418256812, -9459.995861052974, -4461.966986890672, -10116.801871872172, -9433.218471195516, -9562.456257636102, 0.007625000000000001, -0.023125, 0.989375, 192.0, 0.0, 0.0, 0.0, 0.0, 0.0, 0.0, 0.0, 0.0, 0.0, 1.6444984532800732E9, 0.0, 2022-02-11 00:07:33.280
84.0, -5950.548464125212, -7692.419909527292, -8756.318242110998, -14309.78796598768, -1303.3749226778655, -1652.5315228142172, -5626.962259645732, -6152.898806679107, -15099.720966782686, -13286.525104823722, -19269.573005386952, -9466.544922178378, -4466.862018926385, -10117.718293394839, -9434.134892718184, -9565.004356504007, 0.007625000000000001, -0.023125, 0.989375, 192.0, 0.0, 0.0, 0.0, 0.0, 0.0, 0.0, 0.0, 0.0, 0.0, 1.6444984532800798E9, 0.0, 2022-02-11 00:07:33.280
86.0, -5970.933255068452, -7699.594819497445, -8769.572826572994, -14316.44878583536, -1318.9317368187592, -1661.7404415298035, -5640.060381896542, -6165.84046671873, -15109.555734343021, -13299.556171841166, -19286.314461983977, -9469.808276868855, -4471.5111817730885, -10123.4403399754, -9440.706305588044, -9575.822600820375, 0.008812500000000001, -0.0265625, 0.9836875, 192.0, 0.0, 40.0, 127.5, 8.0, 15.0, 72.0, 0.0, 0.0, 0.0, 1.6444984532800865E9, 0.0, 2022-02-11 00:07:33.280
88.0, -5960.6067491301, -7693.783365939065, -8763.02376544759, -14316.873468980011, -1312.4273791822648, -1650.2292931353204, -5634.11481787143, -6166.93570219704, -15110.673321565786, -13303.624189332031, -19287.275586995554, -9478.480753717513, -4472.896989929318, -10117.606534672563, -9444.953137034552, -9577.476629910068, 0.008812500000000001, -0.0265625, 0.9836875, 192.0, 0.0, 0.0, 0.0, 0.0, 0.0, 0.0, 0.0, 0.0, 0.0, 1.6444984532800927E9, 0.0, 2022-02-11 00:07:33.280
90.0, -5982.645569163033, -7716.470386561202, -8776.837143520968, -14325.83651850659, -1330.6216991688848, -1664.1544299309767, -5655.93012045981, -6166.98040568595, -15120.441033892756, -13298.997378229784, -19287.834380606935, -9464.600320410767, -4482.441184811733, -10123.082712064113, -9441.91329978863, -9580.650577622722, 0.008812500000000001, -0.0265625, 0.9836875, 192.0, 0.0, 0.0, 0.0, 0.0, 0.0, 0.0, 0.0, 0.0, 0.0, 1.6444984532800994E9, 0.0, 2022-02-11 00:07:33.280
92.0, -5987.764118643298, -7734.15061642535, -8788.236533193176, -14331.625620320514, -1328.2747660010775, -1663.1709531749432, -5656.466562326737, -6173.037728433339, -15131.058112509027, -13316.699959838386, -19312.48835474114, -9494.395195769692, -4487.403272080812, -10127.977744099826, -9456.978375551507, -9589.792441104943, 0.008812500000000001, -0.0265625, 0.9836875, 192.0, 0.0, 0.0, 0.0, 0.0, 0.0, 0.0, 0.0, 0.0, 0.0, 1.644498453280106E9, 0.0, 2022-02-11 00:07:33.280
94.0, -5983.561990685701, -7735.871700748408, -8776.54657084305, -14334.285477910696, -1324.5420246770411, -1664.0873746976108, -5647.369402333427, -6172.814210988786, -15137.696580612253, -13335.095445525105, -19302.72064241417, -9491.40006201268, -4493.170022150281, -10147.468465264854, -9454.027945283407, -9591.222952750082, 0.008812500000000001, -0.0265625, 0.9836875, 192.0, 0.0, 0.0, 0.0, 0.0, 0.0, 0.0, 0.0, 0.0, 0.0, 1.6444984532801125E9, 0.0, 2022-02-11 00:07:33.280
96.0, -6004.4832234958685, -7740.476160106202, -8794.651483851849, -14336.431245378406, -1337.5730916944854, -1675.2855986697195, -5662.278015885117, -6188.259266407403, -15147.419589450312, -13340.191643260914, -19317.58455247695, -9494.618713214244, -4498.065054185993, -10158.689040981417, -9460.35348896426, -9602.443528466645, 0.01040625, -0.02828125, 0.98184375, 192.0, 0.0, 48.0, 127.5, 8.0, 15.0, 80.0, 0.0, 0.0, 0.0, 1.6444984532801192E9, 0.0, 2022-02-11 00:07:33.280
98.0, -5999.007046104318, -7744.34301189697, -8791.388129161374, -14336.45359712286, -1332.9239288477813, -1666.1884386764098, -5666.681309542812, -6174.93762671204, -15147.553699917044, -13341.622154906054, -19315.461136753696, -9496.608018470766, -4500.680208287265, -10148.67545946544, -9470.836457113797, -9604.924572101185, 0.01040625, -0.02828125, 0.98184375, 192.0, 0.0, 0.0, 0.0, 0.0, 0.0, 0.0, 0.0, 0.0, 0.0, 1.6444984532801256E9, 0.0, 2022-02-11 00:07:33.280
100.0, -6010.138214843061, -7746.824055531509, -8798.40657692034, -14340.633373336002, -1342.6245859413846, -1676.0679097256555, -5683.668635328846, -6196.909391511606, -15157.880205855396, -13344.30436424069, -19311.68369194075, -9497.680902204622, -4506.044626956538, -10148.943680398903, -9471.954044336564, -9607.740891902553, 0.01040625, -0.02828125, 0.98184375, 192.0, 0.0, 0.0, 0.0, 0.0, 0.0, 0.0, 0.0, 0.0, 0.0, 1.6444984532801323E9, 0.0, 2022-02-11 00:07:33.280
102.0, -6011.121691599094, -7740.587918828478, -8798.004245520146, -14342.421512892428, -1335.0696963154908, -1667.082508454622, -5646.296518599573, -6173.1271354111595, -15154.102761042448, -13338.895242082506, -19327.218154337188, -9511.695445978099, -4504.3235426334795, -10148.027258876236, -9477.363166494748, -9610.37839774828, 0.01040625, -0.02828125, 0.98184375, 192.0, 0.0, 0.0, 0.0, 0.0, 0.0, 0.0, 0.0, 0.0, 0.0, 1.6444984532801404E9, 0.0, 2022-02-11 00:07:33.280
104.0, -5999.856412393619, -7739.559738583534, -8797.490155397672, -14343.740265815291, -1333.2815567590662, -1670.5470288451945, -5656.511265815648, -6183.096013438227, -15157.23200526619, -13338.224689748848, -19317.852773410414, -9501.324236550838, -4508.70448454672, -10146.015601875259, -9469.316538490837, -9605.192793034648, 0.01040625, -0.02828125, 0.98184375, 192.0, 0.0, 0.0, 0.0, 0.0, 0.0, 0.0, 0.0, 0.0, 0.0, 1.644498453280147E9, 0.0, 2022-02-11 00:07:33.280
106.0, -6024.4433312944575, -7764.8619133069415, -8813.538707916583, -14347.852986795067, -1354.359251780421, -1683.2651714402643, -5680.964074249754, -6194.026016476872, -15167.491455971178, -13354.049724823204, -19333.96838116269, -9509.124995365739, -4513.934792749261, -10155.67155547995, -9477.765497894943, -9615.318133272904, 0.010203125, -0.027140625, 0.977921875, 192.0, 0.0, 40.0, 127.5, 24.0, 15.0, 56.0, 0.0, 0.0, 0.0, 1.6444984537584136E9, 0.0, 2022-02-11 00:07:33.758
108.0, -6013.848604422642, -7751.8308462894975, -8815.192737006277, -14355.497283398783, -1347.0502313435354, -1679.3536161605855, -5671.822210767533, -6194.473051365978, -15170.955976361749, -13362.431628993945, -19336.87410794188, -9513.438882045613, -4516.259374172613, -10155.537445013219, -9491.06478584585, -9621.353104275835, 0.010203125, -0.027140625, 0.977921875, 192.0, 0.0, 0.0, 0.0, 0.0, 0.0, 0.0, 0.0, 0.0, 0.0, 1.6444984537587032E9, 0.0, 2022-02-11 00:07:33.758
110.0, -6029.092494141161, -7762.067945250028, -8819.372513219418, -14368.170722504941, -1358.6954902047505, -1688.4731278983509, -5677.320739903538, -6203.927839270573, -15178.5332177321, -13361.202283048902, -19331.085006127956, -9518.892707692708, -4520.215632941203, -10158.443171792409, -9493.92580913613, -9631.366685791812, 0.010203125, -0.027140625, 0.977921875, 192.0, 0.0, 0.0, 0.0, 0.0, 0.0, 0.0, 0.0, 0.0, 0.0, 1.644498453758711E9, 0.0, 2022-02-11 00:07:33.758
112.0, -6027.259651095826, -7763.163180728338, -8820.825376609013, -14366.22612073733, -1361.064775117013, -1685.656808096982, -5679.801783538078, -6198.809289790308, -15183.294139301079, -13360.5540824597, -19352.185052893765, -9532.616678788267, -4526.4517696442335, -10154.822189190649, -9501.704216206577, -9635.680572471687, 0.010203125, -0.027140625, 0.977921875, 192.0, 0.0, 0.0, 0.0, 0.0, 0.0, 0.0, 0.0, 0.0, 0.0, 1.64449845375872E9, 0.0, 2022-02-11 00:07:33.758
114.0, -6028.891328441064, -7763.654919106355, -8821.093597542476, -14365.80143759268, -1364.6857577187727, -1689.210735465376, -5684.763870807156, -6206.5876968607545, -15189.664386470842, -13359.615309192575, -19342.752616733625, -9520.5467367824, -4532.911423791817, -10178.82796273565, -9499.804317927876, -9633.914784659719, 0.010203125, -0.027140625, 0.977921875, 192.0, 0.0, 0.0, 0.0, 0.0, 0.0, 0.0, 0.0, 0.0, 0.0, 1.644498453758727E9, 0.0, 2022-02-11 00:07:33.758
116.0, -6039.19548263496, -7769.891055809386, -8831.397751736373, -14376.150295275485, -1379.6390747593732, -1705.013418795278, -5702.622914626946, -6221.853938323729, -15196.4369650408, -13380.245969324824, -19353.012067438613, -9529.442731075613, -4535.750095337641, -10183.432422093443, -9509.952009910585, -9646.878796443796, 0.01, -0.026000000000000002, 0.984, 192.0, 0.0, 40.0, 127.5, 24.0, 15.0, 96.0, 0.0, 0.0, 0.0, 1.6444984537587342E9, 0.0, 2022-02-11 00:07:33.758
118.0, -6033.451084309946, -7768.572302886522, -8825.094559799976, -14375.189170263908, -1367.323263564499, -1696.273886713253, -5698.018455269153, -6211.549784129833, -15189.306758559556, -13377.496704756823, -19350.665134270803, -9534.941260211619, -4531.346801679945, -10177.598616790607, -9509.102643621283, -9648.599880766855, 0.01, -0.026000000000000002, 0.984, 192.0, 0.0, 0.0, 0.0, 0.0, 0.0, 0.0, 0.0, 0.0, 0.0, 1.6444984537587411E9, 0.0, 2022-02-11 00:07:33.758
120.0, -6049.432581595491, -7785.000835061173, -8839.690248929292, -14382.967577334355, -1380.3096270930323, -1702.7782443497474, -5703.964019294264, -6218.27765921088, -15201.846087198985, -13385.498629271822, -19345.457177812717, -9527.185204885627, -4532.956127280728, -10178.269169124267, -9509.192050599106, -9653.316098846924, 0.01, -0.026000000000000002, 0.984, 192.0, 0.0, 0.0, 0.0, 0.0, 0.0, 0.0, 0.0, 0.0, 0.0, 1.6444984537587483E9, 0.0, 2022-02-11 00:07:33.758
122.0, -6039.508407057334, -7763.006718517151, -8847.468655999739, -14387.728498903334, -1384.0423684170687, -1707.5391659187278, -5713.418807198859, -6226.346638959246, -15203.321302333034, -13384.671614726974, -19366.69133504526, -9547.122960939761, -4539.169912239303, -10181.845448237116, -9521.55256528289, -9660.803933239453, 0.01, -0.026000000000000002, 0.984, 192.0, 0.0, 0.0, 0.0, 0.0, 0.0, 0.0, 0.0, 0.0, 0.0, 1.6444984537587554E9, 0.0, 2022-02-11 00:07:33.758
124.0, -6062.15072419056, -7780.754003614665, -8848.787408922602, -14401.206600809885, -1390.6808365202949, -1706.0639507846774, -5722.024228814153, -6231.688705884065, -15203.142488377393, -13379.88834141354, -19354.889613972857, -9545.893614994719, -4542.723839607696, -10181.621930792562, -9525.061789162373, -9662.994404196073, 0.01, -0.026000000000000002, 0.984, 192.0, 0.0, 0.0, 0.0, 0.0, 0.0, 0.0, 0.0, 0.0, 0.0, 1.6444984537587626E9, 0.0, 2022-02-11 00:07:33.758
126.0, -6088.078747758716, -7814.616896464455, -8872.502609789683, -14406.258095056784, -1413.3678571424316, -1730.6061661966046, -5741.269080790172, -6253.8392846392735, -15249.835282544529, -13408.878553972072, -19390.294777190065, -9561.137504713239, -4572.04932833306, -10195.524715843763, -9538.98692595803, -9677.29952064747, 0.012, -0.028, 0.986, 192.0, 0.0, 48.0, 127.5, 16.0, 15.0, 104.0, 0.0, 0.0, 0.0, 1.6444984537587695E9, 0.0, 2022-02-11 00:07:33.758
128.0, -6076.142916219583, -7799.954152101774, -8865.931196919822, -14402.167725821464, -1400.5379558250852, -1718.7373898908365, -5739.369182511471, -6249.681860170586, -15240.11227370647, -13404.117632403093, -19391.233550457186, -9558.432943634147, -4568.316587009023, -10200.330340901655, -9548.329955140347, -9681.814573027441, 0.012, -0.028, 0.986, 192.0, 0.0, 0.0, 0.0, 0.0, 0.0, 0.0, 0.0, 0.0, 0.0, 1.644498453758777E9, 0.0, 2022-02-11 00:07:33.758
130.0, -6084.100137245672, -7807.30787602757, -8874.76013597967, -14415.601124239103, -1414.0831129650014, -1718.2232997683645, -5751.886159406443, -6245.56913919081, -15251.981050012238, -13412.65599878502, -19390.026556256602, -9561.65159483571, -4573.3010260225565, -10197.156393189001, -9545.737152783531, -9683.826230028419, 0.012, -0.028, 0.986, 192.0, 0.0, 0.0, 0.0, 0.0, 0.0, 0.0, 0.0, 0.0, 0.0, 1.6444984537587836E9, 0.0, 2022-02-11 00:07:33.758
132.0, -6094.605457139666, -7815.086283098017, -8878.604636025982, -14413.65652247149, -1418.4417031337862, -1727.7451429063253, -5734.831778387043, -6245.14445604616, -15250.371724411456, -13410.957266206417, -19410.545457666572, -9574.123868241772, -4575.200924301258, -10215.238954453345, -9556.175417444161, -9689.257703931058, 0.012, -0.028, 0.986, 192.0, 0.0, 0.0, 0.0, 0.0, 0.0, 0.0, 0.0, 0.0, 0.0, 1.6444984537587912E9, 0.0, 2022-02-11 00:07:33.758
