%OpenBCI Raw EEG Data
%Number of channels = 16
%Sample Rate = 125 Hz
%Board = OpenBCI_GUI$BoardCytonSerialDaisy
Sample Index, EXG Channel 0, EXG Channel 1, EXG Channel 2, EXG Channel 3, EXG Channel 4, EXG Channel 5, EXG Channel 6, EXG Channel 7, EXG Channel 8, EXG Channel 9, EXG Channel 10, EXG Channel 11, EXG Channel 12, EXG Channel 13, EXG Channel 14, EXG Channel 15, Accel Channel 0, Accel Channel 1, Accel Channel 2, Other, Other, Other, Other, Other, Other, Other, Analog Channel 0, Analog Channel 1, Analog Channel 2, Timestamp, Other, Timestamp (Formatted)
42.0, -11640.229718712535, -13865.45763796063, -9357.893092381131, -16486.624358490033, -2380.6843019347552, -2722.4648264008556, -4248.865455253775, -5821.243622451261, -20880.08324862519, -18331.91732548682, -24099.82968566772, -14560.038096909297, -8493.975817439057, -13592.229913738956, -8163.28175822279, -10526.576402971317, 0.008, -0.03, 0.986, 192.0, 0.0, 32.0, 127.5, 8.0, 15.0, 104.0, 0.0, 0.0, 0.0, 1.644497955352939E9, 0.0, 2022-02-10 23:59:15.352
44.0, -11673.153838295202, -13886.490629493073, -9370.477124509469, -16489.395974802494, -2385.177002570272, -2725.4376084134115, -4241.757600516988, -5826.362171931526, -20906.145382660077, -18334.755997032644, -24131.367997094156, -14565.871902212133, -8501.083672175846, -13599.650692898118, -8165.405173946045, -10530.644420462182, 0.008, -0.03, 0.986, 192.0, 0.0, 0.0, 0.0, 0.0, 0.0, 0.0, 0.0, 0.0, 0.0, 1.6444979553529463E9, 0.0, 2022-02-10 23:59:15.352
46.0, -11663.631995157242, -13884.188399814178, -9363.503380239414, -16490.55826551417, -2374.47051697618, -2718.0168292542494, -4242.674022039655, -5823.367038174515, -20915.95779847596, -18336.588840077977, -24121.53322953382, -14563.077934155219, -8507.945657723625, -13602.087033043746, -8162.3653367001225, -10528.900984394668, 0.008, -0.03, 0.986, 192.0, 0.0, 0.0, 0.0, 0.0, 0.0, 0.0, 0.0, 0.0, 0.0, 1.6444979553529532E9, 0.0, 2022-02-10 23:59:15.352
48.0, -11674.69610866262, -13882.780239913493, -9374.723955955978, -16490.4912102808, -2388.7756334275764, -2720.073189744138, -4248.396068620214, -5827.233889965283, -20918.39413862159, -18328.4751568407, -24121.48852604491, -14572.912701715553, -8501.888334976236, -13572.940358274027, -8162.477095422399, -10529.862109406247, 0.008, -0.03, 0.986, 192.0, 0.0, 0.0, 0.0, 0.0, 0.0, 0.0, 0.0, 0.0, 0.0, 1.6444979553529603E9, 0.0, 2022-02-10 23:59:15.352
50.0, -11662.335593978834, -13869.45860021813, -9371.32649079877, -16484.88092242252, -2382.1595170688056, -2708.8302622831184, -4240.930585972141, -5820.036628250674, -20918.12591768812, -18327.84930799595, -24133.67022677305, -14566.810675479255, -8505.419910600176, -13583.44567816802, -8168.690880380975, -10532.812539674347, 0.008, -0.03, 0.986, 192.0, 0.0, 0.0, 0.0, 0.0, 0.0, 0.0, 0.0, 0.0, 0.0, 1.6444979553529673E9, 0.0, 2022-02-10 23:59:15.352
52.0, -11661.240358500525, -13866.575225183395, -9369.024261119874, -16491.98877715931, -2375.56575245449, -2712.25007918478, -4239.4777225825455, -5818.360247416526, -20914.52728683082, -18320.49558407016, -24120.281531844324, -14565.916605701042, -8501.530707064952, -13587.826620081261, -8157.09032500867, -10531.918469896134, 0.008, -0.026000000000000002, 0.992, 192.0, 0.0, 32.0, 127.5, 24.0, 15.5, 0.0, 0.0, 0.0, 0.0, 1.6444979553529742E9, 0.0, 2022-02-10 23:59:15.352
54.0, -11664.257844001992, -13886.580036470896, -9372.578188488269, -16492.100535881586, -2381.2430955461377, -2709.9478495058834, -4254.2075221785935, -5817.3544189160375, -20907.218266393935, -18316.38286309038, -24127.858773214673, -14578.098306429185, -8493.864058716781, -13585.077355513258, -8157.358545942134, -10528.789225672392, 0.008, -0.026000000000000002, 0.992, 192.0, 0.0, 0.0, 0.0, 0.0, 0.0, 0.0, 0.0, 0.0, 0.0, 1.6444979553529809E9, 0.0, 2022-02-10 23:59:15.352
56.0, -11656.702954376096, -13869.548007195952, -9369.560702986802, -16489.150105613484, -2372.727080908666, -2701.163613934948, -4235.655574280689, -5804.524517598691, -20908.46996408343, -18306.72690948569, -24117.398156809588, -14570.163437147552, -8494.959294195092, -13584.451506668509, -8156.151551741547, -10525.74938842647, 0.008, -0.026000000000000002, 0.992, 192.0, 0.0, 0.0, 0.0, 0.0, 0.0, 0.0, 0.0, 0.0, 0.0, 1.6444979553529875E9, 0.0, 2022-02-10 23:59:15.352
58.0, -11675.143143551726, -13891.60917897334, -9381.138906614651, -16491.050003892185, -2397.6492759763332, -2716.832186798118, -4241.6011383058, -5821.042456751163, -20916.114260687144, -18329.413930107825, -24128.14934589259, -14561.088628898697, -8500.256657631, -13591.648768383118, -8162.722964611407, -10528.521004738928, 0.008, -0.026000000000000002, 0.992, 192.0, 0.0, 0.0, 0.0, 0.0, 0.0, 0.0, 0.0, 0.0, 0.0, 1.644497955352996E9, 0.0, 2022-02-10 23:59:15.352
60.0, -11660.145123022214, -13872.69960316415, -9363.212807561495, -16486.84787593459, -2378.1585548113057, -2707.4891576157997, -4240.1259231717495, -5825.356343431037, -20917.99180722139, -18333.25843015414, -24137.38061635263, -14565.089591156197, -8502.558887309897, -13584.92089330207, -8164.3769937011, -10529.660943706149, 0.008, -0.026000000000000002, 0.992, 192.0, 0.0, 0.0, 0.0, 0.0, 0.0, 0.0, 0.0, 0.0, 0.0, 1.6444979553530219E9, 0.0, 2022-02-10 23:59:15.353
62.0, -11645.862358315273, -13851.59955639834, -9360.463542993492, -16490.759431214265, -2369.2849122625485, -2710.037256483705, -4227.944222443607, -5821.265974195716, -20902.479696569408, -18316.181697390282, -24115.610017253166, -14548.750465959367, -8496.63567502924, -13569.520541372365, -8156.889159308573, -10527.626934960716, 0.004, -0.024, 0.994, 192.0, 0.0, 16.0, 127.5, 32.0, 15.5, 8.0, 0.0, 0.0, 0.0, 1.6444979553530295E9, 0.0, 2022-02-10 23:59:15.353
64.0, -11654.601890397298, -13862.663669903717, -9369.650109964623, -16493.911027182465, -2370.916589607786, -2714.7087710748638, -4225.3290683423365, -5816.147424715451, -20900.937426201992, -18304.42467980679, -24125.936523191514, -14565.626033023123, -8488.901971447704, -13574.817904808273, -8157.693822108963, -10526.84462390478, 0.004, -0.024, 0.994, 192.0, 0.0, 0.0, 0.0, 0.0, 0.0, 0.0, 0.0, 0.0, 0.0, 1.644497955353037E9, 0.0, 2022-02-10 23:59:15.353
66.0, -11647.002297282494, -13862.551911181441, -9360.999984860418, -16486.73611721231, -2363.831086615454, -2706.5503843486767, -4223.02683866344, -5809.687770567867, -20903.172600647522, -18311.845458965952, -24110.24559858389, -14553.109056128153, -8488.969026681068, -13586.574922391765, -8162.208874488935, -10524.184766314598, 0.004, -0.024, 0.994, 192.0, 0.0, 0.0, 0.0, 0.0, 0.0, 0.0, 0.0, 0.0, 0.0, 1.644497955353044E9, 0.0, 2022-02-10 23:59:15.353
68.0, -11646.622317626754, -13864.36240248232, -9369.09131635324, -16488.434849790912, -2373.956426853708, -2714.9546402638725, -4231.565205045367, -5817.309715427126, -20903.507876814354, -18316.360511345927, -24114.894761430594, -14555.88067244061, -8481.771764966461, -13581.366965933677, -8167.573293158209, -10526.017609359933, 0.004, -0.024, 0.994, 192.0, 0.0, 0.0, 0.0, 0.0, 0.0, 0.0, 0.0, 0.0, 0.0, 1.644497955353051E9, 0.0, 2022-02-10 23:59:15.353
70.0, -11643.761294336475, -13848.291498218954, -9358.049554592319, -16479.136524097506, -2359.047813302018, -2696.4473958548783, -4223.1609491301715, -5805.776215288189, -20895.19302787698, -18314.5723717895, -24120.214476610956, -14554.226643350918, -8482.732889978039, -13578.707108343497, -8168.534418169787, -10529.951516384068, 0.004, -0.024, 0.994, 192.0, 0.0, 0.0, 0.0, 0.0, 0.0, 0.0, 0.0, 0.0, 0.0, 1.6444979553530579E9, 0.0, 2022-02-10 23:59:15.353
72.0, -11645.884710059729, -13852.448922687641, -9361.201150560517, -16485.864399178554, -2365.0604325604954, -2705.321038403635, -4237.510769070479, -5822.584727118579, -20890.85678945265, -18299.373185559893, -24100.410831023557, -14544.458931023948, -8480.520067276962, -13573.186227463035, -8162.432391933488, -10530.867937906736, 0.006, -0.026000000000000002, 0.992, 192.0, 0.0, 24.0, 127.5, 24.0, 15.5, 0.0, 0.0, 0.0, 0.0, 1.6444979553530643E9, 0.0, 2022-02-10 23:59:15.353
74.0, -11651.942032807117, -13859.959108824625, -9366.073830851774, -16479.15887584196, -2376.7727466550764, -2701.5659453351436, -4249.804228520898, -5823.389389918971, -20893.404888320554, -18309.118546142407, -24117.28639808731, -14562.7873614773, -8482.084689388836, -13582.417497923077, -8174.122354283614, -10535.94178389809, 0.006, -0.026000000000000002, 0.992, 192.0, 0.0, 0.0, 0.0, 0.0, 0.0, 0.0, 0.0, 0.0, 0.0, 1.644497955353078E9, 0.0, 2022-02-10 23:59:15.353
76.0, -11639.715628590064, -13851.59955639834, -9355.99319410243, -16478.041288619195, -2374.4258134872694, -2697.8555557555624, -4239.634184793733, -5814.694561325856, -20892.42141156452, -18310.280836854083, -24107.20576133797, -14545.800035691267, -8480.944750421613, -13562.256224424389, -8171.708365882441, -10528.297487294376, 0.006, -0.026000000000000002, 0.992, 192.0, 0.0, 0.0, 0.0, 0.0, 0.0, 0.0, 0.0, 0.0, 0.0, 1.6444979553530853E9, 0.0, 2022-02-10 23:59:15.353
78.0, -11647.82931182734, -13851.532501164975, -9363.99511861743, -16482.131657854516, -2386.0710723484844, -2709.746683805786, -4251.055926210395, -5825.468102153314, -20898.881065712103, -18307.129240885883, -24120.14742137759, -14551.522082271826, -8488.030253413946, -13571.3533844177, -8175.28464499529, -10534.667734464138, 0.006, -0.026000000000000002, 0.992, 192.0, 0.0, 0.0, 0.0, 0.0, 0.0, 0.0, 0.0, 0.0, 0.0, 1.6444979553530922E9, 0.0, 2022-02-10 23:59:15.353
80.0, -11618.995561479995, -13836.31096319091, -9356.283766780349, -16477.907178152465, -2370.670720418778, -2693.027578953216, -4251.79353377742, -5815.119244470507, -20888.643966751573, -18296.646272736343, -24119.58862776621, -14558.808750964256, -8476.005014896991, -13564.35728840319, -8179.196200274969, -10531.694952451582, 0.007, -0.026000000000000002, 0.991, 192.0, 0.0, 32.0, 127.5, 24.0, 15.0, 120.0, 0.0, 0.0, 0.0, 1.644497955353099E9, 0.0, 2022-02-10 23:59:15.353
82.0, -11642.241375713513, -13857.746286123549, -9361.938758127542, -16482.06460262115, -2368.077918061962, -2702.5270703467218, -4240.304737127392, -5823.434093407881, -20890.18623711899, -18306.48104029668, -24095.91813038804, -14537.239317564883, -8483.895180689715, -13571.822771051262, -8168.869694336617, -10530.398551273174, 0.007, -0.026000000000000002, 0.991, 192.0, 0.0, 0.0, 0.0, 0.0, 0.0, 0.0, 0.0, 0.0, 0.0, 1.6444979553531067E9, 0.0, 2022-02-10 23:59:15.353
84.0, -11661.843855600817, -13862.59661467035, -9366.945548885531, -16480.49998050928, -2371.1624587967945, -2708.4726343718335, -4242.249338895004, -5826.093950998063, -20886.94523417297, -18299.86492393791, -24121.309712089267, -14560.060448653752, -8484.051642900902, -13591.514657916387, -8172.513028682832, -10536.925260654123, 0.007, -0.026000000000000002, 0.991, 192.0, 0.0, 0.0, 0.0, 0.0, 0.0, 0.0, 0.0, 0.0, 0.0, 1.6444979553531144E9, 0.0, 2022-02-10 23:59:15.353
86.0, -11643.381314680733, -13848.582070896873, -9355.680269680057, -16481.036422376208, -2356.2538452451045, -2689.4065963514563, -4240.8858824832305, -5814.515747370213, -20891.929673186503, -18301.250732094137, -24108.703328216474, -14555.478341040414, -8482.799945211405, -13575.73432633094, -8164.958139056938, -10531.985525129501, 0.007, -0.026000000000000002, 0.991, 192.0, 0.0, 0.0, 0.0, 0.0, 0.0, 0.0, 0.0, 0.0, 0.0, 1.6444979553531213E9, 0.0, 2022-02-10 23:59:15.353
88.0, -11649.25982347248, -13840.602498126329, -9367.750211685921, -16475.895521151488, -2371.1177553078837, -2708.360875649557, -4244.238644151526, -5820.729532328789, -20892.42141156452, -18304.402328062337, -24107.96572064945, -14565.201349878473, -8479.827163198848, -13567.777105304851, -8162.678261122497, -10533.70660945256, 0.007, -0.026000000000000002, 0.991, 192.0, 0.0, 0.0, 0.0, 0.0, 0.0, 0.0, 0.0, 0.0, 0.0, 1.6444979553531287E9, 0.0, 2022-02-10 23:59:15.353
90.0, -11635.133520976726, -13847.486835418564, -9363.883359895153, -16469.055887348164, -2362.0429470590293, -2700.135433690004, -4242.674022039655, -5818.069674738607, -20888.17458011801, -18305.67637749629, -24119.029834154826, -14546.694105469478, -8477.144953864212, -13570.772239061862, -8167.841514091673, -10529.348019283774, 0.0075, -0.027000000000000003, 0.9895, 192.0, 0.0, 32.0, 127.5, 16.0, 15.0, 112.0, 0.0, 0.0, 0.0, 1.6444979553531356E9, 0.0, 2022-02-10 23:59:15.353
92.0, -11646.30939320438, -13866.999908328047, -9368.353708786215, -16477.035460118706, -2367.116793050384, -2697.3638173775457, -4237.466065581568, -5806.759692044222, -20892.779039475805, -18302.234208850172, -24109.128011361125, -14545.509463013348, -8490.243076115023, -13569.565244861275, -8162.231226233391, -10526.486995993495, 0.0075, -0.027000000000000003, 0.9895, 192.0, 0.0, 0.0, 0.0, 0.0, 0.0, 0.0, 0.0, 0.0, 0.0, 1.6444979553531425E9, 0.0, 2022-02-10 23:59:15.353
94.0, -11656.233567742536, -13863.2224635151, -9377.026185634873, -16481.528160754224, -2375.7669181545875, -2699.0625499561493, -4233.398048090702, -5809.553660101135, -20899.0822314122, -18316.829897979485, -24125.10950864667, -14564.106114400163, -8491.450070315608, -13556.735343543929, -8168.243845491868, -10529.526833239417, 0.0075, -0.027000000000000003, 0.9895, 192.0, 0.0, 0.0, 0.0, 0.0, 0.0, 0.0, 0.0, 0.0, 0.0, 1.6444979553531492E9, 0.0, 2022-02-10 23:59:15.353
96.0, -11635.088817487815, -13842.904727805226, -9366.386755274149, -16477.77306768573, -2366.2003715277165, -2695.419215609934, -4236.236719636527, -5815.923907270898, -20898.679900012005, -18306.7716129746, -24116.906418431572, -14563.033230666308, -8492.947637194115, -13565.854855281694, -8169.80846760374, -10528.431597761108, 0.0075, -0.027000000000000003, 0.9895, 192.0, 0.0, 0.0, 0.0, 0.0, 0.0, 0.0, 0.0, 0.0, 0.0, 1.644497955353156E9, 0.0, 2022-02-10 23:59:15.353
98.0, -11650.936204306628, -13851.756018609527, -9375.23804607845, -16477.393088029992, -2376.4151187437915, -2707.802082038174, -4251.748830288509, -5820.863642795521, -20897.070574411224, -18294.075822123985, -24108.323348560734, -14558.652288753068, -8490.377186581754, -13586.440811925033, -8171.507200182343, -10531.94082164059, 0.0075, -0.027000000000000003, 0.9895, 192.0, 0.0, 0.0, 0.0, 0.0, 0.0, 0.0, 0.0, 0.0, 0.0, 1.6444979553531628E9, 0.0, 2022-02-10 23:59:15.353
100.0, -11637.3463436778, -13839.484910903564, -9368.778391930866, -16478.845951419586, -2366.84857211692, -2697.1850034219033, -4244.708030785087, -5814.895727025953, -20891.013251663837, -18308.38093857538, -24119.789793466305, -14565.491922556392, -8483.49284928952, -13575.086125741736, -8176.938674084983, -10529.504481494962, 0.00575, -0.027500000000000004, 0.98875, 192.0, 0.0, 16.0, 127.5, 16.0, 15.0, 112.0, 0.0, 0.0, 0.0, 1.6444979553531697E9, 0.0, 2022-02-10 23:59:15.353
102.0, -11631.11020697477, -13838.88141380327, -9366.744383185433, -16482.35517529907, -2372.6600256753, -2700.3142476456464, -4244.842141251819, -5817.376770660493, -20890.40975456354, -18294.053470379527, -24100.611996723652, -14543.140178101085, -8483.425794056153, -13561.58567209073, -8172.267159493824, -10529.392722772685, 0.00575, -0.027500000000000004, 0.98875, 192.0, 0.0, 0.0, 0.0, 0.0, 0.0, 0.0, 0.0, 0.0, 0.0, 1.6444979553531766E9, 0.0, 2022-02-10 23:59:15.353
104.0, -11656.859416587284, -13869.525655451496, -9369.068964608785, -16484.07625962213, -2379.9019908788196, -2709.0761314721267, -4248.798400020409, -5824.551680630646, -20892.488466797884, -18311.28666535457, -24113.039566640804, -14561.02157366533, -8486.689148746627, -13570.504018128398, -8175.731679884396, -10531.650248962671, 0.00575, -0.027500000000000004, 0.98875, 192.0, 0.0, 0.0, 0.0, 0.0, 0.0, 0.0, 0.0, 0.0, 0.0, 1.6444979553531833E9, 0.0, 2022-02-10 23:59:15.353
106.0, -11646.175282737648, -13855.533463422475, -9361.782295916355, -16486.02086138974, -2367.496772706124, -2703.5552505916658, -4243.322222628859, -5816.192128204361, -20893.002556920357, -18325.122395172406, -24106.62461598213, -14561.535663787803, -8488.276122602954, -13569.609948350186, -8169.987281559383, -10530.934993140101, 0.00575, -0.027500000000000004, 0.98875, 192.0, 0.0, 0.0, 0.0, 0.0, 0.0, 0.0, 0.0, 0.0, 0.0, 1.6444979553531935E9, 0.0, 2022-02-10 23:59:15.353
108.0, -11660.100419533304, -13852.873605832292, -9379.261360080405, -16494.60393126058, -2379.790232156543, -2715.3346199196126, -4260.868342026275, -5830.96663128932, -20896.08709765519, -18326.19527890626, -24106.53520900431, -14565.603681278668, -8492.098270904813, -13576.248416453413, -8165.427525690499, -10535.65121122017, 0.00575, -0.027500000000000004, 0.98875, 192.0, 0.0, 0.0, 0.0, 0.0, 0.0, 0.0, 0.0, 0.0, 0.0, 1.6444979553532004E9, 0.0, 2022-02-10 23:59:15.353
110.0, -11645.616489126265, -13853.097123276846, -9374.299272811328, -16490.178285858427, -2368.9272843512636, -2697.162651677448, -4268.534990374445, -5814.448692136847, -20899.0822314122, -18321.590819548466, -24120.505049288877, -14579.6405767966, -8490.48894530403, -13571.643957095619, -8166.701575124452, -10534.667734464138, 0.006875, -0.029750000000000002, 0.990375, 192.0, 0.0, 32.0, 127.5, 0.0, 15.5, 0.0, 0.0, 0.0, 0.0, 1.644497955353207E9, 0.0, 2022-02-10 23:59:15.353
112.0, -11649.036306027927, -13855.466408189108, -9374.656900722612, -16492.905198681976, -2367.072089561473, -2703.4658436138448, -4235.588519047323, -5816.683866582378, -20892.376708075608, -18312.560714788524, -24106.19993283748, -14559.032268408808, -8486.44327955762, -13557.96468948897, -8156.799752330751, -10527.425769260619, 0.006875, -0.029750000000000002, 0.990375, 192.0, 0.0, 0.0, 0.0, 0.0, 0.0, 0.0, 0.0, 0.0, 0.0, 1.644497955353214E9, 0.0, 2022-02-10 23:59:15.353
114.0, -11660.100419533304, -13852.69479187665, -9379.373118802681, -16492.234646348315, -2373.0400053310404, -2707.578564593621, -4232.615737034766, -5816.728570071289, -20898.27756861181, -18311.130203143384, -24120.616808011153, -14569.224663880428, -8487.382052824743, -13565.854855281694, -8153.0893627511705, -10532.521966996428, 0.006875, -0.029750000000000002, 0.990375, 192.0, 0.0, 0.0, 0.0, 0.0, 0.0, 0.0, 0.0, 0.0, 0.0, 1.6444979553532217E9, 0.0, 2022-02-10 23:59:15.353
116.0, -11642.755465835986, -13847.620945885295, -9370.14184834264, -16483.651576477478, -2356.9020458343084, -2698.190831922392, -4232.436923079124, -5809.330142656582, -20895.662414510538, -18322.015502693117, -24107.943368904995, -14565.536626045303, -8490.846573215314, -13574.661442597086, -8152.821141817706, -10527.60458321626, 0.006875, -0.029750000000000002, 0.990375, 192.0, 0.0, 0.0, 0.0, 0.0, 0.0, 0.0, 0.0, 0.0, 0.0, 1.6444979553532295E9, 0.0, 2022-02-10 23:59:15.353
118.0, -11643.761294336475, -13848.35855345232, -9378.076717624273, -16488.054870135173, -2365.3510052384145, -2708.070302971638, -4253.894597756219, -5826.764503331721, -20891.728507486405, -18315.086461911975, -24108.122182860636, -14559.21108236445, -8480.475363788053, -13580.49524789992, -8154.050487762748, -10532.521966996428, 0.006875, -0.029750000000000002, 0.990375, 192.0, 0.0, 0.0, 0.0, 0.0, 0.0, 0.0, 0.0, 0.0, 0.0, 1.644497955353237E9, 0.0, 2022-02-10 23:59:15.353
120.0, -11634.507672131977, -13828.174928209179, -9375.506267011913, -16490.155934113973, -2359.94188308023, -2685.204468393859, -4240.930585972141, -5785.86081097851, -20886.297033583767, -18312.136031643873, -24116.61584575365, -14568.598815035679, -8477.949616664602, -13558.478779611443, -8152.776438328796, -10525.07883609281, 0.0084375, -0.030875, 0.9901875, 192.0, 0.0, 40.0, 127.5, 0.0, 15.0, 120.0, 0.0, 0.0, 0.0, 1.6444979553532453E9, 0.0, 2022-02-10 23:59:15.353
122.0, -11635.558204121377, -13832.377056166775, -9381.071851381284, -16498.426079562436, -2370.1789820407607, -2699.0401982116937, -4259.996623992518, -5809.106625212029, -20888.018117906824, -18303.95529317323, -24103.562426991753, -14570.141085403096, -8482.464669044575, -13555.39423887661, -8154.989261029871, -10525.414112259641, 0.0084375, -0.030875, 0.9901875, 192.0, 0.0, 0.0, 0.0, 0.0, 0.0, 0.0, 0.0, 0.0, 0.0, 1.644497955353253E9, 0.0, 2022-02-10 23:59:15.353
124.0, -11658.4016869547, -13850.861948831314, -9384.357557816214, -16494.112192882563, -2382.8077176580096, -2707.287991915702, -4256.867379768775, -5814.3592851590265, -20895.863580210636, -18318.774499747098, -24119.409813810566, -14572.8903499711, -8488.074956902858, -13566.190131448524, -8166.790982102273, -10532.700780952071, 0.0084375, -0.030875, 0.9901875, 192.0, 0.0, 0.0, 0.0, 0.0, 0.0, 0.0, 0.0, 0.0, 0.0, 1.6444979553532596E9, 0.0, 2022-02-10 23:59:15.353
126.0, -11647.739904849519, -13847.2186144851, -9371.259435565406, -16493.285178337715, -2374.2246477871713, -2701.0071517237607, -4243.501036584501, -5816.661514837923, -20899.90924595705, -18321.5237643151, -24114.313616074756, -14560.842759709689, -8488.790212725427, -13567.374773904656, -8164.7122698679295, -10535.762969942447, 0.0084375, -0.030875, 0.9901875, 192.0, 0.0, 0.0, 0.0, 0.0, 0.0, 0.0, 0.0, 0.0, 0.0, 1.6444979553532665E9, 0.0, 2022-02-10 23:59:15.353
128.0, -11647.404628682689, -13856.069905289402, -9370.253607064917, -16496.056794650172, -2390.4520142617243, -2707.735026804808, -4251.279443654948, -5831.525424900702, -20902.055013424757, -18322.037854437574, -24112.279607329325, -14566.117771401141, -8494.10992790579, -13568.358250660689, -8160.577197143698, -10541.574423500828, 0.0084375, -0.030875, 0.9901875, 192.0, 0.0, 0.0, 0.0, 0.0, 0.0, 0.0, 0.0, 0.0, 0.0, 1.6444979553532732E9, 0.0, 2022-02-10 23:59:15.353
130.0, -11636.362866921767, -13837.02621901348, -9363.23515930595, -16483.9421491554, -2379.767880412088, -2699.219012167336, -4259.661347825689, -5832.799474334654, -20889.00159466286, -18317.18752589077, -24110.849095684185, -14567.369469090638, -8479.2013143541, -13565.720744814962, -8162.3653367001225, -10541.37325780073, 0.009218750000000001, -0.034437499999999996, 0.99209375, 192.0, 0.0, 40.0, 127.0, 104.0, 15.5, 8.0, 0.0, 0.0, 0.0, 1.644497955353292E9, 0.0, 2022-02-10 23:59:15.353
132.0, -11631.40077965269, -13838.769655080994, -9368.420764019582, -16488.680718979922, -2381.42190950178, -2700.850689512574, -4258.9684437475735, -5825.848081809054, -20886.98993766188, -18307.28570309707, -24098.95796763396, -14562.921471944032, -8481.168267866167, -13578.26007345439, -8164.131124512091, -10541.060333378355, 0.009218750000000001, -0.034437499999999996, 0.99209375, 192.0, 0.0, 0.0, 0.0, 0.0, 0.0, 0.0, 0.0, 0.0, 0.0, 1.644497955353299E9, 0.0, 2022-02-10 23:59:15.353
134.0, -11647.53873914942, -13838.948469036635, -9378.568456002291, -16493.329881826627, -2392.195450329238, -2709.4784628723223, -4252.419382622169, -5830.609003378035, -20892.80139122026, -18313.499488055648, -24123.164906879058, -14570.185788892006, -8483.895180689715, -13570.615776850675, -8170.009633303837, -10543.496673523983, 0.009218750000000001, -0.034437499999999996, 0.99209375, 192.0, 0.0, 0.0, 0.0, 0.0, 0.0, 0.0, 0.0, 0.0, 0.0, 1.6444979553533053E9, 0.0, 2022-02-10 23:59:15.353
136.0, -11636.25110819949, -13842.368285938299, -9368.420764019582, -16491.69820448139, -2382.271275791082, -2686.9255527169175, -4257.336766402336, -5811.297096168649, -20894.90245519906, -18303.128278628385, -24108.211589838458, -14564.97783243392, -8483.023462655958, -13561.138637201624, -8168.579121658698, -10539.65217347767, 0.009218750000000001, -0.034437499999999996, 0.99209375, 192.0, 0.0, 0.0, 0.0, 0.0, 0.0, 0.0, 0.0, 0.0, 0.0, 1.644497955353312E9, 0.0, 2022-02-10 23:59:15.353
138.0, -11651.003259539993, -13858.953280324136, -9382.547066515335, -16495.967387672354, -2393.7377206966544, -2704.806948281163, -4261.248321682015, -5830.430189422392, -20898.702251756462, -18328.385749862882, -24107.38457529361, -14564.396687078082, -8488.477288303053, -13566.59246284872, -8170.277854237302, -10539.428656033118, 0.009218750000000001, -0.034437499999999996, 0.99209375, 192.0, 0.0, 0.0, 0.0, 0.0, 0.0, 0.0, 0.0, 0.0, 0.0, 1.6444979553533206E9, 0.0, 2022-02-10 23:59:15.353
140.0, -11637.614564611265, -13839.127282992278, -9373.919293155586, -16489.418326546947, -2376.0351390880514, -2691.5076603302555, -4246.652632552699, -5829.066733010618, -20899.37280409012, -18332.990209220676, -24118.269874843347, -14573.292681371295, -8483.738718478528, -13566.614814593175, -8174.18940951698, -10539.9874496445, 0.008609375, -0.03221875, 0.994046875, 192.0, 0.0, 32.0, 127.5, 8.0, 15.5, 16.0, 0.0, 0.0, 0.0, 1.6444979553533275E9, 0.0, 2022-02-10 23:59:15.353
142.0, -11632.853643042285, -13825.179794452168, -9372.086450110251, -16491.45233529238, -2376.146897810328, -2687.797270750674, -4260.398955392713, -5816.907384026931, -20894.053088909757, -18314.192392133762, -24100.969624634938, -14558.585233519701, -8479.424831798653, -13554.768390031863, -8163.549979156253, -10533.214871074542, 0.008609375, -0.03221875, 0.994046875, 192.0, 0.0, 0.0, 0.0, 0.0, 0.0, 0.0, 0.0, 0.0, 0.0, 1.6444979553533485E9, 0.0, 2022-02-10 23:59:15.353
144.0, -11649.081009516836, -13825.157442707712, -9385.072813638784, -16498.247265606795, -2383.992360114141, -2695.195698165381, -4248.954862231596, -5826.563337631624, -20896.668243011027, -18320.316770114514, -24117.66637774305, -14574.432620338515, -8482.218799855567, -13551.236814407923, -8170.300205981756, -10536.969964143034, 0.008609375, -0.03221875, 0.994046875, 192.0, 0.0, 0.0, 0.0, 0.0, 0.0, 0.0, 0.0, 0.0, 0.0, 1.6444979553533552E9, 0.0, 2022-02-10 23:59:15.353
146.0, -11638.642744856208, -13842.412989427208, -9375.863894923199, -16492.54757077069, -2374.246999531627, -2694.636904553998, -4250.27361515446, -5828.954974288342, -20898.098754656166, -18318.662741024822, -24111.989034651404, -14570.878692970122, -8485.504506290497, -13561.429209879543, -8171.797772860262, -10541.909699667656, 0.008609375, -0.03221875, 0.994046875, 192.0, 0.0, 0.0, 0.0, 0.0, 0.0, 0.0, 0.0, 0.0, 0.0, 1.6444979553533628E9, 0.0, 2022-02-10 23:59:15.353
148.0, -11653.484303174533, -13852.717143621105, -9383.687005482556, -16490.222989347338, -2385.04289210354, -2702.460015113356, -4254.229873923048, -5822.003581762741, -20904.62546403712, -18329.27981964109, -24114.78300270832, -14567.257710368362, -8485.035119656935, -13568.134733216135, -8169.272025736813, -10537.841682176791, 0.008609375, -0.03221875, 0.994046875, 192.0, 0.0, 0.0, 0.0, 0.0, 0.0, 0.0, 0.0, 0.0, 0.0, 1.64449795535337E9, 0.0, 2022-02-10 23:59:15.353
150.0, -11640.229718712535, -13834.500471890029, -9378.791973446843, -16488.434849790912, -2374.179944298261, -2701.096558701582, -4247.546702330912, -5830.139616744473, -20901.384461091096, -18326.66466553982, -24124.885991202118, -14574.32086161624, -8480.58712251033, -13571.621605351163, -8171.1719240155135, -10540.792112444891, 0.0073046875, -0.030109375, 0.9950234375, 192.0, 0.0, 24.0, 127.5, 16.0, 15.5, 16.0, 0.0, 0.0, 0.0, 1.6444979553533769E9, 0.0, 2022-02-10 23:59:15.353
152.0, -11629.67969532963, -13832.667628844694, -9375.483915267458, -16499.454259807382, -2362.84760985942, -2693.362855120046, -4248.9325104871405, -5820.282497439683, -20896.958815688948, -18318.05924392453, -24112.704290473976, -14570.297547614284, -8476.58616025283, -13564.938433759027, -8160.599548888154, -10541.37325780073, 0.0073046875, -0.030109375, 0.9950234375, 192.0, 0.0, 0.0, 0.0, 0.0, 0.0, 0.0, 0.0, 0.0, 0.0, 1.6444979553533835E9, 0.0, 2022-02-10 23:59:15.353
154.0, -11638.620393111754, -13835.796873068437, -9381.18361010356, -16494.760393471766, -2366.9156273502863, -2699.6213435675318, -4241.310565627881, -5817.376770660493, -20899.21634187893, -18312.04662466605, -24123.746052234896, -14584.312091387761, -8471.288796816922, -13572.82859955175, -8159.012575031827, -10539.786283944402, 0.0073046875, -0.030109375, 0.9950234375, 192.0, 0.0, 0.0, 0.0, 0.0, 0.0, 0.0, 0.0, 0.0, 0.0, 1.6444979553533907E9, 0.0, 2022-02-10 23:59:15.353
156.0, -11644.96828853706, -13840.513091148507, -9377.920255413086, -16490.6923759809, -2358.5784266684564, -2690.792404507685, -4226.960745687574, -5814.649857836946, -20902.345586102678, -18317.85807822443, -24109.329177061223, -14567.12359990163, -8478.664872487172, -13555.595404576708, -8157.067973264215, -10531.113807095744, 0.0073046875, -0.030109375, 0.9950234375, 192.0, 0.0, 0.0, 0.0, 0.0, 0.0, 0.0, 0.0, 0.0, 0.0, 1.6444979553533978E9, 0.0, 2022-02-10 23:59:15.353
158.0, -11656.770009609463, -13846.54806215144, -9386.659787495111, -16494.64863474949, -2366.2227232721716, -2697.5649830776433, -4240.528254571946, -5817.712046827322, -20907.24061813839, -18326.39644460636, -24109.48563927241, -14561.178035876517, -8476.653215486194, -13557.271785410856, -8155.704516852441, -10535.22652807552, 0.0073046875, -0.030109375, 0.9950234375, 192.0, 0.0, 0.0, 0.0, 0.0, 0.0, 0.0, 0.0, 0.0, 0.0, 1.6444979553534045E9, 0.0, 2022-02-10 23:59:15.353
160.0, -11633.770064564951, -13830.633620099261, -9377.540275757347, -16491.027652147728, -2359.6736621467667, -2691.2394393967916, -4244.260995895982, -5816.43799739337, -20899.864542468138, -18319.266238125114, -24116.68290098702, -14562.273271354828, -8473.456916029087, -13561.742134301918, -8153.648156362553, -10533.147815841177, 0.004, -0.024, 0.994, 192.0, 0.0, 16.0, 127.5, 32.0, 15.5, 8.0, 0.0, 0.0, 0.0, 1.644497955353412E9, 0.0, 2022-02-10 23:59:15.353
162.0, -11624.784663293918, -13825.157442707712, -9374.343976300237, -16498.806059218176, -2356.8796940898533, -2690.2112591518476, -4244.730382529543, -5813.398160147448, -20894.388365076586, -18313.320674100003, -24101.573121735233, -14561.245091109884, -8472.898122417704, -13559.462256367477, -8147.99316501536, -10532.700780952071, 0.004, -0.024, 0.994, 192.0, 0.0, 0.0, 0.0, 0.0, 0.0, 0.0, 0.0, 0.0, 0.0, 1.6444979553534186E9, 0.0, 2022-02-10 23:59:15.353
0.0, -5475.506839216571, -6656.058926112524, -4538.678173861286, -8130.871728762595, -854.0154521483722, -902.0493509828271, -1628.503397524762, -2438.687078796277, -10445.484274087463, -9159.364898129093, -12054.966337080758, -7283.4723929729935, -4231.565205045367, -6779.82053516156, -4073.761889190899, -5266.361566348263, 0.004, -0.023, 0.996, 192.0, 0.0, 16.0, 127.5, 40.0, 15.5, 24.0, 0.0, 0.0, 0.0, 1.6444979559183109E9, 0.0, 2022-02-10 23:59:15.918
2.0, -10937.155596870853, -13305.993474244295, -9076.551684922182, -16255.037934188598, -1705.4828054288396, -1811.8100538027352, -3263.3993939637417, -4896.060215957191, -20529.093805443503, -18617.170288225447, -23621.815278746522, -13789.796982979416, -8036.837939839118, -12805.716729845612, -7967.212255860836, -10051.668888529408, 0.004, -0.023, 0.996, 192.0, 0.0, 0.0, 0.0, 0.0, 0.0, 0.0, 0.0, 0.0, 0.0, 1.6444979559183204E9, 0.0, 2022-02-10 23:59:15.918
4.0, -10950.611347032947, -13305.658198077464, -9083.7936501257, -16250.656992275357, -1715.4293317114511, -1812.6370683475816, -3267.4003562212415, -4888.3935676090205, -20530.077282199538, -18620.72421559384, -23636.76859578712, -13784.186695121134, -8043.588166664621, -12792.395090150249, -7971.704956496354, -10049.992507695259, 0.004, -0.023, 0.996, 192.0, 0.0, 0.0, 0.0, 0.0, 0.0, 0.0, 0.0, 0.0, 0.0, 1.6444979559183395E9, 0.0, 2022-02-10 23:59:15.918
6.0, -10938.161425371341, -13292.515372337744, -9072.908350575966, -16254.03210568811, -1710.9366310759344, -1809.7313415683916, -3271.423670223197, -4894.763814778783, -20524.087014685516, -18591.644596057486, -23615.91441821032, -13763.064296610868, -8036.882643328028, -12781.353328389327, -7979.2821978667025, -10051.780647251684, 0.004, -0.023, 0.996, 192.0, 0.0, 0.0, 0.0, 0.0, 0.0, 0.0, 0.0, 0.0, 0.0, 1.6444979559183557E9, 0.0, 2022-02-10 23:59:15.918
8.0, -10944.68813475229, -13307.692206822898, -9078.27276924524, -16262.54812032558, -1719.698514902415, -1827.5680336437267, -3273.8823621132806, -4904.062140472191, -20529.652599054887, -18596.852552515575, -23617.81431648902, -13783.091459642823, -8044.929271331939, -12813.875116571799, -7974.2977588531685, -10059.156722921934, 0.004, -0.026000000000000002, 0.966, 192.0, 0.0, 16.0, 127.5, 24.0, 15.0, 24.0, 0.0, 0.0, 0.0, 1.644497955918362E9, 0.0, 2022-02-10 23:59:15.918
10.0, -10939.144902127375, -13284.356985611557, -9083.637187914514, -16249.40529458586, -1718.2903550017304, -1807.78673980078, -3267.489763199063, -4892.34982637761, -20530.658427555376, -18610.330654422123, -23628.09611893846, -13794.021462681469, -8041.531806174733, -12791.858648283322, -7977.538761799188, -10062.017746212214, 0.004, -0.026000000000000002, 0.966, 192.0, 0.0, 0.0, 0.0, 0.0, 0.0, 0.0, 0.0, 0.0, 0.0, 1.6444979559183686E9, 0.0, 2022-02-10 23:59:15.918
12.0, -10954.075867423519, -13297.499811351277, -9073.377737209528, -16252.422780087327, -1708.4108839524847, -1813.844062548168, -3240.9582425306135, -4885.44313734092, -20517.33678786001, -18610.10713697757, -23612.896932708853, -13768.719287958062, -8047.678535899942, -12795.524334373991, -7970.229741362303, -10052.853530985538, 0.004, -0.026000000000000002, 0.966, 192.0, 0.0, 0.0, 0.0, 0.0, 0.0, 0.0, 0.0, 0.0, 0.0, 1.6444979559183753E9, 0.0, 2022-02-10 23:59:15.918
14.0, -10975.377079889427, -13316.699959838386, -9069.063850529654, -16253.920346965831, -1706.041599040222, -1820.303716695752, -3236.2867279394545, -4898.563611336185, -20523.796442007595, -18621.17125048295, -23624.922171225808, -13789.39465157922, -8020.655276853476, -12807.72838684659, -7967.279311094202, -10060.52017933371, 0.004, -0.026000000000000002, 0.966, 192.0, 0.0, 0.0, 0.0, 0.0, 0.0, 0.0, 0.0, 0.0, 0.0, 1.6444979559183817E9, 0.0, 2022-02-10 23:59:15.918
16.0, -10973.253664166174, -13324.388959931011, -9073.131868020519, -16248.17594864082, -1708.1203112745657, -1796.9684954844113, -3229.625908091773, -4859.828038195138, -20541.610782338477, -18618.39963417049, -23628.587857316477, -13793.194448136623, -8033.798102593197, -12797.804212308432, -7967.167552371926, -10048.472589072298, 0.004, -0.026000000000000002, 0.966, 192.0, 0.0, 0.0, 0.0, 0.0, 0.0, 0.0, 0.0, 0.0, 0.0, 1.6444979559183881E9, 0.0, 2022-02-10 23:59:15.918
18.0, -10983.691928826802, -13326.199451231892, -9088.219295527852, -16246.74543699568, -1724.5488434492165, -1811.7877020582798, -3245.8979780552363, -4884.638474540529, -20548.58452660853, -18627.005055785783, -23633.035854463084, -13788.880561456748, -8039.676611384942, -12801.6710640992, -7972.777840230208, -10052.22768214079, 0.008, -0.022, 0.976, 192.0, 0.0, 32.0, 127.5, 40.0, 15.0, 64.0, 0.0, 0.0, 0.0, 1.6444979559183948E9, 0.0, 2022-02-10 23:59:15.918
20.0, -10953.852349978966, -13301.321959653134, -9080.17266752394, -16240.844576459478, -1719.050314313211, -1789.1900884139645, -3242.5005128980297, -4865.661843497974, -20532.06658745606, -18612.051738745184, -23639.696674310766, -13786.310110844388, -8030.020657780249, -12788.595293592847, -7983.730195013309, -10047.578519294086, 0.008, -0.022, 0.976, 192.0, 0.0, 0.0, 0.0, 0.0, 0.0, 0.0, 0.0, 0.0, 0.0, 1.6444979559184012E9, 0.0, 2022-02-10 23:59:15.918
22.0, -10952.98063194521, -13297.790384029197, -9071.813115097657, -16240.822224715022, -1714.2670409997752, -1783.915076722512, -3243.394582676242, -4866.980596420836, -20530.367854877455, -18593.522142591733, -23628.453746849747, -13790.221666124067, -8034.78157934923, -12768.456371838614, -7973.448392563867, -10044.337516348067, 0.008, -0.022, 0.976, 192.0, 0.0, 0.0, 0.0, 0.0, 0.0, 0.0, 0.0, 0.0, 0.0, 1.644497955918408E9, 0.0, 2022-02-10 23:59:15.918
24.0, -10971.577283332024, -13297.835087518108, -9070.784934852712, -16236.195413612773, -1724.8170643826802, -1807.0491322337548, -3256.783277604971, -4887.767718764272, -20528.847936254497, -18626.468613918856, -23631.6276945624, -13783.359680576288, -8031.652335125486, -12793.222104695094, -7976.018843176227, -10051.311260618122, 0.008, -0.022, 0.976, 192.0, 0.0, 0.0, 0.0, 0.0, 0.0, 0.0, 0.0, 0.0, 0.0, 1.6444979559184144E9, 0.0, 2022-02-10 23:59:15.918
26.0, -10939.010791660643, -13281.33950011009, -9061.8889405595, -16229.556945509548, -1713.7305991328478, -1793.2804576492856, -3246.0767920108788, -4875.96599769187, -20526.277485642135, -18607.849610787584, -23613.34396759796, -13773.033174637936, -8021.147015231492, -12796.753680319034, -7972.509619296744, -10052.51825481871, 0.006, -0.023, 0.99, 192.0, 0.0, 16.0, 127.5, 32.0, 15.5, 48.0, 0.0, 0.0, 0.0, 1.6444979559184208E9, 0.0, 2022-02-10 23:59:15.918
28.0, -10963.195379161285, -13288.179133913414, -9064.437039427405, -16230.8309949435, -1730.62851794106, -1798.6448763185592, -3246.2779577109764, -4881.017491938769, -20525.15989841937, -18597.500753104778, -23608.13601113987, -13768.898101913705, -8026.891413556506, -12779.744002788544, -7973.403689074957, -10048.360830350022, 0.006, -0.023, 0.99, 192.0, 0.0, 0.0, 0.0, 0.0, 0.0, 0.0, 0.0, 0.0, 0.0, 1.6444979559184277E9, 0.0, 2022-02-10 23:59:15.918
30.0, -10955.461675579749, -13297.008072973262, -9061.531312648214, -16233.73672172269, -1724.3476777491187, -1802.3105624092298, -3246.009736777513, -4884.414957095976, -20529.67495079934, -18610.844744544596, -23627.20204916025, -13789.059375412391, -8031.5852798921205, -12788.52823835948, -7980.064508922638, -10048.114961161013, 0.006, -0.023, 0.99, 192.0, 0.0, 0.0, 0.0, 0.0, 0.0, 0.0, 0.0, 0.0, 0.0, 1.644497955918434E9, 0.0, 2022-02-10 23:59:15.918
32.0, -10935.747436970167, -13283.619378044532, -9058.69264110239, -16230.249849587663, -1719.072666057666, -1805.3727513996068, -3246.590882133351, -4886.292503630221, -20517.58265704902, -18588.24713090028, -23608.15836288433, -13774.173113605157, -8025.080922255626, -12804.15210773374, -7972.286101852192, -10050.75246700674, 0.006, -0.023, 0.99, 192.0, 0.0, 0.0, 0.0, 0.0, 0.0, 0.0, 0.0, 0.0, 0.0, 1.644497955918455E9, 0.0, 2022-02-10 23:59:15.918
34.0, -10954.209977890252, -13286.01101470125, -9064.817019083146, -16220.415082027326, -1729.1309510625545, -1805.7080275664364, -3272.094222556856, -4887.410090852987, -20521.315398373055, -18614.01869225725, -23618.037833933573, -13773.994299649514, -8020.2529454532805, -12796.261941941017, -7972.397860574468, -10050.685411773375, 0.006, -0.023, 0.99, 192.0, 0.0, 0.0, 0.0, 0.0, 0.0, 0.0, 0.0, 0.0, 0.0, 1.6444979559184616E9, 0.0, 2022-02-10 23:59:15.918
36.0, -10931.880585179399, -13269.783648226698, -9042.867606028034, -16211.899067389855, -1707.5838694076383, -1785.5467540677494, -3250.9941757910465, -4872.188552878923, -20509.804249978573, -18592.762183280254, -23600.648176747345, -13752.715438928062, -8009.948791259384, -12763.67309852518, -7971.86141870754, -10044.2704611147, 0.008, -0.0235, 0.991, 192.0, 0.0, 40.0, 127.5, 32.0, 15.5, 0.0, 0.0, 0.0, 0.0, 1.6444979559184685E9, 0.0, 2022-02-10 23:59:15.918
38.0, -10944.710486496746, -13272.644671516977, -9054.043478255688, -16220.9291721498, -1723.5877184376382, -1791.984056470878, -3242.679326853672, -4878.0000064373025, -20513.134659902415, -18588.15772392246, -23598.703574979732, -13751.016706349457, -8014.866175039551, -12766.109438670808, -7963.323052325613, -10046.684449515873, 0.008, -0.0235, 0.991, 192.0, 0.0, 0.0, 0.0, 0.0, 0.0, 0.0, 0.0, 0.0, 0.0, 1.6444979559184773E9, 0.0, 2022-02-10 23:59:15.918
40.0, -10929.01956188912, -13265.000374913261, -9054.26699570024, -16226.740625708178, -1711.5177764317723, -1791.1570419260315, -3234.7221058275827, -4887.007759452791, -20505.4903632987, -18589.29766288968, -23602.86099944842, -13766.48411351253, -8012.876869783029, -12755.604118776813, -7967.636939005487, -10058.03913569917, 0.008, -0.0235, 0.991, 192.0, 0.0, 0.0, 0.0, 0.0, 0.0, 0.0, 0.0, 0.0, 0.0, 1.6444979559184873E9, 0.0, 2022-02-10 23:59:15.918
42.0, -10928.863099677934, -13268.643709259477, -9052.702373588369, -16228.752282709156, -1714.691724144426, -1800.5447745972604, -3243.8639693098035, -4858.665747483462, -20509.87130521194, -18592.896293746984, -23598.949444168742, -13764.785380933927, -8017.101349485082, -12778.157028932219, -7961.669023235921, -10055.334574620078, 0.008, -0.0235, 0.991, 192.0, 0.0, 0.0, 0.0, 0.0, 0.0, 0.0, 0.0, 0.0, 0.0, 1.644497955918494E9, 0.0, 2022-02-10 23:59:15.918
44.0, -10937.982611415699, -13270.990642427283, -9060.525484147725, -16225.220707085218, -1735.210625554398, -1808.7925683012688, -3266.3498242318424, -4881.844506483616, -20513.44758432479, -18606.374395653536, -23606.794906472554, -13770.775648447949, -8017.503680885277, -12790.137563960263, -7973.828372219607, -10062.509484590231, 0.008, -0.0235, 0.991, 192.0, 0.0, 0.0, 0.0, 0.0, 0.0, 0.0, 0.0, 0.0, 0.0, 1.644497955918501E9, 0.0, 2022-02-10 23:59:15.918
46.0, -10928.907803166843, -13258.183092854393, -9049.483722386805, -16225.913611163332, -1719.0950178021214, -1803.9869432433777, -3251.3518037023314, -4877.888247715026, -20507.323206344034, -18587.24130239979, -23598.569464513002, -13774.53074151644, -8012.519241871744, -12790.159915704719, -7977.985796688295, -10061.146028178457, 0.01, -0.02675, 0.9844999999999999, 192.0, 0.0, 48.0, 127.5, 8.0, 15.0, 72.0, 0.0, 0.0, 0.0, 1.6444979559185076E9, 0.0, 2022-02-10 23:59:15.918
48.0, -10947.660916764846, -13283.328805366613, -9061.08427775911, -16233.982590911699, -1726.6499074280152, -1804.0987019656543, -3252.4023356917305, -4878.0000064373025, -20509.826601723027, -18598.14895369398, -23596.021365645098, -13766.39470653471, -8018.911840785961, -12780.593369077847, -7980.086860667094, -10060.274310144701, 0.01, -0.02675, 0.9844999999999999, 192.0, 0.0, 0.0, 0.0, 0.0, 0.0, 0.0, 0.0, 0.0, 0.0, 1.6444979559185145E9, 0.0, 2022-02-10 23:59:15.918
50.0, -10944.844596963478, -13273.851665717562, -9060.480780658816, -16225.377169296406, -1719.6761631579595, -1787.8936872355566, -3242.0534780089233, -4866.690023742917, -20516.4427180818, -18603.602779341076, -23614.72977575419, -13774.486038027531, -8019.470634397345, -12780.258092911017, -7983.149049657471, -10056.31805137611, 0.01, -0.02675, 0.9844999999999999, 192.0, 0.0, 0.0, 0.0, 0.0, 0.0, 0.0, 0.0, 0.0, 0.0, 1.644497955918522E9, 0.0, 2022-02-10 23:59:15.918
52.0, -10944.732838241202, -13278.701994264364, -9054.669327100435, -16222.471442517215, -1716.0328288117444, -1781.299922621241, -3241.5393878864516, -4863.538427774719, -20510.944188945796, -18587.956558222362, -23594.18852259976, -13752.469569739053, -8013.413311649956, -12777.173552176184, -7972.755488485753, -10042.795245980651, 0.01, -0.02675, 0.9844999999999999, 192.0, 0.0, 0.0, 0.0, 0.0, 0.0, 0.0, 0.0, 0.0, 0.0, 1.6444979559185288E9, 0.0, 2022-02-10 23:59:15.918
54.0, -10958.322698870028, -13293.387090371501, -9067.298062717684, -16229.154614109351, -1729.175654551465, -1797.0579024622325, -3247.4178966781974, -4874.334320346632, -20517.761471004662, -18599.758279294765, -23609.275950107094, -13763.86895941126, -8021.012904764761, -12774.089011441352, -7979.952750200361, -10048.092609416559, 0.01, -0.02675, 0.9844999999999999, 192.0, 0.0, 0.0, 0.0, 0.0, 0.0, 0.0, 0.0, 0.0, 0.0, 1.6444979559185355E9, 0.0, 2022-02-10 23:59:15.918
56.0, -10939.658992249846, -13277.405593085956, -9060.45842891436, -16227.58999199748, -1715.205814266898, -1785.59145755666, -3238.812475062904, -4864.164276619467, -20515.459241325767, -18605.882657275517, -23607.174886128294, -13768.093439113312, -8020.364704175557, -12774.468991097092, -7979.393956588979, -10049.500769317243, 0.011, -0.024375, 1.0042499999999999, 192.0, 0.0, 48.0, 127.5, 40.0, 16.0, 0.0, 0.0, 0.0, 0.0, 1.6444979559185424E9, 0.0, 2022-02-10 23:59:15.918
58.0, -10950.20901563275, -13284.044061189183, -9068.214484240352, -16237.648277002369, -1728.4603987288951, -1794.7109692944252, -3248.1108007563116, -4875.742480247317, -20524.377587363433, -18607.044947987193, -23603.352737826437, -13769.546302502908, -8027.092579256604, -12771.742078273544, -7979.639825777987, -10052.294737374155, 0.011, -0.024375, 1.0042499999999999, 192.0, 0.0, 0.0, 0.0, 0.0, 0.0, 0.0, 0.0, 0.0, 0.0, 1.644497955918549E9, 0.0, 2022-02-10 23:59:15.918
60.0, -10943.391733573882, -13282.099459421572, -9067.678042373425, -16233.379093811405, -1719.3408869911298, -1794.5098035943274, -3236.6443558507394, -4865.9077126869815, -20523.01413095166, -18605.72619506433, -23613.411022831326, -13776.117715372768, -8024.700942599887, -12780.168685933195, -7985.25011363627, -10052.361792607522, 0.011, -0.024375, 1.0042499999999999, 192.0, 0.0, 0.0, 0.0, 0.0, 0.0, 0.0, 0.0, 0.0, 0.0, 1.644497955918568E9, 0.0, 2022-02-10 23:59:15.918
62.0, -10926.739683954678, -13270.409497071445, -9061.46425741485, -16230.003980398653, -1708.276773485753, -1788.944219224956, -3237.8289983068703, -4863.314910330166, -20516.241552381704, -18597.7913257827, -23596.021365645098, -13759.62212796475, -8025.192680977903, -12780.503962100025, -7981.606779290054, -10045.812731482118, 0.011, -0.024375, 1.0042499999999999, 192.0, 0.0, 0.0, 0.0, 0.0, 0.0, 0.0, 0.0, 0.0, 0.0, 1.6444979559185743E9, 0.0, 2022-02-10 23:59:15.918
64.0, -10940.910689939343, -13278.05379367516, -9076.998719811287, -16237.469463046726, -1716.1669392784763, -1792.6993122934477, -3241.5840913753623, -4866.466506298364, -20516.53212505962, -18600.786459539708, -23604.62678726039, -13768.33930830232, -8023.516300143755, -12787.075374969885, -7980.288026367191, -10047.936147205372, 0.011, -0.024375, 1.0042499999999999, 192.0, 0.0, 0.0, 0.0, 0.0, 0.0, 0.0, 0.0, 0.0, 0.0, 1.6444979559185812E9, 0.0, 2022-02-10 23:59:15.918
66.0, -10925.085654864986, -13264.732153979798, -9065.845199328089, -16233.714369978235, -1705.9521920624009, -1784.2727046337968, -3230.5423296144404, -4855.29063407071, -20508.53020054462, -18588.269482644737, -23596.893083678853, -13767.981680391036, -8027.15963448997, -12788.19296219265, -7977.985796688295, -10046.03624892667, 0.010499999999999999, -0.0251875, 1.0031249999999998, 192.0, 0.0, 40.0, 127.5, 24.0, 15.5, 40.0, 0.0, 0.0, 0.0, 1.6444979559185877E9, 0.0, 2022-02-10 23:59:15.918
68.0, -10946.45392256426, -13285.206351900859, -9074.294158732195, -16241.045742159575, -1716.0998840451105, -1791.78289077078, -3240.5335593859627, -4867.070003398658, -20513.961674447262, -18608.855439288072, -23593.58502549947, -13771.088572870323, -8030.847672325096, -12779.341671388349, -7975.415346075934, -10045.61156578202, 0.010499999999999999, -0.0251875, 1.0031249999999998, 192.0, 0.0, 0.0, 0.0, 0.0, 0.0, 0.0, 0.0, 0.0, 0.0, 1.644497955918594E9, 0.0, 2022-02-10 23:59:15.918
70.0, -10945.559852786047, -13277.785572741697, -9068.88503657401, -16237.648277002369, -1710.8695758425686, -1791.335855881674, -3239.2148064630996, -4865.974767920347, -20518.58848554951, -18618.69020684841, -23607.644272761856, -13774.955424661091, -8031.473521169844, -12787.991796492553, -7984.266636880236, -10050.439542584365, 0.010499999999999999, -0.0251875, 1.0031249999999998, 192.0, 0.0, 0.0, 0.0, 0.0, 0.0, 0.0, 0.0, 0.0, 0.0, 1.6444979559186025E9, 0.0, 2022-02-10 23:59:15.918
72.0, -10938.20612886025, -13280.892465220984, -9065.308757461162, -16237.156538624353, -1704.3205147171636, -1785.1220709230986, -3242.1652367312, -4865.81830570916, -20518.5437820606, -18603.11104096306, -23595.663737733812, -13756.604642463284, -8030.512396158266, -12774.401935863727, -7980.377433345013, -10046.505635560232, 0.010499999999999999, -0.0251875, 1.0031249999999998, 192.0, 0.0, 0.0, 0.0, 0.0, 0.0, 0.0, 0.0, 0.0, 0.0, 1.644497955918609E9, 0.0, 2022-02-10 23:59:15.918
74.0, -10944.554024285559, -13267.973156925817, -9075.411745954962, -16244.934945694798, -1717.1727677789652, -1787.9607424689225, -3253.3411089588535, -4877.150640148001, -20521.360101861967, -18600.361776395057, -23604.6714907493, -13763.332517544331, -8032.434646181423, -12757.99575543353, -7981.204447889859, -10048.561996050119, 0.010499999999999999, -0.0251875, 1.0031249999999998, 192.0, 0.0, 0.0, 0.0, 0.0, 0.0, 0.0, 0.0, 0.0, 0.0, 1.6444979559186153E9, 0.0, 2022-02-10 23:59:15.918
76.0, -10923.521032753115, -13268.509598792745, -9063.542969649192, -16241.492777048681, -1702.1970989939093, -1784.6973877784478, -3235.906748283714, -4882.8726867285595, -20514.989854692205, -18592.046927457683, -23605.654967505332, -13768.696936213606, -8031.428817680934, -12780.19103767765, -7976.15295364296, -10048.494940816754, 0.00925, -0.01859375, 0.9985624999999999, 192.0, 0.0, 32.0, 127.5, 80.0, 15.5, 8.0, 0.0, 0.0, 0.0, 1.644497955918622E9, 0.0, 2022-02-10 23:59:15.918
78.0, -10938.161425371341, -13282.121811166027, -9076.216408755352, -16248.868852718933, -1713.5070816882946, -1794.7333210388806, -3236.622004106284, -4847.355764789077, -20513.089956413503, -18605.480325875324, -23594.926130166787, -13765.366526289765, -8031.384114192023, -12780.72747954458, -7973.783668730697, -10043.331687847578, 0.00925, -0.01859375, 0.9985624999999999, 192.0, 0.0, 0.0, 0.0, 0.0, 0.0, 0.0, 0.0, 0.0, 0.0, 1.6444979559186285E9, 0.0, 2022-02-10 23:59:15.918
80.0, -10932.998172402165, -13281.160686154448, -9068.281539473717, -16243.683248005302, -1704.7675496062698, -1790.754710525836, -3232.8892627822474, -4850.283843312722, -20515.92862795933, -18611.31413117816, -23601.7210604812, -13773.591968249319, -8036.815588094662, -12784.974310991087, -7979.662177522443, -10043.108170403024, 0.00925, -0.01859375, 0.9985624999999999, 192.0, 0.0, 0.0, 0.0, 0.0, 0.0, 0.0, 0.0, 0.0, 0.0, 1.6444979559186351E9, 0.0, 2022-02-10 23:59:15.918
82.0, -10928.572527000015, -13268.86722670403, -9058.60323412457, -16238.11766363593, -1705.080474028644, -1782.529268566283, -3244.914501299203, -4854.329509059133, -20512.799383735586, -18612.096442234095, -23586.52187425159, -13758.10220934179, -8030.959431047372, -12780.056927210919, -7973.202523374859, -10040.18009187938, 0.00925, -0.01859375, 0.9985624999999999, 192.0, 0.0, 0.0, 0.0, 0.0, 0.0, 0.0, 0.0, 0.0, 0.0, 1.6444979559186416E9, 0.0, 2022-02-10 23:59:15.918
84.0, -10944.97870743021, -13269.001337170761, -9067.566283651147, -16237.938849680288, -1709.595526408616, -1783.5798005556824, -3215.4996055960187, -4866.444154553909, -20518.096747171494, -18615.471555646844, -23598.18948485726, -13769.72511645855, -8032.658163625975, -12776.346537631338, -7972.57667453011, -10041.3200308466, 0.00925, -0.01859375, 0.9985624999999999, 192.0, 0.0, 0.0, 0.0, 0.0, 0.0, 0.0, 0.0, 0.0, 0.0, 1.644497955918648E9, 0.0, 2022-02-10 23:59:15.918
86.0, -10930.762997956634, -13271.191808127382, -9061.218388225841, -16233.647314744869, -1705.3039914731971, -1780.0482249317438, -3212.459768350097, -4843.041878109202, -20517.314436115557, -18606.284988675714, -23600.245845347148, -13775.782439205937, -8034.178082248936, -12779.81105802191, -7969.715651239831, -10036.55910927762, 0.006625, -0.024296875, 0.9912812499999999, 192.0, 0.0, 16.0, 127.5, 8.0, 15.0, 96.0, 0.0, 0.0, 0.0, 1.6444979559186552E9, 0.0, 2022-02-10 23:59:15.918
88.0, -10947.035067920098, -13289.229665902814, -9067.476876673327, -16240.106968892453, -1719.1173695465768, -1791.1346901815762, -3221.176948687667, -4849.143904345501, -20525.003436208182, -18610.621227100044, -23592.4674382767, -13763.421924522154, -8041.531806174733, -12777.173552176184, -7967.994566916772, -10037.028495911181, 0.006625, -0.024296875, 0.9912812499999999, 192.0, 0.0, 0.0, 0.0, 0.0, 0.0, 0.0, 0.0, 0.0, 0.0, 1.6444979559186623E9, 0.0, 2022-02-10 23:59:15.918
90.0, -10940.776579472611, -13281.138334409992, -9066.69456561739, -16241.604535770957, -1708.6120496525825, -1772.0463004167439, -3208.2799921369547, -4839.890282141004, -20523.170593162846, -18618.73491033732, -23605.789077972066, -13773.860189182782, -8043.610518409076, -12769.61866255029, -7971.079107651604, -10039.84481571255, 0.006625, -0.024296875, 0.9912812499999999, 192.0, 0.0, 0.0, 0.0, 0.0, 0.0, 0.0, 0.0, 0.0, 0.0, 1.6444979559186692E9, 0.0, 2022-02-10 23:59:15.918
92.0, -10924.437454275781, -13259.367735310523, -9059.631414369514, -16235.994247912677, -1702.62178213856, -1781.5010883213388, -3214.449073606619, -4850.350898546088, -20521.181287906325, -18614.644541102, -23592.556845254523, -13763.064296610868, -8038.11198927307, -12774.223121908084, -7965.044136648672, -10035.665039499407, 0.006625, -0.024296875, 0.9912812499999999, 192.0, 0.0, 0.0, 0.0, 0.0, 0.0, 0.0, 0.0, 0.0, 0.0, 1.644497955918676E9, 0.0, 2022-02-10 23:59:15.918
94.0, -10948.152655142863, -13270.163627882437, -9071.835466842113, -16236.083654890497, -1721.53135794775, -1796.4767571063946, -3227.2566231795104, -4857.324642816144, -20521.44950883979, -18619.092538248606, -23602.033984903574, -13772.63084323774, -8034.982745049328, -12788.215313937106, -7968.218084361325, -10044.56103379262, 0.006625, -0.024296875, 0.9912812499999999, 192.0, 0.0, 0.0, 0.0, 0.0, 0.0, 0.0, 0.0, 0.0, 0.0, 1.6444979559186823E9, 0.0, 2022-02-10 23:59:15.918
96.0, -10932.26056483514, -13273.561093039643, -9057.46329515735, -16225.913611163332, -1701.1018635155992, -1776.5837045411713, -3214.806701517904, -4844.5394449877085, -20517.560305304563, -18614.532782379723, -23597.63069124588, -13775.804790950393, -8029.193643235403, -12785.287235413462, -7968.061622150139, -10038.481359300777, 0.002, -0.024, 0.982, 192.0, 0.0, 8.0, 127.5, 32.0, 15.0, 88.0, 0.0, 0.0, 0.0, 1.644497955918689E9, 0.0, 2022-02-10 23:59:15.918
98.0, -10936.909727681843, -13268.822523215118, -9061.50896090376, -16227.366474552928, -1716.2116427673868, -1776.1813731409757, -3234.1633122162, -4856.788200949216, -20520.15310766138, -18609.704805577374, -23594.054412133028, -13768.763991446971, -8029.573622891144, -12773.664328296702, -7962.451334291856, -10032.60285050903, 0.002, -0.024, 0.982, 192.0, 0.0, 0.0, 0.0, 0.0, 0.0, 0.0, 0.0, 0.0, 0.0, 1.6444979559186957E9, 0.0, 2022-02-10 23:59:15.918
100.0, -10933.758131713645, -13259.188921354882, -9055.541045134192, -16223.633733228891, -1715.496386944817, -1781.724605765892, -3228.105989468812, -4851.356727046576, -20513.67110176934, -18599.4900583613, -23597.407173801326, -13780.92334043066, -8022.9575065323725, -12779.81105802191, -7966.273482593714, -10036.782626722174, 0.002, -0.024, 0.982, 192.0, 0.0, 0.0, 0.0, 0.0, 0.0, 0.0, 0.0, 0.0, 0.0, 1.644497955918702E9, 0.0, 2022-02-10 23:59:15.918
102.0, -10930.986515401188, -13265.492113291279, -9049.662536342446, -16221.7785384391, -1706.1533577624987, -1769.0064631708221, -3223.9262132556696, -4835.218767549845, -20519.884886727916, -18614.644541102, -23587.75122019663, -13769.546302502908, -8025.550308889188, -12774.044307952441, -7954.829389432596, -10029.65242024093, 0.002, -0.024, 0.982, 192.0, 0.0, 0.0, 0.0, 0.0, 0.0, 0.0, 0.0, 0.0, 0.0, 1.6444979559187105E9, 0.0, 2022-02-10 23:59:15.918
104.0, -10951.706582511257, -13272.041174416683, -9062.827713826622, -16222.314980306028, -1715.0940555446216, -1778.014216186311, -3246.1661989887, -4863.516076030263, -20518.029691938125, -18609.01190149926, -23595.976662156187, -13771.736773459528, -8023.717465843853, -12775.899502742232, -7960.953767413351, -10030.725303974785, 0.002, -0.024, 0.982, 192.0, 0.0, 0.0, 0.0, 0.0, 0.0, 0.0, 0.0, 0.0, 0.0, 1.644497955918717E9, 0.0, 2022-02-10 23:59:15.918
106.0, -10942.363553328938, -13264.86626444653, -9053.238815455295, -16214.469518002215, -1703.046465283211, -1765.0725561466882, -3187.984608171536, -4822.612383677052, -20524.73521527472, -18614.622189357542, -23600.11173488042, -13773.323747315855, -8026.422026922945, -12776.793572520444, -7955.298776066158, -10025.65145798343, 0.004, -0.024, 0.98, 192.0, 0.0, 16.0, 127.5, 32.0, 15.0, 80.0, 0.0, 0.0, 0.0, 1.6444979559187233E9, 0.0, 2022-02-10 23:59:15.918
108.0, -10951.818341233533, -13271.616491272032, -9056.613928868048, -16216.68234070329, -1722.8054073817025, -1788.072501191199, -3218.628849819762, -4851.289671813211, -20530.591372322007, -18613.795174812698, -23593.674432477288, -13770.082744369834, -8033.216957237359, -12777.173552176184, -7952.303642309147, -10025.047960883137, 0.004, -0.024, 0.98, 192.0, 0.0, 0.0, 0.0, 0.0, 0.0, 0.0, 0.0, 0.0, 0.0, 1.64449795591873E9, 0.0, 2022-02-10 23:59:15.918
110.0, -10951.8853964669, -13276.556226796654, -9055.138713733997, -16217.956390137244, -1719.5420526912276, -1782.4175098440064, -3222.4509981216193, -4853.949529403392, -20528.132680431925, -18617.05852950317, -23604.00093841564, -13780.319843330366, -8030.333582202624, -12787.768279048, -7964.306529081647, -10037.073199400093, 0.004, -0.024, 0.98, 192.0, 0.0, 0.0, 0.0, 0.0, 0.0, 0.0, 0.0, 0.0, 0.0, 1.6444979559187365E9, 0.0, 2022-02-10 23:59:15.918
112.0, -10952.645355778379, -13280.758354754253, -9054.065830000143, -16223.633733228891, -1707.1144827740768, -1771.9568934389226, -3191.851459962304, -4827.082732568113, -20535.44170086881, -18627.697959863897, -23600.51406628061, -13786.041889910925, -8046.583300421632, -12780.235741166562, -7951.1637033419265, -10023.908021915917, 0.004, -0.024, 0.98, 192.0, 0.0, 0.0, 0.0, 0.0, 0.0, 0.0, 0.0, 0.0, 0.0, 1.644497955918743E9, 0.0, 2022-02-10 23:59:15.918
114.0, -10968.604501319469, -13278.813752986642, -9065.912254561455, -16220.325675049506, -1721.3301922476521, -1793.951009982945, -3219.7911405314376, -4850.283843312722, -20544.67297132885, -18630.044893031703, -23608.20306637324, -13796.457802827097, -8040.861253841073, -12810.969389792608, -7956.125790611004, -10030.680600485874, 0.004, -0.024, 0.98, 192.0, 0.0, 0.0, 0.0, 0.0, 0.0, 0.0, 0.0, 0.0, 0.0, 1.6444979559187496E9, 0.0, 2022-02-10 23:59:15.918
116.0, -10957.160408158352, -13272.622319772521, -9055.786914323202, -16213.284875546084, -1709.6849333864373, -1782.529268566283, -3224.037971977946, -4846.886378155516, -20541.25315442719, -18627.452090674888, -23608.985377429173, -13789.528762045951, -8046.292727743713, -12797.379529163782, -7962.339575569579, -10032.245222597745, 0.006, -0.028, 0.978, 192.0, 0.0, 24.0, 127.5, 16.0, 15.0, 72.0, 0.0, 0.0, 0.0, 1.6444979559187562E9, 0.0, 2022-02-10 23:59:15.918
118.0, -10959.373230859426, -13287.620340302032, -9055.362231178551, -16216.257657558639, -1714.5129101887835, -1800.365960641618, -3240.9135390417027, -4875.787183736227, -20542.281334672134, -18632.816509344164, -23601.855170947932, -13790.10990740179, -8039.654259640487, -12795.703148329634, -7958.696241223364, -10036.201481366335, 0.006, -0.028, 0.978, 192.0, 0.0, 0.0, 0.0, 0.0, 0.0, 0.0, 0.0, 0.0, 0.0, 1.6444979559187632E9, 0.0, 2022-02-10 23:59:15.918
120.0, -10966.190512918296, -13281.652424532465, -9052.188283465897, -16212.21199181223, -1705.4828054288396, -1797.0355507177771, -3222.003963232513, -4848.987442134314, -20539.822642782052, -18644.5511751832, -23608.113659395418, -13801.866924985281, -8032.792274092708, -12800.195848965152, -7964.440639548378, -10041.990583180259, 0.006, -0.028, 0.978, 192.0, 0.0, 0.0, 0.0, 0.0, 0.0, 0.0, 0.0, 0.0, 0.0, 1.6444979563976011E9, 0.0, 2022-02-10 23:59:16.397
122.0, -10956.087524424496, -13279.529008809212, -9045.92979501841, -16210.803831911546, -1700.207793737387, -1784.652684289537, -3209.3528758708094, -4834.168235560445, -20538.12391020345, -18624.859288318075, -23591.6180719874, -13785.952482933102, -8032.613460137065, -12791.590427349858, -7955.209369088337, -10033.98865866526, 0.006, -0.028, 0.978, 192.0, 0.0, 0.0, 0.0, 0.0, 0.0, 0.0, 0.0, 0.0, 0.0, 1.644497956397762E9, 0.0, 2022-02-10 23:59:16.397
124.0, -10973.343071143994, -13295.957540983862, -9058.893806802489, -16206.579352209492, -1713.2835642437417, -1777.4107190860177, -3232.978669760069, -4833.676497182429, -20545.097654473502, -18646.808701373186, -23602.928054681786, -13792.92622720316, -8035.385076449523, -12799.570000120402, -7959.143276112471, -10030.233565596767, 0.006, -0.028, 0.978, 192.0, 0.0, 0.0, 0.0, 0.0, 0.0, 0.0, 0.0, 0.0, 0.0, 1.6444979563977702E9, 0.0, 2022-02-10 23:59:16.397
126.0, -10962.524826827625, -13287.39682285748, -9048.053210741666, -16202.645445185359, -1699.9395728039233, -1764.0890793906547, -3212.5491753279184, -4826.680401167918, -20548.070436486058, -18646.2499077618, -23611.19820013025, -13790.735756246539, -8036.860291583574, -12780.079278955374, -7958.606834245544, -10026.545527761642, 0.012, -0.022, 0.98, 192.0, 0.0, 48.0, 127.5, 40.0, 15.0, 80.0, 0.0, 0.0, 0.0, 1.6444979563977776E9, 0.0, 2022-02-10 23:59:16.397
128.0, -10975.734707800711, -13283.909950722451, -9053.305870688662, -16206.221724298208, -1715.4740352003616, -1785.9043819790343, -3238.0525157514235, -4844.2935757987, -20550.752645820696, -18650.854367119595, -23599.28472033557, -13792.523895802964, -8041.822378852651, -12796.351348918837, -7950.895482408462, -10027.774873706685, 0.012, -0.022, 0.98, 192.0, 0.0, 0.0, 0.0, 0.0, 0.0, 0.0, 0.0, 0.0, 0.0, 1.6444979563977852E9, 0.0, 2022-02-10 23:59:16.397
130.0, -10979.534504358115, -13289.497886836278, -9052.41180091045, -16201.974892851698, -1717.4409887124289, -1789.8382890031683, -3217.2206899190774, -4841.700773441884, -20549.97033476476, -18646.83105311764, -23608.33717683997, -13805.68907328714, -8047.544425433211, -12799.949979776142, -7960.506732524244, -10034.502748787732, 0.012, -0.022, 0.98, 192.0, 0.0, 0.0, 0.0, 0.0, 0.0, 0.0, 0.0, 0.0, 0.0, 1.644497956397792E9, 0.0, 2022-02-10 23:59:16.397
132.0, -10966.861065251955, -13293.767070027241, -9052.724725332824, -16200.544381206559, -1717.239823012331, -1788.5195360803052, -3218.87471900877, -4858.3975265499985, -20554.440683655823, -18639.7008466364, -23597.585987756967, -13790.176962635156, -8051.724201646352, -12816.959657306632, -7952.996546387261, -10033.631030753975, 0.012, -0.022, 0.98, 192.0, 0.0, 0.0, 0.0, 0.0, 0.0, 0.0, 0.0, 0.0, 0.0, 1.6444979563977988E9, 0.0, 2022-02-10 23:59:16.397
134.0, -10990.397452163394, -13298.952674740873, -9061.017222525743, -16209.01569235512, -1721.7995788812136, -1802.1317484535873, -3225.3567249008092, -4869.752212733294, -20563.96252679378, -18662.052591091706, -23615.24386587666, -13807.611323310295, -8050.2489865123025, -12811.908163059732, -7961.24434009127, -10042.392914580454, 0.012, -0.022, 0.98, 192.0, 0.0, 0.0, 0.0, 0.0, 0.0, 0.0, 0.0, 0.0, 0.0, 1.6444979563978217E9, 0.0, 2022-02-10 23:59:16.397
136.0, -10986.21767595025, -13289.453183347367, -9049.12609447552, -16203.204238796741, -1706.8686135850685, -1785.4349953454728, -3215.097274195823, -4849.233311323323, -20562.64377387092, -18657.31402126718, -23608.78421172908, -13807.074881443368, -8046.3150794881685, -12807.504869402037, -7958.875055179007, -10038.459007556321, 0.01, -0.024, 0.988, 192.0, 0.0, 40.0, 127.5, 32.0, 15.0, 112.0, 0.0, 0.0, 0.0, 1.6444979563978283E9, 0.0, 2022-02-10 23:59:16.397
138.0, -10995.22542896574, -13304.942942254895, -9060.167856236441, -16208.59100921047, -1719.4079422244959, -1794.9568384834336, -3226.742533057038, -4847.199302577889, -20568.276413473657, -18655.570585199664, -23608.180714628783, -13802.58218080785, -8047.611480666576, -12808.734215347078, -7953.354174298546, -10036.246184855245, 0.01, -0.024, 0.988, 192.0, 0.0, 0.0, 0.0, 0.0, 0.0, 0.0, 0.0, 0.0, 0.0, 1.6444979563978357E9, 0.0, 2022-02-10 23:59:16.397
140.0, -10983.714280571257, -13304.96529399935, -9060.905463803467, -16203.78538415258, -1716.5245671897612, -1793.9063064940342, -3233.5374633714514, -4855.4023927929875, -20565.46009367229, -18656.084675322138, -23618.797793245056, -13813.646294313228, -8048.036163811227, -12805.49321240106, -7965.3123575821355, -10041.096513402046, 0.01, -0.024, 0.988, 192.0, 0.0, 0.0, 0.0, 0.0, 0.0, 0.0, 0.0, 0.0, 0.0, 1.644497956397843E9, 0.0, 2022-02-10 23:59:16.397
142.0, -10986.530600372625, -13312.095500480593, -9057.50799864626, -16209.172154566308, -1712.3000874877082, -1800.298905408252, -3222.0933702103343, -4855.5812067486295, -20567.158826250892, -18666.388829516036, -23606.28081635008, -13802.939808719137, -8048.97493707835, -12798.67593034219, -7963.524218025711, -10041.565900035608, 0.01, -0.024, 0.988, 192.0, 0.0, 0.0, 0.0, 0.0, 0.0, 0.0, 0.0, 0.0, 0.0, 1.6444979563978498E9, 0.0, 2022-02-10 23:59:16.397
144.0, -10995.717167343757, -13310.955561513372, -9066.024013283732, -16207.920456876811, -1730.3826487520516, -1816.593327116171, -3241.44998090863, -4870.042785411213, -20570.131608263448, -18661.44909399141, -23614.796830987554, -13817.423739126176, -8054.719335403363, -12828.604916167846, -7966.966386671828, -10053.881711230482, 0.01, -0.024, 0.988, 192.0, 0.0, 0.0, 0.0, 0.0, 0.0, 0.0, 0.0, 0.0, 0.0, 1.6444979563978567E9, 0.0, 2022-02-10 23:59:16.397
146.0, -10990.531562630125, -13293.34238688259, -9053.909367788956, -16201.930189362789, -1716.5692706786717, -1803.9198880100118, -3237.516073884496, -4871.942683689915, -20569.25989022969, -18660.130341068547, -23614.193333887262, -13818.49662286003, -8057.490951715822, -12818.993666052063, -7966.675813993909, -10053.546435063654, 0.006, -0.028, 0.99, 192.0, 0.0, 24.0, 127.5, 16.0, 15.0, 120.0, 0.0, 0.0, 0.0, 1.6444979563978662E9, 0.0, 2022-02-10 23:59:16.397
148.0, -11001.550972646592, -13300.003206730273, -9060.480780658816, -16206.73581442068, -1722.5371864482388, -1815.0510567487547, -3246.2109024776105, -4874.021395924258, -20573.59612865402, -18669.51807373978, -23601.922226181297, -13804.951465720114, -8057.312137760179, -12818.837203840876, -7963.032479647694, -10053.613490297019, 0.006, -0.028, 0.99, 192.0, 0.0, 0.0, 0.0, 0.0, 0.0, 0.0, 0.0, 0.0, 0.0, 1.6444979563978739E9, 0.0, 2022-02-10 23:59:16.397
150.0, -10992.677330097835, -13310.01678824625, -9060.950167292378, -16204.321826019506, -1725.755837649803, -1811.5641846137269, -3245.4062396772197, -4873.373195335054, -20577.664146144885, -18674.815437175686, -23621.43529909078, -13821.625867083772, -8054.093486558615, -12837.34444824987, -7969.112154139538, -10054.328746119589, 0.006, -0.028, 0.99, 192.0, 0.0, 0.0, 0.0, 0.0, 0.0, 0.0, 0.0, 0.0, 0.0, 1.6444979563978808E9, 0.0, 2022-02-10 23:59:16.397
152.0, -10977.232274679218, -13297.522163095733, -9056.03278351221, -16205.506468475638, -1723.0959800596215, -1809.5972311016599, -3245.8532745663256, -4880.7045675163945, -20568.74580010722, -18665.874739393563, -23602.5704267705, -13810.025311711468, -8048.617309167065, -12819.261886985529, -7962.2054651028475, -10048.293775116656, 0.006, -0.028, 0.99, 192.0, 0.0, 0.0, 0.0, 0.0, 0.0, 0.0, 0.0, 0.0, 0.0, 1.6444979563978884E9, 0.0, 2022-02-10 23:59:16.397
154.0, -10991.22446670824, -13309.972084757339, -9067.74509760679, -16205.931151620289, -1739.0551256007107, -1817.755617827847, -3261.320681729398, -4875.340148847121, -20571.986803053238, -18663.326640525658, -23606.213761116716, -13816.864945514793, -8050.338393490124, -12826.97323882261, -7967.8381047055855, -10054.574615308597, 0.006, -0.028, 0.99, 192.0, 0.0, 0.0, 0.0, 0.0, 0.0, 0.0, 0.0, 0.0, 0.0, 1.6444979563978958E9, 0.0, 2022-02-10 23:59:16.397
156.0, -10983.535466615614, -13302.171325942438, -9058.98321378031, -16203.673625430301, -1723.3418492486298, -1805.2162891884195, -3233.9844982605578, -4862.353785318588, -20570.064553030083, -18660.93500386894, -23609.052432662542, -13801.464593585086, -8051.612442924076, -12808.086014757875, -7969.000395417261, -10044.60573728153, 0.004, -0.03, 0.986, 192.0, 0.0, 16.0, 127.5, 8.0, 15.0, 104.0, 0.0, 0.0, 0.0, 1.6444979563979025E9, 0.0, 2022-02-10 23:59:16.397
158.0, -10986.21767595025, -13300.226724174825, -9060.726649847824, -16205.104137075441, -1724.884119616046, -1817.554452127749, -3240.6676698526944, -4875.988349436325, -20567.471750673267, -18666.21001556039, -23592.601548743434, -13802.78334650795, -8047.1420940330145, -12823.464014943125, -7957.265729578225, -10046.393876837954, 0.004, -0.03, 0.986, 192.0, 0.0, 0.0, 0.0, 0.0, 0.0, 0.0, 0.0, 0.0, 0.0, 1.6444979563979094E9, 0.0, 2022-02-10 23:59:16.397
160.0, -10988.139925973408, -13300.785517786207, -9063.095934760087, -16205.551171964547, -1719.1397212910322, -1808.949030512456, -3235.2138442055993, -4868.34405283261, -20565.03541052764, -18663.79602715922, -23606.14670588335, -13820.329465905364, -8045.979803321338, -12820.357122463838, -7965.468819793323, -10049.567824550608, 0.004, -0.03, 0.986, 192.0, 0.0, 0.0, 0.0, 0.0, 0.0, 0.0, 0.0, 0.0, 0.0, 1.6444979563979187E9, 0.0, 2022-02-10 23:59:16.397
162.0, -10975.712356056256, -13290.414308358946, -9054.356402678062, -16198.577427694492, -1708.6120496525825, -1799.3824838855844, -3242.5452163869404, -4866.041823153713, -20564.744837849717, -18663.68426843694, -23597.742449968155, -13809.01948321098, -8049.332564989635, -12815.171517750206, -7962.741906969775, -10043.734019247773, 0.004, -0.03, 0.986, 192.0, 0.0, 0.0, 0.0, 0.0, 0.0, 0.0, 0.0, 0.0, 0.0, 1.6444979563979256E9, 0.0, 2022-02-10 23:59:16.397
164.0, -10989.45867889627, -13289.408479858457, -9066.672213872936, -16196.856343371433, -1721.9113376034902, -1805.3056961662408, -3251.105934513323, -4883.096204173113, -20555.245346456213, -18660.26445153528, -23593.76383945511, -13800.883448229248, -8040.145998018504, -12815.082110772386, -7957.869226678518, -10044.046943670148, 0.005, -0.025, 0.991, 192.0, 0.0, 24.0, 127.5, 48.0, 15.5, 16.0, 0.0, 0.0, 0.0, 1.6444979563979328E9, 0.0, 2022-02-10 23:59:16.397
166.0, -10982.619045092946, -13296.426927617424, -9059.40789692496, -16202.332520762984, -1710.5566514201942, -1789.1006814361433, -3213.040913705935, -4850.194436334901, -20558.598108124508, -18654.2518322768, -23593.47326677719, -13798.223590639067, -8037.240271239313, -12806.856668812832, -7959.657366234943, -10037.453179055832, 0.005, -0.025, 0.991, 192.0, 0.0, 0.0, 0.0, 0.0, 0.0, 0.0, 0.0, 0.0, 0.0, 1.6444979563979423E9, 0.0, 2022-02-10 23:59:16.397
168.0, -10994.420766165349, -13305.881715522019, -9068.661519129459, -16211.25086680065, -1722.2242620258644, -1795.7615012838248, -3233.8056843049153, -4859.559817261675, -20569.192834996324, -18658.766884656776, -23601.452839547735, -13799.363529606288, -8043.744628875808, -12797.6701018417, -7964.150066870459, -10032.915774931405, 0.005, -0.025, 0.991, 192.0, 0.0, 0.0, 0.0, 0.0, 0.0, 0.0, 0.0, 0.0, 0.0, 1.6444979563979492E9, 0.0, 2022-02-10 23:59:16.397
170.0, -10982.797859048589, -13288.469706591333, -9065.97930979482, -16213.284875546084, -1721.2631370142863, -1801.0812164641877, -3232.598690104329, -4865.460677797875, -20561.59324188152, -18656.285841022236, -23610.214723374218, -13808.840669255338, -8040.302460229691, -12810.879982814788, -7969.425078561912, -10041.990583180259, 0.005, -0.025, 0.991, 192.0, 0.0, 0.0, 0.0, 0.0, 0.0, 0.0, 0.0, 0.0, 0.0, 1.6444979563979561E9, 0.0, 2022-02-10 23:59:16.397
172.0, -10951.147788899874, -13289.229665902814, -9060.100801003075, -16219.677474460303, -1708.6120496525825, -1793.59338207166, -3217.265393407988, -4850.283843312722, -20549.433892897832, -18648.395675229513, -23592.981528399174, -13815.412082125198, -8037.30732647268, -12813.361026449327, -7965.737040726786, -10037.833158711572, 0.005, -0.025, 0.991, 192.0, 0.0, 0.0, 0.0, 0.0, 0.0, 0.0, 0.0, 0.0, 0.0, 1.6444979563979633E9, 0.0, 2022-02-10 23:59:16.397
174.0, -10983.379004404427, -13301.053738719671, -9064.012356282754, -16212.703730190246, -1719.497349202317, -1800.656533319537, -3238.790123318449, -4862.644357996507, -20548.003381252693, -18656.799931144706, -23604.71619423821, -13811.992265223536, -8041.3306404746345, -12803.123927488796, -7964.127715126004, -10042.03528666917, 0.0045000000000000005, -0.0225, 0.9944999999999999, 192.0, 0.0, 16.0, 127.5, 48.0, 15.5, 24.0, 0.0, 0.0, 0.0, 1.6444979563979697E9, 0.0, 2022-02-10 23:59:16.397
176.0, -10982.17201020384, -13293.34238688259, -9052.367097421538, -16208.21102955473, -1706.3098199736858, -1789.0336262027772, -3232.397524404231, -4854.307157314677, -20546.72933181874, -18654.631811932544, -23582.453856760723, -13777.81644795137, -8032.769922348252, -12800.285255942972, -7968.19573261687, -10037.587289522564, 0.0045000000000000005, -0.0225, 0.9944999999999999, 192.0, 0.0, 0.0, 0.0, 0.0, 0.0, 0.0, 0.0, 0.0, 0.0, 1.6444979563979766E9, 0.0, 2022-02-10 23:59:16.397
178.0, -10986.12826897243, -13284.982834456307, -9061.285443459206, -16216.414119769826, -1709.9978578088114, -1791.0676349482103, -3230.944661014636, -4858.665747483462, -20550.998515009705, -18642.4501112044, -23573.20023455623, -13774.01665139397, -8031.87585257004, -12793.602084350836, -7964.932377926395, -10035.508577288221, 0.0045000000000000005, -0.0225, 0.9944999999999999, 192.0, 0.0, 0.0, 0.0, 0.0, 0.0, 0.0, 0.0, 0.0, 0.0, 1.6444979563979833E9, 0.0, 2022-02-10 23:59:16.397
180.0, -10983.021376493141, -13288.000319957771, -9061.196036481386, -16217.799927926057, -1709.14849151951, -1790.039454703266, -3202.6697042786723, -4847.825151422639, -20550.59618360951, -18632.615343644065, -23593.80854294402, -13802.939808719137, -8034.736875860319, -12799.838221053866, -7963.9041976814515, -10032.356981320023, 0.0045000000000000005, -0.0225, 0.9944999999999999, 192.0, 0.0, 0.0, 0.0, 0.0, 0.0, 0.0, 0.0, 0.0, 0.0, 1.6444979563979902E9, 0.0, 2022-02-10 23:59:16.397
182.0, -10966.101105940474, -13284.82637224512, -9057.373888179527, -16209.283913288584, -1700.4536629263955, -1777.8354022306685, -3207.0729979363678, -4841.834883908616, -20546.036427740626, -18640.59491641461, -23577.692935191746, -13782.264445097977, -8036.681477627931, -12796.932494274675, -7960.596139502066, -10023.84096668255, 0.0045000000000000005, -0.0225, 0.9944999999999999, 192.0, 0.0, 0.0, 0.0, 0.0, 0.0, 0.0, 0.0, 0.0, 0.0, 1.644497956397997E9, 0.0, 2022-02-10 23:59:16.397
184.0, -10981.143829958895, -13282.926473966418, -9066.26988247274, -16214.961256380233, -1716.5245671897612, -1790.7770622702913, -3224.619117333784, -4843.846540909593, -20548.83039579754, -18654.810625888185, -23584.04083061705, -13787.293587600421, -8038.9837073068275, -12796.731328574579, -7960.596139502066, -10022.902193415428, 0.0032500000000000003, -0.02425, 0.99425, 192.0, 0.0, 8.0, 127.5, 24.0, 15.5, 8.0, 0.0, 0.0, 0.0, 1.6444979563980038E9, 0.0, 2022-02-10 23:59:16.398
186.0, -10972.605463576969, -13283.686433277899, -9060.279614958718, -16217.576410481503, -1697.8608605695797, -1783.40098660004, -3197.3723408427645, -4838.571529218141, -20549.299782431102, -18641.220765259357, -23588.265310319104, -13798.737680761538, -8040.302460229691, -12800.687587343167, -7962.183113358393, -10025.539699261153, 0.0032500000000000003, -0.02425, 0.99425, 192.0, 0.0, 0.0, 0.0, 0.0, 0.0, 0.0, 0.0, 0.0, 0.0, 1.644497956398011E9, 0.0, 2022-02-10 23:59:16.398
188.0, -10980.56268460306, -13289.922569980929, -9067.36511795105, -16222.337332050483, -1704.566383906172, -1792.3193326377075, -3218.6064980753063, -4861.325605073644, -20556.139416234426, -18646.07109380616, -23581.80565617152, -13799.184715650645, -8039.967184062861, -12790.942226760653, -7954.8070376881415, -10026.657286483918, 0.0032500000000000003, -0.02425, 0.99425, 192.0, 0.0, 0.0, 0.0, 0.0, 0.0, 0.0, 0.0, 0.0, 0.0, 1.6444979563980181E9, 0.0, 2022-02-10 23:59:16.398
190.0, -10983.356652659972, -13304.808831788163, -9073.489495931804, -16216.950561636755, -1705.3039914731971, -1781.2105156434197, -3212.482120094552, -4835.308174527666, -20554.59714586701, -18646.093445550614, -23596.311938323015, -13789.618169023774, -8044.370477720557, -12796.597218107847, -7964.306529081647, -10029.69712372984, 0.0032500000000000003, -0.02425, 0.99425, 192.0, 0.0, 0.0, 0.0, 0.0, 0.0, 0.0, 0.0, 0.0, 0.0, 1.6444979563980248E9, 0.0, 2022-02-10 23:59:16.398
192.0, -10976.539370601104, -13293.722366538332, -9056.390411423494, -16218.001093626153, -1693.211697722876, -1771.979245183378, -3205.553079313407, -4842.214863564356, -20553.54661387761, -18636.482195434834, -23586.119542851397, -13778.621110751763, -8042.135303275026, -12785.913084258209, -7958.830351690096, -10020.577611992076, 0.0032500000000000003, -0.02425, 0.99425, 192.0, 0.0, 0.0, 0.0, 0.0, 0.0, 0.0, 0.0, 0.0, 0.0, 1.6444979563980317E9, 0.0, 2022-02-10 23:59:16.398
194.0, -10995.426594665838, -13308.273352178736, -9068.728574362824, -16230.965105410232, -1708.656753141493, -1790.1959169144532, -3212.482120094552, -4852.809590436172, -20554.30657318909, -18624.63577087352, -23592.71330746571, -13805.01852095348, -8037.150864261493, -12784.773145290988, -7957.1539708559485, -10028.93716441836, 0.002625, -0.022125, 0.9961249999999999, 192.0, 0.0, 8.0, 127.5, 48.0, 15.5, 24.0, 0.0, 0.0, 0.0, 1.6444979563980384E9, 0.0, 2022-02-10 23:59:16.398
196.0, -10992.431460908827, -13304.026520732228, -9063.833542327111, -16226.628866985902, -1702.5323751607389, -1773.0968324061434, -3202.3791316007537, -4832.000116348281, -20565.88477681694, -18650.36262874158, -23604.738545982666, -13806.516087831986, -8046.158617276981, -12801.179325721185, -7961.445505791367, -10028.735998718263, 0.002625, -0.022125, 0.9961249999999999, 192.0, 0.0, 0.0, 0.0, 0.0, 0.0, 0.0, 0.0, 0.0, 0.0, 1.6444979563980453E9, 0.0, 2022-02-10 23:59:16.398
198.0, -10990.330396930027, -13308.139241712004, -9068.326242962628, -16223.790195440079, -1697.3020669581972, -1777.4554225749282, -3214.8737567512703, -4835.777561161228, -20567.896433817918, -18654.654163676998, -23599.70940348022, -13793.127392903256, -8045.577471921143, -12790.830468038377, -7951.901310908951, -10025.785568450161, 0.002625, -0.022125, 0.9961249999999999, 192.0, 0.0, 0.0, 0.0, 0.0, 0.0, 0.0, 0.0, 0.0, 0.0, 1.6444979563980544E9, 0.0, 2022-02-10 23:59:16.398
200.0, -11000.679254612834, -13335.207204247381, -9069.287367974206, -16221.376207038906, -1694.6422093680155, -1780.6964255209477, -3213.6667625506834, -4832.3353925151105, -20559.223956969257, -18658.61042244559, -23599.53058952458, -13808.393634366232, -8039.229576495836, -12795.166706462707, -7957.578654000599, -10024.198594593834, 0.002625, -0.022125, 0.9961249999999999, 192.0, 0.0, 0.0, 0.0, 0.0, 0.0, 0.0, 0.0, 0.0, 0.0, 1.6444979563980613E9, 0.0, 2022-02-10 23:59:16.398
202.0, -10993.973731276243, -13319.96331452886, -9065.219350483341, -16225.846555929968, -1689.6130668655715, -1774.7732132402914, -3194.4442623191194, -4828.982630846815, -20564.58837563853, -18646.20520427289, -23590.835760931466, -13795.899009215715, -8039.318983473657, -12801.983988521575, -7949.688488207876, -10021.225812581279, 0.002625, -0.022125, 0.9961249999999999, 192.0, 0.0, 0.0, 0.0, 0.0, 0.0, 0.0, 0.0, 0.0, 0.0, 1.644497956398068E9, 0.0, 2022-02-10 23:59:16.398
204.0, -11001.863897068966, -13317.325808683136, -9074.338862221106, -16226.606515241447, -1702.1300437605435, -1785.0997191786432, -3200.2110123885886, -4852.563721247163, -20562.17438723736, -18654.989439843826, -23598.72592672419, -13805.957294220603, -8041.777675363741, -12796.977197763586, -7953.577691743099, -10025.785568450161, 0.0043125, -0.021062499999999998, 0.9950625, 192.0, 0.0, 24.0, 127.5, 48.0, 15.5, 8.0, 0.0, 0.0, 0.0, 1.6444979563980749E9, 0.0, 2022-02-10 23:59:16.398
206.0, -10998.354673189482, -13331.608573390076, -9070.717879619346, -16226.539460008082, -1684.8074418076806, -1769.4534980599283, -3182.3072650798877, -4820.131340042512, -20554.798311567105, -18642.36070422658, -23600.58112151398, -13804.01269245299, -8036.033277038727, -12789.15408720423, -7949.599081230054, -10021.069350370091, 0.0043125, -0.021062499999999998, 0.9950625, 192.0, 0.0, 0.0, 0.0, 0.0, 0.0, 0.0, 0.0, 0.0, 0.0, 1.6444979563980815E9, 0.0, 2022-02-10 23:59:16.398
208.0, -11009.351731461493, -13333.419064690956, -9067.387469695506, -16228.908744920343, -1691.7141308443704, -1775.5108208073166, -3208.7717305149713, -4826.3451250010885, -20568.477579173756, -18661.225576546858, -23591.886292920863, -13798.558866805895, -8035.608593894076, -12793.132697717274, -7946.983927128784, -10018.051864868625, 0.0043125, -0.021062499999999998, 0.9950625, 192.0, 0.0, 0.0, 0.0, 0.0, 0.0, 0.0, 0.0, 0.0, 0.0, 1.6444979563980885E9, 0.0, 2022-02-10 23:59:16.398
210.0, -11015.409054208882, -13331.295648967702, -9068.996795296287, -16225.757148952145, -1695.0445407682112, -1775.756689996325, -3220.1040649538118, -4836.045782094691, -20571.718582119775, -18663.639564948033, -23607.823086717497, -13808.036006454946, -8031.093541514104, -12795.792555307455, -7959.232683090292, -10021.091702114547, 0.0043125, -0.021062499999999998, 0.9950625, 192.0, 0.0, 0.0, 0.0, 0.0, 0.0, 0.0, 0.0, 0.0, 0.0, 1.644497956398095E9, 0.0, 2022-02-10 23:59:16.398
212.0, -11010.379911706437, -13344.59493691861, -9069.577940652125, -16229.26637283163, -1688.339017431619, -1776.7401667523584, -3202.5802973008513, -4842.684250197917, -20572.567948409076, -18657.805759645194, -23600.245845347148, -13807.566619821386, -8039.4977974293, -12794.809078551421, -7947.922700395907, -10021.963420148304, 0.0043125, -0.021062499999999998, 0.9950625, 192.0, 0.0, 0.0, 0.0, 0.0, 0.0, 0.0, 0.0, 0.0, 0.0, 1.6444979563981023E9, 0.0, 2022-02-10 23:59:16.398
214.0, -11037.313763775082, -13367.21490230738, -9085.447679215393, -16236.664800246335, -1702.2194507383647, -1788.6312948025818, -3205.240154891033, -4852.563721247163, -20591.008137584704, -18667.685230694442, -23619.06601417852, -13817.289628659444, -8045.622175410053, -12800.620532109802, -7953.085953365083, -10028.110149873513, 0.00515625, -0.024531249999999998, 0.99553125, 192.0, 0.0, 24.0, 127.5, 16.0, 15.5, 16.0, 0.0, 0.0, 0.0, 1.6444979563981092E9, 0.0, 2022-02-10 23:59:16.398
216.0, -11035.033885840641, -13368.623062208066, -9075.612911655058, -16230.383960054394, -1688.3837209205296, -1768.850000959635, -3187.738738982527, -4828.557947702164, -20585.129628792958, -18676.715335454384, -23620.04949093455, -13825.135090963257, -8043.297593986702, -12801.24638095455, -7952.795380687164, -10025.517347516698, 0.00515625, -0.024531249999999998, 0.99553125, 192.0, 0.0, 0.0, 0.0, 0.0, 0.0, 0.0, 0.0, 0.0, 0.0, 1.6444979563981164E9, 0.0, 2022-02-10 23:59:16.398
218.0, -11060.559578008602, -13396.65214975502, -9077.065775044653, -16233.602611255958, -1693.1669942339654, -1773.5215155507942, -3197.7076170095943, -4841.499607741786, -20592.885684118948, -18679.93398665595, -23612.025214675097, -13822.49758511753, -8038.313154973168, -12796.53016287448, -7945.754581183742, -10022.522213759687, 0.00515625, -0.024531249999999998, 0.99553125, 192.0, 0.0, 0.0, 0.0, 0.0, 0.0, 0.0, 0.0, 0.0, 0.0, 1.6444979563981235E9, 0.0, 2022-02-10 23:59:16.398
220.0, -11090.53326732317, -13418.445100598945, -9083.078394303131, -16229.556945509548, -1689.0319215097336, -1765.430184057973, -3196.0088844309907, -4833.229462293322, -20604.016852857694, -18686.237178592346, -23637.886183009887, -13841.608326626818, -8030.534747902721, -12793.400918650737, -7952.393049286968, -10023.2151178378, 0.00515625, -0.024531249999999998, 0.99553125, 192.0, 0.0, 0.0, 0.0, 0.0, 0.0, 0.0, 0.0, 0.0, 0.0, 1.644497956398131E9, 0.0, 2022-02-10 23:59:16.398
222.0, -11104.257238418728, -13445.088379989671, -9072.975405809333, -16231.769768210623, -1673.0504242241889, -1758.791715954747, -3181.2567330904885, -4823.19352903289, -20609.26951280469, -18674.79308543123, -23632.20883991824, -13831.88531778876, -8024.231555966325, -12778.380546376771, -7940.859549148029, -10020.421149780888, 0.00515625, -0.024531249999999998, 0.99553125, 192.0, 0.0, 0.0, 0.0, 0.0, 0.0, 0.0, 0.0, 0.0, 0.0, 1.6444979563981383E9, 0.0, 2022-02-10 23:59:16.398
224.0, -11158.504922211758, -13499.470174249433, -9085.201810026385, -16241.515128793137, -1687.1990784643983, -1764.1561346240205, -3202.356779856298, -4828.982630846815, -20621.294751321646, -18710.22060039289, -23646.044569736074, -13858.036858801468, -8028.053704268183, -12790.450488382638, -7938.646726446954, -10020.13057710297, 0.006578125000000001, -0.027265624999999998, 0.992765625, 192.0, 0.0, 32.0, 127.5, 8.0, 15.0, 120.0, 0.0, 0.0, 0.0, 1.6444979563981457E9, 0.0, 2022-02-10 23:59:16.398
226.0, -11168.674965938922, -13504.655778963064, -9084.240685014807, -16242.185681126795, -1677.6325318375268, -1743.3466605361295, -3189.526878538952, -4816.4880056962975, -20622.010007144214, -18710.913504471006, -23660.886128054397, -13867.446943217152, -8023.091616999104, -12772.546741073937, -7945.5757672281, -10016.88957415695, 0.006578125000000001, -0.027265624999999998, 0.992765625, 192.0, 0.0, 0.0, 0.0, 0.0, 0.0, 0.0, 0.0, 0.0, 0.0, 1.6444979563981535E9, 0.0, 2022-02-10 23:59:16.398
228.0, -11184.768221946744, -13527.700427496486, -9087.74990889429, -16247.393637584883, -1682.95224701789, -1766.1677916249982, -3193.7960617299154, -4837.565700717652, -20643.914716710417, -18712.61223704961, -23662.338991443994, -13874.21952178711, -8038.491968928811, -12799.324130931394, -7938.1326363244825, -10017.35896079051, 0.006578125000000001, -0.027265624999999998, 0.992765625, 192.0, 0.0, 0.0, 0.0, 0.0, 0.0, 0.0, 0.0, 0.0, 0.0, 1.6444979563981607E9, 0.0, 2022-02-10 23:59:16.398
230.0, -11188.299797570682, -13521.441939048998, -9086.185286782418, -16237.536518280092, -1690.4847848993284, -1767.0842131476657, -3192.253791362499, -4832.782427404217, -20646.21694638931, -18710.734690515364, -23670.899709570374, -13869.749172896049, -8036.435608438923, -12821.385302708783, -7948.19092132937, -10024.869146927495, 0.006578125000000001, -0.027265624999999998, 0.992765625, 192.0, 0.0, 0.0, 0.0, 0.0, 0.0, 0.0, 0.0, 0.0, 0.0, 1.6444979563981707E9, 0.0, 2022-02-10 23:59:16.398
232.0, -11170.820733406632, -13524.302962339278, -9076.439926199904, -16245.225518372717, -1675.0397294807112, -1760.1551723665207, -3175.422927787653, -4831.374267503532, -20632.94001018286, -18714.2662661393, -23655.991096018686, -13861.479027447585, -8027.561965890166, -12801.894581543755, -7942.021839859705, -10019.527080002676, 0.006578125000000001, -0.027265624999999998, 0.992765625, 192.0, 0.0, 0.0, 0.0, 0.0, 0.0, 0.0, 0.0, 0.0, 0.0, 1.6444979563981776E9, 0.0, 2022-02-10 23:59:16.398
234.0, -11171.357175273559, -13505.05811036326, -9088.241647272307, -16247.863024218444, -1688.920162787457, -1774.9520271959339, -3195.3606838417872, -4841.991346119803, -20631.017760159702, -18728.772548290795, -23659.947354787273, -13877.08054507739, -8028.344276946102, -12804.196811222651, -7940.8371974035745, -10025.629106238974, 0.006, -0.02, 0.988, 192.0, 0.0, 24.0, 127.5, 48.0, 15.0, 112.0, 0.0, 0.0, 0.0, 1.6444979563981843E9, 0.0, 2022-02-10 23:59:16.398
236.0, -11132.398084687959, -13470.971700068916, -9081.200847768885, -16248.064189918541, -1683.4886888848173, -1761.2504078448305, -3202.2450211340215, -4842.505436242275, -20624.84867869004, -18709.304178870225, -23656.706351841254, -13870.59853918535, -8031.2947072142015, -12790.472840127093, -7949.219101574315, -10024.22094633829, 0.006, -0.02, 0.988, 192.0, 0.0, 0.0, 0.0, 0.0, 0.0, 0.0, 0.0, 0.0, 0.0, 1.6444979563981912E9, 0.0, 2022-02-10 23:59:16.398
238.0, -11127.190128229873, -13480.158267040048, -9085.60414142658, -16250.321716108529, -1684.6509795964932, -1774.1697161399982, -3193.460785563086, -4841.320793786143, -20619.216039087303, -18701.391661333044, -23643.47411912371, -13865.971728083103, -8034.334544460124, -12806.700206601645, -7948.5261974961995, -10025.115016116502, 0.006, -0.02, 0.988, 192.0, 0.0, 0.0, 0.0, 0.0, 0.0, 0.0, 0.0, 0.0, 0.0, 1.6444979563981981E9, 0.0, 2022-02-10 23:59:16.398
240.0, -11115.67897983539, -13457.76181909583, -9088.979254839332, -16245.896070706378, -1685.209773207876, -1778.68476851997, -3197.8864309652367, -4842.997174620292, -20618.65724547592, -18715.98735046236, -23655.76757857413, -13862.663669903717, -8041.062419541171, -12821.318247475416, -7953.28711906518, -10027.394894050944, 0.006, -0.02, 0.988, 192.0, 0.0, 0.0, 0.0, 0.0, 0.0, 0.0, 0.0, 0.0, 0.0, 1.644497956877128E9, 0.0, 2022-02-10 23:59:16.877
242.0, -11098.110508693519, -13442.316763677212, -9073.93653082091, -16245.381980583905, -1669.3176829001527, -1764.9607974244116, -3196.9029542092035, -4843.354802531577, -20611.594094228043, -18682.16916110148, -23639.76372954413, -13858.1709692682, -8031.1158932585595, -12813.428081682692, -7947.140389339971, -10027.730170217774, 0.006, -0.02, 0.988, 192.0, 0.0, 0.0, 0.0, 0.0, 0.0, 0.0, 0.0, 0.0, 0.0, 1.6444979568773017E9, 0.0, 2022-02-10 23:59:16.877
244.0, -11105.799508786144, -13444.66369684502, -9086.609969927069, -16247.728913751713, -1695.1562994904875, -1778.461251075417, -3214.8961084957255, -4866.310044087177, -20601.513457478697, -18691.60159726162, -23633.527592841103, -13851.107818020322, -8029.037181024216, -12801.760471077023, -7946.603947473043, -10031.55231851963, 0.004, -0.02, 0.992, 192.0, 0.0, 16.0, 127.5, 48.0, 15.5, 0.0, 0.0, 0.0, 0.0, 1.6444979568773088E9, 0.0, 2022-02-10 23:59:16.877
246.0, -11082.687805019355, -13429.308048404224, -9086.967597838355, -16247.8853759629, -1693.1669942339654, -1767.9559311814228, -3201.8873932227366, -4848.518055500753, -20600.529980722666, -18692.763887973295, -23640.099005710963, -13852.605384898829, -8037.955527061883, -12808.465994413615, -7953.935319654384, -10033.519272031697, 0.004, -0.02, 0.992, 192.0, 0.0, 0.0, 0.0, 0.0, 0.0, 0.0, 0.0, 0.0, 0.0, 1.6444979568773165E9, 0.0, 2022-02-10 23:59:16.877
248.0, -11082.933674208365, -13433.621935084098, -9097.428214243439, -16260.380001113415, -1706.756854862792, -1783.4680418334058, -3192.253791362499, -4854.016584636758, -20606.92257963688, -18689.79110596074, -23634.91340099733, -13855.019373300001, -8048.460846955878, -12815.43973868367, -7950.38139228599, -10032.245222597745, 0.004, -0.02, 0.992, 192.0, 0.0, 0.0, 0.0, 0.0, 0.0, 0.0, 0.0, 0.0, 0.0, 1.6444979568773232E9, 0.0, 2022-02-10 23:59:16.877
250.0, -11094.355415625027, -13425.888231502562, -9100.915086378465, -16261.519940080636, -1715.0940555446216, -1779.5564865537272, -3220.5734515873733, -4862.756116718783, -20615.61740823, -18699.55881828771, -23661.310811199048, -13874.152466553745, -8048.147922533503, -12808.421290924703, -7957.511598767233, -10039.218966867802, 0.004, -0.02, 0.992, 192.0, 0.0, 0.0, 0.0, 0.0, 0.0, 0.0, 0.0, 0.0, 0.0, 1.64449795687733E9, 0.0, 2022-02-10 23:59:16.877
252.0, -11059.37493555247, -13411.270190628791, -9090.253304273285, -16248.734742252202, -1699.6713518704596, -1775.2873033627634, -3195.9865326865356, -4855.134171859524, -20601.42405050088, -18676.08948660964, -23642.177717945306, -13853.588861654862, -8052.148884791003, -12812.86928807131, -7960.4396772908785, -10032.871071442494, 0.004, -0.02, 0.992, 192.0, 0.0, 0.0, 0.0, 0.0, 0.0, 0.0, 0.0, 0.0, 0.0, 1.6444979568773365E9, 0.0, 2022-02-10 23:59:16.877
254.0, -11071.355470580516, -13416.3663883646, -9097.785842154723, -16251.953393453765, -1715.5410904337277, -1791.201745414942, -3206.87183223627, -4867.651148754496, -20605.335605780558, -18689.813457705197, -23642.356531900947, -13849.163216252711, -8052.461809213378, -12820.602991652846, -7954.896444665962, -10032.580498764575, 0.006, -0.022, 0.99, 192.0, 0.0, 24.0, 127.5, 40.0, 15.0, 120.0, 0.0, 0.0, 0.0, 1.6444979568773434E9, 0.0, 2022-02-10 23:59:16.877
0.0, -11045.785074923644, -13394.931065431962, -9083.480725703326, -16243.616192771935, -1693.5693256341608, -1782.0375301882661, -3200.30041936641, -4868.567570277163, -20597.22192254328, -18687.42182104848, -23633.43818586328, -13851.443094187152, -8046.359782977079, -12807.482517657581, -7960.506732524244, -10032.021705153193, 0.006, -0.022, 0.99, 192.0, 0.0, 0.0, 0.0, 0.0, 0.0, 0.0, 0.0, 0.0, 0.0, 1.64449795687735E9, 0.0, 2022-02-10 23:59:16.877
2.0, -11042.8569964, -13389.588998507143, -9085.626493171036, -16246.052532917563, -1691.2223924663535, -1791.4699663484057, -3202.5355938119405, -4873.104974401591, -20584.257910759203, -18668.154617328004, -23613.25456062014, -13837.629716113774, -8040.302460229691, -12802.118098988307, -7953.890616165473, -10032.55814702012, 0.006, -0.022, 0.99, 192.0, 0.0, 0.0, 0.0, 0.0, 0.0, 0.0, 0.0, 0.0, 0.0, 1.6444979568773568E9, 0.0, 2022-02-10 23:59:16.877
4.0, -11039.906566131898, -13380.469486769378, -9091.192077540407, -16245.940774195287, -1693.0552355116888, -1787.4913558353612, -3199.093425165823, -4850.015622379258, -20584.92846309286, -18683.420858790978, -23628.274932894103, -13845.810454584414, -8040.101294529592, -12807.929552546688, -7957.869226678518, -10037.542586033653, 0.006, -0.022, 0.99, 192.0, 0.0, 0.0, 0.0, 0.0, 0.0, 0.0, 0.0, 0.0, 0.0, 1.6444979568773637E9, 0.0, 2022-02-10 23:59:16.877
6.0, -11022.852185112499, -13379.396603035522, -9084.285388503718, -16247.773617240622, -1687.467299397862, -1775.108489407121, -3203.1167391677786, -4853.9942328923025, -20581.26277700219, -18661.02441084676, -23614.72977575419, -13842.12241674929, -8042.314117230669, -12812.422253182203, -7960.350270313057, -10034.614507510008, 0.006, -0.022, 0.99, 192.0, 0.0, 0.0, 0.0, 0.0, 0.0, 0.0, 0.0, 0.0, 0.0, 1.644497956877378E9, 0.0, 2022-02-10 23:59:16.877
8.0, -11033.357505006494, -13380.961225147394, -9094.544839208704, -16245.627849772913, -1700.341904204119, -1780.2940941207523, -3214.337314884343, -4870.556875533685, -20585.39784972642, -18670.70271619591, -23623.648121791855, -13838.322620191888, -8043.632870153531, -12800.754642576534, -7962.160761613937, -10037.877862200483, 0.004, -0.018000000000000002, 0.992, 192.0, 0.0, 16.0, 127.5, 56.0, 15.5, 0.0, 0.0, 0.0, 0.0, 1.644497956877385E9, 0.0, 2022-02-10 23:59:16.877
10.0, -11004.344940703504, -13356.687230668931, -9075.009414554765, -16234.943715923277, -1687.623761609049, -1767.0842131476657, -3214.717294540083, -4875.407204080487, -20575.764247866184, -18670.16627432898, -23615.020348432106, -13836.199204468634, -8037.799064850697, -12784.951959246631, -7962.697203480864, -10036.849681955538, 0.004, -0.018000000000000002, 0.992, 192.0, 0.0, 0.0, 0.0, 0.0, 0.0, 0.0, 0.0, 0.0, 0.0, 1.6444979568773916E9, 0.0, 2022-02-10 23:59:16.877
12.0, -11006.446004682304, -13350.4510939659, -9077.468106444849, -16243.079750905008, -1692.7870145782251, -1773.7003295064367, -3205.6648380356837, -4859.5151137727635, -20569.21518674078, -18654.87768112155, -23594.90377842233, -13823.458710129109, -8033.820454337651, -12792.305683172428, -7957.1539708559485, -10035.866205199505, 0.004, -0.018000000000000002, 0.992, 192.0, 0.0, 0.0, 0.0, 0.0, 0.0, 0.0, 0.0, 0.0, 0.0, 1.6444979568773985E9, 0.0, 2022-02-10 23:59:16.877
14.0, -11007.340074460517, -13349.378210232046, -9091.147374051498, -16246.074884662019, -1708.8355670971355, -1778.170678397498, -3201.619172289273, -4859.313948072666, -20575.652489143908, -18655.16825379947, -23621.971740957706, -13849.520844163997, -8037.508492172778, -12803.146279233251, -7962.9654244143285, -10037.006144166726, 0.004, -0.018000000000000002, 0.992, 192.0, 0.0, 0.0, 0.0, 0.0, 0.0, 0.0, 0.0, 0.0, 0.0, 1.644497956877405E9, 0.0, 2022-02-10 23:59:16.877
16.0, -11007.496536671702, -13353.178006789447, -9083.592484425602, -16244.934945694798, -1695.0221890237558, -1769.1852771264646, -3205.1283961687564, -4856.587035249118, -20578.960547323295, -18659.929175368452, -23615.33327285448, -13833.807567811915, -8044.862216098573, -12799.39118616476, -7960.6184912465205, -10033.854548198527, 0.004, -0.018000000000000002, 0.992, 192.0, 0.0, 0.0, 0.0, 0.0, 0.0, 0.0, 0.0, 0.0, 0.0, 1.6444979568774116E9, 0.0, 2022-02-10 23:59:16.877
18.0, -11021.175804278351, -13352.462750966877, -9092.309664763174, -16246.052532917563, -1704.5440321617166, -1776.203724885431, -3217.06422770789, -4863.694889985906, -20581.08396304655, -18672.379097030058, -23611.756993741634, -13838.926117292182, -8043.655221897987, -12792.43979363916, -7961.780781958197, -10035.597984266042, 0.008, -0.022, 0.992, 192.0, 0.0, 32.0, 127.5, 40.0, 15.5, 0.0, 0.0, 0.0, 0.0, 1.6444979568774185E9, 0.0, 2022-02-10 23:59:16.877
20.0, -10998.55583888958, -13333.843747835606, -9086.22999027133, -16241.895108448876, -1687.2661336977642, -1761.429221800473, -3182.6648929911726, -4845.701735699384, -20568.857558829495, -18655.212957288382, -23611.645235019358, -13839.395503925742, -8026.489082156311, -12788.975273248587, -7955.43288653289, -10028.4677777848, 0.008, -0.022, 0.992, 192.0, 0.0, 0.0, 0.0, 0.0, 0.0, 0.0, 0.0, 0.0, 0.0, 1.6444979568774252E9, 0.0, 2022-02-10 23:59:16.877
22.0, -11000.209867979273, -13347.858291609085, -9092.197906040896, -16242.11862589343, -1699.4701861703618, -1768.6041317706267, -3209.822262504371, -4858.710450972373, -20577.060649044593, -18645.46759670587, -23603.66566224881, -13832.511166633507, -8034.312192715668, -12785.466049369103, -7954.784685943686, -10025.517347516698, 0.008, -0.022, 0.992, 192.0, 0.0, 0.0, 0.0, 0.0, 0.0, 0.0, 0.0, 0.0, 0.0, 1.644497956877432E9, 0.0, 2022-02-10 23:59:16.877
24.0, -11004.188478492319, -13343.231480506836, -9101.22801080084, -16240.218727614729, -1708.6791048859484, -1779.5788382981825, -3209.755207271005, -4866.332395831632, -20576.032468799647, -18663.237233547836, -23628.163174171827, -13834.723989334583, -8042.917614330961, -12806.253171712538, -7971.995529174273, -10033.452216798332, 0.008, -0.022, 0.992, 192.0, 0.0, 0.0, 0.0, 0.0, 0.0, 0.0, 0.0, 0.0, 0.0, 1.6444979568774395E9, 0.0, 2022-02-10 23:59:16.877
26.0, -10994.17489697634, -13335.184852502925, -9087.906371105477, -16238.944678180776, -1693.4575669118842, -1769.5429050377495, -3190.8679832062703, -4852.898997413993, -20574.601957154508, -18650.094407808116, -23607.28664485057, -13825.246849685533, -8041.531806174733, -12796.641921596756, -7968.374546572512, -10030.74765571924, 0.008, -0.022, 0.992, 192.0, 0.0, 0.0, 0.0, 0.0, 0.0, 0.0, 0.0, 0.0, 0.0, 1.6444979568774462E9, 0.0, 2022-02-10 23:59:16.877
28.0, -11004.523754659147, -13340.012829305271, -9095.528315964737, -16244.040875916586, -1706.9356688184344, -1770.8393062161574, -3196.2771053644547, -4861.660881240473, -20582.961509580793, -18660.175044557458, -23609.38770882937, -13833.047608500436, -8044.191663764914, -12804.397976922748, -7965.468819793323, -10031.060580141615, 0.014, -0.02, 0.992, 192.0, 0.0, 56.0, 127.5, 48.0, 15.5, 0.0, 0.0, 0.0, 0.0, 1.644497956877453E9, 0.0, 2022-02-10 23:59:16.877
30.0, -10988.229332951229, -13325.797119831697, -9082.56430418066, -16235.278992090107, -1687.981389520334, -1753.270835074286, -3192.857288462793, -4845.031183365725, -20572.433837942343, -18656.196434044414, -23609.298301851548, -13836.221556213088, -8035.5191869162545, -12794.965540762609, -7964.060659892638, -10027.327838817579, 0.014, -0.02, 0.992, 192.0, 0.0, 0.0, 0.0, 0.0, 0.0, 0.0, 0.0, 0.0, 0.0, 1.6444979568774605E9, 0.0, 2022-02-10 23:59:16.877
32.0, -10985.569475361048, -13314.911820281963, -9088.532219950226, -16241.850404959967, -1698.531412903239, -1755.2601403308083, -3194.6901315081277, -4853.569549747652, -20565.88477681694, -18644.148843783005, -23590.65694697582, -13832.68998058915, -8031.920556058951, -12778.24643591004, -7958.204502845348, -10021.494033514742, 0.014, -0.02, 0.992, 192.0, 0.0, 0.0, 0.0, 0.0, 0.0, 0.0, 0.0, 0.0, 0.0, 1.6444979568774676E9, 0.0, 2022-02-10 23:59:16.877
34.0, -10975.578245589524, -13315.180041215426, -9094.611894442069, -16240.799872970567, -1709.2826019862416, -1765.3184253356965, -3194.6454280192174, -4855.938834659914, -20566.39886693941, -18641.93602108193, -23613.43337457578, -13835.68511434616, -8040.2130532518695, -12777.53118008747, -7965.468819793323, -10023.93037366037, 0.014, -0.02, 0.992, 192.0, 0.0, 0.0, 0.0, 0.0, 0.0, 0.0, 0.0, 0.0, 0.0, 1.6444979568774743E9, 0.0, 2022-02-10 23:59:16.877
36.0, -10985.70358582778, -13334.514300169267, -9090.923856606943, -16239.302306092062, -1706.6003926516048, -1765.0502044022328, -3200.0545501774013, -4854.329509059133, -20567.427047184356, -18650.876718864052, -23598.345947068447, -13827.034989241958, -8040.414218951967, -12799.681758842678, -7966.921683182917, -10022.723379459785, 0.014, -0.02, 0.992, 192.0, 0.0, 0.0, 0.0, 0.0, 0.0, 0.0, 0.0, 0.0, 0.0, 1.644497956877481E9, 0.0, 2022-02-10 23:59:16.877
38.0, -10990.486859141214, -13324.858346564573, -9100.08807183362, -16240.621059014924, -1723.1183318040767, -1772.135707394565, -3219.1429399422336, -4863.516076030263, -20571.495064675222, -18652.329582253646, -23601.296377336548, -13831.661800344205, -8041.263585241269, -12807.929552546688, -7969.000395417261, -10031.105283630524, 0.016, -0.018000000000000002, 0.988, 192.0, 0.0, 64.0, 127.5, 56.0, 15.0, 112.0, 0.0, 0.0, 0.0, 1.64449795687749E9, 0.0, 2022-02-10 23:59:16.877
40.0, -10988.609312606968, -13317.012884260761, -9094.32132176415, -16236.664800246335, -1711.0260380537557, -1760.5351520222607, -3199.0263699324573, -4847.892206656004, -20570.5562914081, -18646.11579729507, -23604.04564190455, -13821.40234963922, -8042.604689908588, -12808.331883946883, -7972.3531570855575, -10030.278269085678, 0.016, -0.018000000000000002, 0.988, 192.0, 0.0, 0.0, 0.0, 0.0, 0.0, 0.0, 0.0, 0.0, 0.0, 1.6444979568774967E9, 0.0, 2022-02-10 23:59:16.877
42.0, -10989.771603318644, -13322.958448285872, -9104.22314455785, -16241.716294493235, -1713.820006110669, -1767.8218207146908, -3194.5113175524853, -4860.252721339789, -20577.530035678155, -18648.038047318227, -23597.67539473479, -13818.764843793493, -8044.303422487191, -12801.15697397673, -7965.535875026689, -10029.674771985385, 0.016, -0.018000000000000002, 0.988, 192.0, 0.0, 0.0, 0.0, 0.0, 0.0, 0.0, 0.0, 0.0, 0.0, 1.6444979568775034E9, 0.0, 2022-02-10 23:59:16.877
44.0, -10990.732728330224, -13319.44922440639, -9109.721673693857, -16240.486948548192, -1721.3301922476521, -1766.6818817474702, -3212.035085205446, -4876.927122703448, -20579.58639616804, -18646.004038572795, -23614.886237965376, -13828.912535776202, -8048.349088233601, -12811.43877642617, -7976.823505976618, -10037.587289522564, 0.016, -0.018000000000000002, 0.988, 192.0, 0.0, 0.0, 0.0, 0.0, 0.0, 0.0, 0.0, 0.0, 0.0, 1.64449795687751E9, 0.0, 2022-02-10 23:59:16.877
46.0, -10974.930045000321, -13302.01486373125, -9096.8470688876, -16241.06809390403, -1708.5226426747613, -1750.6333292285597, -3197.6405617762284, -4853.211921836367, -20567.24823322871, -18634.470538433856, -23598.48005753518, -13818.138994948746, -8045.510416687777, -12797.312473930417, -7975.303587353657, -10028.668943484896, 0.013000000000000001, -0.019000000000000003, 0.988, 192.0, 0.0, 40.0, 127.5, 48.0, 15.0, 112.0, 0.0, 0.0, 0.0, 1.6444979568775167E9, 0.0, 2022-02-10 23:59:16.877
48.0, -10993.660806853868, -13325.618305876054, -9108.961714382376, -16241.023390415121, -1727.9016051175124, -1769.0288149152775, -3211.9680299720803, -4866.354747576088, -20571.428009441854, -18654.430646232446, -23601.832819203475, -13817.535497848452, -8046.180969021437, -12795.546686118447, -7972.777840230208, -10027.014914395204, 0.013000000000000001, -0.019000000000000003, 0.988, 192.0, 0.0, 0.0, 0.0, 0.0, 0.0, 0.0, 0.0, 0.0, 0.0, 1.6444979568775237E9, 0.0, 2022-02-10 23:59:16.877
50.0, -10982.686100326313, -13317.370512172045, -9108.268810304262, -16238.8329194585, -1719.8326253691466, -1757.6964804764368, -3212.772692772471, -4856.385869549021, -20573.149093764914, -18649.69207640792, -23607.465458806215, -13816.909649003703, -8058.250911027302, -12812.466956671115, -7983.059642679649, -10031.75348421973, 0.013000000000000001, -0.019000000000000003, 0.988, 192.0, 0.0, 0.0, 0.0, 0.0, 0.0, 0.0, 0.0, 0.0, 0.0, 1.6444979568775313E9, 0.0, 2022-02-10 23:59:16.877
52.0, -10982.015547992653, -13321.68439885192, -9103.217316057362, -16241.850404959967, -1718.8715003575685, -1758.367032810096, -3202.982628701047, -4857.5705120051525, -20572.478541431254, -18639.67849489194, -23596.20017960074, -13813.44512861313, -8049.846655112106, -12800.397014665248, -7973.537799541688, -10026.433769039366, 0.013000000000000001, -0.019000000000000003, 0.988, 192.0, 0.0, 0.0, 0.0, 0.0, 0.0, 0.0, 0.0, 0.0, 0.0, 1.6444979568775382E9, 0.0, 2022-02-10 23:59:16.877
54.0, -10994.89015279891, -13321.460881407367, -9107.195926570408, -16239.302306092062, -1720.726695147359, -1758.1211636210876, -3206.201279902611, -4860.856218440083, -20572.813817598086, -18647.725122895852, -23604.58208377148, -13825.000980496525, -8042.358820719579, -12806.186116479174, -7974.364814086535, -10028.959516162815, 0.013000000000000001, -0.019000000000000003, 0.988, 192.0, 0.0, 0.0, 0.0, 0.0, 0.0, 0.0, 0.0, 0.0, 0.0, 1.6444979568775449E9, 0.0, 2022-02-10 23:59:16.877
56.0, -10983.379004404427, -13308.87684927903, -9098.925781121943, -16244.711428250246, -1710.9366310759344, -1755.8636374311016, -3191.9855704290358, -4852.854293925082, -20566.667087872876, -18629.486099420323, -23595.842551689453, -13814.249791413522, -8042.0905997861155, -12801.067566998909, -7970.3638518290345, -10024.846795183039, 0.013500000000000002, -0.0205, 0.987, 192.0, 0.0, 56.0, 127.5, 40.0, 15.0, 104.0, 0.0, 0.0, 0.0, 1.6444979568775516E9, 0.0, 2022-02-10 23:59:16.877
58.0, -11002.690911613812, -13316.58820111611, -9112.694455706413, -16250.299364364073, -1732.1931400529315, -1766.748936980836, -3216.013695718491, -4867.137058632024, -20578.78173336765, -18636.035160545725, -23607.86779020641, -13825.49271887454, -8049.35491673409, -12815.39503519476, -7980.265674622736, -10031.865242942005, 0.013500000000000002, -0.0205, 0.987, 192.0, 0.0, 0.0, 0.0, 0.0, 0.0, 0.0, 0.0, 0.0, 0.0, 1.6444979568775587E9, 0.0, 2022-02-10 23:59:16.877
60.0, -10986.038861994608, -13316.834070305118, -9098.188173554918, -16238.005904913654, -1716.9268985899566, -1751.7732681957805, -3203.8990502237143, -4856.542331760208, -20573.08203853155, -18648.954468840893, -23614.66272052082, -13822.654047328717, -8051.12070454606, -12806.610799623824, -7987.686453781897, -10030.993524908248, 0.013500000000000002, -0.0205, 0.987, 192.0, 0.0, 0.0, 0.0, 0.0, 0.0, 0.0, 0.0, 0.0, 0.0, 1.6444979568775654E9, 0.0, 2022-02-10 23:59:16.877
62.0, -10978.774545046634, -13308.452166134379, -9090.365062995561, -16239.592878769981, -1712.2777357432528, -1754.0978496191324, -3215.7901782739377, -4861.705584729384, -20566.287108217133, -18635.006980300783, -23587.259481818615, -13804.169154664178, -8045.5551201766875, -12794.272636684495, -7976.555285043155, -10025.226774838779, 0.013500000000000002, -0.0205, 0.987, 192.0, 0.0, 0.0, 0.0, 0.0, 0.0, 0.0, 0.0, 0.0, 0.0, 1.644497956877573E9, 0.0, 2022-02-10 23:59:16.877
64.0, -10988.117574228952, -13314.464785392856, -9096.958827609877, -16241.045742159575, -1714.62466891106, -1763.1056026346212, -3205.240154891033, -4856.67644222694, -20564.54367214962, -18641.019599559262, -23601.76576397011, -13821.961143250603, -8038.961355562372, -12800.173497220696, -7978.566942044133, -10029.60771675202, 0.013500000000000002, -0.0205, 0.987, 192.0, 0.0, 0.0, 0.0, 0.0, 0.0, 0.0, 0.0, 0.0, 0.0, 1.6444979568775797E9, 0.0, 2022-02-10 23:59:16.877
66.0, -10974.46065836676, -13308.5415731122, -9086.677025160436, -16244.26439336114, -1703.8958315725126, -1759.6857857329592, -3194.2878001079325, -4855.894131171004, -20563.22491922676, -18640.863137348075, -23592.065106876507, -13813.154555935213, -8040.190701507414, -12793.780898306477, -7974.655386764453, -10028.847757440539, 0.014750000000000001, -0.019250000000000003, 0.9875, 192.0, 0.0, 64.0, 127.5, 56.0, 15.0, 112.0, 0.0, 0.0, 0.0, 1.6444979568775864E9, 0.0, 2022-02-10 23:59:16.877
68.0, -10984.720109071744, -13308.96625625685, -9097.539972965715, -16247.304230607062, -1723.5877184376382, -1772.0015969278334, -3220.551099842918, -4876.077756414146, -20566.778846595153, -18638.31503848017, -23592.95917665472, -13817.06611121489, -8042.537634675221, -12808.48834615807, -7976.845857721074, -10037.900213944939, 0.014750000000000001, -0.019250000000000003, 0.9875, 192.0, 0.0, 0.0, 0.0, 0.0, 0.0, 0.0, 0.0, 0.0, 0.0, 1.6444979568775933E9, 0.0, 2022-02-10 23:59:16.877
70.0, -10965.40820186236, -13292.694186293387, -9086.498211204793, -16235.971896168221, -1704.0522937837, -1755.9753961533781, -3202.915573467681, -4865.4383260534205, -20557.659334857384, -18634.850518089595, -23594.367336555402, -13822.139957206246, -8037.1061607725815, -12815.14916600575, -7976.018843176227, -10036.380295321977, 0.014750000000000001, -0.019250000000000003, 0.9875, 192.0, 0.0, 0.0, 0.0, 0.0, 0.0, 0.0, 0.0, 0.0, 0.0, 1.6444979568776019E9, 0.0, 2022-02-10 23:59:16.877
72.0, -10960.870797737933, -13287.977968213318, -9085.8947141045, -16235.167233367829, -1709.014381052778, -1755.2824920752637, -3218.5170910974853, -4861.258549840278, -20553.88189004444, -18621.30536094968, -23578.028211358574, -13804.236209897545, -8034.334544460124, -12802.408671666226, -7966.832276205097, -10031.015876652704, 0.014750000000000001, -0.019250000000000003, 0.9875, 192.0, 0.0, 0.0, 0.0, 0.0, 0.0, 0.0, 0.0, 0.0, 0.0, 1.6444979568776083E9, 0.0, 2022-02-10 23:59:16.877
74.0, -10954.746419757179, -13286.793325757186, -9090.856801373578, -16230.205146098751, -1712.6130119100824, -1761.4068700560179, -3210.8951462382256, -4860.00685215078, -20550.26090744268, -18620.38893942701, -23598.792981957555, -13820.150651949723, -8029.819492080152, -12809.829450825388, -7977.583465288099, -10033.183995864869, 0.014750000000000001, -0.019250000000000003, 0.9875, 192.0, 0.0, 0.0, 0.0, 0.0, 0.0, 0.0, 0.0, 0.0, 0.0, 1.6444979568776152E9, 0.0, 2022-02-10 23:59:16.877
76.0, -10960.423762848826, -13298.371529385035, -9084.575961181637, -16230.741587965678, -1701.437139682429, -1748.5769687386714, -3202.1556141562005, -4847.333413044621, -20545.343523662512, -18620.79127082721, -23577.938804380752, -13801.710462774094, -8028.009000779271, -12799.234723953572, -7971.86141870754, -10024.533870760664, 0.013375000000000001, -0.019625000000000004, 0.98775, 192.0, 0.0, 48.0, 127.5, 48.0, 15.0, 112.0, 0.0, 0.0, 0.0, 1.644497956877622E9, 0.0, 2022-02-10 23:59:16.877
78.0, -10971.085544954009, -13291.375433370524, -9090.253304273285, -16236.374227568416, -1718.3797619795516, -1762.1221258785877, -3217.913593997192, -4859.895093428504, -20555.35710517849, -18639.20910825838, -23581.42567651578, -13805.577314564862, -8031.808797336674, -12797.804212308432, -7975.728270498308, -10030.770007463696, 0.013375000000000001, -0.019625000000000004, 0.98775, 192.0, 0.0, 0.0, 0.0, 0.0, 0.0, 0.0, 0.0, 0.0, 0.0, 1.6444979568776288E9, 0.0, 2022-02-10 23:59:16.877
80.0, -10956.333393613506, -13287.419174601935, -9086.811135627167, -16227.791157697578, -1717.6421544125265, -1757.4059077985178, -3214.359666628798, -4863.024337652247, -20550.39501790941, -18624.166384239958, -23586.7677434406, -13805.532611075952, -8029.484215913322, -12799.704110587134, -7985.741852014286, -10028.64659174044, 0.013375000000000001, -0.019625000000000004, 0.98775, 192.0, 0.0, 0.0, 0.0, 0.0, 0.0, 0.0, 0.0, 0.0, 0.0, 1.6444979568776357E9, 0.0, 2022-02-10 23:59:16.877
82.0, -10952.108913911452, -13284.066412933638, -9085.492382704304, -16234.07199788952, -1714.4458549554176, -1761.9880154118557, -3226.9213470126806, -4873.194381379411, -20546.394055651912, -18615.24803820229, -23568.52871996507, -13794.759070248494, -8031.652335125486, -12796.86543904131, -7984.959540958351, -10031.418208052899, 0.013375000000000001, -0.019625000000000004, 0.98775, 192.0, 0.0, 0.0, 0.0, 0.0, 0.0, 0.0, 0.0, 0.0, 0.0, 1.6444979568776424E9, 0.0, 2022-02-10 23:59:16.877
84.0, -10954.187626145796, -13273.896369206474, -9088.733385650325, -16230.920401921321, -1716.3457532341188, -1772.6050940281266, -3199.8533844773037, -4870.7803929782385, -20543.913012017372, -18622.802927828187, -23586.611281229412, -13808.170116921678, -8023.11396874356, -12812.399901437748, -7987.082956681605, -10033.3181063316, 0.013375000000000001, -0.019625000000000004, 0.98775, 192.0, 0.0, 0.0, 0.0, 0.0, 0.0, 0.0, 0.0, 0.0, 0.0, 1.644497956877649E9, 0.0, 2022-02-10 23:59:16.877
86.0, -10948.398524331871, -13276.667985518932, -9079.524466934738, -16229.154614109351, -1706.756854862792, -1753.6955182189367, -3195.0030559305023, -4847.57928223363, -20539.77793929314, -18604.3403869081, -23575.725981679676, -13800.078785428857, -8025.997343778294, -12802.140450732762, -7984.356043858057, -10030.524138274686, 0.0086875, -0.021812500000000002, 0.986875, 192.0, 0.0, 16.0, 127.5, 32.0, 15.0, 104.0, 0.0, 0.0, 0.0, 1.6444979568776555E9, 0.0, 2022-02-10 23:59:16.877
88.0, -10967.419858863337, -13305.009997488261, -9087.70520540538, -16232.26150658864, -1716.658677656493, -1761.3845183115625, -3214.650239306717, -4858.777506205739, -20552.339619677023, -18637.77859661324, -23579.548129981536, -13806.40432910971, -8031.1158932585595, -12803.593314122358, -7979.349253100068, -10027.260783584212, 0.0086875, -0.021812500000000002, 0.986875, 192.0, 0.0, 0.0, 0.0, 0.0, 0.0, 0.0, 0.0, 0.0, 0.0, 1.644497956877663E9, 0.0, 2022-02-10 23:59:16.877
90.0, -10963.485951839204, -13290.034328703205, -9084.307740248172, -16228.30524782005, -1708.634401397038, -1758.7246607213808, -3213.555003828407, -4862.465544040864, -20543.577735850544, -18635.677532634443, -23583.079705605473, -13810.628808811762, -8026.466730411856, -12796.552514618936, -7983.037290935194, -10029.27244058519, 0.0086875, -0.021812500000000002, 0.986875, 192.0, 0.0, 0.0, 0.0, 0.0, 0.0, 0.0, 0.0, 0.0, 0.0, 1.6444979568776693E9, 0.0, 2022-02-10 23:59:16.877
92.0, -10957.383925602904, -13286.547456568178, -9084.106574548076, -16232.954410666754, -1711.6742386429596, -1762.5691607676938, -3221.3557626433094, -4871.58505577863, -20557.68168660184, -18640.147881525503, -23577.42471425828, -13805.644369798229, -8035.16155900497, -12798.117136730807, -7980.802116489664, -10026.947859161837, 0.0086875, -0.021812500000000002, 0.986875, 192.0, 0.0, 0.0, 0.0, 0.0, 0.0, 0.0, 0.0, 0.0, 0.0, 1.644497956877676E9, 0.0, 2022-02-10 23:59:16.877
94.0, -10960.826094249021, -13282.166514654937, -9088.621626928047, -16230.272201332118, -1717.8433201126243, -1766.011329413811, -3216.0807509518568, -4879.63168378254, -20549.500948131197, -18635.16344251197, -23588.62293823039, -13818.384864137754, -8033.149902003993, -12802.587485621869, -7989.809869505152, -10033.228699353778, 0.0086875, -0.021812500000000002, 0.986875, 192.0, 0.0, 0.0, 0.0, 0.0, 0.0, 0.0, 0.0, 0.0, 0.0, 1.6444979568776827E9, 0.0, 2022-02-10 23:59:16.877
96.0, -10944.35285858546, -13271.080049405105, -9081.22319951334, -16228.908744920343, -1708.5449944192167, -1758.791715954747, -3206.4024456027087, -4879.452869826898, -20541.78959629412, -18624.07697726214, -23581.33626953796, -13810.740567534038, -8033.2840124707245, -12803.615665866813, -7985.495982825278, -10030.546490019142, 0.0073437500000000005, -0.02090625, 0.9864375, 192.0, 0.0, 24.0, 127.5, 48.0, 15.0, 104.0, 0.0, 0.0, 0.0, 1.6444979568776896E9, 0.0, 2022-02-10 23:59:16.877
98.0, -10979.690966569302, -13288.268540891237, -9096.981179354332, -16240.419893314827, -1727.2981080172192, -1772.560390539216, -3226.49666386803, -4882.068023928168, -20551.087921987524, -18619.204296970882, -23585.94072889575, -13813.713349546595, -8035.608593894076, -12817.898430573754, -7989.049910193671, -10038.168434878402, 0.0073437500000000005, -0.02090625, 0.9864375, 192.0, 0.0, 0.0, 0.0, 0.0, 0.0, 0.0, 0.0, 0.0, 0.0, 1.6444979568776963E9, 0.0, 2022-02-10 23:59:16.877
100.0, -10960.446114593282, -13281.607721043554, -9087.615798427558, -16230.585125754491, -1715.4740352003616, -1772.11335565011, -3219.1876434311444, -4871.920331945459, -20558.575756380054, -18636.88452683503, -23590.276967320082, -13828.018465997991, -8034.2227857378475, -12827.576735922901, -8000.002264976772, -10038.257841856223, 0.0073437500000000005, -0.02090625, 0.9864375, 192.0, 0.0, 0.0, 0.0, 0.0, 0.0, 0.0, 0.0, 0.0, 0.0, 1.6444979568777027E9, 0.0, 2022-02-10 23:59:16.877
102.0, -10951.840692977989, -13276.511523307745, -9089.046310072697, -16226.181832096796, -1716.7704363787695, -1762.6809194899702, -3224.68617256715, -4872.076794156646, -20549.903279531394, -18641.287820492726, -23569.9145281213, -13803.2080296526, -8032.501701414789, -12807.43781416867, -7993.944942229384, -10033.921603431894, 0.0073437500000000005, -0.02090625, 0.9864375, 192.0, 0.0, 0.0, 0.0, 0.0, 0.0, 0.0, 0.0, 0.0, 0.0, 1.6444979568777113E9, 0.0, 2022-02-10 23:59:16.877
104.0, -10964.603539061969, -13287.888561235495, -9100.490403233815, -16230.540422265582, -1728.4603987288951, -1775.6225795295932, -3233.8280360493704, -4890.651093799007, -20558.26283195768, -18645.35583798359, -23594.970833655698, -13812.863983257294, -8039.810721851674, -12808.845974069354, -8001.231610921814, -10034.74861797674, 0.0073437500000000005, -0.02090625, 0.9864375, 192.0, 0.0, 0.0, 0.0, 0.0, 0.0, 0.0, 0.0, 0.0, 0.0, 1.6444979573571525E9, 0.0, 2022-02-10 23:59:17.357
106.0, -10956.288690124595, -13272.935244194896, -9085.492382704304, -16231.21097459924, -1712.367142721074, -1772.5827422836712, -3218.919422497681, -4884.72788151835, -20556.094712745515, -18640.48315769233, -23587.706516707723, -13819.703617060617, -8036.301497972191, -12806.320226945905, -7998.907029498462, -10041.007106424226, 0.007671875, -0.021453125, 0.98521875, 192.0, 0.0, 32.0, 127.5, 40.0, 15.0, 96.0, 0.0, 0.0, 0.0, 1.644497957357299E9, 0.0, 2022-02-10 23:59:17.357
108.0, -10978.88630376891, -13295.041119461193, -9095.528315964737, -16236.173061868318, -1735.4117912544957, -1785.949085467945, -3244.0204315209903, -4882.5821140506405, -20560.4533029143, -18641.17606177045, -23588.555882997025, -13818.362512393298, -8040.056591040682, -12818.792500351967, -7999.510526598755, -10041.61060352452, 0.007671875, -0.021453125, 0.98521875, 192.0, 0.0, 0.0, 0.0, 0.0, 0.0, 0.0, 0.0, 0.0, 0.0, 1.6444979573573065E9, 0.0, 2022-02-10 23:59:17.357
110.0, -10959.93202447081, -13277.24913087477, -9090.409766484472, -16226.695922219269, -1731.2096632968978, -1772.2251143723863, -3246.680289111172, -4894.249724656311, -20559.425122669356, -18650.049704319204, -23592.199217343237, -13823.481061873563, -8041.35299221909, -12815.462090428126, -8011.379302904524, -10046.103304160037, 0.007671875, -0.021453125, 0.98521875, 192.0, 0.0, 0.0, 0.0, 0.0, 0.0, 0.0, 0.0, 0.0, 0.0, 1.6444979573573136E9, 0.0, 2022-02-10 23:59:17.357
112.0, -10958.903844225866, -13272.935244194896, -9093.762528152767, -16231.143919365875, -1730.8967388745236, -1779.6458935315484, -3247.0602687669125, -4888.795899009216, -20560.74387559222, -18640.371398970055, -23584.398458528336, -13813.243962913033, -8047.656184155487, -12809.784747336478, -8005.098462712582, -10041.811769224616, 0.007671875, -0.021453125, 0.98521875, 192.0, 0.0, 0.0, 0.0, 0.0, 0.0, 0.0, 0.0, 0.0, 0.0, 1.6444979573573203E9, 0.0, 2022-02-10 23:59:17.357
114.0, -10963.865931494944, -13276.757392496753, -9096.712958420869, -16235.83778570149, -1730.784980152247, -1791.3582076261293, -3240.175931474678, -4899.032997969746, -20547.712808574775, -18638.605611158087, -23589.114676608406, -13819.100119960323, -8040.615384652065, -12803.883886800277, -8009.993494748294, -10047.958498949827, 0.007671875, -0.021453125, 0.98521875, 192.0, 0.0, 0.0, 0.0, 0.0, 0.0, 0.0, 0.0, 0.0, 0.0, 1.6444979573573272E9, 0.0, 2022-02-10 23:59:17.357
116.0, -10952.533597056103, -13266.743810980775, -9098.165821810464, -16232.060340888542, -1721.978392836856, -1788.8995157360455, -3223.3227161553764, -4898.518907847275, -20557.793445324118, -18631.67657037694, -23585.873673662387, -13827.25850668651, -8039.810721851674, -12825.408616710738, -8006.2831051687135, -10048.450237327843, 0.0068359375, -0.021726562499999998, 0.986609375, 192.0, 0.0, 24.0, 127.5, 40.0, 15.0, 112.0, 0.0, 0.0, 0.0, 1.644497957357334E9, 0.0, 2022-02-10 23:59:17.357
118.0, -10970.571454831535, -13289.944921725384, -9102.010321856776, -16234.228460100707, -1740.4185820124844, -1803.137576954076, -3245.1156669993006, -4901.849317771115, -20567.628212884454, -18650.563794441678, -23590.85811267592, -13822.430529884165, -8043.141131775515, -12833.857576114844, -8011.53576511571, -10053.099400174548, 0.0068359375, -0.021726562499999998, 0.986609375, 192.0, 0.0, 0.0, 0.0, 0.0, 0.0, 0.0, 0.0, 0.0, 0.0, 1.6444979573573408E9, 0.0, 2022-02-10 23:59:17.357
120.0, -10968.068059452542, -13288.156782168959, -9096.914124120965, -16228.439358286781, -1729.756799907303, -1794.8227280167018, -3238.521902384985, -4887.2536286418, -20564.118989004968, -18667.573471972166, -23598.30124357954, -13821.3129426614, -8041.040067796715, -12827.777901623, -8014.083863983616, -10054.41815309741, 0.0068359375, -0.021726562499999998, 0.986609375, 192.0, 0.0, 0.0, 0.0, 0.0, 0.0, 0.0, 0.0, 0.0, 0.0, 1.6444979573573475E9, 0.0, 2022-02-10 23:59:17.357
122.0, -10961.988384960698, -13270.297738349169, -9093.270789774751, -16226.360646052439, -1722.7607038927918, -1788.944219224956, -3242.2769954534765, -4884.794936751716, -20562.64377387092, -18655.32471601066, -23582.23033931617, -13814.428605369165, -8037.575547406143, -12826.861480100331, -8004.271448167736, -10047.377353593989, 0.0068359375, -0.021726562499999998, 0.986609375, 192.0, 0.0, 0.0, 0.0, 0.0, 0.0, 0.0, 0.0, 0.0, 0.0, 1.6444979573573544E9, 0.0, 2022-02-10 23:59:17.357
