%OpenBCI Raw EEG Data
%Number of channels = 16
%Sample Rate = 125 Hz
%Board = OpenBCI_GUI$BoardCytonSerialDaisy
Sample Index, EXG Channel 0, EXG Channel 1, EXG Channel 2, EXG Channel 3, EXG Channel 4, EXG Channel 5, EXG Channel 6, EXG Channel 7, EXG Channel 8, EXG Channel 9, EXG Channel 10, EXG Channel 11, EXG Channel 12, EXG Channel 13, EXG Channel 14, EXG Channel 15, Accel Channel 0, Accel Channel 1, Accel Channel 2, Other, Other, Other, Other, Other, Other, Other, Analog Channel 0, Analog Channel 1, Analog Channel 2, Timestamp, Other, Timestamp (Formatted)
238.0, -10938.653163749357, -13253.355116052046, -9092.823754885645, -16208.702767932746, -1577.2731992331983, -1635.2312726058094, -3100.3434181622765, -4716.866280658994, -20534.16765143486, -18609.525991621733, -23547.585135410445, -13795.451974326608, -8085.631797985054, -12772.524389329481, -7945.3522497835465, -9975.203570747803, 0.006, -0.028, 0.994, 192.0, 0.0, 24.0, 127.5, 16.0, 15.5, 8.0, 0.0, 0.0, 0.0, 1.64449804384713E9, 0.0, 2022-02-11 00:00:43.847
240.0, -10944.710486496746, -13264.419229557423, -9097.271752032251, -16215.430643013793, -1586.8397458600696, -1645.5801302886166, -3113.6427061131844, -4735.753504723729, -20536.894564258404, -18616.43268065842, -23540.23141148465, -13793.77559349246, -8086.12353636307, -12770.222159650584, -7939.317278780613, -9974.287149225134, 0.006, -0.028, 0.994, 192.0, 0.0, 0.0, 0.0, 0.0, 0.0, 0.0, 0.0, 0.0, 0.0, 1.6444980438471377E9, 0.0, 2022-02-11 00:00:43.847
242.0, -10936.306230581551, -13250.807017184141, -9096.288275276218, -16214.335407535484, -1581.2294580017876, -1644.8872262105021, -3115.207328225056, -4733.585385511564, -20536.760453791674, -18612.856401545574, -23559.543318694035, -13810.695864045128, -8084.670672973475, -12775.810095764411, -7947.006278873239, -9980.702099883807, 0.006, -0.028, 0.994, 192.0, 0.0, 0.0, 0.0, 0.0, 0.0, 0.0, 0.0, 0.0, 0.0, 1.6444980438471444E9, 0.0, 2022-02-11 00:00:43.847
244.0, -10932.841710190978, -13247.789531682674, -9090.99091184031, -16213.10606159044, -1569.606550885028, -1640.7968569751808, -3108.0547699993576, -4730.813769199106, -20530.25609615518, -18596.047889715184, -23537.593905638925, -13789.72992774605, -8085.877667174062, -12776.570055075892, -7939.630203202988, -9977.908131826895, 0.006, -0.028, 0.994, 192.0, 0.0, 0.0, 0.0, 0.0, 0.0, 0.0, 0.0, 0.0, 0.0, 1.644498043847151E9, 0.0, 2022-02-11 00:00:43.847
246.0, -10951.416009833338, -13265.648575502466, -9106.301856792195, -16218.895163404366, -1590.1254522949998, -1649.46933382384, -3120.683505616606, -4736.558167524119, -20536.82750902504, -18617.05852950317, -23553.396588968826, -13802.82804999686, -8087.039957885738, -12759.314508356394, -7944.771104427708, -9977.59520740452, 0.009000000000000001, -0.025, 0.992, 192.0, 0.0, 48.0, 127.5, 40.0, 15.0, 120.0, 0.0, 0.0, 0.0, 1.6444980438471577E9, 0.0, 2022-02-11 00:00:43.847
248.0, -10938.295535838073, -13251.81284568463, -9093.896638619499, -16209.596837710958, -1571.9981875417457, -1641.3332988421082, -3104.053807741858, -4729.025629642681, -20537.185136936325, -18622.557058639177, -23555.385894225346, -13796.055471426902, -8089.073966631171, -12767.718764271589, -7949.5767294856, -9974.577721903053, 0.009000000000000001, -0.025, 0.992, 192.0, 0.0, 0.0, 0.0, 0.0, 0.0, 0.0, 0.0, 0.0, 0.0, 1.6444980438471642E9, 0.0, 2022-02-11 00:00:43.847
250.0, -10945.157521385852, -13264.016898157228, -9097.763490410267, -16213.798965668557, -1581.341216724064, -1653.3585373590633, -3123.365714951243, -4741.833179215572, -20536.26871541366, -18620.321884193647, -23543.293600475026, -13795.362567348788, -8087.799917197218, -12770.780953261967, -7940.166645069915, -9977.617559148975, 0.009000000000000001, -0.025, 0.992, 192.0, 0.0, 0.0, 0.0, 0.0, 0.0, 0.0, 0.0, 0.0, 0.0, 1.6444980438471708E9, 0.0, 2022-02-11 00:00:43.847
252.0, -10935.345105569972, -13248.773008438708, -9095.952999109388, -16211.16145982283, -1573.0710712756004, -1650.2963483686863, -3128.752485364972, -4750.885635719971, -20530.077282199538, -18614.68924459091, -23554.827100613966, -13807.946599477125, -8086.928199163462, -12774.871322497287, -7949.1743980854035, -9985.68653889734, 0.009000000000000001, -0.025, 0.992, 192.0, 0.0, 0.0, 0.0, 0.0, 0.0, 0.0, 0.0, 0.0, 0.0, 1.6444980438471775E9, 0.0, 2022-02-11 00:00:43.847
254.0, -10932.752303213156, -13255.992621897773, -9093.896638619499, -16209.507430733138, -1566.1420304944552, -1649.8716652240355, -3127.746656864483, -4737.295775091145, -20523.10353792948, -18610.218895699847, -23532.587114880935, -13793.529724303453, -8081.1838008384475, -12773.19494166314, -7943.139427082471, -9984.010158063193, 0.009000000000000001, -0.025, 0.992, 192.0, 0.0, 0.0, 0.0, 0.0, 0.0, 0.0, 0.0, 0.0, 0.0, 1.644498043847184E9, 0.0, 2022-02-11 00:00:43.847
0.0, -10956.199283146774, -13268.822523215118, -9106.70418819239, -16217.509355248138, -1580.2012777568434, -1663.7520985307813, -3097.9517815055588, -4724.801149940628, -20535.3969973799, -18615.136279480015, -23545.32760922046, -13797.888314472237, -8084.760079951297, -12777.397069620738, -7946.581595728589, -9984.211323763291, 0.009500000000000001, -0.0225, 0.992, 192.0, 0.0, 40.0, 127.5, 48.0, 15.5, 0.0, 0.0, 0.0, 0.0, 1.6444980438471904E9, 0.0, 2022-02-11 00:00:43.847
2.0, -10931.366495056927, -13255.031496886195, -9094.231914786329, -16207.58518070998, -1566.857286317025, -1640.3274703416193, -3105.1937467090784, -4727.729228464274, -20531.97718047824, -18611.15766896697, -23546.869879587877, -13799.92232321767, -8091.711472476897, -12772.144409673741, -7944.972270127806, -9982.31142548459, 0.009500000000000001, -0.0225, 0.992, 192.0, 0.0, 0.0, 0.0, 0.0, 0.0, 0.0, 0.0, 0.0, 0.0, 1.6444980438471973E9, 0.0, 2022-02-11 00:00:43.847
4.0, -10946.185701630797, -13266.028555158206, -9108.335865537629, -16211.943770878766, -1576.245018988254, -1649.2681681237423, -3103.8973455306705, -4725.762274952206, -20527.1939071648, -18610.755337566774, -23537.41509168328, -13791.987453936035, -8089.766870709285, -12764.343650858838, -7941.395991014957, -9978.064594038082, 0.009500000000000001, -0.0225, 0.992, 192.0, 0.0, 0.0, 0.0, 0.0, 0.0, 0.0, 0.0, 0.0, 0.0, 1.6444980438472035E9, 0.0, 2022-02-11 00:00:43.847
6.0, -10949.158483643352, -13256.23849108678, -9109.431101015938, -16217.665817459325, -1577.4743649332959, -1642.3838308315076, -3098.689389072584, -4714.966382380293, -20532.82654676754, -18604.943884008397, -23561.443216972737, -13820.30711416091, -8084.514210762288, -12772.703203285124, -7943.564110227122, -9980.679748139351, 0.009500000000000001, -0.0225, 0.992, 192.0, 0.0, 0.0, 0.0, 0.0, 0.0, 0.0, 0.0, 0.0, 0.0, 1.6444980438472102E9, 0.0, 2022-02-11 00:00:43.847
8.0, -10947.705620253757, -13274.455162817856, -9106.570077725659, -16221.040930872075, -1572.7581468532262, -1648.239987878798, -3109.1276537332124, -4730.076161632081, -20536.156956691382, -18620.567753382653, -23539.739673106633, -13800.21289589559, -8090.2809608317575, -12769.685717783657, -7940.010182858728, -9977.21522774878, 0.009500000000000001, -0.0225, 0.992, 192.0, 0.0, 0.0, 0.0, 0.0, 0.0, 0.0, 0.0, 0.0, 0.0, 1.6444980438472168E9, 0.0, 2022-02-11 00:00:43.847
10.0, -10957.36157385845, -13277.025613430216, -9113.700284206901, -16222.270276817117, -1587.2197255158098, -1660.3769851180298, -3129.087761531802, -4747.577577540586, -20544.49415737321, -18620.031311515726, -23550.20028951172, -13808.483041344052, -8086.570571252177, -12783.610854579312, -7945.039325361172, -9986.960588331292, 0.009750000000000002, -0.021249999999999998, 0.993, 192.0, 0.0, 40.0, 127.5, 48.0, 15.5, 8.0, 0.0, 0.0, 0.0, 1.6444980438472235E9, 0.0, 2022-02-11 00:00:43.847
12.0, -10944.822245219022, -13264.799209213163, -9106.61478121457, -16217.039968614576, -1573.316940464609, -1642.8085139761586, -3115.363790436243, -4734.814731456606, -20538.280372414636, -18622.802927828187, -23549.93206857825, -13807.432509354652, -8089.565705009188, -12783.47674411258, -7946.782761428686, -9981.68557663984, 0.009750000000000002, -0.021249999999999998, 0.993, 192.0, 0.0, 0.0, 0.0, 0.0, 0.0, 0.0, 0.0, 0.0, 0.0, 1.64449804384723E9, 0.0, 2022-02-11 00:00:43.847
14.0, -10934.49573928067, -13264.218063857326, -9111.733330694835, -16221.197393083263, -1578.7931178561591, -1650.7880867467031, -3114.201499724567, -4744.001298427737, -20542.951887005795, -18625.90982030747, -23553.106016290905, -13802.202201152111, -8093.2760945887685, -12775.541874830948, -7940.703086936843, -9977.21522774878, 0.009750000000000002, -0.021249999999999998, 0.993, 192.0, 0.0, 0.0, 0.0, 0.0, 0.0, 0.0, 0.0, 0.0, 0.0, 1.64449804384724E9, 0.0, 2022-02-11 00:00:43.847
16.0, -10935.725085225713, -13264.86626444653, -9105.206621313884, -16215.676512202803, -1579.0389870451675, -1649.6257960350272, -3125.846758585782, -4752.450257831843, -20533.78767177912, -18617.50556439228, -23558.291621004537, -13808.237172155044, -8089.476298031366, -12770.713898028602, -7943.3629445270235, -9980.389175461432, 0.009750000000000002, -0.021249999999999998, 0.993, 192.0, 0.0, 0.0, 0.0, 0.0, 0.0, 0.0, 0.0, 0.0, 0.0, 1.6444980438472464E9, 0.0, 2022-02-11 00:00:43.847
18.0, -10933.556966013548, -13261.535854522688, -9091.03561532922, -16216.056491858542, -1568.8689433180027, -1647.8600082230578, -3132.1499505221786, -4746.437638573366, -20522.410633851367, -18617.706730092374, -23528.720263090167, -13796.949541205115, -8074.992367624327, -12768.791648005445, -7936.724476423798, -9981.573817917564, 0.009750000000000002, -0.021249999999999998, 0.993, 192.0, 0.0, 0.0, 0.0, 0.0, 0.0, 0.0, 0.0, 0.0, 0.0, 1.644498043847253E9, 0.0, 2022-02-11 00:00:43.847
20.0, -10943.481140551703, -13264.95567142435, -9106.547725981203, -16221.331503549995, -1587.5550016826394, -1650.989252446801, -3115.5426043918856, -4732.914833177904, -20527.43977635381, -18619.137241737513, -23539.71732136218, -13803.342140119332, -8069.158562321492, -12757.124037399773, -7936.925642123895, -9985.373614474967, 0.006875000000000001, -0.020624999999999998, 0.9924999999999999, 192.0, 0.0, 16.0, 127.5, 48.0, 15.5, 0.0, 0.0, 0.0, 0.0, 1.6444980438472595E9, 0.0, 2022-02-11 00:00:43.847
22.0, -10926.963201399232, -13248.281270060692, -9096.221220042851, -16217.554058737047, -1578.3237312225976, -1654.6549385374713, -3103.495014130475, -4745.476513561787, -20525.96456121976, -18606.59791309809, -23543.248896986115, -13802.917456974681, -8073.472449001366, -12769.484552083559, -7935.629240945487, -9984.2560272522, 0.006875000000000001, -0.020624999999999998, 0.9924999999999999, 192.0, 0.0, 0.0, 0.0, 0.0, 0.0, 0.0, 0.0, 0.0, 0.0, 1.644498043847266E9, 0.0, 2022-02-11 00:00:43.847
24.0, -10927.790215944078, -13247.543662493666, -9101.429176500938, -16222.40438728385, -1583.6434464029608, -1660.8016682626808, -3118.4930346599863, -4752.852589232039, -20519.72842451673, -18598.14895369398, -23527.75913807859, -13792.68035801415, -8075.908789146994, -12793.624436095291, -7933.371714755502, -9991.028605822159, 0.006875000000000001, -0.020624999999999998, 0.9924999999999999, 192.0, 0.0, 0.0, 0.0, 0.0, 0.0, 0.0, 0.0, 0.0, 0.0, 1.6444980438472729E9, 0.0, 2022-02-11 00:00:43.847
26.0, -10932.104102623953, -13255.791456197674, -9104.737234680324, -16216.145898836363, -1590.594838928561, -1663.2827118972198, -3111.5416421343857, -4748.3375368520665, -20526.501003086687, -18611.269427689247, -23547.629838899356, -13807.879544243759, -8075.729975191352, -12779.855761510822, -7937.573842713099, -9984.412489463388, 0.006875000000000001, -0.020624999999999998, 0.9924999999999999, 192.0, 0.0, 0.0, 0.0, 0.0, 0.0, 0.0, 0.0, 0.0, 0.0, 1.6444980438472793E9, 0.0, 2022-02-11 00:00:43.847
28.0, -10917.240192561174, -13254.897386419463, -9093.51665896376, -16214.246000557663, -1575.2168387433098, -1638.4499238073736, -3100.9022117736595, -4727.818635442095, -20520.86836348395, -18604.25097993028, -23527.42386191176, -13792.613302780785, -8072.936007134439, -12768.724592772078, -7932.924679866395, -9977.97518706026, 0.006875000000000001, -0.020624999999999998, 0.9924999999999999, 192.0, 0.0, 0.0, 0.0, 0.0, 0.0, 0.0, 0.0, 0.0, 0.0, 1.644498043847286E9, 0.0, 2022-02-11 00:00:43.847
30.0, -10931.277088079107, -13251.768142195719, -9105.877173647545, -16215.810622669534, -1580.4918504347625, -1644.015508176745, -3088.631104067696, -4726.611641241508, -20518.744947760697, -18602.373433396035, -23533.07885325895, -13796.614265038284, -8070.83494315564, -12759.515674056493, -7927.38144724148, -9970.442649178822, 0.0054375000000000005, -0.0233125, 0.99025, 192.0, 0.0, 16.0, 127.5, 24.0, 15.0, 112.0, 0.0, 0.0, 0.0, 1.6444980438472927E9, 0.0, 2022-02-11 00:00:43.847
32.0, -10930.360666556438, -13249.398857283457, -9098.143470066008, -16215.631808713892, -1573.5628096536173, -1640.6180430195384, -3081.6126563087296, -4720.822539427583, -20521.6953780288, -18598.640692072, -23539.784376595544, -13798.201238894611, -8077.227542069858, -12762.935490958154, -7928.320220508603, -9969.772096845163, 0.0054375000000000005, -0.0233125, 0.99025, 192.0, 0.0, 0.0, 0.0, 0.0, 0.0, 0.0, 0.0, 0.0, 0.0, 1.6444980438472993E9, 0.0, 2022-02-11 00:00:43.847
34.0, -10942.430608562305, -13254.562110252633, -9108.201755070897, -16223.611381484436, -1589.9019348504467, -1657.627720550027, -3112.882746801704, -4750.080972919581, -20522.589447807008, -18599.355947894568, -23528.8543735569, -13786.600683522307, -8081.1838008384475, -12766.28825262645, -7928.14140655296, -9976.030585292649, 0.0054375000000000005, -0.0233125, 0.99025, 192.0, 0.0, 0.0, 0.0, 0.0, 0.0, 0.0, 0.0, 0.0, 0.0, 1.644498043847306E9, 0.0, 2022-02-11 00:00:43.847
36.0, -10938.630812004902, -13261.759371967242, -9108.46997600436, -16221.376207038906, -1580.8494783460474, -1648.597615790083, -3107.3171624323327, -4732.378391310977, -20521.360101861967, -18609.838916044107, -23544.500594675614, -13805.35379712031, -8076.445231013922, -12770.758601517511, -7935.249261289748, -9983.07138479607, 0.0054375000000000005, -0.0233125, 0.99025, 192.0, 0.0, 0.0, 0.0, 0.0, 0.0, 0.0, 0.0, 0.0, 0.0, 1.6444980438473125E9, 0.0, 2022-02-11 00:00:43.847
38.0, -10938.966088171732, -13255.657345730942, -9099.663388688969, -16218.917515148822, -1567.7290043507821, -1644.0602116656557, -3081.858525497738, -4725.829330185572, -20513.760508747164, -18610.598875355587, -23530.70956834669, -13793.39561383672, -8075.394699024523, -12763.986022947553, -7931.449464732345, -9974.488314925233, 0.0054375000000000005, -0.0233125, 0.99025, 192.0, 0.0, 0.0, 0.0, 0.0, 0.0, 0.0, 0.0, 0.0, 0.0, 1.6444980438473191E9, 0.0, 2022-02-11 00:00:43.847
40.0, -10949.761980743646, -13256.95374690935, -9104.580772469137, -16215.20712556924, -1576.8038125996368, -1651.9280257139237, -3088.0946622007687, -4734.07712388958, -20535.508756102176, -18607.112003220558, -23549.99912381162, -13800.034081939946, -8074.701794946408, -12777.665290554201, -7926.174453040893, -9979.964492316782, 7.187500000000002E-4, -0.02365625, 0.9901249999999999, 192.0, 127.5, 112.0, 127.5, 32.0, 15.0, 120.0, 0.0, 0.0, 0.0, 1.6444980438473256E9, 0.0, 2022-02-11 00:00:43.847
42.0, -10935.590974758981, -13259.926528921907, -9098.322284021651, -16211.004997611642, -1570.344158452053, -1637.2876330956976, -3077.2317143954892, -4713.491167246243, -20525.182250163823, -18604.005110741273, -23548.27803948856, -13809.645332055728, -8066.409297753489, -12767.495246827037, -7928.543737953155, -9976.947006815315, 7.187500000000002E-4, -0.02365625, 0.9901249999999999, 192.0, 0.0, 0.0, 0.0, 0.0, 0.0, 0.0, 0.0, 0.0, 0.0, 1.6444980438473327E9, 0.0, 2022-02-11 00:00:43.847
44.0, -10944.039934163087, -13265.067430146628, -9102.99379861281, -16212.21199181223, -1578.50254517824, -1649.8493134795801, -3092.5203076029193, -4726.946917408338, -20532.848898511995, -18604.36273865256, -23537.683312616744, -13797.374224349765, -8076.400527525012, -12753.614813520291, -7925.123921051493, -9973.929521313848, 7.187500000000002E-4, -0.02365625, 0.9901249999999999, 192.0, 0.0, 0.0, 0.0, 0.0, 0.0, 0.0, 0.0, 0.0, 0.0, 1.6444980438473392E9, 0.0, 2022-02-11 00:00:43.847
46.0, -10951.997155189176, -13273.851665717562, -9105.050159102699, -16211.452032500749, -1577.0273300441897, -1654.856104237569, -3103.495014130475, -4728.8468156870385, -20531.194869422303, -18607.760203809765, -23554.67063840278, -13809.06418669989, -8069.762059421785, -12757.52636879997, -7936.411552001424, -9983.183143518347, 7.187500000000002E-4, -0.02365625, 0.9901249999999999, 192.0, 0.0, 0.0, 0.0, 0.0, 0.0, 0.0, 0.0, 0.0, 0.0, 1.6444980438473475E9, 0.0, 2022-02-11 00:00:43.847
48.0, -10955.439323835293, -13273.62814827301, -9101.205659056384, -16214.044834857565, -1570.925303807891, -1651.503342569273, -3102.466833885531, -4719.928469649371, -20534.368817134957, -18614.4433754019, -23540.56668765148, -13812.998093724025, -8067.303367531702, -12763.695450269635, -7932.9693833553065, -9983.429012707355, 7.187500000000002E-4, -0.02365625, 0.9901249999999999, 192.0, 0.0, 0.0, 0.0, 0.0, 0.0, 0.0, 0.0, 0.0, 0.0, 1.6444980438473542E9, 0.0, 2022-02-11 00:00:43.847
50.0, -10973.432478121815, -13282.546494310678, -9114.192022584919, -16217.889334903877, -1586.370359226508, -1667.462488110362, -3104.94787752007, -4740.581481526075, -20543.376570150445, -18622.802927828187, -23553.24012675764, -13820.262410672, -8084.156582851003, -12788.461183126115, -7939.183168313882, -9990.246294766224, 0.0023593750000000004, -0.023828125, 0.9930625, 192.0, 0.0, 16.0, 127.5, 32.0, 15.5, 16.0, 0.0, 0.0, 0.0, 1.644498043847361E9, 0.0, 2022-02-11 00:00:43.847
52.0, -10969.677385053325, -13281.205389643359, -9111.666275461468, -16213.374282523906, -1574.9709695543015, -1654.3643658595522, -3104.076159486313, -4738.74863848074, -20545.365875406966, -18620.187773726913, -23555.587059925445, -13823.481061873563, -8079.708585704397, -12792.193924450152, -7947.699182951354, -9994.560181446097, 0.0023593750000000004, -0.023828125, 0.9930625, 192.0, 0.0, 0.0, 0.0, 0.0, 0.0, 0.0, 0.0, 0.0, 0.0, 1.644498043847382E9, 0.0, 2022-02-11 00:00:43.847
54.0, -10969.699736797778, -13286.815677501641, -9111.688627205924, -16218.269314559617, -1573.0040160422345, -1654.8337524931137, -3097.9964849944695, -4731.685487232863, -20552.429026654845, -18621.14889873849, -23552.122539534874, -13816.462614114596, -8082.3013880612125, -12765.461238081603, -7940.256052047736, -9988.860486609994, 0.0023593750000000004, -0.023828125, 0.9930625, 192.0, 0.0, 0.0, 0.0, 0.0, 0.0, 0.0, 0.0, 0.0, 0.0, 1.644498043847402E9, 0.0, 2022-02-11 00:00:43.847
56.0, -10965.922291984833, -13283.351157111068, -9112.716807450868, -16206.02055859811, -1580.3800917124859, -1658.5217903282394, -3110.3793514227095, -4734.971193667793, -20545.410578895877, -18610.73298582232, -23562.873728617877, -13826.096215974834, -8080.960283393894, -12779.967520233098, -7946.536892239677, -9987.295864498123, 0.0023593750000000004, -0.023828125, 0.9930625, 192.0, 0.0, 0.0, 0.0, 0.0, 0.0, 0.0, 0.0, 0.0, 0.0, 1.6444980438474092E9, 0.0, 2022-02-11 00:00:43.847
58.0, -10964.469428595237, -13289.96727346984, -9108.268810304262, -16209.775651666601, -1572.2664084752093, -1660.1981711623873, -3074.683615527584, -4718.02857137067, -20543.957715506283, -18620.076015004637, -23554.67063840278, -13813.758053035504, -8078.300425803713, -12782.135639445263, -7942.200653815348, -9985.843001108527, 0.0023593750000000004, -0.023828125, 0.9930625, 192.0, 0.0, 0.0, 0.0, 0.0, 0.0, 0.0, 0.0, 0.0, 0.0, 1.6444980438474169E9, 0.0, 2022-02-11 00:00:43.847
60.0, -10986.88822828391, -13295.689320050398, -9121.724560466357, -16218.023445370609, -1584.5151644367177, -1662.9697874748454, -3076.4941068284643, -4712.954725379315, -20561.1015035035, -18636.303381479192, -23566.897042619832, -13832.444111400142, -8085.900018918517, -12786.695395314146, -7939.496092736255, -9985.910056341894, 0.004, -0.026000000000000002, 0.99, 192.0, 0.0, 16.0, 127.5, 24.0, 15.0, 120.0, 0.0, 0.0, 0.0, 1.644498043847436E9, 0.0, 2022-02-11 00:00:43.847
62.0, -10976.181742689818, -13283.082936177605, -9118.483557520338, -16210.401500511349, -1578.9719318118016, -1657.9182932279462, -3086.3512261332544, -4717.715646948296, -20561.883814559438, -18628.3461604531, -23567.455836231213, -13840.870719059792, -8089.0516148867155, -12787.991796492553, -7945.955746883839, -9984.904227841405, 0.004, -0.026000000000000002, 0.99, 192.0, 0.0, 0.0, 0.0, 0.0, 0.0, 0.0, 0.0, 0.0, 0.0, 1.6444980438474424E9, 0.0, 2022-02-11 00:00:43.847
64.0, -10985.658882338868, -13306.239343433303, -9122.931554666944, -16217.688169203779, -1590.8183563731143, -1671.3293399011302, -3100.2316594400004, -4731.618431999496, -20566.86825357297, -18628.815547086662, -23558.023400071073, -13822.54228860644, -8097.299408590724, -12798.340654175361, -7945.732229439286, -9990.559219188597, 0.004, -0.026000000000000002, 0.99, 192.0, 0.0, 0.0, 0.0, 0.0, 0.0, 0.0, 0.0, 0.0, 0.0, 1.644498043847449E9, 0.0, 2022-02-11 00:00:43.847
66.0, -10986.865876539456, -13295.510506094755, -9119.958772654387, -16216.458823258738, -1585.856269104036, -1671.8657817680578, -3104.590249608785, -4732.244280844246, -20570.265718730177, -18638.136224524525, -23581.895063149343, -13837.473253902586, -8090.88445793205, -12797.446584397148, -7946.760409684231, -9996.370672746978, 0.004, -0.026000000000000002, 0.99, 192.0, 0.0, 0.0, 0.0, 0.0, 0.0, 0.0, 0.0, 0.0, 0.0, 1.6444980438474708E9, 0.0, 2022-02-11 00:00:43.847
68.0, -10966.905768740866, -13298.282122407214, -9105.921877136454, -16214.916552891322, -1568.734832851271, -1664.243836908798, -3091.5368308468856, -4727.170434852891, -20560.587413381032, -18627.765015097262, -23566.04767633053, -13830.87948928827, -8090.705643976408, -12789.846991282344, -7935.4951304787555, -9990.559219188597, 0.004, -0.026000000000000002, 0.99, 192.0, 0.0, 0.0, 0.0, 0.0, 0.0, 0.0, 0.0, 0.0, 0.0, 1.6444980438474777E9, 0.0, 2022-02-11 00:00:43.847
70.0, -10983.60252184898, -13278.903159964462, -9109.520507993759, -16213.083709845987, -1575.2168387433098, -1665.495534598295, -3087.13353718919, -4729.4950162762425, -20557.569927879566, -18635.230497745335, -23570.629783943867, -13831.281820688466, -8084.760079951297, -12782.739136545557, -7934.913985122917, -9989.21811452128, 0.004, -0.02, 0.988, 192.0, 0.0, 16.0, 127.5, 48.0, 15.0, 112.0, 0.0, 0.0, 0.0, 1.6444980438474927E9, 0.0, 2022-02-11 00:00:43.847
72.0, -10966.16816117384, -13280.780706498708, -9100.557458467181, -16201.974892851698, -1561.9399025368575, -1661.3604618740633, -3082.9537609760478, -4727.036324386158, -20548.20454695279, -18617.818488814653, -23570.85330138842, -13839.395503925742, -8075.752326935808, -12800.933456532175, -7933.058790333127, -9986.02181506417, 0.004, -0.02, 0.988, 192.0, 0.0, 0.0, 0.0, 0.0, 0.0, 0.0, 0.0, 0.0, 0.0, 1.6444980438475003E9, 0.0, 2022-02-11 00:00:43.847
74.0, -10960.155541915363, -13281.518314065734, -9100.266885789262, -16204.50063997515, -1571.2829317191758, -1665.6519968094824, -3103.9644007640363, -4735.239414601257, -20536.26871541366, -18616.49973589179, -23545.819347598477, -13821.603515339319, -8073.405393768, -12789.15408720423, -7927.247336774748, -9982.914922584883, 0.004, -0.02, 0.988, 192.0, 0.0, 0.0, 0.0, 0.0, 0.0, 0.0, 0.0, 0.0, 0.0, 1.6444980438475077E9, 0.0, 2022-02-11 00:00:43.847
76.0, -10965.005870462164, -13290.235494403303, -9105.921877136454, -16204.9253231198, -1562.8116205706144, -1662.1427729299992, -3073.4542695825426, -4715.3463620360335, -20541.901355016395, -18629.933134309427, -23560.012705327597, -13826.565602608396, -8065.3364140196345, -12792.596255850347, -7939.496092736255, -9982.82551560706, 0.004, -0.02, 0.988, 192.0, 0.0, 0.0, 0.0, 0.0, 0.0, 0.0, 0.0, 0.0, 0.0, 1.6444980438475149E9, 0.0, 2022-02-11 00:00:43.847
78.0, -10962.681289038812, -13275.86332271854, -9096.757661909778, -16205.081785330987, -1556.9554635233242, -1656.2866158827087, -3073.2978073713552, -4714.519347491187, -20544.650619584398, -18626.267448218758, -23545.79699585402, -13825.515070618996, -8071.93017863395, -12789.914046515709, -7927.962592597318, -9975.762364359185, 0.004, -0.02, 0.988, 192.0, 0.0, 0.0, 0.0, 0.0, 0.0, 0.0, 0.0, 0.0, 0.0, 1.6444980438475258E9, 0.0, 2022-02-11 00:00:43.847
80.0, -10984.206018949273, -13288.20148565787, -9105.027807358243, -16203.293645774562, -1570.925303807891, -1665.3837758760187, -3076.8070312508385, -4719.101455104525, -20547.265773685667, -18626.87094531905, -23553.7095133912, -13827.370265408787, -8075.953492635906, -12785.443697624649, -7930.354229254035, -9980.947969072815, 0.004, -0.022, 0.984, 192.0, 0.0, 16.0, 127.5, 40.0, 15.0, 96.0, 0.0, 0.0, 0.0, 1.6444980438475327E9, 0.0, 2022-02-11 00:00:43.847
82.0, -10970.750268787178, -13270.38714532699, -9093.248438030296, -16195.20231428174, -1558.2071612128213, -1651.9056739694684, -3073.2978073713552, -4706.383312509455, -20546.10348297399, -18616.812660314165, -23553.262478502093, -13825.269201429988, -8071.013757111283, -12775.564226575403, -7927.627316430488, -9973.97422480276, 0.004, -0.022, 0.984, 192.0, 0.0, 0.0, 0.0, 0.0, 0.0, 0.0, 0.0, 0.0, 0.0, 1.6444980438475397E9, 0.0, 2022-02-11 00:00:43.847
84.0, -10966.45873385176, -13276.600930285565, -9101.13860382302, -16197.437488727272, -1564.085670004567, -1661.561627574161, -3066.882856712682, -4697.487318216243, -20542.035465483128, -18610.86709628905, -23540.07494927346, -13815.456785614108, -8067.370422765068, -12789.757584304523, -7921.078255305083, -9969.325061956057, 0.004, -0.022, 0.984, 192.0, 0.0, 0.0, 0.0, 0.0, 0.0, 0.0, 0.0, 0.0, 0.0, 1.644498043847546E9, 0.0, 2022-02-11 00:00:43.847
86.0, -10968.7386117862, -13283.10528792206, -9103.574943968648, -16197.482192216183, -1563.1692484818993, -1663.215656663854, -3067.7098712575284, -4700.817728140084, -20545.54468936261, -18630.469576176354, -23557.442254715235, -13822.989323495547, -8070.4996669888105, -12784.52727610198, -7922.240546016758, -9970.085021267536, 0.004, -0.022, 0.984, 192.0, 0.0, 0.0, 0.0, 0.0, 0.0, 0.0, 0.0, 0.0, 0.0, 1.6444980438475528E9, 0.0, 2022-02-11 00:00:43.847
88.0, -10956.981594202709, -13280.423078587422, -9094.813060142167, -16202.712500418724, -1557.4024984124303, -1653.1350199145104, -3064.960606689526, -4698.783719394651, -20542.549555605598, -18623.83110807313, -23540.99137079613, -13816.2614484145, -8067.057498342693, -12787.768279048, -7917.993714570251, -9969.034489278138, 0.004, -0.022, 0.984, 192.0, 0.0, 0.0, 0.0, 0.0, 0.0, 0.0, 0.0, 0.0, 0.0, 1.64449804384756E9, 0.0, 2022-02-11 00:00:43.847
90.0, -10958.8367889925, -13269.962462182339, -9099.439871244416, -16201.907837618333, -1574.3004172206424, -1670.144697444999, -3090.0616157128356, -4718.833234171061, -20541.051988727093, -18620.277180704736, -23547.428673199258, -13824.151614207223, -8066.521056475766, -12793.758546562023, -7919.75950238222, -9974.130687013947, 0.002, -0.024, 0.988, 192.0, 0.0, 8.0, 127.5, 32.0, 15.0, 112.0, 0.0, 0.0, 0.0, 1.6444980438475668E9, 0.0, 2022-02-11 00:00:43.847
92.0, -10963.105972183463, -13265.536816780188, -9097.987007854821, -16197.772764894102, -1561.0011292697347, -1663.0368427082115, -3074.8400777387715, -4713.781739924162, -20537.565116592064, -18617.282046947723, -23556.503481448115, -13828.979591009569, -8071.058460600193, -12809.650636869746, -7927.247336774748, -9975.36003295899, 0.002, -0.024, 0.988, 192.0, 0.0, 0.0, 0.0, 0.0, 0.0, 0.0, 0.0, 0.0, 0.0, 1.6444980438475735E9, 0.0, 2022-02-11 00:00:43.847
94.0, -10961.518998327136, -13287.597988557576, -9098.65756018848, -16199.471497472705, -1571.6405596304608, -1666.1213834430437, -3073.7671940049167, -4717.626239970475, -20543.26481142817, -18616.5444393807, -23547.987466810642, -13815.680303058662, -8077.182838580948, -12806.990779279564, -7920.966496582806, -9974.600073647509, 0.002, -0.024, 0.988, 192.0, 0.0, 0.0, 0.0, 0.0, 0.0, 0.0, 0.0, 0.0, 0.0, 1.644498043847581E9, 0.0, 2022-02-11 00:00:43.847
96.0, -10961.004908204664, -13282.300625121668, -9096.489440976315, -16195.179962537286, -1570.7688415967039, -1663.4391741084069, -3086.1947639220675, -4707.165623565391, -20537.520413103153, -18631.095425021103, -23547.27221098807, -13826.275029930477, -8069.225617554858, -12784.639034824257, -7926.8673571190075, -9975.583550403542, 0.002, -0.024, 0.988, 192.0, 0.0, 0.0, 0.0, 0.0, 0.0, 0.0, 0.0, 0.0, 0.0, 1.6444980438475876E9, 0.0, 2022-02-11 00:00:43.847
98.0, -10946.789198731089, -13258.205444598849, -9087.593446683102, -16191.223703768695, -1553.3344809215644, -1651.793915247192, -3068.246313124456, -4702.270591529678, -20526.523354831144, -18620.880677805028, -23535.17991723775, -13813.735701291049, -8063.034184340738, -12787.343595903349, -7925.861528618519, -9967.961605544282, 0.002, -0.024, 0.988, 192.0, 0.0, 0.0, 0.0, 0.0, 0.0, 0.0, 0.0, 0.0, 0.0, 1.6444980438475943E9, 0.0, 2022-02-11 00:00:43.847
100.0, -10967.576321074524, -13278.858456475551, -9101.295066034207, -16202.936017863276, -1567.796059584148, -1665.495534598295, -3064.334757844777, -4716.486301003254, -20533.58650607902, -18621.372416183047, -23546.691065632232, -13819.748320549526, -8063.414163996478, -12797.826564052888, -7924.3416099955575, -9973.057803280093, 0.008, -0.022, 0.99, 192.0, 0.0, 32.0, 127.5, 40.0, 15.0, 120.0, 0.0, 0.0, 0.0, 1.6444980438476007E9, 0.0, 2022-02-11 00:00:43.847
102.0, -10969.923254242332, -13279.037270431194, -9093.002568841288, -16199.15857305033, -1558.989472268757, -1655.9289879714238, -3058.2550833529335, -4692.055844313603, -20538.660352070376, -18616.611494614066, -23546.64636214332, -13824.822166540882, -8068.778582665752, -12781.599197578336, -7931.784740899175, -9969.213303233779, 0.008, -0.022, 0.99, 192.0, 0.0, 0.0, 0.0, 0.0, 0.0, 0.0, 0.0, 0.0, 0.0, 1.6444980438476076E9, 0.0, 2022-02-11 00:00:43.847
0.0, -6041.855340225142, -7324.599602770759, -4956.611091686617, -8531.59380335734, -1346.9384726212588, -1623.2730893222201, -2185.1735931841845, -3123.0527905288686, -10261.797638153748, -9304.204202199484, -11773.781391832996, -6906.1302430785, -4033.126417771151, -6395.415234019189, -3963.4783820484145, -4984.237847833378, 0.006, -0.028, 0.992, 192.0, 0.0, 24.0, 127.5, 16.0, 15.5, 0.0, 0.0, 0.0, 0.0, 1.6444980444262543E9, 0.0, 2022-02-11 00:00:44.426
2.0, -12090.907942164891, -14649.020391585875, -9919.927706709828, -17063.500531137055, -2700.738930790297, -3253.2517019810325, -4378.147945183271, -6242.506950200433, -20844.02988481878, -18264.61622293189, -25073.85165379663, -15502.097070467124, -9233.7291519319, -13404.698777758931, -9119.399979043004, -11206.583524535123, 0.006, -0.028, 0.992, 192.0, 0.0, 0.0, 0.0, 0.0, 0.0, 0.0, 0.0, 0.0, 0.0, 1.6444980444263084E9, 0.0, 2022-02-11 00:00:44.426
4.0, -12081.140229837923, -14644.550042694813, -9917.804290986573, -17058.4266851457, -2692.2452678972804, -3249.563664145907, -4385.76989004253, -6246.9102438581285, -20836.095015537147, -18257.865996106386, -25081.920633545, -15518.033864263758, -9229.907003630044, -13404.98935043685, -9124.272659334261, -11204.996550678796, 0.006, -0.028, 0.992, 192.0, 0.0, 0.0, 0.0, 0.0, 0.0, 0.0, 0.0, 0.0, 0.0, 1.6444980444263155E9, 0.0, 2022-02-11 00:00:44.426
6.0, -12081.587264727028, -14643.99124908343, -9916.709055508263, -17059.410161901735, -2696.9167824884394, -3252.0000042915353, -4388.96618949964, -6250.687688671075, -20836.944381826448, -18252.90390883731, -25068.263717682807, -15503.885210023549, -9229.549375718758, -13418.892135488051, -9121.813967444179, -11204.057777411674, 0.006, -0.028, 0.992, 192.0, 0.0, 0.0, 0.0, 0.0, 0.0, 0.0, 0.0, 0.0, 0.0, 1.644498044426334E9, 0.0, 2022-02-11 00:00:44.426
8.0, -12097.367596312475, -14652.440208487536, -9927.862575991461, -17063.500531137055, -2709.2102419388584, -3263.7570218750266, -4392.207192445659, -6264.389308022179, -20839.715998138905, -18268.572481700478, -25082.72529634539, -15505.092204224135, -9228.8788233851, -13406.4645655709, -9124.965563412377, -11210.137451903516, 0.004, -0.022, 0.984, 192.0, 0.0, 16.0, 127.5, 40.0, 15.0, 96.0, 0.0, 0.0, 0.0, 1.644498044426341E9, 0.0, 2022-02-11 00:00:44.426
10.0, -12087.309311307587, -14640.079693803751, -9920.10652066547, -17059.790141557474, -2698.973142978328, -3252.2458734805437, -4391.827212789919, -6250.061839826327, -20840.83358536167, -18268.348964255925, -25074.566909619203, -15506.701529824917, -9226.196614050463, -13408.476222571877, -9126.306668079695, -11209.399844336493, 0.004, -0.022, 0.984, 192.0, 0.0, 0.0, 0.0, 0.0, 0.0, 0.0, 0.0, 0.0, 0.0, 1.6444980444263475E9, 0.0, 2022-02-11 00:00:44.426
12.0, -12104.050767904613, -14660.576243469268, -9926.476767835233, -17067.747362583563, -2704.002285480772, -3264.6957951421496, -4386.373387142824, -6253.325194516801, -20846.80150113124, -18272.439333491246, -25072.555252618225, -15507.550896114219, -9239.562957234735, -13416.522850575788, -9121.255173832795, -11209.735120503321, 0.004, -0.022, 0.984, 192.0, 0.0, 0.0, 0.0, 0.0, 0.0, 0.0, 0.0, 0.0, 0.0, 1.6444980444263544E9, 0.0, 2022-02-11 00:00:44.426
14.0, -12096.652340489905, -14658.788103912844, -9926.476767835233, -17066.696830594163, -2707.4891576157997, -3252.201169991633, -4381.791279529486, -6244.697421157053, -20846.868556364603, -18273.04283059154, -25087.68738361447, -15524.426463177975, -9243.250995069862, -13416.74636802034, -9118.774130198257, -11208.058739669174, 0.004, -0.022, 0.984, 192.0, 0.0, 0.0, 0.0, 0.0, 0.0, 0.0, 0.0, 0.0, 0.0, 1.6444980444263613E9, 0.0, 2022-02-11 00:00:44.426
16.0, -12094.528924766651, -14664.532502237858, -9925.381532356922, -17067.90382479475, -2705.097520959082, -3259.912521828714, -4382.193610929681, -6255.850941640251, -20846.756797642327, -18278.541359727547, -25073.85165379663, -15510.344864171133, -9245.285003815294, -13413.751234263329, -9114.884926663033, -11210.003341436784, 0.006, -0.022, 0.984, 192.0, 0.0, 32.0, 127.5, 40.0, 15.0, 96.0, 0.0, 0.0, 0.0, 1.6444980444263685E9, 0.0, 2022-02-11 00:00:44.426
18.0, -12111.49389880823, -14664.66661270459, -9940.893643008905, -17072.66474636373, -2721.637811856009, -3269.6578824112275, -4404.254782707069, -6259.069592841815, -20850.064855821714, -18290.119563355394, -25088.782619092777, -15523.912373055504, -9243.206291580951, -13430.76091179382, -9123.691513978423, -11216.038312439718, 0.006, -0.022, 0.984, 192.0, 0.0, 0.0, 0.0, 0.0, 0.0, 0.0, 0.0, 0.0, 0.0, 1.6444980444263752E9, 0.0, 2022-02-11 00:00:44.426
20.0, -12097.725224223761, -14651.657897431602, -9930.187157414814, -17074.765810342527, -2708.2044134383696, -3261.4100887072195, -4392.207192445659, -6253.5263602169, -20852.59060294516, -18285.76097318661, -25091.57658714969, -15521.54308814324, -9245.173245093018, -13420.456757599923, -9125.971391912864, -11214.294876372203, 0.006, -0.022, 0.984, 192.0, 0.0, 0.0, 0.0, 0.0, 0.0, 0.0, 0.0, 0.0, 0.0, 1.6444980444263823E9, 0.0, 2022-02-11 00:00:44.426
22.0, -12113.103224409011, -14675.261339576406, -9939.284317408123, -17079.593787144877, -2726.219919469347, -3280.163202305222, -4414.380122945324, -6277.666244228631, -20858.066780336714, -18302.837705950464, -25088.849674326146, -15530.461434180908, -9241.529910746804, -13432.057312972227, -9126.396075057517, -11218.98874270782, 0.006, -0.022, 0.984, 192.0, 0.0, 0.0, 0.0, 0.0, 0.0, 0.0, 0.0, 0.0, 0.0, 1.6444980444263887E9, 0.0, 2022-02-11 00:00:44.426
24.0, -12110.666884263383, -14677.42945878857, -9938.345544141, -17073.75998184204, -2725.974050280339, -3275.1787632916885, -4408.322800197935, -6273.754688948952, -20856.74802741385, -18302.681243739276, -25097.186875007974, -15532.294277226243, -9251.185864351495, -13435.812406040717, -9135.314421095183, -11225.98483872233, 0.006, -0.022, 0.984, 192.0, 0.0, 0.0, 0.0, 0.0, 0.0, 0.0, 0.0, 0.0, 0.0, 1.6444980444263957E9, 0.0, 2022-02-11 00:00:44.426
26.0, -12096.361767811986, -14666.320641794282, -9932.891718493906, -17072.709449852642, -2721.190776966903, -3266.2827689984765, -4411.183823488214, -6277.085098872793, -20855.87630938009, -18294.299339568537, -25079.730162588377, -15518.54795438623, -9254.091591130686, -13427.519908847798, -9129.033580903242, -11219.83810899712, 0.006, -0.022, 0.986, 192.0, 0.0, 24.0, 127.5, 40.0, 15.0, 112.0, 0.0, 0.0, 0.0, 1.6444980444264033E9, 0.0, 2022-02-11 00:00:44.426
28.0, -12109.348131340521, -14671.930929652564, -9940.58071858653, -17071.99419403007, -2730.4443991714, -3273.8823621132806, -4390.731977311609, -6268.278511557402, -20853.171748301, -18293.226455834683, -25092.33654646117, -15524.761739344805, -9248.12367536112, -13427.631667570075, -9128.8547669476, -11220.17338516395, 0.006, -0.022, 0.986, 192.0, 0.0, 0.0, 0.0, 0.0, 0.0, 0.0, 0.0, 0.0, 0.0, 1.6444980444264104E9, 0.0, 2022-02-11 00:00:44.426
30.0, -12095.87002943397, -14657.558757967801, -9926.365009112957, -17066.741534083074, -2717.413332153956, -3254.0563647814233, -4395.470547136134, -6259.628386453198, -20851.56242270022, -18286.833856920464, -25093.051802283742, -15524.806442833717, -9248.436599783492, -13413.974751707883, -9125.367894812573, -11213.289047871715, 0.006, -0.022, 0.986, 192.0, 0.0, 0.0, 0.0, 0.0, 0.0, 0.0, 0.0, 0.0, 0.0, 1.644498044426417E9, 0.0, 2022-02-11 00:00:44.426
32.0, -12109.415186573886, -14665.13599933815, -9937.362067384967, -17066.942699783172, -2721.034314755716, -3269.7919928779597, -4407.227564719626, -6276.705119217053, -20852.143568056057, -18295.6180924914, -25082.92646204549, -15520.671370109485, -9241.596965980169, -13411.918391217994, -9126.32901982415, -11218.184079907427, 0.006, -0.022, 0.986, 192.0, 0.0, 0.0, 0.0, 0.0, 0.0, 0.0, 0.0, 0.0, 0.0, 1.644498044426424E9, 0.0, 2022-02-11 00:00:44.426
34.0, -12097.032320145647, -14656.508225978403, -9928.980163214226, -17062.785275314483, -2716.183986208914, -3264.896960842247, -4393.9729802576285, -6259.561331219832, -20846.913259853514, -18293.13704885686, -25096.605729652136, -15520.984294531858, -9243.809788681245, -13421.976676222883, -9129.391208814528, -11218.206431651883, 0.006, -0.022, 0.986, 192.0, 0.0, 0.0, 0.0, 0.0, 0.0, 0.0, 0.0, 0.0, 0.0, 1.6444980444264307E9, 0.0, 2022-02-11 00:00:44.426
36.0, -12094.77479395566, -14658.85515914621, -9928.399017858388, -17068.350859683855, -2707.645619826987, -3263.779373619482, -4385.076985964416, -6250.866502626718, -20847.539108698264, -18283.771667930087, -25075.48333114187, -15508.444965892431, -9251.342326562683, -13420.099129688637, -9122.864499433577, -11209.288085614215, 0.007, -0.022, 0.987, 192.0, 0.0, 32.0, 127.5, 40.0, 15.0, 112.0, 0.0, 0.0, 0.0, 1.644498044426438E9, 0.0, 2022-02-11 00:00:44.426
38.0, -12110.175145885367, -14657.04466784533, -9938.434951118821, -17071.301289951956, -2719.6261548550315, -3273.8376586243703, -4398.86801229334, -6271.38540403669, -20847.82968137618, -18290.343080799947, -25086.480389413882, -15523.040655021747, -9241.7310764469, -13414.13121391907, -9124.026790145253, -11218.340542118614, 0.007, -0.022, 0.987, 192.0, 0.0, 0.0, 0.0, 0.0, 0.0, 0.0, 0.0, 0.0, 0.0, 1.644498044426448E9, 0.0, 2022-02-11 00:00:44.426
40.0, -12099.423956802364, -14647.813397385287, -9931.818834760052, -17065.66865034922, -2709.4337593834116, -3255.777449104482, -4387.423919132223, -6256.454438740545, -20851.271850022298, -18290.18661858876, -25086.63685162507, -15519.017341019791, -9244.614451481635, -13421.619048311597, -9133.325115838661, -11217.424120595948, 0.007, -0.022, 0.987, 192.0, 0.0, 0.0, 0.0, 0.0, 0.0, 0.0, 0.0, 0.0, 0.0, 1.644498044426455E9, 0.0, 2022-02-11 00:00:44.426
42.0, -12104.430747560353, -14662.252624303417, -9941.385381386923, -17068.90965329524, -2721.9283845339282, -3269.45671671113, -4402.153718728271, -6262.422354510111, -20852.523547711797, -18290.14191509985, -25079.707810843924, -15509.942532770936, -9245.754390448856, -13414.712359274909, -9128.363028569584, -11216.150071161994, 0.007, -0.022, 0.987, 192.0, 0.0, 0.0, 0.0, 0.0, 0.0, 0.0, 0.0, 0.0, 0.0, 1.6444980444264617E9, 0.0, 2022-02-11 00:00:44.426
44.0, -12091.399680542909, -14649.355667752705, -9936.803273773585, -17060.930080524693, -2718.2403466988026, -3257.1409055162558, -4402.1313669838155, -6268.882008657695, -20845.862727864114, -18290.946577900242, -25090.123723760098, -15518.88323055306, -9241.284041557794, -13421.015551211305, -9139.181272885951, -11220.687475286422, 0.007, -0.022, 0.987, 192.0, 0.0, 0.0, 0.0, 0.0, 0.0, 0.0, 0.0, 0.0, 0.0, 1.6444980444264686E9, 0.0, 2022-02-11 00:00:44.426
46.0, -12068.243273287211, -14625.595763396714, -9931.304744637579, -17059.700734579652, -2715.781654808719, -3247.7978763339374, -4396.364616914346, -6251.291185771369, -20831.17763175698, -18270.27121427908, -25067.34729616014, -15500.107765210601, -9239.182977578996, -13403.335321347156, -9134.442703061426, -11215.568925806157, 0.006500000000000001, -0.022, 0.9864999999999999, 192.0, 0.0, 24.0, 127.5, 40.0, 15.0, 104.0, 0.0, 0.0, 0.0, 1.6444980444264755E9, 0.0, 2022-02-11 00:00:44.426
48.0, -12109.39283482943, -14661.358554525204, -9943.262927921169, -17072.75415334155, -2728.544500892699, -3269.143792288756, -4398.175108215226, -6269.28434005789, -20837.83845160466, -18285.783324931064, -25080.601880622136, -15511.350692671622, -9240.59113747968, -13409.929085961472, -9136.09673215112, -11222.766187520765, 0.006500000000000001, -0.022, 0.9864999999999999, 192.0, 0.0, 0.0, 0.0, 0.0, 0.0, 0.0, 0.0, 0.0, 0.0, 1.644498044426483E9, 0.0, 2022-02-11 00:00:44.426
50.0, -12093.2548753327, -14648.573356696768, -9936.088017951015, -17071.01071727404, -2717.502739131777, -3253.83284733687, -4399.3150471824465, -6254.398078250656, -20854.110521568124, -18304.357624573426, -25085.608671380123, -15524.046483522236, -9245.396762537572, -13420.188536666457, -9137.035505418242, -11223.235574154327, 0.006500000000000001, -0.022, 0.9864999999999999, 192.0, 0.0, 0.0, 0.0, 0.0, 0.0, 0.0, 0.0, 0.0, 0.0, 1.6444980444264898E9, 0.0, 2022-02-11 00:00:44.426
52.0, -12104.96718942728, -14651.27791777586, -9941.2959744091, -17073.84938881986, -2724.0741520016377, -3264.852257353337, -4398.577439615422, -6278.828534940307, -20855.362219257622, -18297.361528558915, -25080.378363177584, -15515.351654929122, -9247.49782651637, -13417.998065709839, -9134.979144928355, -11226.677742800444, 0.006500000000000001, -0.022, 0.9864999999999999, 192.0, 0.0, 0.0, 0.0, 0.0, 0.0, 0.0, 0.0, 0.0, 0.0, 1.6444980444264965E9, 0.0, 2022-02-11 00:00:44.426
54.0, -12092.62902648795, -14639.18562402554, -9936.423294117843, -17067.52384513901, -2718.217994954347, -3254.4139926927082, -4384.048805719472, -6250.821799137807, -20850.333076755178, -18294.656967479823, -25090.16842724901, -15522.705378854916, -9246.737867204889, -13413.70653077442, -9130.553499526202, -11224.84489975511, 0.006500000000000001, -0.022, 0.9864999999999999, 192.0, 0.0, 0.0, 0.0, 0.0, 0.0, 0.0, 0.0, 0.0, 0.0, 1.6444980444265037E9, 0.0, 2022-02-11 00:00:44.426
56.0, -12088.605712485994, -14640.61613567068, -9931.05887544857, -17071.32364169641, -2703.7564162917633, -3253.162295003211, -4390.3296459114135, -6254.263967783924, -20849.059027321226, -18295.036947135563, -25076.35504917563, -15523.890021311048, -9240.837006668688, -13415.517022075299, -9124.227955845352, -11223.16851892096, 0.00725, -0.023, 0.98625, 192.0, 0.0, 32.0, 127.5, 32.0, 15.0, 104.0, 0.0, 0.0, 0.0, 1.6444980444265103E9, 0.0, 2022-02-11 00:00:44.426
58.0, -12096.272360834166, -14642.337219993738, -9938.30084065209, -17068.350859683855, -2723.7835793237186, -3263.332338730376, -4407.92046879774, -6271.608921481243, -20851.271850022298, -18296.84743843644, -25087.419162681006, -15519.844355564637, -9240.97111713542, -13415.628780797575, -9126.32901982415, -11226.253059655794, 0.00725, -0.023, 0.98625, 192.0, 0.0, 0.0, 0.0, 0.0, 0.0, 0.0, 0.0, 0.0, 0.0, 1.6444980444265172E9, 0.0, 2022-02-11 00:00:44.426
60.0, -12084.470639761763, -14630.759016365888, -9925.381532356922, -17068.28380445049, -2699.844861012085, -3249.7871815904596, -4395.135270969305, -6246.99965083595, -20845.482748208375, -18283.23522606316, -25083.48525565687, -15514.435233406453, -9248.481303272403, -13411.292542373247, -9129.726484981356, -11225.627210811044, 0.00725, -0.023, 0.98625, 192.0, 0.0, 0.0, 0.0, 0.0, 0.0, 0.0, 0.0, 0.0, 0.0, 1.6444980444265242E9, 0.0, 2022-02-11 00:00:44.426
62.0, -12099.312198080088, -14645.488815961937, -9933.159939427369, -17073.80468533095, -2717.0557042426713, -3263.332338730376, -4393.235372690603, -6266.512723745433, -20853.305858767733, -18295.66279598031, -25077.874967798587, -15521.721902098883, -9245.128541604106, -13419.205059910424, -9120.763435454779, -11225.068417199662, 0.00725, -0.023, 0.98625, 192.0, 0.0, 0.0, 0.0, 0.0, 0.0, 0.0, 0.0, 0.0, 0.0, 1.6444980444265313E9, 0.0, 2022-02-11 00:00:44.426
64.0, -12096.674692234361, -14641.04081881533, -9936.15507318438, -17065.534539882487, -2721.190776966903, -3253.4081641922194, -4401.259648950058, -6261.57298822081, -20852.79176864526, -18303.932941428775, -25090.30253771574, -15524.560573644707, -9247.430771283003, -13429.956248993427, -9130.262926848285, -11226.878908500543, 0.00725, -0.023, 0.98625, 192.0, 0.0, 0.0, 0.0, 0.0, 0.0, 0.0, 0.0, 0.0, 0.0, 1.644498044426538E9, 0.0, 2022-02-11 00:00:44.426
66.0, -12095.937084667336, -14646.427589229059, -9931.952945226783, -17068.23910096158, -2708.092654716093, -3254.972786304091, -4374.4822590926005, -6253.727525916997, -20854.2222802904, -18296.44510703625, -25077.047953253743, -15506.679178080461, -9251.543492262781, -13418.601562810132, -9126.843109946622, -11217.55823106268, 0.008625, -0.029500000000000002, 0.987125, 192.0, 0.0, 40.0, 127.0, 112.0, 15.0, 112.0, 0.0, 0.0, 0.0, 1.6444980444265451E9, 0.0, 2022-02-11 00:00:44.426
68.0, -12124.122634425477, -14661.112685336197, -9948.135608212426, -17074.765810342527, -2731.4949311607998, -3266.9533213321356, -4393.2130209461475, -6273.508819759944, -20861.285431538276, -18310.05731940953, -25094.63877614007, -15522.370102688088, -9250.269442828829, -13426.983466980872, -9131.313458837683, -11222.855594498587, 0.008625, -0.029500000000000002, 0.987125, 192.0, 0.0, 0.0, 0.0, 0.0, 0.0, 0.0, 0.0, 0.0, 0.0, 1.644498044426552E9, 0.0, 2022-02-11 00:00:44.426
70.0, -12107.1576603839, -14647.254603773905, -9936.088017951015, -17073.00002253056, -2712.96533500735, -3257.07385028289, -4390.2178871891365, -6275.72164246102, -20869.533225242285, -18308.805621720032, -25101.81368611022, -15529.969695802893, -9259.299547588773, -13424.234202412868, -9137.795464729723, -11225.716617788867, 0.008625, -0.029500000000000002, 0.987125, 192.0, 0.0, 0.0, 0.0, 0.0, 0.0, 0.0, 0.0, 0.0, 0.0, 1.644498044426562E9, 0.0, 2022-02-11 00:00:44.426
72.0, -12111.672712763871, -14653.535443965846, -9935.283355150623, -17075.4810661651, -2723.2471374567913, -3258.2137892501105, -4422.985544560617, -6268.837305168785, -20867.946251385958, -18306.793964719054, -25086.949776047444, -15521.654846865518, -9251.811713196244, -13423.541298334754, -9134.062723405686, -11225.001361966297, 0.008625, -0.029500000000000002, 0.987125, 192.0, 0.0, 0.0, 0.0, 0.0, 0.0, 0.0, 0.0, 0.0, 0.0, 1.6444980444265687E9, 0.0, 2022-02-11 00:00:44.426
74.0, -12114.153756398411, -14656.597632956224, -9937.898509251894, -17074.51994115352, -2715.0887507306043, -3248.5354839009624, -4374.303445136958, -6254.8898166286735, -20861.754818171838, -18306.637502507867, -25095.219921495907, -15532.338980715154, -9251.856416685154, -13418.623914554586, -9140.09769440862, -11224.733141032833, 0.008625, -0.029500000000000002, 0.987125, 192.0, 0.0, 0.0, 0.0, 0.0, 0.0, 0.0, 0.0, 0.0, 0.0, 1.6444980444265754E9, 0.0, 2022-02-11 00:00:44.426
76.0, -12110.264552863187, -14654.362458510694, -9938.546709841099, -17077.649185377264, -2710.126663461526, -3253.07288802539, -4378.729090539109, -6253.727525916997, -20872.03662062128, -18306.570447274502, -25091.44247668296, -15520.425500920475, -9259.612472011146, -13409.839678983652, -9136.364953084583, -11221.715655531367, 0.0073125, -0.03075, 0.9865625, 192.0, 0.0, 24.0, 127.5, 0.0, 15.0, 104.0, 0.0, 0.0, 0.0, 1.6444980444265823E9, 0.0, 2022-02-11 00:00:44.426
78.0, -12116.053654677113, -14642.806606627299, -9944.447570377299, -17074.13996149778, -2717.2121664538586, -3259.063155539412, -4373.051747447461, -6259.807200408841, -20864.74995192885, -18305.452860051737, -25098.863255842123, -15524.851146322626, -9254.180998108506, -13414.466490085899, -9138.823644974667, -11222.140338676018, 0.0073125, -0.03075, 0.9865625, 192.0, 0.0, 0.0, 0.0, 0.0, 0.0, 0.0, 0.0, 0.0, 0.0, 1.6444980444265895E9, 0.0, 2022-02-11 00:00:44.426
80.0, -12116.165413399389, -14661.515016736392, -9940.737180797718, -17075.078734764902, -2710.618401839543, -3256.805629349426, -4377.365634127335, -6249.413639237123, -20867.678030452495, -18305.944598429753, -25097.16452326352, -15534.84237609415, -9249.800056195267, -13419.026245954783, -9141.103522909109, -11222.050931698195, 0.0073125, -0.03075, 0.9865625, 192.0, 0.0, 0.0, 0.0, 0.0, 0.0, 0.0, 0.0, 0.0, 0.0, 1.6444980444265964E9, 0.0, 2022-02-11 00:00:44.426
82.0, -12126.760140271204, -14665.583034227257, -9944.939308755316, -17074.743458598074, -2718.843843799096, -3260.0466322954458, -4388.697968566175, -6267.317386545824, -20879.70326896945, -18321.9260957153, -25095.085811029174, -15525.946381800937, -9261.221797611928, -13424.033036712772, -9146.244424133829, -11227.348295134103, 0.0073125, -0.03075, 0.9865625, 192.0, 0.0, 0.0, 0.0, 0.0, 0.0, 0.0, 0.0, 0.0, 0.0, 1.6444980444266033E9, 0.0, 2022-02-11 00:00:44.426
84.0, -12120.367541356987, -14656.105894578206, -9939.887814508416, -17074.27407196451, -2704.4940238587888, -3252.782315347471, -4375.353977126358, -6249.547749703855, -20869.734390942383, -18322.239020137673, -25104.473543700406, -15534.864727838603, -9242.714553202934, -13416.120519175593, -9145.730334011358, -11226.297763144705, 0.0073125, -0.03075, 0.9865625, 192.0, 0.0, 0.0, 0.0, 0.0, 0.0, 0.0, 0.0, 0.0, 0.0, 1.64449804442661E9, 0.0, 2022-02-11 00:00:44.426
86.0, -12116.813613988592, -14650.361496253194, -9936.244480162202, -17074.743458598074, -2701.878869757518, -3251.5082659135182, -4371.3753666133125, -6251.6711654271085, -20869.64498396456, -18319.377996847394, -25086.033354524774, -15525.901678312026, -9247.475474771914, -13412.857164485118, -9139.628307775058, -11224.643734055011, 0.008, -0.026000000000000002, 0.98, 192.0, 0.0, 32.0, 127.5, 24.0, 15.0, 80.0, 0.0, 0.0, 0.0, 1.644498044426617E9, 0.0, 2022-02-11 00:00:44.426
88.0, -12130.626992061972, -14664.800723171322, -9951.3989629029, -17076.24102547658, -2721.5484048781877, -3261.2089230071215, -4397.2586866925585, -6265.439840011578, -20879.055068380247, -18322.19431664876, -25101.947796576955, -15531.690780125951, -9245.106189859653, -13423.22837391238, -9148.09961892362, -11232.89152775902, 0.008, -0.026000000000000002, 0.98, 192.0, 0.0, 0.0, 0.0, 0.0, 0.0, 0.0, 0.0, 0.0, 0.0, 1.6444980444266236E9, 0.0, 2022-02-11 00:00:44.426
90.0, -12118.981733200757, -14648.260432274394, -9944.715791310762, -17075.346955698365, -2711.579526851121, -3246.590882133351, -4391.871916278829, -6250.620633437709, -20876.641079979072, -18319.690921269765, -25105.814648367723, -15533.702437126929, -9256.72909697641, -13427.922240247994, -9151.407677103005, -11231.639830069522, 0.008, -0.026000000000000002, 0.98, 192.0, 0.0, 0.0, 0.0, 0.0, 0.0, 0.0, 0.0, 0.0, 0.0, 1.6444980444266307E9, 0.0, 2022-02-11 00:00:44.426
92.0, -12130.381122872965, -14641.7560746379, -9951.68953558082, -17080.778429601007, -2722.6212886120425, -3257.1409055162558, -4382.3500731408685, -6264.277549299902, -20882.296071326266, -18320.540287559066, -25095.510494173825, -15533.702437126929, -9260.707707489457, -13421.50728958932, -9148.077267179164, -11226.431873611436, 0.008, -0.026000000000000002, 0.98, 192.0, 0.0, 0.0, 0.0, 0.0, 0.0, 0.0, 0.0, 0.0, 0.0, 1.6444980444266376E9, 0.0, 2022-02-11 00:00:44.426
94.0, -12125.262573392698, -14656.66468818959, -9945.92278551135, -17077.3809644438, -2714.3734949080344, -3254.3469374593424, -4382.953570241162, -6258.734316674986, -20880.440876536475, -18330.129185930396, -25108.00511932434, -15544.565384932208, -9254.40451555306, -13429.933897248971, -9154.313403882195, -11230.812815524676, 0.008, -0.026000000000000002, 0.98, 192.0, 0.0, 0.0, 0.0, 0.0, 0.0, 0.0, 0.0, 0.0, 0.0, 1.6444980444266448E9, 0.0, 2022-02-11 00:00:44.426
96.0, -12118.266477378187, -14657.648164945624, -9944.939308755316, -17083.125362768813, -2711.4677681288445, -3254.391640948253, -4404.1877274737035, -6256.454438740545, -20881.670222481516, -18321.233191637184, -25093.096505772653, -15531.400207448032, -9254.829198697711, -13416.835774998162, -9149.217206146384, -11224.822548010654, 0.014, -0.02, 0.99, 192.0, 0.0, 56.0, 127.5, 48.0, 15.0, 120.0, 0.0, 0.0, 0.0, 1.6444980444266517E9, 0.0, 2022-02-11 00:00:44.426
98.0, -12133.644477563439, -14659.145731824128, -9952.225977447746, -17077.872702821816, -2715.4687303863443, -3267.7356323880713, -4383.15473594126, -6261.841209154273, -20883.771286460316, -18334.68894179928, -25103.400659966548, -15541.212623263911, -9253.421038797027, -13439.835720042673, -9153.732258526357, -11231.259850413782, 0.014, -0.02, 0.99, 192.0, 0.0, 0.0, 0.0, 0.0, 0.0, 0.0, 0.0, 0.0, 0.0, 1.6444980444266589E9, 0.0, 2022-02-11 00:00:44.426
100.0, -12117.886497722448, -14656.105894578206, -9941.854768020483, -17076.643356876775, -2702.3035529021686, -3252.0223560359905, -4374.214038159137, -6254.398078250656, -20878.809199191237, -18325.21180215023, -25099.757325620336, -15541.302030241732, -9257.153780121062, -13437.84641478615, -9149.843054991134, -11226.744798033811, 0.014, -0.02, 0.99, 192.0, 0.0, 0.0, 0.0, 0.0, 0.0, 0.0, 0.0, 0.0, 0.0, 1.644498044426666E9, 0.0, 2022-02-11 00:00:44.426
102.0, -12128.660038549906, -14653.222519543473, -9943.039410476615, -17081.560740656943, -2711.892451273495, -3261.275978240488, -4380.964264984639, -6264.970453378017, -20882.899568426557, -18319.04272068056, -25086.525092902793, -15529.50030916933, -9255.790323709289, -13434.001914739838, -9151.027697447265, -11229.717580046366, 0.014, -0.02, 0.99, 192.0, 0.0, 0.0, 0.0, 0.0, 0.0, 0.0, 0.0, 0.0, 0.0, 1.6444980444266756E9, 0.0, 2022-02-11 00:00:44.426
104.0, -12137.44427412084, -14653.84836838822, -9948.023849490148, -17081.560740656943, -2711.199547195381, -3259.554893917429, -4388.4520993771675, -6267.205627823548, -20890.18623711899, -18339.181642434793, -25108.720375146913, -15545.705323899429, -9254.40451555306, -13429.4198071265, -9158.068496950686, -11237.60774583909, 0.014, -0.02, 0.99, 192.0, 0.0, 0.0, 0.0, 0.0, 0.0, 0.0, 0.0, 0.0, 0.0, 1.6444980444266825E9, 0.0, 2022-02-11 00:00:44.426
106.0, -12131.364599628998, -14657.737571923444, -9945.162826199869, -17085.09231628088, -2703.935230247406, -3250.1448095017445, -4381.053671962461, -6250.866502626718, -20891.817914464227, -18344.009619237142, -25097.455095941437, -15536.07172203919, -9257.556111521259, -13423.161318679015, -9154.7604387713, -11234.36674289307, 0.01, -0.018000000000000002, 0.986, 192.0, 0.0, 40.0, 127.5, 56.0, 15.0, 104.0, 0.0, 0.0, 0.0, 1.6444980444266896E9, 0.0, 2022-02-11 00:00:44.426
108.0, -12139.724152055282, -14672.243854074939, -9953.432971648333, -17089.33914772739, -2713.6582390854646, -3271.6248359232945, -4382.551238840966, -6263.942273133072, -20891.773210975316, -18347.921174516818, -25106.664014657024, -15550.600355935141, -9256.594986509679, -13437.444083385955, -9156.392116116538, -11235.014943482274, 0.01, -0.018000000000000002, 0.986, 192.0, 0.0, 0.0, 0.0, 0.0, 0.0, 0.0, 0.0, 0.0, 0.0, 1.6444980444266963E9, 0.0, 2022-02-11 00:00:44.426
110.0, -12131.901041495925, -14660.062153346797, -9947.420352389856, -17081.85131333486, -2702.415311624445, -3258.660824139217, -4381.970093485128, -6262.847037654762, -20888.487504540386, -18346.44595938277, -25106.239331512374, -15543.425445964987, -9260.059506900252, -13437.4217316415, -9163.321156897684, -11236.020771982763, 0.01, -0.018000000000000002, 0.986, 192.0, 0.0, 0.0, 0.0, 0.0, 0.0, 0.0, 0.0, 0.0, 0.0, 1.6444980444267032E9, 0.0, 2022-02-11 00:00:44.426
112.0, -12145.379143402475, -14666.767676683388, -9954.528207126643, -17082.387755201788, -2716.4075036534673, -3255.039841537457, -4390.240238933592, -6255.470961984511, -20902.122068658122, -18342.19912793626, -25103.288901244272, -15538.016323806802, -9264.172227880028, -13427.385798381067, -9166.159828443508, -11229.918745746463, 0.01, -0.018000000000000002, 0.986, 192.0, 0.0, 0.0, 0.0, 0.0, 0.0, 0.0, 0.0, 0.0, 0.0, 1.6444980444267104E9, 0.0, 2022-02-11 00:00:44.426
114.0, -12136.818425276093, -14659.011621357397, -9950.884872780427, -17079.32556621141, -2712.2724309292357, -3254.190475248155, -4393.525945368522, -6262.802334165852, -20894.76834473233, -18339.852194768453, -25116.81170663973, -15543.000762820337, -9258.360774321649, -13432.593754839154, -9167.612691833103, -11228.823510268154, 0.01, -0.018000000000000002, 0.986, 192.0, 0.0, 0.0, 0.0, 0.0, 0.0, 0.0, 0.0, 0.0, 0.0, 1.6444980444267173E9, 0.0, 2022-02-11 00:00:44.426
116.0, -12130.135253683955, -14642.359571738192, -9946.928614011838, -17084.399412202765, -2704.874003514529, -3254.391640948253, -4396.63283784781, -6264.970453378017, -20891.303824341754, -18333.906630743342, -25099.220883753405, -15539.64800115204, -9264.909835447053, -13419.316818632702, -9164.975185987376, -11228.756455034787, 0.006, -0.022, 0.99, 192.0, 0.0, 24.0, 127.5, 40.0, 15.0, 120.0, 0.0, 0.0, 0.0, 1.644498044426725E9, 0.0, 2022-02-11 00:00:44.426
118.0, -12145.602660847027, -14637.822167613765, -9953.25415769269, -17088.333319226902, -2722.665992100953, -3265.254588753532, -4414.246012478592, -6279.4320320406005, -20896.489429055386, -18334.085444698983, -25107.222808268405, -15559.541053717263, -9265.870960458633, -13438.427560141989, -9170.227845934372, -11234.433798126436, 0.006, -0.022, 0.99, 192.0, 0.0, 0.0, 0.0, 0.0, 0.0, 0.0, 0.0, 0.0, 0.0, 1.6444980444267318E9, 0.0, 2022-02-11 00:00:44.426
120.0, -12134.247974663733, -14659.860987646698, -9946.906262267383, -17086.344013970378, -2708.4055791384676, -3260.4489636956414, -4408.769835087041, -6265.328081289302, -20898.18816163399, -18327.379921362393, -25108.698023402456, -15551.829701880182, -9265.535684291803, -13440.439217142966, -9174.049994236231, -11235.864309771576, 0.006, -0.022, 0.99, 192.0, 0.0, 0.0, 0.0, 0.0, 0.0, 0.0, 0.0, 0.0, 0.0, 1.6444980449068844E9, 0.0, 2022-02-11 00:00:44.906
122.0, -12159.93012904288, -14687.510095537913, -9956.942195527816, -17091.216694261635, -2714.261736185758, -3270.8648766118145, -4380.673692306721, -6264.948101633561, -20909.69931002847, -18365.132017747404, -25109.614444925126, -15537.79280636225, -9269.044908171285, -13443.881385789084, -9168.350299400128, -11236.288992916227, 0.006, -0.022, 0.99, 192.0, 0.0, 0.0, 0.0, 0.0, 0.0, 0.0, 0.0, 0.0, 0.0, 1.644498044907064E9, 0.0, 2022-02-11 00:00:44.907
124.0, -12155.280966196176, -14680.916330923597, -9956.87514029445, -17085.51699942553, -2719.648506599487, -3262.3712137187977, -4382.551238840966, -6265.95393013405, -20912.247408896375, -18370.3846776944, -25125.394776510573, -15553.237861780866, -9277.31505361975, -13438.427560141989, -9172.731241313368, -11238.434760383936, 0.006, -0.022, 0.99, 192.0, 0.0, 0.0, 0.0, 0.0, 0.0, 0.0, 0.0, 0.0, 0.0, 1.644498044907076E9, 0.0, 2022-02-11 00:00:44.907
126.0, -12143.233375934766, -14664.174874326573, -9951.533073369632, -17088.087450037892, -2708.1373582050037, -3263.7570218750266, -4377.38798587179, -6265.819819667318, -20906.435955337998, -18361.756904334656, -25109.39092748057, -15550.019210579303, -9267.88261745961, -13429.978600737883, -9167.791505788744, -11233.852652770598, 0.006, -0.026000000000000002, 0.988, 192.0, 0.0, 24.0, 127.5, 24.0, 15.0, 112.0, 0.0, 0.0, 0.0, 1.6444980449070835E9, 0.0, 2022-02-11 00:00:44.907
128.0, -12151.92820452788, -14641.867833360177, -9960.741992085219, -17093.161296029248, -2722.129550234026, -3268.36148123282, -4391.626047089821, -6271.161886592136, -20907.71000477195, -18356.25837519865, -25114.375366494103, -15561.485655484876, -9273.269387873339, -13440.215699698414, -9170.518418612291, -11238.166539450473, 0.006, -0.026000000000000002, 0.988, 192.0, 0.0, 0.0, 0.0, 0.0, 0.0, 0.0, 0.0, 0.0, 0.0, 1.644498044907091E9, 0.0, 2022-02-11 00:00:44.907
130.0, -12141.847567778537, -14633.105949533696, -9958.26094845068, -17089.964996572136, -2720.8555008000735, -3253.5646264034067, -4393.704759324165, -6263.495238243966, -20904.17842914801, -18343.070845970018, -25115.850581628154, -15564.167864819512, -9269.849570971677, -13431.967905994405, -9175.547561114736, -11234.947888248907, 0.006, -0.026000000000000002, 0.988, 192.0, 0.0, 0.0, 0.0, 0.0, 0.0, 0.0, 0.0, 0.0, 0.0, 1.6444980449070976E9, 0.0, 2022-02-11 00:00:44.907
132.0, -12154.92333828489, -14661.157388825106, -9964.11710549797, -17088.42272620472, -2733.4618846728667, -3263.935835830669, -4403.718340840142, -6272.659453470642, -20914.348472875176, -18351.564508863034, -25113.056613571243, -15553.863710625616, -9275.817486741244, -13455.124313250104, -9179.012081505309, -11237.764208050277, 0.006, -0.026000000000000002, 0.988, 192.0, 0.0, 0.0, 0.0, 0.0, 0.0, 0.0, 0.0, 0.0, 0.0, 1.6444980449071045E9, 0.0, 2022-02-11 00:00:44.907
134.0, -12150.721210327294, -14671.461543019002, -9961.479599652243, -17083.035955790994, -2730.7573235937743, -3266.260417254021, -4397.817480303941, -6278.582665751299, -20914.549638575274, -18355.498415887167, -25127.048805600265, -15556.79178914926, -9269.961329693953, -13452.486807404377, -9178.855619294121, -11241.876929030053, 0.006, -0.026000000000000002, 0.988, 192.0, 0.0, 0.0, 0.0, 0.0, 0.0, 0.0, 0.0, 0.0, 0.0, 1.644498044907136E9, 0.0, 2022-02-11 00:00:44.907
136.0, -12148.553091115129, -14679.418764045093, -9955.444628649311, -17085.09231628088, -2726.5328438917213, -3259.1078590283228, -4404.791224573997, -6270.178409836103, -20910.906304229058, -18365.78021833661, -25108.049822813253, -15538.50806218482, -9264.306338346762, -13443.94844102245, -9173.044165735742, -11239.865272029076, 0.008, -0.022, 0.99, 192.0, 0.0, 32.0, 127.5, 40.0, 15.0, 120.0, 0.0, 0.0, 0.0, 1.6444980449071429E9, 0.0, 2022-02-11 00:00:44.907
138.0, -12169.65313788094, -14680.37988905667, -9970.152076500903, -17091.060232050448, -2743.7883906112183, -3272.4965539570517, -4413.396646189291, -6281.801316952863, -20924.540868346798, -18357.66653509933, -25124.366596265627, -15551.472073968896, -9277.024480941831, -13441.377990410088, -9181.895456540044, -11244.402676153502, 0.008, -0.022, 0.99, 192.0, 0.0, 0.0, 0.0, 0.0, 0.0, 0.0, 0.0, 0.0, 0.0, 1.6444980449071505E9, 0.0, 2022-02-11 00:00:44.907
140.0, -12154.74452432925, -14681.296310579339, -9959.73616358473, -17091.686080895197, -2734.4006579399893, -3262.8629520968143, -4394.308256424458, -6268.323215046313, -20922.32804564572, -18367.568357893033, -25127.987578867385, -15552.120274558101, -9279.013786198353, -13446.027153256793, -9180.979035017375, -11245.184987209439, 0.008, -0.022, 0.99, 192.0, 0.0, 0.0, 0.0, 0.0, 0.0, 0.0, 0.0, 0.0, 0.0, 1.644498044907173E9, 0.0, 2022-02-11 00:00:44.907
142.0, -12157.560844130618, -14671.729763952466, -9966.017003776671, -17095.977615830616, -2734.802989340185, -3267.780335876982, -4410.133291498815, -6278.113279117737, -20920.89753400058, -18371.345802705982, -25116.342320006173, -15550.510948957319, -9270.83304772771, -13459.125275507604, -9173.67001458049, -11245.207338953895, 0.008, -0.022, 0.99, 192.0, 0.0, 0.0, 0.0, 0.0, 0.0, 0.0, 0.0, 0.0, 0.0, 1.6444980449071915E9, 0.0, 2022-02-11 00:00:44.907
144.0, -12152.308184183621, -14671.886226163653, -9963.759477586686, -17098.078679809416, -2730.802027082685, -3263.779373619482, -4414.581288645421, -6284.684691987597, -20920.62931306712, -18370.228215483217, -25127.11586083363, -15563.78788516377, -9266.966195936942, -13451.302164948245, -9177.022776248787, -11250.638812856534, 0.008, -0.022, 0.99, 192.0, 0.0, 0.0, 0.0, 0.0, 0.0, 0.0, 0.0, 0.0, 0.0, 1.6444980449071984E9, 0.0, 2022-02-11 00:00:44.907
146.0, -12153.649288850938, -14662.409086514603, -9960.898454296404, -17103.532505456507, -2733.037201528216, -3257.654995638728, -4414.246012478592, -6275.453421527555, -20914.46023159745, -18362.427456668313, -25113.146020549062, -15548.834568123171, -9278.253826886872, -13449.491673647366, -9174.318215169695, -11249.856501800597, 0.012, -0.024, 0.984, 192.0, 0.0, 48.0, 127.5, 32.0, 15.0, 96.0, 0.0, 0.0, 0.0, 1.644498044907205E9, 0.0, 2022-02-11 00:00:44.907
148.0, -12181.812486864626, -14686.101935637229, -9976.097640526013, -17107.846392136384, -2745.285957489724, -3274.262341769021, -4409.909774054262, -6288.5291920339105, -20935.113243474156, -18381.7393638777, -25137.464718516436, -15571.879216656593, -9292.380129382627, -13472.335156480689, -9183.549485629735, -11257.880778060053, 0.012, -0.024, 0.984, 192.0, 0.0, 0.0, 0.0, 0.0, 0.0, 0.0, 0.0, 0.0, 0.0, 1.6444980449072115E9, 0.0, 2022-02-11 00:00:44.907
150.0, -12152.755219072727, -14675.753077954421, -9957.59039611702, -17092.647205906775, -2734.154788750981, -3257.2750159829875, -4394.732939569109, -6278.113279117737, -20923.825612524226, -18361.689849101287, -25130.490974246382, -15565.486617742376, -9280.109021676662, -13466.478999433399, -9178.252122193828, -11250.147074478517, 0.012, -0.024, 0.984, 192.0, 0.0, 0.0, 0.0, 0.0, 0.0, 0.0, 0.0, 0.0, 0.0, 1.644498044907218E9, 0.0, 2022-02-11 00:00:44.907
152.0, -12161.78532383267, -14669.315775551293, -9964.720602598263, -17096.558761186454, -2748.482256946833, -3261.968882318602, -4412.435521177712, -6269.485505757989, -20920.696368300483, -18376.240834741693, -25112.319006004218, -15544.610088421117, -9279.416117598548, -13451.168054481514, -9174.63113959207, -11241.139321463028, 0.012, -0.024, 0.984, 192.0, 0.0, 0.0, 0.0, 0.0, 0.0, 0.0, 0.0, 0.0, 0.0, 1.644498044907225E9, 0.0, 2022-02-11 00:00:44.907
154.0, -12164.869864567503, -14668.153484839617, -9966.732259599241, -17098.95039784317, -2742.894320833006, -3258.5714171613954, -4414.000143289583, -6264.456363255545, -20924.205592179966, -18379.817113854544, -25132.63674171409, -15558.825797894693, -9282.210085655463, -13452.598566126653, -9177.760383815812, -11244.380324409047, 0.012, -0.024, 0.984, 192.0, 0.0, 0.0, 0.0, 0.0, 0.0, 0.0, 0.0, 0.0, 0.0, 1.644498044907246E9, 0.0, 2022-02-11 00:00:44.907
156.0, -12154.565710373607, -14679.508171022913, -9959.199721717801, -17097.788107131495, -2740.4579806873776, -3254.123420014789, -4407.674599608731, -6272.123011603715, -20923.13270844611, -18371.614023639446, -25120.25387528585, -15557.618803694108, -9281.874809488632, -13446.384781168079, -9171.85952327961, -11244.670897086966, 0.01, -0.026000000000000002, 0.982, 192.0, 0.0, 40.0, 127.5, 24.0, 15.0, 88.0, 0.0, 0.0, 0.0, 1.6444980449072528E9, 0.0, 2022-02-11 00:00:44.907
158.0, -12166.300376212643, -14684.716127481, -9967.715736355274, -17098.123383298323, -2746.9176348349615, -3268.495591699552, -4406.691122852698, -6283.455346042556, -20926.887801514604, -18381.717012133242, -25129.26162830134, -15557.082361827179, -9283.528838578324, -13458.208853984936, -9174.139401214052, -11249.521225633767, 0.01, -0.026000000000000002, 0.982, 192.0, 0.0, 0.0, 0.0, 0.0, 0.0, 0.0, 0.0, 0.0, 0.0, 1.6444980449072597E9, 0.0, 2022-02-11 00:00:44.907
160.0, -12153.559881873118, -14661.872644647676, -9960.250253707201, -17098.972749587625, -2740.4356289429224, -3259.487838684063, -4416.212965990659, -6277.688595973086, -20920.80812702276, -18373.24570098468, -25125.394776510573, -15555.718905415406, -9274.163457651552, -13449.08934224717, -9176.374575659584, -11248.448341899913, 0.01, -0.026000000000000002, 0.982, 192.0, 0.0, 0.0, 0.0, 0.0, 0.0, 0.0, 0.0, 0.0, 0.0, 1.6444980449072664E9, 0.0, 2022-02-11 00:00:44.907
162.0, -12167.909701813425, -14673.04851687533, -9971.090849768025, -17103.934836856704, -2745.7553441232853, -3275.8940191142583, -4408.032227520016, -6291.479622302011, -20929.458252126962, -18380.979404566217, -25121.21500029743, -15557.55174846074, -9274.163457651552, -13465.830798844196, -9169.646700578536, -11247.7554378218, 0.01, -0.026000000000000002, 0.982, 192.0, 0.0, 0.0, 0.0, 0.0, 0.0, 0.0, 0.0, 0.0, 0.0, 1.6444980449072733E9, 0.0, 2022-02-11 00:00:44.907
164.0, -12168.468495424808, -14674.769601198388, -9978.355166716, -17105.968845602136, -2741.6202713990538, -3265.6569201537277, -4399.493861138089, -6274.425241282612, -20933.839194040203, -18389.473067459236, -25145.84662268718, -15569.822856166704, -9296.246981173395, -13473.676261148008, -9176.978072759875, -11249.208301211394, 0.008, -0.026000000000000002, 0.987, 192.0, 0.0, 24.0, 127.5, 24.0, 15.5, 0.0, 0.0, 0.0, 0.0, 1.6444980449072928E9, 0.0, 2022-02-11 00:00:44.907
166.0, -12159.237224964765, -14669.405182529115, -9970.263835223179, -17103.532505456507, -2726.845768314096, -3253.430515936675, -4404.321837940435, -6263.897569644162, -20930.57583934973, -18372.575148651023, -25129.418090512525, -15557.84232113866, -9288.31211189176, -13466.881330833594, -9171.591302346147, -11240.446417384914, 0.008, -0.026000000000000002, 0.987, 192.0, 0.0, 0.0, 0.0, 0.0, 0.0, 0.0, 0.0, 0.0, 0.0, 1.644498044907316E9, 0.0, 2022-02-11 00:00:44.907
168.0, -12170.569559403606, -14685.274921092383, -9977.103469026502, -17102.414918233742, -2750.695079647908, -3271.088394056367, -4408.903945553773, -6277.420375039623, -20934.129766718124, -18390.747116893188, -25136.190669082484, -15567.40886776553, -9279.97491120993, -13468.04362154527, -9170.205494189919, -11243.620365097568, 0.008, -0.026000000000000002, 0.987, 192.0, 0.0, 0.0, 0.0, 0.0, 0.0, 0.0, 0.0, 0.0, 0.0, 1.644498044907323E9, 0.0, 2022-02-11 00:00:44.907
170.0, -12149.044829493145, -14659.883339391154, -9966.464038665777, -17097.788107131495, -2743.9895563113164, -3258.2137892501105, -4419.342210214402, -6280.996654152472, -20923.557391590763, -18377.917215575842, -25133.799032425766, -15558.401114750042, -9281.651292044078, -13462.254519731347, -9175.882837281566, -11245.252042442804, 0.008, -0.026000000000000002, 0.987, 192.0, 0.0, 0.0, 0.0, 0.0, 0.0, 0.0, 0.0, 0.0, 0.0, 1.6444980449073296E9, 0.0, 2022-02-11 00:00:44.907
172.0, -12161.02536452119, -14668.064077861796, -9971.426125934855, -17105.991197346593, -2748.8622366025734, -3268.227370766088, -4429.624012663843, -6287.188087366591, -20923.311522401753, -18376.956090564265, -25120.767965408322, -15556.277699026788, -9283.931169978521, -13460.801656341751, -9177.447459393437, -11248.716562833377, 0.008, -0.026000000000000002, 0.987, 192.0, 0.0, 0.0, 0.0, 0.0, 0.0, 0.0, 0.0, 0.0, 0.0, 1.6444980449073367E9, 0.0, 2022-02-11 00:00:44.907
174.0, -12161.807675577125, -14666.030069116363, -9973.348375958012, -17102.660787422752, -2746.805876112685, -3274.2399900245655, -4413.709570611664, -6287.232790855503, -20925.546696847287, -18382.34286097799, -25137.30825630525, -15568.884082899582, -9281.517181577346, -13466.546054666765, -9182.521305384793, -11252.538711135234, 0.009000000000000001, -0.024, 0.9895, 192.0, 0.0, 40.0, 127.5, 40.0, 15.5, 0.0, 0.0, 0.0, 0.0, 1.6444980449073436E9, 0.0, 2022-02-11 00:00:44.907
176.0, -12151.503521383229, -14660.263319046893, -9970.085021267536, -17097.564589686943, -2739.1392277645145, -3269.3449579888534, -4419.319858469947, -6295.122956648226, -20920.67401655603, -18384.15335227887, -25124.523058476814, -15555.160111804023, -9272.64353902859, -13455.660755117031, -9175.547561114736, -11251.152902979005, 0.009000000000000001, -0.024, 0.9895, 192.0, 0.0, 0.0, 0.0, 0.0, 0.0, 0.0, 0.0, 0.0, 0.0, 1.6444980449073503E9, 0.0, 2022-02-11 00:00:44.907
178.0, -12168.401440191441, -14652.574318954268, -9984.412489463388, -17100.71618565514, -2756.551236695199, -3273.1224028018005, -4432.261518509569, -6268.703194702053, -20927.42424338153, -18384.64509065689, -25133.240238814386, -15560.144550817557, -9287.59685606919, -13453.09030450467, -9178.095659982642, -11248.649507600012, 0.009000000000000001, -0.024, 0.9895, 192.0, 0.0, 0.0, 0.0, 0.0, 0.0, 0.0, 0.0, 0.0, 0.0, 1.6444980449073567E9, 0.0, 2022-02-11 00:00:44.907
180.0, -12148.173111459388, -14652.373153254171, -9976.947006815315, -17096.089374552892, -2745.73299237883, -3265.7910306204594, -4410.088588009905, -6276.9062849171505, -20922.059824712258, -18375.16795100784, -25130.535677735294, -15555.98712634887, -9288.736795036411, -13466.389592455578, -9182.834229807166, -11251.242309956826, 0.009000000000000001, -0.024, 0.9895, 192.0, 0.0, 0.0, 0.0, 0.0, 0.0, 0.0, 0.0, 0.0, 0.0, 1.644498044907364E9, 0.0, 2022-02-11 00:00:44.907
182.0, -12162.902911055437, -14671.193322085539, -9979.45040219431, -17102.01258683355, -2749.130457536037, -3274.7540801470377, -4423.432579449723, -6283.254180342457, -20926.82074628124, -18376.21848299724, -25122.623160198113, -15557.305879271733, -9289.295588647794, -13460.980470297394, -9176.463982637404, -11251.04114425673, 0.009000000000000001, -0.024, 0.9895, 192.0, 0.0, 0.0, 0.0, 0.0, 0.0, 0.0, 0.0, 0.0, 0.0, 1.6444980449073706E9, 0.0, 2022-02-11 00:00:44.907
184.0, -12171.240111737265, -14672.512075008402, -9980.567989417075, -17097.318720497933, -2747.2082075128806, -3270.3731382337974, -4416.458835179667, -6279.253218084958, -20930.53113586082, -18391.6411866714, -25140.70572146246, -15556.143588560057, -9283.282969389316, -13460.622842386108, -9182.297787940239, -11255.824417570164, 0.0085, -0.026000000000000002, 0.98875, 192.0, 0.0, 32.0, 127.5, 16.0, 15.0, 112.0, 0.0, 0.0, 0.0, 1.6444980449073896E9, 0.0, 2022-02-11 00:00:44.907
186.0, -12155.593890618551, -14661.894996392131, -9975.561198659087, -17101.118517055336, -2742.4249341994446, -3258.5714171613954, -4413.351942700379, -6274.648758727165, -20930.173507949534, -18392.468201216245, -25131.65326495806, -15556.523568215796, -9288.669739803045, -13450.117522492113, -9176.128706470574, -11250.03531575624, 0.0085, -0.026000000000000002, 0.98875, 192.0, 0.0, 0.0, 0.0, 0.0, 0.0, 0.0, 0.0, 0.0, 0.0, 1.6444980449073963E9, 0.0, 2022-02-11 00:00:44.907
188.0, -12165.853341323536, -14651.590842198235, -9987.54173368713, -17098.77158388753, -2757.0206233287604, -3280.207905794133, -4439.458780224179, -6294.228886870013, -20934.040359740302, -18380.889997588398, -25140.191631339985, -15559.094018828157, -9286.971007224442, -13447.211795712925, -9179.05678499422, -11256.18204548145, 0.0085, -0.026000000000000002, 0.98875, 192.0, 0.0, 0.0, 0.0, 0.0, 0.0, 0.0, 0.0, 0.0, 0.0, 1.644498044907403E9, 0.0, 2022-02-11 00:00:44.907
190.0, -12146.139102713956, -14644.594746183724, -9973.303672469101, -17087.841580848883, -2754.3384139941236, -3271.803649878937, -4453.093344341915, -6294.452404314567, -20931.201688194476, -18371.59167189499, -25136.34713129367, -15555.227167037388, -9278.07501293123, -13477.09607804967, -9185.047052508242, -11260.22771122786, 0.0085, -0.026000000000000002, 0.98875, 192.0, 0.0, 0.0, 0.0, 0.0, 0.0, 0.0, 0.0, 0.0, 0.0, 1.6444980449074097E9, 0.0, 2022-02-11 00:00:44.907
192.0, -12148.798960304137, -14644.79591188382, -9969.570931145065, -17099.375080987822, -2756.5959401841096, -3283.3147982734204, -4463.576312491455, -6309.092796932793, -20919.399967122077, -18371.524616661623, -25110.508514703335, -15544.967716332403, -9287.574504324735, -13457.985336540383, -9187.528096142782, -11262.75345835131, 0.0085, -0.026000000000000002, 0.98875, 192.0, 0.0, 0.0, 0.0, 0.0, 0.0, 0.0, 0.0, 0.0, 0.0, 1.644498044907416E9, 0.0, 2022-02-11 00:00:44.907
194.0, -12137.623088076483, -14626.825109341755, -9970.465000923277, -17090.836714605895, -2757.5570651956878, -3288.4109960092305, -4404.4783001516225, -6291.770194979929, -20914.393176364087, -18378.230139998217, -25125.171259066017, -15562.625594452096, -9276.286873374806, -13469.4294297015, -9188.735090343367, -11266.061516530695, 0.00725, -0.026000000000000002, 0.991375, 192.0, 0.0, 24.0, 127.5, 24.0, 15.5, 8.0, 0.0, 0.0, 0.0, 1.6444980449074225E9, 0.0, 2022-02-11 00:00:44.907
196.0, -12114.287866865143, -14625.662818630079, -9963.178332230847, -17087.551008170965, -2752.952605837894, -3282.2419145395656, -4417.934050313717, -6294.586514781298, -20903.284359369798, -18364.372058435925, -25107.60278792415, -15539.089207540657, -9272.665890773045, -13462.388630198078, -9179.950854772433, -11258.774847838265, 0.00725, -0.026000000000000002, 0.991375, 192.0, 0.0, 0.0, 0.0, 0.0, 0.0, 0.0, 0.0, 0.0, 0.0, 1.6444980449074292E9, 0.0, 2022-02-11 00:00:44.907
198.0, -12131.074026951079, -14635.095254790218, -9975.695309125818, -17091.171990772724, -2780.4676032623775, -3295.787071679482, -4448.35477451739, -6313.361980123756, -20905.698347770973, -18368.95416604926, -25113.5260002048, -15541.011457563813, -9271.414193083549, -13471.128162280103, -9185.807011819723, -11263.021679284773, 0.00725, -0.026000000000000002, 0.991375, 192.0, 0.0, 0.0, 0.0, 0.0, 0.0, 0.0, 0.0, 0.0, 0.0, 1.6444980449074376E9, 0.0, 2022-02-11 00:00:44.907
200.0, -12125.240221648244, -14633.32946697825, -9969.950910800804, -17092.557798928952, -2765.290768777224, -3288.74627217606, -4444.376164004346, -6311.685599289608, -20903.396118092074, -18377.045497542083, -25118.666901429526, -15543.067818053702, -9273.984643695909, -13459.929938307994, -9191.618465378102, -11264.385135696548, 0.00725, -0.026000000000000002, 0.991375, 192.0, 0.0, 0.0, 0.0, 0.0, 0.0, 0.0, 0.0, 0.0, 0.0, 1.644498044907444E9, 0.0, 2022-02-11 00:00:44.907
202.0, -12122.1109774245, -14625.394597696615, -9969.97326254526, -17093.831848362905, -2763.4579257318887, -3288.612161709328, -4445.314937271469, -6301.493203817989, -20901.71973725793, -18389.204846525772, -25106.7757733793, -15541.816120364205, -9271.145972150085, -13461.271042975313, -9184.622369363591, -11261.769981595276, 0.00725, -0.026000000000000002, 0.991375, 192.0, 0.0, 0.0, 0.0, 0.0, 0.0, 0.0, 0.0, 0.0, 0.0, 1.6444980449074504E9, 0.0, 2022-02-11 00:00:44.907
204.0, -12121.01574194619, -14613.436414413025, -9969.481524167244, -17086.47812443711, -2767.7271089228525, -3285.371158763309, -4452.869826897362, -6311.283267889413, -20896.645891266573, -18379.07950628752, -25117.63872118458, -15557.372934505098, -9268.955501193464, -13452.956194037939, -9188.556276387724, -11259.043068771729, 0.005625, -0.026000000000000002, 0.9926875, 192.0, 0.0, 16.0, 127.5, 24.0, 15.5, 8.0, 0.0, 0.0, 0.0, 1.644498044907457E9, 0.0, 2022-02-11 00:00:44.907
206.0, -12109.526945296162, -14614.50929814688, -9962.59718687501, -17081.113705767835, -2759.747536152308, -3275.290522013965, -4445.493751227111, -6303.348398607779, -20898.27756861181, -18365.891977058887, -25097.566854663713, -15545.83943436616, -9270.02838492732, -13471.597548913664, -9184.510610641315, -11259.579510638656, 0.005625, -0.026000000000000002, 0.9926875, 192.0, 0.0, 0.0, 0.0, 0.0, 0.0, 0.0, 0.0, 0.0, 0.0, 1.6444980449074636E9, 0.0, 2022-02-11 00:00:44.907
208.0, -12126.894250737936, -14621.013655783376, -9978.73514637174, -17088.266263993533, -2780.6240654735643, -3291.160260577233, -4461.654062468298, -6316.759445280963, -20902.18912389149, -18369.11062826045, -25106.7757733793, -15539.871518596592, -9272.777649495321, -13459.706420863442, -9187.170468231496, -11262.217016484383, 0.005625, -0.026000000000000002, 0.9926875, 192.0, 0.0, 0.0, 0.0, 0.0, 0.0, 0.0, 0.0, 0.0, 0.0, 1.64449804490747E9, 0.0, 2022-02-11 00:00:44.907
210.0, -12111.471547063775, -14621.863022072677, -9975.181219003347, -17090.881418094807, -2769.3587862680897, -3292.4790135000962, -4453.875655397851, -6304.823613741829, -20906.257141382353, -18375.279709730115, -25114.710642660935, -15549.795693134749, -9273.895236718088, -13467.417772700523, -9190.813802577712, -11269.190760754438, 0.005625, -0.026000000000000002, 0.9926875, 192.0, 0.0, 0.0, 0.0, 0.0, 0.0, 0.0, 0.0, 0.0, 0.0, 1.6444980449074767E9, 0.0, 2022-02-11 00:00:44.907
212.0, -12125.776663515171, -14622.287705217328, -9976.49997192621, -17094.547104185476, -2775.4608125043887, -3294.4459670121632, -4464.2915683140245, -6327.756503552974, -20905.47483032642, -18374.184474251804, -25098.840904097666, -15534.93178307197, -9276.420983841537, -13469.362374468134, -9186.701081597934, -11272.409411956003, 0.005625, -0.026000000000000002, 0.9926875, 192.0, 0.0, 0.0, 0.0, 0.0, 0.0, 0.0, 0.0, 0.0, 0.0, 1.644498044907483E9, 0.0, 2022-02-11 00:00:44.907
214.0, -12132.772759529682, -14630.982533810442, -9978.556332416098, -17098.90569435426, -2775.639626460031, -3296.077644357401, -4445.78432390503, -6310.635067300209, -20902.636158780595, -18381.895826088887, -25114.5765321942, -15559.898681628549, -9259.16543712204, -13450.609260870131, -9188.064538009708, -11278.645548659033, 0.0048125, -0.026000000000000002, 0.99134375, 192.0, 0.0, 16.0, 127.5, 24.0, 15.0, 120.0, 0.0, 0.0, 0.0, 1.6444980449074895E9, 0.0, 2022-02-11 00:00:44.907
216.0, -12125.284925137154, -14623.248830228906, -9974.331852714045, -17090.970825072625, -2767.637701945031, -3295.5635542349287, -4430.339268486413, -6302.700198018575, -20907.71000477195, -18376.82198009753, -25108.765078635824, -15549.549823945741, -9283.394728111592, -13475.039717559781, -9184.600017619136, -11269.101353776618, 0.0048125, -0.026000000000000002, 0.99134375, 192.0, 0.0, 0.0, 0.0, 0.0, 0.0, 0.0, 0.0, 0.0, 0.0, 1.6444980449074962E9, 0.0, 2022-02-11 00:00:44.907
218.0, -12134.225622919277, -14627.249792486406, -9982.713756884785, -17092.356633228854, -2772.9127136364837, -3298.7598536920377, -4441.02340233605, -6317.273535403435, -20914.348472875176, -18396.133887306918, -25115.291788016773, -15551.36031524662, -9273.31409136225, -13476.447877460467, -9184.600017619136, -11275.270435246282, 0.0048125, -0.026000000000000002, 0.99134375, 192.0, 0.0, 0.0, 0.0, 0.0, 0.0, 0.0, 0.0, 0.0, 0.0, 1.644498044907503E9, 0.0, 2022-02-11 00:00:44.907
220.0, -12121.194555901833, -14624.724045362957, -9972.901341068906, -17085.494647681076, -2763.5696844541653, -3282.9124668732247, -4423.276117238536, -6298.72158750553, -20905.85480998216, -18390.456544215267, -25115.22473278341, -15551.181501290977, -9270.11779190514, -13451.346868437156, -9185.047052508242, -11269.570740410178, 0.0048125, -0.026000000000000002, 0.99134375, 192.0, 0.0, 0.0, 0.0, 0.0, 0.0, 0.0, 0.0, 0.0, 0.0, 1.644498044907509E9, 0.0, 2022-02-11 00:00:44.907
222.0, -12119.78639600115, -14626.467481430469, -9974.331852714045, -17089.920293083225, -2772.130402580548, -3294.6247809678057, -4451.372260018857, -6319.151081937681, -20906.41360359354, -18386.321471491035, -25098.326813975196, -15534.238878993856, -9267.301472103773, -13459.214682485424, -9185.20351471943, -11269.615443899089, 0.0048125, -0.026000000000000002, 0.99134375, 192.0, 0.0, 0.0, 0.0, 0.0, 0.0, 0.0, 0.0, 0.0, 0.0, 1.6444980449075167E9, 0.0, 2022-02-11 00:00:44.907
224.0, -12128.101244938523, -14625.394597696615, -9982.713756884785, -17092.423688462222, -2775.773736926763, -3295.0271123680013, -4456.6025682213985, -6321.565070338854, -20910.213400150944, -18385.20388426827, -25121.527924719805, -15551.449722224443, -9263.166399379541, -13467.842455845173, -9197.206401491929, -11277.416202713992, 0.0048125, -0.026000000000000002, 0.99134375, 192.0, 0.0, 0.0, 127.5, 40.0, 15.5, 8.0, 0.0, 0.0, 0.0, 1.644498044907524E9, 0.0, 2022-02-11 00:00:44.907
226.0, -12111.203326130311, -14596.471440371448, -9976.388213203933, -17095.977615830616, -2766.2742455332573, -3283.65007444025, -4442.990355848116, -6314.524270835433, -20904.066670425735, -18375.503227174668, -25108.228636768894, -15550.287431512766, -9271.8388762282, -13454.342002194167, -9192.244314222851, -11273.147019523029, 0.0048125, -0.026000000000000002, 0.99134375, 192.0, 0.0, 0.0, 0.0, 0.0, 0.0, 0.0, 0.0, 0.0, 0.0, 1.6444980449075308E9, 0.0, 2022-02-11 00:00:44.907
228.0, -12132.884518251958, -14639.163272281085, -9994.247257023724, -17091.99900531757, -2781.8757631630615, -3297.5081560025405, -4458.368356033368, -6331.601003599287, -20910.727490273417, -18376.464352186245, -25114.844753127665, -15555.249518781844, -9272.285911117306, -13473.296281492268, -9195.977055546888, -11274.08579279015, 0.0048125, -0.026000000000000002, 0.99134375, 192.0, 0.0, 0.0, 0.0, 0.0, 0.0, 0.0, 0.0, 0.0, 0.0, 1.6444980449075372E9, 0.0, 2022-02-11 00:00:44.907
230.0, -12125.128462925966, -14624.65699012959, -9989.955722088305, -17090.210865761146, -2773.7173764368745, -3284.812365151926, -4467.4655160266775, -6321.095683705293, -20912.247408896375, -18390.747116893188, -25125.21596255493, -15553.93076585898, -9265.31216684725, -13468.222435500913, -9204.582477162181, -11270.420106699481, 0.0048125, -0.026000000000000002, 0.99134375, 192.0, 0.0, 0.0, 0.0, 0.0, 0.0, 0.0, 0.0, 0.0, 0.0, 1.6444980449075458E9, 0.0, 2022-02-11 00:00:44.907
232.0, -12131.11873043999, -14625.729873863445, -9992.369710489478, -17095.552932685965, -2778.5230014947656, -3295.6529612127497, -4467.621978237865, -6325.409570385167, -20911.107469929157, -18389.249550014683, -25110.88849435908, -15543.35839073162, -9276.622149541636, -13462.120409264615, -9198.905134070532, -11273.079964289662, 0.0048125, -0.026000000000000002, 0.99134375, 192.0, 0.0, 0.0, 0.0, 0.0, 0.0, 0.0, 0.0, 0.0, 0.0, 1.6444980449075525E9, 0.0, 2022-02-11 00:00:44.907
234.0, -12138.1148264545, -14644.61709792818, -9996.92946635836, -17096.42465071972, -2774.3432252816233, -3292.523716989007, -4470.795925950519, -6328.672925075642, -20916.3377781317, -18393.11640180545, -25128.076985845208, -15557.708210671928, -9278.678510031523, -13470.837589602184, -9206.258857996329, -11281.32775799367, 0.004, -0.022, 0.99, 192.0, 0.0, 16.0, 127.5, 40.0, 15.0, 120.0, 0.0, 0.0, 0.0, 1.644498044907559E9, 0.0, 2022-02-11 00:00:44.907
236.0, -12127.184823415855, -14628.166214009074, -9985.418317963877, -17094.703566396664, -2758.3393762516234, -3274.642321424761, -4448.488884984122, -6325.655439574175, -20909.72166177293, -18396.044480329096, -25111.69315715947, -15549.50512045683, -9270.162495394052, -13465.629633144097, -9196.602904391635, -11276.790353869243, 0.004, -0.022, 0.99, 192.0, 0.0, 0.0, 0.0, 0.0, 0.0, 0.0, 0.0, 0.0, 0.0, 1.6444980449075654E9, 0.0, 2022-02-11 00:00:44.907
238.0, -12152.665812094905, -14641.376094982159, -10002.539754216643, -17098.011624576047, -2772.823306658662, -3288.098071586856, -4440.68812616922, -6298.185145638603, -20923.803260779772, -18405.007529855673, -25124.321892776716, -15567.677088698994, -9276.130411163618, -13466.635461644586, -9196.960532302921, -11274.488124190346, 0.004, -0.022, 0.99, 192.0, 0.0, 0.0, 0.0, 0.0, 0.0, 0.0, 0.0, 0.0, 0.0, 1.644498044907572E9, 0.0, 2022-02-11 00:00:44.907
240.0, -12138.472454365785, -14653.781313154856, -9989.26281801019, -17093.13894428479, -2765.4248792439557, -3278.777394148993, -4456.244940310114, -6306.120014920237, -20926.15019394758, -18402.727651921232, -25133.88843940359, -15557.685858927473, -9284.758184523367, -13465.00378429935, -9204.135442273075, -11269.615443899089, 0.004, -0.022, 0.99, 192.0, 0.0, 0.0, 0.0, 0.0, 0.0, 0.0, 0.0, 0.0, 0.0, 1.6444980453865411E9, 0.0, 2022-02-11 00:00:45.386
242.0, -12145.937937013858, -14647.90280436311, -9992.861448867494, -17108.941627614695, -2767.034204844738, -3285.84054539687, -4456.870789154862, -6304.018950941438, -20920.85283051167, -18402.995872854695, -25119.471564229916, -15546.465283210908, -9271.324786105728, -13463.66267963203, -9200.335645715671, -11271.157714266505, 0.004, -0.022, 0.99, 192.0, 0.0, 0.0, 0.0, 0.0, 0.0, 0.0, 0.0, 0.0, 0.0, 1.6444980453867166E9, 0.0, 2022-02-11 00:00:45.386
244.0, -12146.027343991678, -14641.80077812681, -9996.415376235887, -17105.499458968578, -2769.604655457098, -3284.0524058404453, -4463.129277602348, -6309.8974597331835, -20922.41745262354, -18410.12607933594, -25138.381140039106, -15571.722754445405, -9283.841763000699, -13459.214682485424, -9206.236506251873, -11278.153810281017, 0.004, -0.022, 0.994, 192.0, 0.0, 16.0, 127.5, 40.0, 15.5, 8.0, 0.0, 0.0, 0.0, 1.6444980453867257E9, 0.0, 2022-02-11 00:00:45.386
246.0, -12131.11873043999, -14654.161292810595, -9985.731242386251, -17099.822115876927, -2759.0546320741933, -3275.1340598027778, -4446.3878210053235, -6307.997561454483, -20918.304731643766, -18414.21644857126, -25122.60080845366, -15553.84135888116, -9277.225646641928, -13452.777380082296, -9200.983846304876, -11274.778696868265, 0.004, -0.022, 0.994, 192.0, 0.0, 0.0, 0.0, 0.0, 0.0, 0.0, 0.0, 0.0, 0.0, 1.644498045386733E9, 0.0, 2022-02-11 00:00:45.386
248.0, -12142.428713134375, -14644.37122873917, -9993.710815156795, -17105.186534546203, -2763.2120565428804, -3289.282714042987, -4444.912605871273, -6314.524270835433, -20916.673054298528, -18420.899620163396, -25123.40547125405, -15563.206739807933, -9276.510390819358, -13466.501351177854, -9192.020796778297, -11277.885589347552, 0.004, -0.022, 0.994, 192.0, 0.0, 0.0, 0.0, 0.0, 0.0, 0.0, 0.0, 0.0, 0.0, 1.6444980453867404E9, 0.0, 2022-02-11 00:00:45.386
250.0, -12131.83398626256, -14628.702655876, -9990.536867444143, -17102.52667695602, -2752.8855506045284, -3279.3808912492864, -4442.073934325449, -6299.012160183449, -20911.107469929157, -18410.528410736133, -25129.239276556884, -15572.549768990251, -9267.703803503968, -13468.825932601207, -9189.360939188116, -11275.51630443529, 0.004, -0.022, 0.994, 192.0, 0.0, 0.0, 0.0, 0.0, 0.0, 0.0, 0.0, 0.0, 0.0, 1.644498045386762E9, 0.0, 2022-02-11 00:00:45.386
252.0, -12150.609451605016, -14659.52571147987, -9995.230733779757, -17105.566514201942, -2761.9603588533832, -3285.0805860853898, -4453.607434464388, -6314.971305724538, -20917.74593803238, -18413.478841004235, -25121.036186341786, -15546.800559377738, -9272.397669839582, -13472.849246603162, -9191.752575844834, -11277.595016669633, 0.004, -0.022, 0.994, 192.0, 0.0, 0.0, 0.0, 0.0, 0.0, 0.0, 0.0, 0.0, 0.0, 1.6444980453867686E9, 0.0, 2022-02-11 00:00:45.386
254.0, -12164.221663978298, -14670.835694174255, -9998.98582684825, -17105.745328157584, -2762.3626902535784, -3277.682158670683, -4436.776570889541, -6295.704102004064, -20925.501993358375, -18420.36317829647, -25140.07987261771, -15560.055143839736, -9276.64450128609, -13471.57519716921, -9198.301636970238, -11277.483257947357, 0.01, -0.024, 0.994, 192.0, 0.0, 40.0, 127.5, 32.0, 15.5, 8.0, 0.0, 0.0, 0.0, 1.6444980453867905E9, 0.0, 2022-02-11 00:00:45.386
0.0, -12167.999108791246, -14687.934778682564, -9988.212286020791, -17103.152525800768, -2747.3423179796123, -3267.065080054412, -4443.057411081482, -6296.419357826634, -20927.647760826083, -18421.88309691943, -25130.06629110173, -15558.579928705685, -9274.543437307291, -13465.607281399642, -9193.943046801454, -11272.096487533629, 0.01, -0.024, 0.994, 192.0, 0.0, 0.0, 0.0, 0.0, 0.0, 0.0, 0.0, 0.0, 0.0, 1.6444980453867972E9, 0.0, 2022-02-11 00:00:45.386
2.0, -12216.144766347978, -14707.62666554769, -10000.773966404673, -17109.098089825882, -2761.1109925640812, -3280.833754638881, -4463.084574113438, -6319.329895893324, -20931.358150405664, -18428.298047578104, -25136.436538271493, -15573.197969579456, -9274.7893064963, -13464.04265928777, -9192.646645623046, -11278.444382958936, 0.01, -0.024, 0.994, 192.0, 0.0, 0.0, 0.0, 0.0, 0.0, 0.0, 0.0, 0.0, 0.0, 1.644498045386804E9, 0.0, 2022-02-11 00:00:45.386
4.0, -12250.275880131232, -14748.39624743417, -10001.22100129378, -17103.800726389974, -2746.761172623774, -3272.2730365124985, -4460.201199078703, -6303.840136985796, -20965.48926418892, -18443.296068107615, -25167.661925275555, -15587.614844753129, -9280.198428654485, -13479.755935639852, -9198.815727092711, -11283.317063250191, 0.01, -0.024, 0.994, 192.0, 0.0, 0.0, 0.0, 0.0, 0.0, 0.0, 0.0, 0.0, 0.0, 1.6444980453868234E9, 0.0, 2022-02-11 00:00:45.386
6.0, -12284.697566592404, -14779.845151882786, -9998.091757070037, -17114.417805006244, -2748.8175331136626, -3274.0835278133786, -4420.9738875596395, -6304.53304106391, -20972.1500840366, -18450.962716455786, -25161.537547294804, -15586.921940675014, -9278.700861775978, -13458.119447007115, -9187.170468231496, -11276.432725957959, 0.01, -0.024, 0.994, 192.0, 0.0, 0.0, 0.0, 0.0, 0.0, 0.0, 0.0, 0.0, 0.0, 1.6444980453868363E9, 0.0, 2022-02-11 00:00:45.386
8.0, -12322.807290888702, -14806.331969062325, -10008.775890919673, -17110.260380537555, -2757.3111960066794, -3270.2166760226105, -4456.177885076748, -6300.8002997398735, -20984.242377786923, -18442.245536118215, -25187.912605752066, -15605.809164739749, -9278.522047820336, -13462.634499387086, -9192.266665967307, -11279.383156226058, 0.008, -0.022, 0.99, 192.0, 0.0, 32.0, 127.5, 40.0, 15.0, 120.0, 0.0, 0.0, 0.0, 1.644498045386843E9, 0.0, 2022-02-11 00:00:45.386
10.0, -12330.719808425882, -14811.852849942787, -10006.674826940874, -17104.00189209007, -2743.475466188844, -3270.1496207892446, -4419.20809974767, -6288.640950756187, -20998.368680282674, -18447.4534925763, -25192.51706510986, -15605.362129850642, -9278.812620498255, -13471.66460414703, -9193.54071540126, -11275.002214312819, 0.008, -0.022, 0.99, 192.0, 0.0, 0.0, 0.0, 0.0, 0.0, 0.0, 0.0, 0.0, 0.0, 1.6444980453868623E9, 0.0, 2022-02-11 00:00:45.386
12.0, -12339.34758178563, -14836.015085698973, -10016.107263101014, -17108.069909580936, -2766.8553908890954, -3279.582056949384, -4447.684222183731, -6295.592343281787, -21008.650482732115, -18473.18035044436, -25202.530646625837, -15587.167809864022, -9290.189658426007, -13490.931807867504, -9188.422165920992, -11276.700946891422, 0.008, -0.022, 0.99, 192.0, 0.0, 0.0, 0.0, 0.0, 0.0, 0.0, 0.0, 0.0, 0.0, 1.6444980453868687E9, 0.0, 2022-02-11 00:00:45.386
14.0, -12311.027921560755, -14803.202724838582, -10006.674826940874, -17103.510153712054, -2761.133344308537, -3265.880437598281, -4455.753201932097, -6291.658436257653, -20993.83127615825, -18461.669202049878, -25201.211893702974, -15587.860713942136, -9284.355853123172, -13472.201046013957, -9196.602904391635, -11279.42785971497, 0.008, -0.022, 0.99, 192.0, 0.0, 0.0, 0.0, 0.0, 0.0, 0.0, 0.0, 0.0, 0.0, 1.6444980453868756E9, 0.0, 2022-02-11 00:00:45.386
16.0, -12297.952151054402, -14782.348547261781, -10005.3113705291, -17108.539296214498, -2746.090620290115, -3267.422707965697, -4429.489902197111, -6290.5855525237985, -20993.943034880525, -18455.94715546932, -25182.83875976071, -15580.976376649902, -9292.156611938073, -13456.42071442851, -9186.43286066447, -11272.342356722636, 0.008, -0.022, 0.99, 192.0, 0.0, 0.0, 0.0, 0.0, 0.0, 0.0, 0.0, 0.0, 0.0, 1.6444980453868823E9, 0.0, 2022-02-11 00:00:45.386
18.0, -12289.436136416929, -14782.460305984057, -10009.178222319868, -17103.979540345616, -2749.443381958411, -3276.877495870292, -4427.142969029304, -6300.375616595223, -20982.34247950822, -18440.815024473075, -25187.17499818504, -15594.029795411801, -9284.042928700797, -13469.09415353467, -9186.477564153382, -11275.873932346574, 0.008, -0.018000000000000002, 0.99, 192.0, 0.0, 32.0, 127.5, 56.0, 15.0, 120.0, 0.0, 0.0, 0.0, 1.6444980453868895E9, 0.0, 2022-02-11 00:00:45.386
20.0, -12264.580996582628, -14758.901567328165, -9994.917809357383, -17108.047557836482, -2741.061477787671, -3271.378966734286, -4425.421884706246, -6292.15017463567, -20972.083028803234, -18452.862614734488, -25169.628878787626, -15580.216417338423, -9285.31697813475, -13484.136877553092, -9183.258912951816, -11273.728164878865, 0.008, -0.018000000000000002, 0.99, 192.0, 0.0, 0.0, 0.0, 0.0, 0.0, 0.0, 0.0, 0.0, 0.0, 1.644498045386896E9, 0.0, 2022-02-11 00:00:45.386
22.0, -12257.450790101384, -14741.131930486195, -10002.137422816448, -17112.160278816256, -2751.2762250037463, -3268.7638126330153, -4434.563748188466, -6294.586514781298, -20960.504825175387, -18436.992876171218, -25165.471454318937, -15586.027870896802, -9278.186771653507, -13468.177732012002, -9186.186991475462, -11274.957510823908, 0.008, -0.018000000000000002, 0.99, 192.0, 0.0, 0.0, 0.0, 0.0, 0.0, 0.0, 0.0, 0.0, 0.0, 1.6444980453869028E9, 0.0, 2022-02-11 00:00:45.386
24.0, -12233.981458423312, -14732.034770492884, -9990.983902333248, -17103.4878019676, -2731.807855583174, -3254.190475248155, -4442.476265725644, -6290.5855525237985, -20944.47862440093, -18429.437986545323, -25162.185747884007, -15574.047335868758, -9268.419059326538, -13449.737542836374, -9191.8196310782, -11273.482295689857, 0.008, -0.018000000000000002, 0.99, 192.0, 0.0, 0.0, 0.0, 0.0, 0.0, 0.0, 0.0, 0.0, 0.0, 1.6444980453869095E9, 0.0, 2022-02-11 00:00:45.386
26.0, -12231.120435133033, -14724.256363422439, -9991.207419777802, -17103.554857200965, -2724.744704335297, -3246.7696960889934, -4423.142006771804, -6289.266799600935, -20948.881918058625, -18447.386437342935, -25147.858279688156, -15560.3233647732, -9270.83304772771, -13456.532473150788, -9181.090793739653, -11266.955586308908, 0.008, -0.018000000000000002, 0.99, 192.0, 0.0, 0.0, 0.0, 0.0, 0.0, 0.0, 0.0, 0.0, 0.0, 1.6444980453869164E9, 0.0, 2022-02-11 00:00:45.386
28.0, -12235.32256309063, -14732.05712223734, -10004.752576917717, -17111.735595671606, -2735.1829689959254, -3253.430515936675, -4411.764968844052, -6277.398023295167, -20949.060732014266, -18444.570117541567, -25165.18088164102, -15580.618748738618, -9278.589103053702, -13461.360449953134, -9187.86337230961, -11266.665013630989, 0.008, -0.022, 0.99, 192.0, 0.0, 32.0, 127.5, 40.0, 15.0, 120.0, 0.0, 0.0, 0.0, 1.6444980453869233E9, 0.0, 2022-02-11 00:00:45.386
30.0, -12212.009693623746, -14713.080491194785, -9996.88476286945, -17107.019377591536, -2727.4269136699336, -3254.972786304091, -4407.16050948626, -6274.358186049246, -20947.697275602495, -18434.914163936875, -25159.816462971743, -15576.997766136858, -9283.17121066704, -13466.568406411221, -9183.616540863102, -11264.22867348536, 0.008, -0.022, 0.99, 192.0, 0.0, 0.0, 0.0, 0.0, 0.0, 0.0, 0.0, 0.0, 0.0, 1.6444980453869302E9, 0.0, 2022-02-11 00:00:45.386
32.0, -12217.597629737573, -14696.517848553402, -10004.640818195441, -17110.975636360126, -2740.346221965101, -3268.5402951884626, -4425.868919595351, -6295.033549670405, -20943.2939819448, -18433.08132089154, -25152.820366957232, -15572.102734101145, -9277.40446059757, -13492.585836957198, -9182.253084451328, -11271.001252055317, 0.008, -0.022, 0.99, 192.0, 0.0, 0.0, 0.0, 0.0, 0.0, 0.0, 0.0, 0.0, 0.0, 1.644498045386937E9, 0.0, 2022-02-11 00:00:45.386
34.0, -12202.867830141526, -14694.23797061896, -9993.710815156795, -17111.310912526955, -2731.740800349808, -3258.1467340167446, -4416.458835179667, -6282.2483518419685, -20943.71866508945, -18426.196983599304, -25157.760102481858, -15575.65666146954, -9279.594931554191, -13481.946406596471, -9189.450346165937, -11271.47063868888, 0.008, -0.022, 0.99, 192.0, 0.0, 0.0, 0.0, 0.0, 0.0, 0.0, 0.0, 0.0, 0.0, 1.6444980453869557E9, 0.0, 2022-02-11 00:00:45.386
36.0, -12193.211876536832, -14696.316682853305, -9990.916847099883, -17109.723938670628, -2728.6339078705205, -3256.6715188826943, -4415.58711714591, -6285.198782110069, -20938.443653397997, -18440.92678319535, -25144.25964883085, -15555.920071115503, -9280.109021676662, -13466.635461644586, -9180.53200012827, -11267.626138642567, 0.008, -0.022, 0.99, 192.0, 0.0, 0.0, 0.0, 0.0, 0.0, 0.0, 0.0, 0.0, 0.0, 1.6444980453869624E9, 0.0, 2022-02-11 00:00:45.386
38.0, -12187.132202044988, -14685.565493770302, -9997.488259969743, -17107.466412480644, -2737.619309141554, -3261.007757307024, -4419.766893359053, -6279.923770418617, -20932.587496350705, -18437.529318038145, -25154.7873204693, -15558.132893816579, -9268.575521537725, -13462.790961598273, -9180.53200012827, -11265.301557219214, 0.002, -0.024, 0.998, 192.0, 0.0, 8.0, 127.5, 32.0, 15.5, 24.0, 0.0, 0.0, 0.0, 1.6444980453869712E9, 0.0, 2022-02-11 00:00:45.386
40.0, -12158.432562164375, -14664.644260960134, -9984.613655163486, -17101.699662411174, -2733.8865678175175, -3251.552969402429, -4421.2644602375585, -6287.299846088868, -20924.04912996878, -18426.532259766132, -25139.476375517414, -15544.498329698841, -9274.92341696303, -13460.511083663832, -9182.811878062712, -11264.94392930793, 0.002, -0.024, 0.998, 192.0, 0.0, 0.0, 0.0, 0.0, 0.0, 0.0, 0.0, 0.0, 0.0, 1.6444980453869777E9, 0.0, 2022-02-11 00:00:45.386
42.0, -12166.210969234822, -14655.033010844352, -9990.581570933053, -17103.376043245324, -2748.750477880297, -3272.295388256954, -4448.980623362139, -6297.581648538309, -20914.41552810854, -18423.492422520212, -25130.69213994648, -15546.509986699819, -9278.298530375783, -13465.607281399642, -9190.34441594415, -11273.03526080075, 0.002, -0.024, 0.998, 192.0, 0.0, 0.0, 0.0, 0.0, 0.0, 0.0, 0.0, 0.0, 0.0, 1.644498045386984E9, 0.0, 2022-02-11 00:00:45.386
44.0, -12156.487960396762, -14649.84740613072, -9986.334739486545, -17098.168086787235, -2736.3676114520567, -3268.495591699552, -4418.917527069751, -6290.160869379148, -20915.689577542493, -18411.444832258803, -25140.348093551172, -15548.722809400895, -9272.397669839582, -13463.059182531737, -9194.792413090756, -11269.615443899089, 0.002, -0.024, 0.998, 192.0, 0.0, 0.0, 0.0, 0.0, 0.0, 0.0, 0.0, 0.0, 0.0, 1.6444980453869913E9, 0.0, 2022-02-11 00:00:45.386
46.0, -12146.228509691777, -14636.972801324464, -9982.534942929142, -17098.816287376438, -2738.736896364319, -3273.8376586243703, -4438.318841256958, -6316.066541202848, -20915.980150220414, -18420.45258527429, -25121.237352041884, -15534.752969116327, -9270.296605860784, -13463.886197076583, -9185.136459486062, -11270.621272399578, 0.005, -0.029, 0.994, 192.0, 0.0, 32.0, 127.0, 120.0, 15.0, 120.0, 0.0, 0.0, 0.0, 1.644498045386998E9, 0.0, 2022-02-11 00:00:45.386
48.0, -12148.731905070772, -14635.676400146056, -9990.693329655329, -17103.219581034136, -2745.0400883007155, -3282.420728495208, -4428.819349863452, -6306.477642831522, -20909.498144328376, -18408.74027117971, -25132.346169036173, -15538.820986607194, -9271.16832389454, -13467.14955176706, -9194.188915990462, -11277.32679573617, 0.005, -0.029, 0.994, 192.0, 0.0, 0.0, 0.0, 0.0, 0.0, 0.0, 0.0, 0.0, 0.0, 1.6444980453870049E9, 0.0, 2022-02-11 00:00:45.387
50.0, -12138.271288665688, -14627.473309930958, -9977.528152171153, -17099.77741238802, -2736.1664457519587, -3271.714242901116, -4431.345096986902, -6308.936334721606, -20912.940312974493, -18407.8462014015, -25126.557067222246, -15541.905527342025, -9276.152762908074, -13477.967796083427, -9194.077157268186, -11279.047880059228, 0.005, -0.029, 0.994, 192.0, 0.0, 0.0, 0.0, 0.0, 0.0, 0.0, 0.0, 0.0, 0.0, 1.644498045387012E9, 0.0, 2022-02-11 00:00:45.387
52.0, -12144.909756768913, -14639.610307170191, -9990.02277732167, -17101.073813566425, -2763.3014635207014, -3281.9289901171915, -4464.872713669863, -6344.095628749804, -20912.895609485582, -18426.398149299403, -25119.382157252094, -15532.69660862644, -9268.664928515545, -13461.360449953134, -9200.20153524894, -11286.982749340863, 0.005, -0.029, 0.994, 192.0, 0.0, 0.0, 0.0, 0.0, 0.0, 0.0, 0.0, 0.0, 0.0, 1.6444980453870184E9, 0.0, 2022-02-11 00:00:45.387
54.0, -12137.243108420744, -14622.622981384156, -9991.006254077703, -17101.34203449989, -2760.6863094194305, -3266.4392312096634, -4442.699783170197, -6303.795433496885, -20912.269760640833, -18421.16784109686, -25129.01575911233, -15546.264117510811, -9279.527876320824, -13441.84737704365, -9207.354093474638, -11287.809763885709, 0.005, -0.029, 0.994, 192.0, 0.0, 0.0, 0.0, 0.0, 0.0, 0.0, 0.0, 0.0, 0.0, 1.644498045387025E9, 0.0, 2022-02-11 00:00:45.387
56.0, -12135.11969269749, -14612.587048123723, -9989.843963366027, -17104.650092679276, -2755.2101320278803, -3272.6977196571497, -4449.78528616253, -6314.747788279986, -20918.885876999604, -18424.989989398717, -25123.58428520969, -15535.959963316915, -9287.865077002654, -13455.169016739013, -9200.514459671314, -11281.32775799367, 0.006500000000000001, -0.0305, 0.992, 192.0, 0.0, 32.0, 127.5, 0.0, 15.0, 120.0, 0.0, 0.0, 0.0, 1.644498045387032E9, 0.0, 2022-02-11 00:00:45.387
58.0, -12147.033172492167, -14640.862004859688, -9995.521306457676, -17097.944569342682, -2766.4307077444446, -3274.1505830467445, -4467.152591604304, -6325.0966459627925, -20916.04720545378, -18415.982236383228, -25131.474451002414, -15548.432236722976, -9278.74556526489, -13476.00084257136, -9206.72824462989, -11286.7145284074, 0.006500000000000001, -0.0305, 0.992, 192.0, 0.0, 0.0, 0.0, 0.0, 0.0, 0.0, 0.0, 0.0, 0.0, 1.6444980453870385E9, 0.0, 2022-02-11 00:00:45.387
60.0, -12143.50159686823, -14640.772597881867, -9992.682634911853, -17104.87361012383, -2750.7844866257296, -3272.7871266349707, -4420.616259648355, -6312.91494523465, -20919.779946777817, -18427.851012688996, -25127.45113700046, -15535.781149361272, -9283.238265900405, -13490.015386344838, -9202.570820161203, -11283.920560350485, 0.006500000000000001, -0.0305, 0.992, 192.0, 0.0, 0.0, 0.0, 0.0, 0.0, 0.0, 0.0, 0.0, 0.0, 1.644498045387045E9, 0.0, 2022-02-11 00:00:45.387
62.0, -12155.996222018746, -14637.08456004674, -10004.909039128905, -17110.461546237653, -2763.346167009612, -3278.0844900708785, -4432.68620165422, -6310.568012066843, -20930.642894583096, -18435.450605803802, -25136.63770397159, -15544.230108765378, -9290.45787935947, -13480.851171118162, -9197.653436381035, -11285.70869990691, 0.006500000000000001, -0.0305, 0.992, 192.0, 0.0, 0.0, 0.0, 0.0, 0.0, 0.0, 0.0, 0.0, 0.0, 1.6444980453870516E9, 0.0, 2022-02-11 00:00:45.387
64.0, -12151.83879755006, -14632.033065799842, -10004.283190284157, -17105.14183105729, -2767.637701945031, -3275.0446528249568, -4445.694916927208, -6314.457215602067, -20926.776042792328, -18431.494347035212, -25146.986561654398, -15555.473036226396, -9291.26254215986, -13480.247674017868, -9201.766157360811, -11284.926388850974, 0.006500000000000001, -0.0305, 0.992, 192.0, 0.0, 0.0, 0.0, 0.0, 0.0, 0.0, 0.0, 0.0, 0.0, 1.6444980453870585E9, 0.0, 2022-02-11 00:00:45.387
66.0, -12145.69206782485, -14630.311981476783, -10004.55141121762, -17107.220543291634, -2775.9301991379502, -3274.0835278133786, -4460.670585712264, -6322.615602328254, -20929.748824804883, -18430.376759812447, -25137.062387116242, -15546.755855888827, -9290.07789970373, -13479.420659473022, -9204.8730498401, -11284.054670817217, 0.00625, -0.03125, 0.989, 192.0, 0.0, 24.0, 127.5, 0.0, 15.0, 104.0, 0.0, 0.0, 0.0, 1.6444980453870652E9, 0.0, 2022-02-11 00:00:45.387
68.0, -12148.88836728196, -14613.816394068766, -10005.601943207019, -17108.069909580936, -2769.6493589460088, -3272.876533612792, -4453.361565275379, -6322.481491861522, -20927.826574781728, -18428.700378978298, -25147.746520965877, -15566.671260198505, -9291.776632282334, -13467.104848278148, -9213.724340644401, -11287.072156318683, 0.00625, -0.03125, 0.989, 192.0, 0.0, 0.0, 0.0, 0.0, 0.0, 0.0, 0.0, 0.0, 0.0, 1.6444980453870716E9, 0.0, 2022-02-11 00:00:45.387
70.0, -12124.323800125576, -14632.569507666769, -9991.006254077703, -17100.96205484415, -2753.4443442159113, -3267.579170176884, -4440.017573835561, -6314.993657468994, -20921.05399621177, -18414.97640788274, -25130.915657391033, -15544.36421923211, -9285.875771746132, -13484.852133375662, -9205.230677751384, -11282.7135661499, 0.00625, -0.03125, 0.989, 192.0, 0.0, 0.0, 0.0, 0.0, 0.0, 0.0, 0.0, 0.0, 0.0, 1.6444980453870804E9, 0.0, 2022-02-11 00:00:45.387
72.0, -12136.863128765002, -14623.22647848445, -9996.996521591725, -17107.354653758368, -2758.9205216074615, -3285.974655863602, -4450.634652451832, -6334.462026889566, -20917.723586287928, -18436.07645464855, -25123.58428520969, -15533.83654759366, -9285.473440345937, -13479.733583895397, -9199.19570674845, -11287.005101085319, 0.00625, -0.03125, 0.989, 192.0, 0.0, 0.0, 0.0, 0.0, 0.0, 0.0, 0.0, 0.0, 0.0, 1.6444980453870869E9, 0.0, 2022-02-11 00:00:45.387
74.0, -12127.967134471792, -14616.252734214395, -9994.336664001545, -17104.47127872363, -2752.8408471156176, -3275.961074347624, -4449.137085573326, -6320.961573238561, -20913.23088565241, -18433.50600403619, -25134.827212670712, -15545.1688820325, -9279.393765854093, -13482.684014163497, -9204.53777367327, -11293.28594127726, 0.00625, -0.03125, 0.989, 192.0, 0.0, 0.0, 0.0, 0.0, 0.0, 0.0, 0.0, 0.0, 0.0, 1.6444980453870935E9, 0.0, 2022-02-11 00:00:45.387
76.0, -12120.121672167978, -14598.773670050345, -9997.242390780735, -17106.214714791146, -2767.615350200576, -3271.088394056367, -4459.776515934052, -6319.262840659958, -20916.069557198236, -18399.35253850848, -25120.8797241306, -15523.666503866496, -9286.7921932688, -13476.179656527001, -9206.30356148524, -11289.352034253125, 0.004125, -0.027625, 0.9904999999999999, 192.0, 0.0, 8.0, 127.5, 32.0, 15.5, 0.0, 0.0, 0.0, 0.0, 1.6444980453871005E9, 0.0, 2022-02-11 00:00:45.387
78.0, -12147.21198644781, -14634.42470245656, -10006.004274607216, -17116.63062770732, -2772.6221409585646, -3278.196248793155, -4462.212856079681, -6322.123863950237, -20926.217249180943, -18441.195004128815, -25142.963247652442, -15562.715001429917, -9289.005015969875, -13475.374993726611, -9214.149023789052, -11293.196534299439, 0.004125, -0.027625, 0.9904999999999999, 192.0, 0.0, 0.0, 0.0, 0.0, 0.0, 0.0, 0.0, 0.0, 0.0, 1.644498045387107E9, 0.0, 2022-02-11 00:00:45.387
80.0, -12128.615335060995, -14618.309094704282, -9991.676806411364, -17108.42753749222, -2755.1430767945144, -3265.8580858538257, -4455.574387976455, -6319.709875549063, -20922.66332181255, -18438.155166882894, -25135.8330411712, -15568.973489877402, -9286.591027568702, -13470.14468552407, -9207.644666152557, -11289.083813319661, 0.004125, -0.027625, 0.9904999999999999, 192.0, 0.0, 0.0, 0.0, 0.0, 0.0, 0.0, 0.0, 0.0, 0.0, 1.644498045387113E9, 0.0, 2022-02-11 00:00:45.387
82.0, -12144.574480602085, -14613.481117901936, -10001.824498394073, -17111.936761371704, -2769.2693792902687, -3276.005777836535, -4472.606417251399, -6333.746771066996, -20925.61375208065, -18440.7032657508, -25133.195535325474, -15545.146530288046, -9293.050681716286, -13465.875502333105, -9206.661189396524, -11290.179048797972, 0.004125, -0.027625, 0.9904999999999999, 192.0, 0.0, 0.0, 0.0, 0.0, 0.0, 0.0, 0.0, 0.0, 0.0, 1.64449804538712E9, 0.0, 2022-02-11 00:00:45.387
84.0, -12127.430692604863, -14610.240114955917, -9999.16464080389, -17107.891095625295, -2758.4064314849893, -3259.0855072838676, -4445.1584750602815, -6312.646724301187, -20917.70123454347, -18435.718826737266, -25143.700855219467, -15559.138722317068, -9287.753318280378, -13455.683106861487, -9209.745730131357, -11288.6144266861, 0.004125, -0.027625, 0.9904999999999999, 192.0, 0.0, 0.0, 0.0, 0.0, 0.0, 0.0, 0.0, 0.0, 0.0, 1.6444980453871264E9, 0.0, 2022-02-11 00:00:45.387
86.0, -12125.575497815073, -14605.143917220106, -9999.723434415273, -17104.85125837937, -2760.731012908341, -3278.911504615725, -4452.266329797069, -6327.488282619511, -20915.354301375664, -18411.221314814247, -25126.244142799875, -15540.139739530057, -9290.055547959275, -13489.94833111147, -9203.8225178507, -11286.960397596407, 0.0030625, -0.0248125, 0.99225, 192.0, 0.0, 8.0, 127.5, 40.0, 15.5, 8.0, 0.0, 0.0, 0.0, 1.644498045387133E9, 0.0, 2022-02-11 00:00:45.387
88.0, -12142.853396279026, -14621.147766250107, -10007.323027530078, -17112.47320323863, -2767.6600536894866, -3281.0125685945236, -4443.21387329267, -6295.011197925949, -20923.53503984631, -18428.23099234474, -25146.49482327638, -15561.530358973785, -9295.822298028743, -13498.732566682407, -9206.705892885435, -11292.257761032315, 0.0030625, -0.0248125, 0.99225, 192.0, 0.0, 0.0, 0.0, 0.0, 0.0, 0.0, 0.0, 0.0, 0.0, 1.6444980453871396E9, 0.0, 2022-02-11 00:00:45.387
90.0, -12126.961305971303, -14619.784309838333, -9992.369710489478, -17106.86291538035, -2759.479315218844, -3265.165181775711, -4447.728925672642, -6299.481546817011, -20921.56808633424, -18443.16195764088, -25136.16831733803, -15551.025039079792, -9286.702786290978, -13476.80550537175, -9207.53290743028, -11286.289845262749, 0.0030625, -0.0248125, 0.99225, 192.0, 0.0, 0.0, 0.0, 0.0, 0.0, 0.0, 0.0, 0.0, 0.0, 1.644498045387146E9, 0.0, 2022-02-11 00:00:45.387
92.0, -12132.035151962657, -14618.219687726461, -10000.103414071014, -17112.09322358289, -2767.2130188003803, -3274.7317284025826, -4458.591873477921, -6313.540794079398, -20916.09190894269, -18442.893736707418, -25128.389910267582, -15543.000762820337, -9287.820373513743, -13460.108752263637, -9205.744767873855, -11291.833077887664, 0.0030625, -0.0248125, 0.99225, 192.0, 0.0, 0.0, 0.0, 0.0, 0.0, 0.0, 0.0, 0.0, 0.0, 1.6444980453871524E9, 0.0, 2022-02-11 00:00:45.387
94.0, -12121.328666368565, -14602.88639103012, -9996.705948913806, -17106.259418280057, -2755.321890750157, -3264.3828707197754, -4454.635614709332, -6319.911041249161, -20912.068594940734, -18427.15810861088, -25138.850526672668, -15555.785960648771, -9279.483172831915, -13479.107735050648, -9211.399759221049, -11293.174182554983, 0.0030625, -0.0248125, 0.99225, 192.0, 0.0, 0.0, 0.0, 0.0, 0.0, 0.0, 0.0, 0.0, 0.0, 1.644498045387159E9, 0.0, 2022-02-11 00:00:45.387
96.0, -12122.535660569152, -14614.330484191238, -9995.007216335203, -17106.661749680254, -2752.8408471156176, -3271.378966734286, -4461.877579912851, -6320.738055794008, -20912.582685063207, -18420.31847480756, -25124.277189287805, -15541.570251175197, -9286.255751401872, -13467.395420956067, -9206.549430674248, -11290.179048797972, 0.00253125, -0.025406250000000002, 0.995125, 192.0, 0.0, 8.0, 127.5, 24.0, 15.5, 24.0, 0.0, 0.0, 0.0, 1.6444980453871655E9, 0.0, 2022-02-11 00:00:45.387
98.0, -12132.92922174087, -14621.863022072677, -10001.131594315959, -17102.593732189387, -2760.2839780192353, -3286.5781529638953, -4457.0719548549605, -6324.828425029329, -20920.56225783375, -18449.778073999652, -25142.44915752997, -15557.84232113866, -9293.073033460741, -13494.709252680452, -9206.840003352167, -11295.5658192117, 0.00253125, -0.025406250000000002, 0.995125, 192.0, 0.0, 0.0, 0.0, 0.0, 0.0, 0.0, 0.0, 0.0, 0.0, 1.644498045387172E9, 0.0, 2022-02-11 00:00:45.387
100.0, -12110.309256352099, -14588.782440278823, -9989.084004054548, -17099.77741238802, -2749.3092714916793, -3266.2157137651106, -4436.284832511525, -6318.078198203826, -20911.688615284995, -18434.891812192418, -25129.820421912722, -15546.84526286665, -9289.474402603437, -13480.426487973511, -9207.599962663648, -11292.391871499047, 0.00253125, -0.025406250000000002, 0.995125, 192.0, 0.0, 0.0, 0.0, 0.0, 0.0, 0.0, 0.0, 0.0, 0.0, 1.6444980453871787E9, 0.0, 2022-02-11 00:00:45.387
102.0, -12135.58907933105, -14610.284818444827, -10002.74091991674, -17104.694796168184, -2760.842771630618, -3278.7326906600824, -4445.136123315826, -6327.667096575153, -20918.70706304396, -18427.918067922365, -25130.312160290738, -15546.688800655462, -9289.608513070169, -13501.57123822823, -9203.509593428325, -11294.738804666855, 0.00253125, -0.025406250000000002, 0.995125, 192.0, 0.0, 0.0, 0.0, 0.0, 0.0, 0.0, 0.0, 0.0, 0.0, 1.6444980453871872E9, 0.0, 2022-02-11 00:00:45.387
104.0, -12125.754311770716, -14624.724045362957, -10001.93625711635, -17102.370214744835, -2759.7251844078523, -3270.9319318451803, -4446.521931472055, -6313.294924890391, -20919.064690955245, -18449.84512923302, -25145.891326176086, -15553.729600158884, -9297.096347462697, -13472.916301836527, -9208.404625464038, -11293.978845355374, 0.00253125, -0.025406250000000002, 0.995125, 192.0, 0.0, 0.0, 0.0, 0.0, 0.0, 0.0, 0.0, 0.0, 0.0, 1.6444980458664205E9, 0.0, 2022-02-11 00:00:45.866
106.0, -12126.916602482392, -14620.901897061098, -10001.93625711635, -17105.968845602136, -2764.933140865939, -3272.1836295346775, -4475.825068452963, -6327.018895985949, -20923.222115423934, -18435.629419759443, -25130.982712624398, -15543.157225031522, -9297.878658518632, -13481.700537407463, -9206.415320207516, -11290.693138920444, 2.65625E-4, -0.024703125, 0.9955625, 192.0, 127.5, 120.0, 127.5, 32.0, 15.5, 16.0, 0.0, 0.0, 0.0, 1.644498045866563E9, 0.0, 2022-02-11 00:00:45.866
108.0, -12138.315992154598, -14618.957295293487, -10008.664132197397, -17106.57234270243, -2771.0351671022377, -3273.010644079524, -4467.577274748955, -6325.118997707248, -20922.149231690077, -18440.88207970644, -25142.247991829874, -15552.07557106919, -9284.936998479008, -13482.482848463398, -9217.34532324616, -11295.498763978334, 2.65625E-4, -0.024703125, 0.9955625, 192.0, 0.0, 0.0, 0.0, 0.0, 0.0, 0.0, 0.0, 0.0, 0.0, 1.6444980458665702E9, 0.0, 2022-02-11 00:00:45.866
110.0, -12123.474433836274, -14598.7960217948, -9998.404681492411, -17110.841525893393, -2750.717431392364, -3259.711356128616, -4440.68812616922, -6314.233698157514, -20922.70802530146, -18444.391303585926, -25136.41418652704, -15562.446780496453, -9289.005015969875, -13474.927958837505, -9206.527078929792, -11286.46865921839, 2.65625E-4, -0.024703125, 0.9955625, 192.0, 0.0, 0.0, 0.0, 0.0, 0.0, 0.0, 0.0, 0.0, 0.0, 1.644498045866577E9, 0.0, 2022-02-11 00:00:45.866
112.0, -12137.98071598777, -14607.580257365735, -10012.262763054701, -17114.663674195253, -2769.962283368383, -3273.8823621132806, -4461.318786301468, -6322.772064539441, -20926.75369104787, -18439.429216316847, -25134.40252952606, -15560.211606050922, -9300.717330064455, -13482.706365907952, -9207.644666152557, -11290.782545898264, 2.65625E-4, -0.024703125, 0.9955625, 192.0, 0.0, 0.0, 0.0, 0.0, 0.0, 0.0, 0.0, 0.0, 0.0, 1.6444980458665836E9, 0.0, 2022-02-11 00:00:45.866
114.0, -12132.92922174087, -14614.062263257774, -10013.469757255287, -17111.646188693787, -2765.4919344773216, -3277.7045104151384, -4457.161361832781, -6317.988791226005, -20927.871278270635, -18447.811120487586, -25150.428730300515, -15558.915204872514, -9301.343178909205, -13500.230133560914, -9215.646590667557, -11292.414223243502, 2.65625E-4, -0.024703125, 0.9955625, 192.0, 0.0, 0.0, 0.0, 0.0, 0.0, 0.0, 0.0, 0.0, 0.0, 1.6444980458665905E9, 0.0, 2022-02-11 00:00:45.866
116.0, -12136.25963166471, -14622.913554062075, -10013.022722366182, -17111.936761371704, -2767.905922878495, -3281.5043069725407, -4465.476210770155, -6332.740942566507, -20936.364941163654, -18443.810158230088, -25140.05752087325, -15549.371009990098, -9306.439376645014, -13507.852078420172, -9218.30644825774, -11296.437537245458, 2.65625E-4, -0.024703125, 0.9955625, 192.0, 0.0, 0.0, 127.5, 16.0, 15.5, 24.0, 0.0, 0.0, 0.0, 1.6444980458665972E9, 0.0, 2022-02-11 00:00:45.866
118.0, -12141.825216034082, -14621.37128369466, -10017.291905557146, -17113.14375557229, -2767.7941641562184, -3277.2127720371213, -4467.59962649341, -6325.454273874077, -20940.052978998778, -18452.28146937865, -25155.949611180975, -15558.758742661328, -9303.17602195454, -13515.898706424083, -9221.346285503661, -11300.974941369885, 2.65625E-4, -0.024703125, 0.9955625, 192.0, 0.0, 0.0, 0.0, 0.0, 0.0, 0.0, 0.0, 0.0, 0.0, 1.644498045866604E9, 0.0, 2022-02-11 00:00:45.866
120.0, -12125.977829215268, -14609.234286455428, -10004.59611470653, -17106.57234270243, -2754.4054692274894, -3262.393565463253, -4457.429582766245, -6315.843023758295, -20932.542792861797, -18447.408789087393, -25144.505518019858, -15559.742219417361, -9290.301417148283, -13479.375955984111, -9214.551355189247, -11287.966226096896, 2.65625E-4, -0.024703125, 0.9955625, 192.0, 0.0, 0.0, 0.0, 0.0, 0.0, 0.0, 0.0, 0.0, 0.0, 1.6444980458666103E9, 0.0, 2022-02-11 00:00:45.866
122.0, -12144.015686990702, -14619.449033671503, -10012.039245610147, -17111.355616015866, -2762.7873733982296, -3275.4022807362417, -4465.431507281245, -6307.01408469845, -20932.90042077308, -18453.28729787914, -25141.197459840474, -15554.310745514722, -9295.59878058419, -13474.86090360414, -9213.009084821831, -11285.99927258483, 2.65625E-4, -0.024703125, 0.9955625, 192.0, 0.0, 0.0, 0.0, 0.0, 0.0, 0.0, 0.0, 0.0, 0.0, 1.644498045866617E9, 0.0, 2022-02-11 00:00:45.866
124.0, -12133.219794418788, -14610.150707978095, -10006.98775136325, -17112.786127661006, -2760.932178608439, -3270.462545211619, -4467.890199171329, -6320.514538349455, -20934.19682195149, -18446.738236753732, -25154.74261698039, -15566.693611942961, -9288.200353169485, -13498.374938771123, -9218.686427913479, -11288.480316219368, 2.65625E-4, -0.024703125, 0.9955625, 192.0, 0.0, 0.0, 0.0, 0.0, 0.0, 0.0, 0.0, 0.0, 0.0, 1.6444980458666236E9, 0.0, 2022-02-11 00:00:45.866
126.0, -12143.814521290604, -14628.456786686993, -10009.513498486698, -17114.663674195253, -2764.5531612101986, -3272.4965539570517, -4486.822126724974, -6321.386256383212, -20936.141423719102, -18446.782940242643, -25145.77956745381, -15560.79275140676, -9300.762033553367, -13517.597439002686, -9214.73016914489, -11291.341339509647, 0.006, -0.028, 1.002, 192.0, 0.0, 24.0, 127.5, 16.0, 15.5, 40.0, 0.0, 0.0, 0.0, 1.64449804586663E9, 0.0, 2022-02-11 00:00:45.866
