%OpenBCI Raw EEG Data
%Number of channels = 16
%Sample Rate = 125 Hz
%Board = OpenBCI_GUI$BoardCytonSerialDaisy
Sample Index, EXG Channel 0, EXG Channel 1, EXG Channel 2, EXG Channel 3, EXG Channel 4, EXG Channel 5, EXG Channel 6, EXG Channel 7, EXG Channel 8, EXG Channel 9, EXG Channel 10, EXG Channel 11, EXG Channel 12, EXG Channel 13, EXG Channel 14, EXG Channel 15, Accel Channel 0, Accel Channel 1, Accel Channel 2, Other, Other, Other, Other, Other, Other, Other, Analog Channel 0, Analog Channel 1, Analog Channel 2, Timestamp, Other, Timestamp (Formatted)
0.0, -10154.218692090357, -12382.017061950812, -8639.530377332017, -14545.35300080216, -2919.67426773003, -3112.2568979569555, -3890.3211224461943, -4907.347846907121, 0.0, 0.0, 0.0, 0.0, 0.0, 0.0, 0.0, 0.0, 0.005, -0.01, 0.495, 192.0, 0.0, 40.0, 127.5, 48.0, 15.0, 120.0, 0.0, 0.0, 0.0, 1.6444981776290972E9, 0.0, 2022-02-11 00:02:57.629
162.0, -10161.147732871501, -12386.554466075238, -8638.681011042716, -14545.800035691267, -2910.1971280809794, -3110.245240955978, -3889.9634945349094, -4911.013532997791, -18110.880924568286, -15475.20792188739, -23160.385866211163, -13303.892410265496, -9353.087467323241, -13183.505914629211, -7910.930563322373, -9015.397312092462, 0.005, -0.01, 0.495, 192.0, 0.0, 0.0, 0.0, 0.0, 0.0, 0.0, 0.0, 0.0, 0.0, 1.6444981776291056E9, 0.0, 2022-02-11 00:02:57.629
164.0, -10166.176875373945, -12392.924713245, -8633.204833651165, -14545.7329804579, -2895.7802529073065, -3099.7399210619833, -3880.5087066303145, -4902.251649171311, -18104.175401231696, -15475.476142820853, -23143.420892169583, -13292.493020593289, -9358.653051692612, -13173.872312768974, -7901.006388784217, -9008.73649224478, 0.005, -0.01, 0.495, 192.0, 0.0, 0.0, 0.0, 0.0, 0.0, 0.0, 0.0, 0.0, 0.0, 1.6444981776291127E9, 0.0, 2022-02-11 00:02:57.629
166.0, -10190.272055896767, -12411.253143698352, -8639.99976396558, -14550.493902026881, -2892.6510086835633, -3101.751578062961, -3882.632122353569, -4901.357579393099, -18115.552439159448, -15480.170009156467, -23153.121549263185, -13304.138279454504, -9351.545196955823, -13171.99476623473, -7896.4019294264235, -9004.579067776092, 0.005, -0.01, 0.495, 192.0, 0.0, 0.0, 0.0, 0.0, 0.0, 0.0, 0.0, 0.0, 0.0, 1.6444981776292603E9, 0.0, 2022-02-11 00:02:57.629
168.0, -10193.043672209224, -12427.50286191736, -8630.723790016627, -14547.454064780959, -2880.7598806333403, -3086.306522644344, -3876.105412972619, -4890.114651932079, -18115.172459503705, -15484.282730136245, -23155.11085451971, -13307.02165448924, -9345.778446886356, -13163.36699287498, -7896.603095126521, -9003.483832297783, 0.005, -0.01, 0.495, 192.0, 0.0, 0.0, 0.0, 0.0, 0.0, 0.0, 0.0, 0.0, 0.0, 1.644498177629268E9, 0.0, 2022-02-11 00:02:57.629
170.0, -10238.797693109238, -12462.528045478826, -8638.591604064895, -14553.153759617062, -2880.1787352775023, -3085.6136185662294, -3889.650570112535, -4895.657884556996, -18129.49992769956, -15486.16027667049, -23154.462653930506, -13307.87102077854, -9337.150673526607, -13155.834454993541, -7888.422356655879, -8998.834669451078, 0.0085, -0.016, 0.7435, 192.0, 0.0, 48.0, 127.5, 40.0, 15.5, 0.0, 0.0, 0.0, 0.0, 1.644498177629275E9, 0.0, 2022-02-11 00:02:57.629
172.0, -10238.864748342605, -12479.381260798129, -8636.311726130454, -14550.225681093418, -2864.219589736413, -3077.946970218059, -3855.1171249290855, -4878.424689581953, -18143.31330577294, -15500.644207077528, -23181.44120948806, -13326.490023909811, -9338.89410959412, -13159.589548062033, -7886.813031055097, -9000.064015396121, 0.0085, -0.016, 0.7435, 192.0, 0.0, 0.0, 0.0, 0.0, 0.0, 0.0, 0.0, 0.0, 0.0, 1.644498177629282E9, 0.0, 2022-02-11 00:02:57.629
174.0, -10266.580911467185, -12475.8943886631, -8634.076551684922, -14548.862224681643, -2848.506313384332, -3067.508705557431, -3857.754630774812, -4878.558800048685, -18137.25598302555, -15484.97563421436, -23169.86300586021, -13317.325808683136, -9310.529745880336, -13133.259193093681, -7875.74891754972, -8990.050433880144, 0.0085, -0.016, 0.7435, 192.0, 0.0, 0.0, 0.0, 0.0, 0.0, 0.0, 0.0, 0.0, 0.0, 1.6444981776292892E9, 0.0, 2022-02-11 00:02:57.629
176.0, -10314.681865535005, -12517.043950205321, -8643.79956052298, -14556.26065209635, -2862.610264135631, -3085.121880188213, -3874.0937559716413, -4901.692855559928, -18160.12181760333, -15490.563570328186, -23173.662802417613, -13336.458901936878, -9339.832882861243, -13160.349507373514, -7881.22509494127, -8997.515916528215, 0.0085, -0.016, 0.7435, 192.0, 0.0, 0.0, 0.0, 0.0, 0.0, 0.0, 0.0, 0.0, 0.0, 1.644498177629296E9, 0.0, 2022-02-11 00:02:57.629
178.0, -10296.442842059474, -12514.071168192766, -8637.474016842129, -14545.710628713445, -2851.702612841441, -3071.6214265372073, -3850.4456103379266, -4876.278922114244, -18161.865253670843, -15507.617951347585, -23181.26239553242, -13325.01480877576, -9334.04378104732, -13163.478751597257, -7881.761536808198, -8998.25352409524, 0.0085, -0.016, 0.7435, 192.0, 0.0, 0.0, 0.0, 0.0, 0.0, 0.0, 0.0, 0.0, 0.0, 1.6444981776293027E9, 0.0, 2022-02-11 00:02:57.629
180.0, -10282.31653956372, -12505.868077977668, -8637.026981953024, -14546.716457213934, -2854.6753948539967, -3072.6496067821513, -3866.203590178918, -4884.2808466292445, -18159.898300158777, -15503.013491989792, -23170.8688343607, -13310.419119646445, -9329.349914711704, -13153.040486936628, -7874.966606493785, -8991.212724591818, 0.012, -0.022, 0.988, 192.0, 0.0, 48.0, 127.5, 40.0, 15.0, 112.0, 0.0, 0.0, 0.0, 1.6444981776293104E9, 0.0, 2022-02-11 00:02:57.629
182.0, -10276.482734260886, -12482.778725955335, -8636.37878136382, -14545.30829731325, -2852.5296273862873, -3073.946007960559, -3854.8936074845324, -4892.483936844342, -18151.806968665955, -15504.131079212557, -23174.24394777345, -13312.564887114155, -9317.972876783953, -13136.947230928807, -7877.246484428226, -8998.946428173354, 0.012, -0.022, 0.988, 192.0, 0.0, 0.0, 0.0, 0.0, 0.0, 0.0, 0.0, 0.0, 0.0, 1.6444981776293175E9, 0.0, 2022-02-11 00:02:57.629
184.0, -10254.17569329449, -12460.382278011117, -8627.907470215257, -14540.279154810805, -2843.9689092599046, -3064.401813078143, -3854.4689243398816, -4881.084547172135, -18148.58831746439, -15496.77735528676, -23157.63660164316, -13310.843802791096, -9302.55017310979, -13145.46324556628, -7871.256216914203, -8992.844401937056, 0.012, -0.022, 0.988, 192.0, 0.0, 0.0, 0.0, 0.0, 0.0, 0.0, 0.0, 0.0, 0.0, 1.644498177629325E9, 0.0, 2022-02-11 00:02:57.629
186.0, -10244.586794923163, -12442.299716746775, -8633.450702840175, -14543.140178101085, -2845.0417929937594, -3081.187973164079, -3861.912055243499, -4891.858087999593, -18147.269564541526, -15496.486782608841, -23162.77750286788, -13307.87102077854, -9314.865984304666, -13140.612917019478, -7871.122106447471, -8996.241867094262, 0.012, -0.022, 0.988, 192.0, 0.0, 0.0, 0.0, 0.0, 0.0, 0.0, 0.0, 0.0, 0.0, 1.6444981776293316E9, 0.0, 2022-02-11 00:02:57.629
188.0, -10221.922126045481, -12426.206460738953, -8625.292316113988, -14533.953611129953, -2821.8406822491506, -3060.9372926875703, -3855.0500696957197, -4887.2536286418, -18135.49019521358, -15474.269148620268, -23153.210956241008, -13290.77193627023, -9298.951542252487, -13134.846166950008, -7865.489466844734, -8993.604361248537, 0.012, -0.022, 0.988, 192.0, 0.0, 0.0, 0.0, 0.0, 0.0, 0.0, 0.0, 0.0, 0.0, 1.6444981776293385E9, 0.0, 2022-02-11 00:02:57.629
190.0, -10224.35846619111, -12417.064597256733, -8625.873461469826, -14539.429788521504, -2823.7405805278518, -3058.791525219861, -3857.821686008178, -4890.2711141432665, -18130.952791089152, -15463.227386859346, -23130.211011196498, -13277.740869252786, -9294.54824859479, -13122.30683831058, -7859.0074609526955, -8989.983378646777, 0.012, -0.028, 0.988, 192.0, 0.0, 48.0, 127.5, 16.0, 15.0, 112.0, 0.0, 0.0, 0.0, 1.644498177629345E9, 0.0, 2022-02-11 00:02:57.629
192.0, -10213.07083524118, -12406.112242473631, -8627.460435326151, -14540.413265277537, -2825.193443917447, -3051.013118149414, -3845.550578302214, -4876.927122703448, -18134.976105091107, -15476.705488765896, -23149.8134910838, -13290.123735681027, -9286.389861868603, -13104.313684024059, -7861.086173187038, -8989.715157713314, 0.012, -0.028, 0.988, 192.0, 0.0, 0.0, 0.0, 0.0, 0.0, 0.0, 0.0, 0.0, 0.0, 1.6444981776293776E9, 0.0, 2022-02-11 00:02:57.629
194.0, -10187.120459928568, -12380.11716367211, -8611.367179318331, -14528.611544205136, -2806.373275086078, -3037.8032371763275, -3827.3786100600496, -4856.564683504664, -18119.39693920576, -15462.132151381034, -23132.602647853215, -13278.143200652981, -9286.725138035434, -13112.44971900579, -7855.989975451229, -8977.10877384052, 0.012, -0.028, 0.988, 192.0, 0.0, 0.0, 0.0, 0.0, 0.0, 0.0, 0.0, 0.0, 0.0, 1.6444981776293848E9, 0.0, 2022-02-11 00:02:57.629
196.0, -10184.170029660467, -12365.63323326507, -8610.651923495761, -14526.644590693068, -2804.071045407182, -3033.9363853855593, -3834.2405956078287, -4859.91744517296, -18108.690453611667, -15443.915479649959, -23123.61724658218, -13261.357040567047, -9273.202332639972, -13116.45068126329, -7846.423428824357, -8971.431430748873, 0.012, -0.028, 0.988, 192.0, 0.0, 0.0, 0.0, 0.0, 0.0, 0.0, 0.0, 0.0, 0.0, 1.644498177629392E9, 0.0, 2022-02-11 00:02:57.629
198.0, -10165.193398617912, -12353.540939514749, -8603.499365270063, -14518.329741755695, -2783.127460852559, -3020.5253387123753, -3809.787787173723, -4856.095296871102, -18105.427098921195, -15450.86687217556, -23116.218819167476, -13254.226834085803, -9262.384088323604, -13090.679119906321, -7841.818969466564, -8969.77740165918, 0.012, -0.028, 0.988, 192.0, 0.0, 0.0, 0.0, 0.0, 0.0, 0.0, 0.0, 0.0, 0.0, 1.6444981776293988E9, 0.0, 2022-02-11 00:02:57.629
200.0, -10163.896997439504, -12349.025887134778, -8608.707321728149, -14518.530907455792, -2788.670693477475, -3032.9305568850705, -3820.203700089896, -4864.2089801083785, -18106.209409977128, -15440.473311003841, -23104.99824345091, -13249.264746816725, -9251.811713196244, -13080.665538390343, -7833.727637973743, -8969.151552814432, 0.01, -0.026000000000000002, 0.986, 192.0, 0.0, 40.0, 127.5, 24.0, 15.0, 104.0, 0.0, 0.0, 0.0, 1.6444981776294055E9, 0.0, 2022-02-11 00:02:57.629
202.0, -10154.106933368079, -12331.926802626467, -8608.41674905023, -14517.569782444214, -2786.4355190319443, -3022.7828649023613, -3832.206586862396, -4861.3926603070095, -18103.527200642493, -15438.10402609158, -23111.301435387308, -13240.748732179252, -9252.63872774109, -13070.048459774072, -7838.622670009455, -8972.213741804808, 0.01, -0.026000000000000002, 0.986, 192.0, 0.0, 0.0, 0.0, 0.0, 0.0, 0.0, 0.0, 0.0, 0.0, 1.644498177629413E9, 0.0, 2022-02-11 00:02:57.629
204.0, -10124.736741153805, -12303.137755768032, -8597.062062866935, -14505.231619504884, -2762.2732832757574, -3012.4563589640093, -3798.0531213346867, -4853.636604981018, -18094.944130771655, -15420.781424138717, -23095.0517171683, -13239.608793212032, -9233.818558909721, -13097.384643242913, -7826.530376259134, -8961.529607955172, 0.01, -0.026000000000000002, 0.986, 192.0, 0.0, 0.0, 0.0, 0.0, 0.0, 0.0, 0.0, 0.0, 0.0, 1.6444981776294196E9, 0.0, 2022-02-11 00:02:57.629
206.0, -10140.628831461529, -12310.714997138382, -8603.767586203527, -14511.847735863656, -2766.341300766623, -3017.038466577347, -3808.2231650618514, -4857.4587532828755, -18093.29010168196, -15423.396578239988, -23092.23539736693, -13222.196784281348, -9221.525099459303, -13075.25641623216, -7821.3224198010475, -8963.809485889613, 0.01, -0.026000000000000002, 0.986, 192.0, 0.0, 0.0, 0.0, 0.0, 0.0, 0.0, 0.0, 0.0, 0.0, 1.6444981776294267E9, 0.0, 2022-02-11 00:02:57.629
208.0, -10138.036029104715, -12299.874401077557, -8601.241839080076, -14508.852602106645, -2763.9049606209946, -3007.0025333169147, -3814.1240255980524, -4865.795953964705, -18094.81002030492, -15428.96216260936, -23091.18486537753, -13224.275496515691, -9233.662096698536, -13064.661689360344, -7824.652829724888, -8965.709384168315, 0.01, -0.026000000000000002, 0.986, 192.0, 0.0, 0.0, 0.0, 0.0, 0.0, 0.0, 0.0, 0.0, 0.0, 1.6444981776294336E9, 0.0, 2022-02-11 00:02:57.629
210.0, -10131.643430190496, -12307.697511636916, -8606.650961238262, -14511.154831785541, -2774.2985217927126, -3010.4894054519423, -3828.652659494002, -4874.669596513462, -18096.553456372436, -15418.702711904374, -23077.9973361489, -13220.18512728037, -9226.062503583731, -13057.956166023752, -7829.436103038323, -8966.759916157713, 0.008, -0.02, 0.988, 192.0, 0.0, 32.0, 127.5, 48.0, 15.0, 112.0, 0.0, 0.0, 0.0, 1.6444981776294403E9, 0.0, 2022-02-11 00:02:57.629
212.0, -10116.444243960887, -12280.964825268367, -8602.51588851403, -14508.606732917635, -2772.0409956027265, -3009.1930042735344, -3837.526302042759, -4877.865895970571, -18095.368813916306, -15407.504487932265, -23089.28496709883, -13220.386292980469, -9226.82246289521, -13051.854139787452, -7832.386533306424, -8967.63163419147, 0.008, -0.02, 0.988, 192.0, 0.0, 0.0, 0.0, 0.0, 0.0, 0.0, 0.0, 0.0, 0.0, 1.6444981776294472E9, 0.0, 2022-02-11 00:02:57.629
214.0, -10121.540441696698, -12268.649014073493, -8594.513963999028, -14511.49010795237, -2757.2664925177687, -3001.6157629031854, -3825.9928019038207, -4860.498590528798, -18090.764354558512, -15406.498659431776, -23073.057600624277, -13209.098662030538, -9208.739901630868, -13053.44111364378, -7826.642134981411, -8966.58110220207, 0.008, -0.02, 0.988, 192.0, 0.0, 0.0, 0.0, 0.0, 0.0, 0.0, 0.0, 0.0, 0.0, 1.6444981776294541E9, 0.0, 2022-02-11 00:02:57.629
216.0, -10133.543328469197, -12290.754889339792, -8604.12521411481, -14513.34530274216, -2764.1508298100034, -3004.633248404652, -3816.3368482991277, -4870.422765066954, -18100.420308163204, -15419.708540404861, -23080.52308327235, -13213.770176621698, -9213.187898777473, -13053.44111364378, -7823.110559357472, -8966.938730113356, 0.008, -0.02, 0.988, 192.0, 0.0, 0.0, 0.0, 0.0, 0.0, 0.0, 0.0, 0.0, 0.0, 1.6444981776294613E9, 0.0, 2022-02-11 00:02:57.629
218.0, -10116.824223616628, -12269.028993729235, -8599.833679179392, -14504.046977048753, -2748.8845883470285, -2985.0307685173475, -3817.4767872663488, -4852.049631124692, -18098.945093029153, -15416.780461881217, -23079.763123960867, -13207.466984685301, -9203.844869595156, -13051.407104898348, -7819.69074245581, -8960.546131199138, 0.008, -0.02, 0.988, 192.0, 0.0, 0.0, 0.0, 0.0, 0.0, 0.0, 0.0, 0.0, 0.0, 1.6444981776294682E9, 0.0, 2022-02-11 00:02:57.629
220.0, -10114.030255559714, -12261.384697125519, -8602.717054214127, -14502.504706681337, -2744.6377569005203, -2984.181402228046, -3813.207604075385, -4859.29159632821, -18097.49222963956, -15407.124508276524, -23071.761199445868, -13198.883914814463, -9204.20249750644, -13058.53731137959, -7814.169861575349, -8955.516988696694, 0.008, -0.022, 0.984, 192.0, 0.0, 32.0, 127.5, 40.0, 15.0, 96.0, 0.0, 0.0, 0.0, 1.644498177629475E9, 0.0, 2022-02-11 00:02:57.629
222.0, -10108.263505490244, -12265.229197171831, -8598.51492625653, -14501.29771248075, -2728.812721826163, -2972.782012555839, -3795.326208511139, -4848.830979923127, -18093.468915637604, -15413.226534512823, -23082.691202484515, -13199.398004936935, -9192.311369456216, -13039.024238470107, -7809.2301260507265, -8953.48297995126, 0.008, -0.022, 0.984, 192.0, 0.0, 0.0, 0.0, 0.0, 0.0, 0.0, 0.0, 0.0, 0.0, 1.6444981776294823E9, 0.0, 2022-02-11 00:02:57.629
224.0, -10088.348101180567, -12239.345877092586, -8585.953245872646, -14495.016872288808, -2709.5902215945985, -2961.427326372543, -3798.075473079142, -4834.034125093714, -18080.169627686697, -15383.498714387264, -23054.773873659837, -13179.951987260818, -9171.546598857236, -13014.794947480554, -7794.701492154777, -8941.971831556777, 0.008, -0.022, 0.984, 192.0, 0.0, 0.0, 0.0, 0.0, 0.0, 0.0, 0.0, 0.0, 0.0, 1.644498177629495E9, 0.0, 2022-02-11 00:02:57.629
226.0, -10101.692092620384, -12236.127225891021, -8595.788013432983, -14502.236485747873, -2720.9896112668052, -2975.955960268493, -3801.294124280706, -4852.608424736074, -18081.06369746491, -15389.690147601385, -23053.253955036875, -13186.702214086321, -9167.52328485528, -13011.017502667608, -7794.187402032305, -8945.570462414082, 0.008, -0.022, 0.984, 192.0, 0.0, 0.0, 0.0, 0.0, 0.0, 0.0, 0.0, 0.0, 0.0, 1.6444981776295016E9, 0.0, 2022-02-11 00:02:57.629
228.0, -10085.598836612564, -12230.382827566007, -8588.948379629657, -14498.973131057399, -2707.936192504906, -2966.791745041817, -3789.805327630678, -4833.162407059956, -18082.561264343414, -15397.557961649652, -23059.020705106344, -13192.290150200148, -9160.057802207208, -13018.125357404395, -7797.853088122975, -8953.013593317699, 0.008, -0.022, 0.984, 192.0, 0.0, 0.0, 0.0, 0.0, 0.0, 0.0, 0.0, 0.0, 0.0, 1.6444981776295085E9, 0.0, 2022-02-11 00:02:57.629
230.0, -10092.751394838262, -12240.061132915156, -8592.658769209238, -14495.352148455639, -2703.5999540805765, -2956.0629077032695, -3779.36706297005, -4822.880604610516, -18082.67302306569, -15405.492830931287, -23056.159681816065, -13178.521475615678, -9157.688517294946, -13021.746340006155, -7787.839506606997, -8940.876596078468, 0.004, -0.024, 0.994, 192.0, 0.0, 16.0, 127.5, 32.0, 15.5, 8.0, 0.0, 0.0, 0.0, 1.6444981776295152E9, 0.0, 2022-02-11 00:02:57.629
232.0, -10100.865078075538, -12238.340048592097, -8594.737481443583, -14496.268569978307, -2701.610648824054, -2944.082372675225, -3795.4826707223265, -4831.418970992443, -18084.751735300033, -15399.279045972711, -23060.80884466277, -13180.779001805664, -9161.130685941063, -13015.018464925108, -7792.01928282014, -8943.849378091023, 0.004, -0.024, 0.994, 192.0, 0.0, 0.0, 0.0, 0.0, 0.0, 0.0, 0.0, 0.0, 0.0, 1.644498177629522E9, 0.0, 2022-02-11 00:02:57.629
234.0, -10079.876790032005, -12218.17877509341, -8587.897847640259, -14497.564971156715, -2693.9887039647942, -2940.3943348400994, -3779.1211937810417, -4831.821302392638, -18083.589444588357, -15374.937996260882, -23053.477472481427, -13177.60505409301, -9153.218168403884, -13004.04375839755, -7792.958056087263, -8937.881462321457, 0.004, -0.024, 0.994, 192.0, 0.0, 0.0, 0.0, 0.0, 0.0, 0.0, 0.0, 0.0, 0.0, 1.6444981776295714E9, 0.0, 2022-02-11 00:02:57.629
236.0, -10103.144956009979, -12224.236097840798, -8592.524658742506, -14501.655340392035, -2701.6777040574198, -2952.7548495238843, -3783.949170583388, -4845.411163021465, -18084.975252744585, -15382.828162053605, -23047.062521822754, -13181.628368094965, -9143.271642121274, -13010.078729400484, -7792.443965964791, -8944.139950768942, 0.004, -0.024, 0.994, 192.0, 0.0, 0.0, 0.0, 0.0, 0.0, 0.0, 0.0, 0.0, 0.0, 1.644498177629579E9, 0.0, 2022-02-11 00:02:57.629
238.0, -10081.664929588429, -12224.303153074165, -8583.65101619375, -14491.574703642691, -2684.556267804655, -2944.2388348864124, -3775.9248943239327, -4836.157540816968, -18079.499075353036, -15385.80094406616, -23052.56105095876, -13173.469981368778, -9129.055932647698, -13001.47330778519, -7790.722881641732, -8942.821197846079, 0.004, -0.024, 0.994, 192.0, 0.0, 0.0, 0.0, 0.0, 0.0, 0.0, 0.0, 0.0, 0.0, 1.644498177629586E9, 0.0, 2022-02-11 00:02:57.629
240.0, -10088.795136069672, -12218.871679171525, -8589.596580218862, -14497.363805456616, -2685.4279858384116, -2941.4895703184093, -3786.631379918025, -4828.110912813057, -18080.6166625758, -15391.835915069094, -23039.41822521904, -13163.523455086168, -9134.465054805882, -12999.260485084116, -7783.615026904944, -8939.58019490006, 0.008, -0.026000000000000002, 0.99, 192.0, 0.0, 32.0, 127.5, 24.0, 15.0, 120.0, 0.0, 0.0, 0.0, 1.6444981776295931E9, 0.0, 2022-02-11 00:02:57.629
242.0, -10095.321845450622, -12223.073807129122, -8596.816193677925, -14495.329796711183, -2685.584448049599, -2941.1095906626692, -3797.8072521456784, -4838.951508873882, -18089.57971210238, -15400.687205873395, -23050.37058000214, -13172.5088563572, -9134.621517017069, -13009.318770089003, -7790.856992108464, -8944.8105031026, 0.008, -0.026000000000000002, 0.99, 192.0, 0.0, 0.0, 0.0, 0.0, 0.0, 0.0, 0.0, 0.0, 0.0, 1.6444981776296E9, 0.0, 2022-02-11 00:02:57.629
244.0, -10076.501676619253, -12213.864888413536, -8591.65294070875, -14494.368671699605, -2674.229761866303, -2936.862759216161, -3790.9005631089885, -4839.8455786520935, -18092.15016271474, -15393.311130203145, -23045.408492733062, -13162.897606241419, -9119.109406365085, -12996.600627493934, -7783.860896093953, -8938.395552443928, 0.008, -0.026000000000000002, 0.99, 192.0, 0.0, 0.0, 0.0, 0.0, 0.0, 0.0, 0.0, 0.0, 0.0, 1.6444981776296067E9, 0.0, 2022-02-11 00:02:57.629
246.0, -10092.505525649254, -12208.902801144457, -8596.235048322087, -14496.693253122958, -2679.616532280032, -2947.569244810253, -3777.198943757885, -4841.186683319412, -18092.53014237048, -15382.179961464402, -23044.648533421583, -13167.233844665749, -9126.485482035338, -13000.467479284702, -7781.916294326341, -8940.943651311833, 0.008, -0.026000000000000002, 0.99, 192.0, 0.0, 0.0, 0.0, 0.0, 0.0, 0.0, 0.0, 0.0, 0.0, 1.6444981776296139E9, 0.0, 2022-02-11 00:02:57.629
248.0, -10080.703804576851, -12200.65500744045, -8584.858010394337, -14482.522247138293, -2663.322110572113, -2920.858910186161, -3767.9676732978432, -4821.986534832303, -18091.85959003682, -15389.511333645742, -23040.111129297155, -13161.51179808519, -9114.99668538531, -12983.144877331839, -7783.8161926050425, -8931.600622129516, 0.007, -0.024, 0.992, 192.0, 0.0, 24.0, 127.5, 40.0, 15.5, 8.0, 0.0, 0.0, 0.0, 1.6444981776296208E9, 0.0, 2022-02-11 00:02:57.629
250.0, -10075.093516718569, -12188.272141012209, -8586.042652850469, -14488.512514652315, -2660.8857704264847, -2911.515881003843, -3772.3709669555387, -4823.931136599915, -18086.070488222897, -15376.14499046147, -23029.27053323633, -13142.64692576491, -9105.56424922517, -12954.17701651776, -7780.821058848031, -8926.43736916034, 0.007, -0.024, 0.992, 192.0, 0.0, 0.0, 0.0, 0.0, 0.0, 0.0, 0.0, 0.0, 0.0, 1.6444981776296277E9, 0.0, 2022-02-11 00:02:57.629
252.0, -10077.149877208458, -12193.010710836734, -8590.46829825262, -14488.020776274298, -2655.6331104794876, -2913.48283451591, -3771.3427867105947, -4826.590994190096, -18086.919854512198, -15379.833028296594, -23034.41143446105, -13155.946213715819, -9099.238705544318, -12945.973926302664, -7781.402204203869, -8932.427636674362, 0.007, -0.024, 0.992, 192.0, 0.0, 0.0, 0.0, 0.0, 0.0, 0.0, 0.0, 0.0, 0.0, 1.6444981776296346E9, 0.0, 2022-02-11 00:02:57.629
254.0, -10072.746583550761, -12184.092364799068, -8586.55674297294, -14482.321081438195, -2647.1170958420153, -2916.500320017376, -3753.461391146349, -4821.00305807627, -18084.505866111027, -15377.486095128786, -23028.488222180396, -13144.323306599059, -9099.462222988872, -12972.259577782104, -7772.997948288674, -8927.174976727365, 0.007, -0.024, 0.992, 192.0, 0.0, 0.0, 0.0, 0.0, 0.0, 0.0, 0.0, 0.0, 0.0, 1.6444981776296425E9, 0.0, 2022-02-11 00:02:57.629
0.0, -10075.94288300787, -12178.571483918606, -8595.139812843778, -14498.928427568488, -2660.9751774043057, -2922.1106078756584, -3772.0356907887094, -4832.022468092736, -18088.842104535353, -15375.09445847207, -23030.678693137015, -13151.274699124659, -9092.711996163369, -12966.626938179368, -7777.0659657795395, -8936.00391578721, 0.007, -0.024, 0.992, 192.0, 0.0, 0.0, 0.0, 0.0, 0.0, 0.0, 0.0, 0.0, 0.0, 1.644498177629655E9, 0.0, 2022-02-11 00:02:57.629
2.0, -10072.23249342829, -12174.88344608348, -8587.160240073234, -14491.284130964772, -2649.9557673878394, -2910.3982937810774, -3755.204827213863, -4814.968087073336, -18089.892636524753, -15360.990507720771, -23042.122786298132, -13150.760609002187, -9094.142507808509, -12966.09049631244, -7787.884210095908, -8939.356677455507, 0.0075, -0.025, 0.991, 192.0, 0.0, 32.0, 127.5, 24.0, 15.0, 120.0, 0.0, 0.0, 0.0, 1.6444981776296616E9, 0.0, 2022-02-11 00:02:57.629
4.0, -10082.715461577829, -12186.484001455785, -8585.03682434998, -14488.937197796966, -2655.4095930349345, -2910.912383903549, -3773.1532780114744, -4826.456883723365, -18087.34453765685, -15373.976871249304, -23015.725376096416, -13129.101768624994, -9089.448641472894, -12956.479246196657, -7784.263227494148, -8930.058351762098, 0.0075, -0.025, 0.991, 192.0, 0.0, 0.0, 0.0, 0.0, 0.0, 0.0, 0.0, 0.0, 0.0, 1.6444981776296685E9, 0.0, 2022-02-11 00:02:57.629
6.0, -10077.105173719547, -12181.007824064234, -8592.167030831222, -14491.462944920415, -2653.8226191786075, -2905.078578600714, -3777.0648332911533, -4830.010811091758, -18091.92664527019, -15388.594912123075, -23029.874030336625, -13137.93070768484, -9080.37383322404, -12952.679449639256, -7793.941532843296, -8935.266308220185, 0.0075, -0.025, 0.991, 192.0, 0.0, 0.0, 0.0, 0.0, 0.0, 0.0, 0.0, 0.0, 0.0, 1.6444981776296756E9, 0.0, 2022-02-11 00:02:57.629
8.0, -10066.443391614364, -12180.806658364138, -8588.568399973918, -14497.989654301366, -2647.6088342200323, -2899.155366320058, -3772.907408822466, -4824.132302300012, -18086.472819623094, -15380.190656207878, -23026.40950994605, -13138.623611762956, -9079.949150079388, -12937.36850468737, -7793.002759576173, -8935.24395647573, 0.0075, -0.025, 0.991, 192.0, 0.0, 0.0, 0.0, 0.0, 0.0, 0.0, 0.0, 0.0, 0.0, 1.6444981776296825E9, 0.0, 2022-02-11 00:02:57.629
10.0, -10090.695034348373, -12182.9747775763, -8593.374025031808, -14499.889552580065, -2650.2016365768477, -2905.3020960452673, -3764.2796354627176, -4828.803816891172, -18100.420308163204, -15382.202313208856, -23029.471698936428, -13141.819911220064, -9079.591522168103, -12945.504539669102, -7791.929875842318, -8938.976697799766, 0.0075, -0.025, 0.991, 192.0, 0.0, 0.0, 0.0, 0.0, 0.0, 0.0, 0.0, 0.0, 0.0, 1.6444981776296897E9, 0.0, 2022-02-11 00:02:57.629
12.0, -10077.082821975091, -12174.995204805757, -8585.1262313278, -14493.072270521197, -2639.5622062161215, -2902.061093099248, -3757.17178072593, -4829.541424458197, -18095.458220894125, -15379.453048640855, -23029.248181491876, -13129.682913980832, -9070.60612089707, -12946.242147236127, -7789.784108374609, -8941.0107065452, 0.00675, -0.0235, 0.9904999999999999, 192.0, 0.0, 24.0, 127.5, 40.0, 15.0, 120.0, 0.0, 0.0, 0.0, 1.644498177629697E9, 0.0, 2022-02-11 00:02:57.629
14.0, -10072.210141683834, -12166.523893657195, -8585.640321450272, -14494.100450766142, -2638.422267248901, -2893.366264506133, -3764.6149116295474, -4828.557947702164, -18097.268712195008, -15373.127504960003, -23020.26278022084, -13118.149413841893, -9061.620719626037, -12949.483150182146, -7782.184515259804, -8940.161340255898, 0.00675, -0.0235, 0.9904999999999999, 192.0, 0.0, 0.0, 0.0, 0.0, 0.0, 0.0, 0.0, 0.0, 0.0, 1.6444981776297042E9, 0.0, 2022-02-11 00:02:57.629
16.0, -10071.628996327996, -12152.218777205799, -8590.669463952716, -14500.493049680359, -2639.584557960577, -2890.8405173826836, -3780.5740571706365, -4824.780502889216, -18091.90429352573, -15364.52208334471, -23030.678693137015, -13125.12315811195, -9059.094972502586, -12944.901042568808, -7783.257398993659, -8944.251709491218, 0.00675, -0.0235, 0.9904999999999999, 192.0, 0.0, 0.0, 0.0, 0.0, 0.0, 0.0, 0.0, 0.0, 0.0, 1.6444981776297112E9, 0.0, 2022-02-11 00:02:57.629
18.0, -10066.868074759017, -12159.304280198132, -8581.84052489287, -14503.130555526086, -2622.843101363552, -2882.279799256301, -3757.864684804045, -4826.501587212275, -18092.73130807058, -15368.411286879933, -23022.185030244, -13130.129948869939, -9053.484684644305, -12930.193594717217, -7783.749137371677, -8944.207006002309, 0.00675, -0.0235, 0.9904999999999999, 192.0, 0.0, 0.0, 0.0, 0.0, 0.0, 0.0, 0.0, 0.0, 0.0, 1.6444981776297193E9, 0.0, 2022-02-11 00:02:57.629
20.0, -10091.007958770748, -12184.271178754709, -8593.865763409825, -14506.01393056082, -2632.7002206683424, -2888.6276946816083, -3751.852065545567, -4834.570566960641, -18105.091822754363, -15382.224664953312, -23029.784623358802, -13134.22031810526, -9055.272824200729, -12930.595926117412, -7783.3468059714805, -8947.62682290397, 0.00675, -0.0235, 0.9904999999999999, 192.0, 0.0, 0.0, 0.0, 0.0, 0.0, 0.0, 0.0, 0.0, 0.0, 1.644498177629726E9, 0.0, 2022-02-11 00:02:57.629
22.0, -10082.737813322285, -12180.538437430674, -8584.232161549588, -14500.761270613822, -2624.6982961533427, -2879.4634794549324, -3761.887998806, -4833.095351826591, -18107.192886733163, -15385.085688243591, -23034.746710627882, -13123.759701700175, -9051.785952065702, -12934.820405819466, -7784.039710049595, -8946.978622314766, 0.007375, -0.02475, 0.98625, 192.0, 0.0, 32.0, 127.5, 24.0, 15.0, 88.0, 0.0, 0.0, 0.0, 1.6444981776297328E9, 0.0, 2022-02-11 00:02:57.629
24.0, -10083.788345311683, -12179.331443230087, -8587.517867984518, -14507.265628250318, -2617.23281350527, -2885.4537469689544, -3773.488554178304, -4831.016639592247, -18104.57773263189, -15383.968101020826, -23020.151021498565, -13118.12706209744, -9045.996850251777, -12927.064350493474, -7782.050404793073, -8948.520892682183, 0.007375, -0.02475, 0.98625, 192.0, 0.0, 0.0, 0.0, 0.0, 0.0, 0.0, 0.0, 0.0, 0.0, 1.6444981776297405E9, 0.0, 2022-02-11 00:02:57.629
26.0, -10092.483173904799, -12173.810562349625, -8596.391510533274, -14515.803994632244, -2618.0598280501163, -2882.2350957673902, -3750.019222500232, -4839.040915851702, -18110.478593168093, -15389.28781620119, -23029.538754169793, -13131.046370392605, -9033.792797779179, -12927.600792360401, -7779.1223262694275, -8951.24780550573, 0.007375, -0.02475, 0.98625, 192.0, 0.0, 0.0, 0.0, 0.0, 0.0, 0.0, 0.0, 0.0, 0.0, 1.6444981776297472E9, 0.0, 2022-02-11 00:02:57.629
0.0, -4989.915190925025, -6295.77115723743, -4907.0572742292015, -8050.740724890319, -1820.974269029411, -2006.0690648638088, -2874.099060785659, -3345.989089726101, -9055.295175945184, -7690.877639159876, -11509.919048538095, -6557.331270853433, -4516.75111255063, -6458.380098149789, -3888.041244511753, -4475.1545161193035, 0.01, -0.026000000000000002, 0.984, 192.0, 0.0, 40.0, 127.5, 24.0, 15.0, 96.0, 0.0, 0.0, 0.0, 1.6444981781865795E9, 0.0, 2022-02-11 00:02:58.186
2.0, -9994.202553534813, -12593.15164007564, -9820.641257839354, -16107.225848105652, -3650.1292765294647, -4023.5375193998243, -5745.493560492225, -6703.08699644649, -17458.969945784804, -11946.158045072323, -24477.79768440696, -14313.45365207835, -8870.13332487742, -12921.811690546476, -9599.783670876464, -10846.251052171117, 0.01, -0.026000000000000002, 0.984, 192.0, 0.0, 0.0, 0.0, 0.0, 0.0, 0.0, 0.0, 0.0, 0.0, 1.644498178186743E9, 0.0, 2022-02-11 00:02:58.186
4.0, -9980.925617328361, -12577.885398612667, -9814.919211258795, -16112.053824907998, -3643.4014014484173, -4009.321809926249, -5776.853057963021, -6710.306609905554, -17457.137102739467, -11943.252318293133, -24486.693678700172, -14331.335047642595, -8864.455981785773, -12910.993446230108, -9607.115043057805, -10852.308374918506, 0.01, -0.026000000000000002, 0.984, 192.0, 0.0, 0.0, 0.0, 0.0, 0.0, 0.0, 0.0, 0.0, 0.0, 1.6444981781867657E9, 0.0, 2022-02-11 00:02:58.186
6.0, -9975.874123081461, -12561.38981120465, -9824.105778229927, -16109.572781273459, -3643.8484363375233, -4014.6638768510675, -5745.918243636876, -6706.439758114786, -17458.03117251768, -11942.2688415371, -24475.11547507232, -14323.690751038881, -8863.383098051918, -12902.008044959075, -9603.963447089607, -10847.189825438241, 0.013000000000000001, -0.033, 0.987, 192.0, 0.0, 64.0, 127.0, 96.0, 15.0, 120.0, 0.0, 0.0, 0.0, 1.644498178186773E9, 0.0, 2022-02-11 00:02:58.186
8.0, -9976.857599837494, -12558.461732681006, -9826.60917360892, -16103.560162014981, -3650.8668840964897, -4001.766920300355, -5757.004708886709, -6692.671083530317, -17460.69103010786, -11941.955917114725, -24492.080449113902, -14325.79181501768, -8875.385984824417, -12915.284981165527, -9604.924572101185, -10839.031438712054, 0.013000000000000001, -0.033, 0.987, 192.0, 0.0, 0.0, 0.0, 0.0, 0.0, 0.0, 0.0, 0.0, 0.0, 1.6444981781867797E9, 0.0, 2022-02-11 00:02:58.186
10.0, -9946.25806167818, -12548.470502909482, -9818.629600838376, -16094.865333421867, -3635.9582705447997, -3986.388920115104, -5759.3069385656045, -6688.424252083809, -17451.01272475871, -11928.477815208176, -24474.623736694306, -14313.833631734089, -8861.594958495494, -12888.93227445272, -9601.884734855263, -10827.207365895196, 0.013000000000000001, -0.033, 0.987, 192.0, 0.0, 0.0, 0.0, 0.0, 0.0, 0.0, 0.0, 0.0, 0.0, 1.644498178186787E9, 0.0, 2022-02-11 00:02:58.186
12.0, -9940.267794164158, -12519.592049073226, -9821.08829272846, -16098.039281134521, -3642.86495958149, -3990.3451788836933, -5756.557673997602, -6689.877115473404, -17451.571518370096, -11918.866565092394, -24476.031896594992, -14311.30788461064, -8852.184874079809, -12899.281132135528, -9598.37551097578, -10831.342438619427, 0.013000000000000001, -0.033, 0.987, 192.0, 0.0, 0.0, 0.0, 0.0, 0.0, 0.0, 0.0, 0.0, 0.0, 1.6444981781867943E9, 0.0, 2022-02-11 00:02:58.186
14.0, -9939.77605578614, -12523.9059357531, -9809.644199567343, -16096.765231700569, -3629.6774303528587, -3974.6542542760676, -5763.442011289837, -6694.995664953669, -17444.553070611128, -11914.507974923608, -24475.76367566153, -14323.02019870522, -8849.860292656456, -12889.446364575191, -9596.162688274704, -10831.364790363883, 0.013000000000000001, -0.033, 0.987, 192.0, 0.0, 0.0, 0.0, 0.0, 0.0, 0.0, 0.0, 0.0, 0.0, 1.6444981781868007E9, 0.0, 2022-02-11 00:02:58.186
16.0, -9915.502061307676, -12498.290836607319, -9805.442071609745, -16096.273493322551, -3617.540433113627, -3974.2072193869617, -5746.253519803706, -6709.390188382887, -17437.556974596617, -11917.346646469432, -24448.36043695932, -14299.506163538237, -8842.059533841555, -12874.694213234689, -9590.619455649789, -10832.19180490873, 0.0125, -0.0325, 0.9855, 192.0, 0.0, 48.0, 127.5, 0.0, 15.0, 96.0, 0.0, 0.0, 0.0, 1.6444981781868076E9, 0.0, 2022-02-11 00:02:58.186
18.0, -9904.415596057845, -12469.591196726704, -9809.286571656057, -16086.461077506672, -3626.1011512400096, -3982.522068324336, -5745.404153514404, -6668.262978585122, -17426.02347445768, -11895.821916558973, -24459.2233847646, -14304.557657785137, -8836.873929127923, -12869.508608521059, -9587.75843235951, -10836.103360188408, 0.0125, -0.0325, 0.9855, 192.0, 0.0, 0.0, 0.0, 0.0, 0.0, 0.0, 0.0, 0.0, 0.0, 1.6444981781868143E9, 0.0, 2022-02-11 00:02:58.186
20.0, -9894.446718030777, -12496.055662161787, -9803.341007630946, -16080.649623948291, -3602.8106335175794, -3973.8942949645875, -5747.438162259837, -6665.670176228306, -17421.530773822164, -11882.701442563706, -24441.498451411542, -14294.365262313517, -8825.809815622546, -12885.02071917304, -9585.143278258238, -10827.788511251034, 0.0125, -0.0325, 0.9855, 192.0, 0.0, 0.0, 0.0, 0.0, 0.0, 0.0, 0.0, 0.0, 0.0, 1.6444981781868212E9, 0.0, 2022-02-11 00:02:58.186
22.0, -9905.62259025843, -12497.776746484846, -9805.263257654102, -16082.549522226993, -3615.0817412235433, -3974.6542542760676, -5793.1698314153955, -6683.909199703837, -17427.945724480836, -11912.630428389362, -24443.711274112615, -14273.041698103154, -8810.118891014921, -12861.752553195067, -9583.265731723992, -10829.710761274191, 0.0125, -0.0325, 0.9855, 192.0, 0.0, 0.0, 0.0, 0.0, 0.0, 0.0, 0.0, 0.0, 0.0, 1.644498178186828E9, 0.0, 2022-02-11 00:02:58.186
24.0, -9899.252343088669, -12466.529007736328, -9803.050434953027, -16086.505780995582, -3611.4160551328728, -3958.717460479434, -5753.115505351485, -6678.9918159236695, -17422.715416278294, -11909.098852765424, -24446.259372980523, -14283.144686596954, -8840.047876840577, -12849.97318386712, -9595.46978419659, -10831.230679897151, 0.0125, -0.0325, 0.9855, 192.0, 0.0, 0.0, 0.0, 0.0, 0.0, 0.0, 0.0, 0.0, 0.0, 1.6444981781868348E9, 0.0, 2022-02-11 00:02:58.186
26.0, -9896.704244220764, -12463.824446657234, -9803.18454541976, -16093.680690965735, -3613.1371394559314, -3963.2101611149506, -5738.788037155633, -6696.493231832174, -17417.798032498125, -11890.837477545438, -24436.08932925336, -14282.340023796562, -8822.680571398803, -12825.363913221827, -9585.031519535962, -10828.168490906775, 0.01225, -0.03025, 0.98575, 192.0, 0.0, 48.0, 127.5, 16.0, 15.0, 104.0, 0.0, 0.0, 0.0, 1.644498178186842E9, 0.0, 2022-02-11 00:02:58.186
28.0, -9889.149354594869, -12466.685469947513, -9809.80066177853, -16089.411507774772, -3625.922337284367, -3969.1780768845174, -5769.901665437421, -6688.759528250638, -17426.49286109124, -11902.236867217645, -24449.992114304558, -14295.348739069552, -8824.669876655325, -12874.247178345584, -9595.715653385598, -10834.605793309904, 0.01225, -0.03025, 0.98575, 192.0, 0.0, 0.0, 0.0, 0.0, 0.0, 0.0, 0.0, 0.0, 0.0, 1.6444981781868489E9, 0.0, 2022-02-11 00:02:58.186
30.0, -9875.96182536624, -12441.27153650183, -9795.204972649213, -16084.829400161434, -3604.4870143517273, -3960.818524458233, -5766.593607258035, -6691.0841096739905, -17417.663922031395, -11885.338948409433, -24432.40129141823, -14289.805506444634, -8823.686399899292, -12864.233596829605, -9591.915856828196, -10835.902194488312, 0.01225, -0.03025, 0.98575, 192.0, 0.0, 0.0, 0.0, 0.0, 0.0, 0.0, 0.0, 0.0, 0.0, 1.6444981781868553E9, 0.0, 2022-02-11 00:02:58.186
32.0, -9896.838354687496, -12464.18207456852, -9798.22245815068, -16084.002385616588, -3612.7795115446465, -3965.4900390493917, -5761.9444444113315, -6694.593333553474, -17418.200363898322, -11887.998805999614, -24425.22638144808, -14266.671450933392, -8810.923553815312, -12856.276375803516, -9584.09274626884, -10833.778778765056, 0.01225, -0.03025, 0.98575, 192.0, 0.0, 0.0, 0.0, 0.0, 0.0, 0.0, 0.0, 0.0, 0.0, 1.644498178186862E9, 0.0, 2022-02-11 00:02:58.186
34.0, -9882.644996958375, -12454.861397130657, -9797.395443605834, -16079.487333236615, -3601.1342526834314, -3955.1188296221294, -5734.250633031205, -6666.027804139591, -17426.73873028025, -11895.956027025704, -24440.470271166596, -14267.230244544775, -8798.69714959826, -12860.813779927943, -9584.651539880222, -10830.38131360785, 0.01225, -0.03025, 0.98575, 192.0, 0.0, 0.0, 0.0, 0.0, 0.0, 0.0, 0.0, 0.0, 0.0, 1.644498178186869E9, 0.0, 2022-02-11 00:02:58.186
36.0, -9867.132886306392, -12434.320143976229, -9795.763766260598, -16083.018908860555, -3601.223659661253, -3947.8992161630654, -5775.176677128873, -6694.503926575652, -17422.20132615582, -11894.63727410284, -24429.048529749936, -14261.597604942037, -8811.50469917115, -12848.766189666532, -9582.170496245682, -10826.581517050448, 0.013125000000000001, -0.028125, 0.9878750000000001, 192.0, 0.0, 56.0, 127.5, 24.0, 15.0, 120.0, 0.0, 0.0, 0.0, 1.6444981781868775E9, 0.0, 2022-02-11 00:02:58.186
38.0, -9864.897711860862, -12424.552431649261, -9803.60922856441, -16085.097621094897, -3600.150775927398, -3946.9604428959424, -5756.557673997602, -6670.542856519563, -17418.82621274307, -11890.010463000592, -24440.045588021945, -14285.782192442679, -8814.902164328358, -12840.16076805124, -9591.111194027806, -10831.878880486356, 0.013125000000000001, -0.028125, 0.9878750000000001, 192.0, 0.0, 0.0, 0.0, 0.0, 0.0, 0.0, 0.0, 0.0, 0.0, 1.6444981781868849E9, 0.0, 2022-02-11 00:02:58.186
40.0, -9853.028935555094, -12422.898402559567, -9784.856114966407, -16075.642833190303, -3584.862182719968, -3933.616451456124, -5762.346775811527, -6689.2065631397445, -17412.54537255113, -11880.77919254055, -24430.993131517545, -14269.219549801297, -8798.630094364893, -12823.754587621044, -9582.461068923601, -10823.18405189324, 0.013125000000000001, -0.028125, 0.9878750000000001, 192.0, 0.0, 0.0, 0.0, 0.0, 0.0, 0.0, 0.0, 0.0, 0.0, 1.6444981781868916E9, 0.0, 2022-02-11 00:02:58.186
42.0, -9865.612967683432, -12422.116091503633, -9794.333254615458, -16090.663205464269, -3596.3286276255403, -3938.958518380942, -5743.057220346596, -6676.108440888935, -17407.136250392945, -11879.72866055115, -24418.498506367032, -14258.87069211849, -8782.000396490144, -12834.34931449286, -9582.528124156968, -10831.342438619427, 0.013125000000000001, -0.028125, 0.9878750000000001, 192.0, 0.0, 0.0, 0.0, 0.0, 0.0, 0.0, 0.0, 0.0, 0.0, 1.6444981781869106E9, 0.0, 2022-02-11 00:02:58.186
44.0, -9863.511903704632, -12429.291001473786, -9790.824030735974, -16085.812876917467, -3587.119708909954, -3926.6650589305236, -5736.977545854753, -6655.902463901337, -17419.11678542099, -11872.129067436346, -24439.844422321847, -14270.247730046241, -8788.147126215354, -12849.816721655932, -9573.632129863756, -10829.599002551915, 0.013125000000000001, -0.028125, 0.9878750000000001, 192.0, 0.0, 0.0, 0.0, 0.0, 0.0, 0.0, 0.0, 0.0, 0.0, 1.6444981781869173E9, 0.0, 2022-02-11 00:02:58.186
46.0, -9855.778200123095, -12410.157908220042, -9792.187487147748, -16082.504818738082, -3577.173182627342, -3913.164605279518, -5724.929955593343, -6657.869417413404, -17412.76888999568, -11883.72962280865, -24422.477116880076, -14268.660756189915, -8792.975103017701, -12826.302686488949, -9567.12777222726, -10818.959572191188, 0.0125625, -0.0250625, 0.9909375, 192.0, 0.0, 48.0, 127.5, 40.0, 15.5, 8.0, 0.0, 0.0, 0.0, 1.644498178186924E9, 0.0, 2022-02-11 00:02:58.186
48.0, -9854.794723367062, -12418.003370523855, -9791.695748769731, -16075.642833190303, -3571.89817093589, -3909.63302965558, -5730.56259519608, -6661.199827337245, -17407.91856144888, -11894.92784678076, -24430.948428028638, -14260.390610741451, -8784.436736635773, -12814.813889838922, -9568.155952472205, -10820.077159413953, 0.0125625, -0.0250625, 0.9909375, 192.0, 0.0, 0.0, 0.0, 0.0, 0.0, 0.0, 0.0, 0.0, 0.0, 1.644498178186931E9, 0.0, 2022-02-11 00:02:58.186
50.0, -9835.5722231355, -12396.389233635573, -9779.111716641393, -16070.233711032119, -3557.660109717859, -3897.138404505063, -5728.03684807263, -6653.846103411449, -17394.954549664802, -11880.756840796095, -24412.552942341918, -14240.966944809788, -8774.244341164153, -12814.389206694272, -9562.27744368046, -10811.851717454401, 0.0125625, -0.0250625, 0.9909375, 192.0, 0.0, 0.0, 0.0, 0.0, 0.0, 0.0, 0.0, 0.0, 0.0, 1.644498178186937E9, 0.0, 2022-02-11 00:02:58.186
52.0, -9840.601365637942, -12392.365919633618, -9783.380899832357, -16076.000461101588, -3568.27718833413, -3903.463948185915, -5742.029040101653, -6664.485533772175, -17400.117802633977, -11877.940520994725, -24410.697747552127, -14245.504348934217, -8764.990718959656, -12811.394072937259, -9561.852760535809, -10815.18212737824, 0.0125625, -0.0250625, 0.9909375, 192.0, 0.0, 0.0, 0.0, 0.0, 0.0, 0.0, 0.0, 0.0, 0.0, 1.6444981781869438E9, 0.0, 2022-02-11 00:02:58.186
54.0, -9832.062999256015, -12373.59045429116, -9778.441164307735, -16070.010193587566, -3556.5201707506385, -3887.5718578781916, -5735.725848165256, -6655.567187734508, -17395.28982583163, -11877.15820993879, -24418.45380287812, -14253.43921821585, -8762.152047413832, -12798.877096042288, -9562.232740191548, -10815.89738320081, 0.0125625, -0.0250625, 0.9909375, 192.0, 0.0, 0.0, 0.0, 0.0, 0.0, 0.0, 0.0, 0.0, 0.0, 1.6444981781869504E9, 0.0, 2022-02-11 00:02:58.186
56.0, -9823.569336362998, -12370.550617045239, -9775.893065439828, -16066.165693541254, -3548.7864671691023, -3882.632122353569, -5730.383781240437, -6651.3427080324545, -17392.361747307987, -11866.20585515569, -24401.3100148809, -14241.257517487707, -8743.77891347157, -12782.649729567735, -9550.252205163504, -10807.113147629876, 0.01128125, -0.02453125, 0.99146875, 192.0, 0.0, 40.0, 127.5, 32.0, 15.5, 0.0, 0.0, 0.0, 0.0, 1.644498178186957E9, 0.0, 2022-02-11 00:02:58.186
58.0, -9823.345818918446, -12365.476771053884, -9780.631635264353, -16062.120027794843, -3552.2062840707645, -3881.1569072195184, -5736.105827820997, -6657.623548224396, -17386.43853502733, -11863.68010803224, -24403.366375370788, -14239.938764564844, -8737.185148857254, -12796.77603206349, -9551.481551108545, -10810.979999420644, 0.01128125, -0.02453125, 0.99146875, 192.0, 0.0, 0.0, 0.0, 0.0, 0.0, 0.0, 0.0, 0.0, 0.0, 1.6444981781869633E9, 0.0, 2022-02-11 00:02:58.186
60.0, -9807.230211166168, -12347.371858045086, -9772.786172960541, -16057.470864948138, -3538.124685063921, -3869.936331502954, -5725.4887492047255, -6647.364097519409, -17379.68830820183, -11848.033886913525, -24397.130238667756, -14240.654020387414, -8754.887730465858, -12786.918912758698, -9547.45823710659, -10806.599057507403, 0.01128125, -0.02453125, 0.99146875, 192.0, 0.0, 0.0, 0.0, 0.0, 0.0, 0.0, 0.0, 0.0, 0.0, 1.64449817818697E9, 0.0, 2022-02-11 00:02:58.186
62.0, -9805.576182076476, -12356.178445360476, -9773.88140843885, -16052.732295123613, -3540.4269147428176, -3874.4066803940154, -5729.690877162323, -6651.163894076812, -17376.357898277987, -11840.322535076444, -24390.78234324245, -14220.716264333281, -8745.455294305719, -12785.644863324746, -9546.6535743062, -10808.94599067521, 0.01128125, -0.02453125, 0.99146875, 192.0, 0.0, 0.0, 0.0, 0.0, 0.0, 0.0, 0.0, 0.0, 0.0, 1.6444981781869764E9, 0.0, 2022-02-11 00:02:58.186
64.0, -9827.682057342776, -12367.756648988325, -9761.02915537705, -16051.79352185649, -3528.893414603879, -3854.8265522511665, -5722.918298592365, -6643.340783517455, -17379.598901224006, -11853.48771256062, -24400.10302068031, -14216.603543353503, -8736.738113968147, -12773.016127707497, -9545.379524872247, -10809.594191264414, 0.01128125, -0.02453125, 0.99146875, 192.0, 0.0, 0.0, 0.0, 0.0, 0.0, 0.0, 0.0, 0.0, 0.0, 1.644498178186983E9, 0.0, 2022-02-11 00:02:58.186
66.0, -9816.506185115122, -12356.603128505127, -9760.112733854381, -16049.737161366602, -3530.1004088044656, -3853.5748545616693, -5719.409074712882, -6648.2358155531665, -17385.835037927038, -11862.58487255393, -24386.87078796277, -14219.755139321702, -8726.456311518707, -12758.889825211743, -9540.037457947428, -10801.32404581595, 0.011640625, -0.024265625, 0.9937343750000001, 192.0, 0.0, 48.0, 127.5, 32.0, 15.5, 16.0, 0.0, 0.0, 0.0, 1.6444981781869895E9, 0.0, 2022-02-11 00:02:58.186
68.0, -9816.4167781373, -12358.033640150266, -9768.047603136016, -16051.502949178572, -3532.179121038809, -3855.8994359850212, -5723.812368370577, -6648.191112064256, -17381.185875080333, -11850.514930548065, -24396.660852034194, -14221.520927133672, -8719.01318061509, -12782.001528978531, -9539.344553869314, -10805.123842373354, 0.011640625, -0.024265625, 0.9937343750000001, 192.0, 0.0, 0.0, 0.0, 0.0, 0.0, 0.0, 0.0, 0.0, 0.0, 1.644498178186998E9, 0.0, 2022-02-11 00:02:58.186
70.0, -9806.805528021518, -12340.465169008396, -9759.866864665373, -16052.128798023321, -3519.0809987879993, -3842.0637061671864, -5712.524737420647, -6624.475911197175, -17374.547406977108, -11847.564500279965, -24386.557863540398, -14217.207040453797, -8710.586572955439, -12769.596310805835, -9538.294021879914, -10800.340569059917, 0.011640625, -0.024265625, 0.9937343750000001, 192.0, 0.0, 0.0, 0.0, 0.0, 0.0, 0.0, 0.0, 0.0, 0.0, 1.6444981781870046E9, 0.0, 2022-02-11 00:02:58.187
72.0, -9821.624734595387, -12351.573986002682, -9767.511161269089, -16051.949984067678, -3532.60380418346, -3854.33481387315, -5720.0349235576305, -6646.201806807734, -17387.265549572177, -11849.330288091933, -24394.895064222226, -14214.368368907973, -8733.027724388567, -12773.463162596603, -9540.372734114258, -10800.608789993381, 0.011640625, -0.024265625, 0.9937343750000001, 192.0, 0.0, 0.0, 0.0, 0.0, 0.0, 0.0, 0.0, 0.0, 0.0, 1.6444981781870112E9, 0.0, 2022-02-11 00:02:58.187
74.0, -9801.03877795205, -12340.01813411929, -9760.157437343292, -16046.116178764843, -3525.1383215353876, -3845.5952817911248, -5715.4528159442925, -6620.07261753948, -17384.136305348435, -11855.454666072686, -24406.383860872254, -14220.693912588826, -8728.1103406084, -12771.116229428797, -9543.725495782553, -10804.654455739792, 0.011640625, -0.024265625, 0.9937343750000001, 192.0, 0.0, 0.0, 0.0, 0.0, 0.0, 0.0, 0.0, 0.0, 0.0, 1.6444981781870177E9, 0.0, 2022-02-11 00:02:58.187
76.0, -9802.670455297286, -12353.026849392278, -9756.69291695272, -16048.55251891047, -3516.8458243424684, -3830.3513920726054, -5708.657885629879, -6627.3369344874545, -17377.788409923127, -11840.836625198917, -24384.68031700615, -14205.025339725655, -8715.906288135802, -12757.235796122051, -9533.6001555443, -10796.049034124499, 0.012, -0.032, 1.0, 192.0, 0.0, 48.0, 127.5, 0.0, 15.5, 32.0, 0.0, 0.0, 0.0, 1.644498178187024E9, 0.0, 2022-02-11 00:02:58.187
78.0, -9812.304057157524, -12344.15320684352, -9758.704573953697, -16051.435893945205, -3516.59995515346, -3825.657525736991, -5697.45966165777, -6617.748036116128, -17376.0002703667, -11855.477017817142, -24393.039869432436, -14213.854278785502, -8707.747901409615, -12744.47295003807, -9529.442731075613, -10799.602961492892, 0.012, -0.032, 1.0, 192.0, 0.0, 0.0, 0.0, 0.0, 0.0, 0.0, 0.0, 0.0, 0.0, 1.6444981781870308E9, 0.0, 2022-02-11 00:02:58.187
80.0, -9798.870658739885, -12345.270794066286, -9751.484960494634, -16048.84309158839, -3503.3900741803736, -3824.674048980957, -5687.155507463874, -6612.160100002301, -17374.413296510374, -11855.007631183582, -24387.630747274252, -14217.609371853992, -8693.86746810287, -12735.867528422777, -9523.988905428518, -10791.869257911356, 0.012, -0.032, 1.0, 192.0, 0.0, 0.0, 0.0, 0.0, 0.0, 0.0, 0.0, 0.0, 0.0, 1.6444981781870372E9, 0.0, 2022-02-11 00:02:58.187
82.0, -9792.053376681015, -12334.787825916746, -9757.430524519745, -16048.284297977007, -3507.0781120154993, -3819.823720434156, -5696.453833157281, -6620.027914050569, -17378.81659016807, -11855.834645728428, -24385.663793762185, -14215.508307875194, -8701.757633895593, -12758.554549044913, -9522.290172849915, -10798.865353925867, 0.012, -0.032, 1.0, 192.0, 0.0, 0.0, 0.0, 0.0, 0.0, 0.0, 0.0, 0.0, 0.0, 1.644498178187044E9, 0.0, 2022-02-11 00:02:58.187
84.0, -9785.951350444717, -12311.854936105603, -9752.513140739578, -16040.751760095569, -3497.355103177441, -3799.1260050685414, -5677.253684670172, -6597.631466106352, -17367.77482840715, -11841.3954188103, -24387.474285063065, -14216.312970675584, -8706.093872319922, -12740.04730463592, -9522.290172849915, -10792.47275501165, 0.012, -0.032, 1.0, 192.0, 0.0, 0.0, 0.0, 0.0, 0.0, 0.0, 0.0, 0.0, 0.0, 1.6444981781870503E9, 0.0, 2022-02-11 00:02:58.187
86.0, -9795.294379627036, -12325.489500223339, -9754.323632040458, -16041.779940340513, -3499.5902776229714, -3807.664371450469, -5692.251705199684, -6610.729588357161, -17368.53478771863, -11845.754008979084, -24375.851377946303, -14203.19249668032, -8699.276590261054, -12737.700371468112, -9515.338780324315, -10785.633121208326, 0.01, -0.03, 0.992, 192.0, 0.0, 40.0, 127.5, 8.0, 15.5, 0.0, 0.0, 0.0, 0.0, 1.6444981781870568E9, 0.0, 2022-02-11 00:02:58.187
88.0, -9812.348760646435, -12323.835471133647, -9758.369297786869, -16043.612783385848, -3504.3735509364074, -3817.074455866153, -5707.160318751374, -6621.748998373628, -17376.58141572254, -11851.073724159447, -24390.715288009083, -14202.611351324482, -8691.878162846348, -12741.589575003336, -9526.849928718797, -10798.395967292307, 0.01, -0.03, 0.992, 192.0, 0.0, 0.0, 0.0, 0.0, 0.0, 0.0, 0.0, 0.0, 0.0, 1.6444981781870635E9, 0.0, 2022-02-11 00:02:58.187
90.0, -9798.13305117286, -12324.170747300477, -9751.529663983543, -16041.243498473586, -3486.5145071166166, -3803.395188259505, -5691.290580188105, -6608.896745311827, -17380.090639602022, -11831.493596016599, -24386.3566978403, -14206.277037415151, -8687.497220933106, -12742.28247908145, -9520.054998404385, -10794.909095157278, 0.01, -0.03, 0.992, 192.0, 0.0, 0.0, 0.0, 0.0, 0.0, 0.0, 0.0, 0.0, 0.0, 1.64449817818707E9, 0.0, 2022-02-11 00:02:58.187
92.0, -9796.6131325499, -12331.39036075954, -9757.721097197664, -16041.042332773488, -3489.1296612178876, -3805.0939208381083, -5701.550030893091, -6615.959896559703, -17379.48714250173, -11846.715133990661, -24384.88148270625, -14194.989406465222, -8679.852924329392, -12724.199917817106, -9521.306696093881, -10792.80803117848, 0.01, -0.03, 0.992, 192.0, 0.0, 0.0, 0.0, 0.0, 0.0, 0.0, 0.0, 0.0, 0.0, 1.6444981781870763E9, 0.0, 2022-02-11 00:02:58.187
94.0, -9781.83862946494, -12311.944343083424, -9751.708477939186, -16041.534071151504, -3481.0383297250664, -3793.8062898881785, -5684.540353362603, -6613.747073858628, -17371.462866242277, -11841.551881021487, -24390.49177056453, -14188.306234873085, -8688.860677344881, -12725.630429462246, -9521.88784144972, -10794.193839334708, 0.01, -0.03, 0.992, 192.0, 0.0, 0.0, 0.0, 0.0, 0.0, 0.0, 0.0, 0.0, 0.0, 1.644498178187083E9, 0.0, 2022-02-11 00:02:58.187
96.0, -9779.357585830401, -12299.42736618845, -9743.818312146463, -16032.280448947007, -3479.5631145910165, -3799.617743446558, -5699.851298314488, -6608.40500693381, -17368.981822607737, -11821.412959267254, -24367.469473775564, -14208.467508371772, -8677.327177205942, -12722.925868383154, -9515.204669857583, -10784.403775263283, 0.008, -0.024, 0.994, 192.0, 0.0, 32.0, 127.5, 32.0, 15.5, 8.0, 0.0, 0.0, 0.0, 1.6444981781870897E9, 0.0, 2022-02-11 00:02:58.187
98.0, -9797.954237217216, -12312.123157039066, -9742.097227823404, -16025.865498288334, -3475.0033587221337, -3793.9627520993654, -5682.528696361625, -6605.275762710066, -17371.552273220095, -11848.3468113359, -24382.1545698827, -14185.266397627163, -8672.186275981221, -12738.99677264652, -9517.730416981032, -10787.600074720393, 0.008, -0.024, 0.994, 192.0, 0.0, 0.0, 0.0, 0.0, 0.0, 0.0, 0.0, 0.0, 0.0, 1.644498178187096E9, 0.0, 2022-02-11 00:02:58.187
100.0, -9790.84638248043, -12304.702377879905, -9735.078780064438, -16027.586582611393, -3468.2084284077205, -3778.852972847578, -5671.017547967142, -6587.819050290472, -17368.02069759616, -11847.00570666858, -24371.2022150996, -14179.052612668589, -8659.937520019714, -12712.018217088964, -9507.448614531591, -10778.61467344936, 0.008, -0.024, 0.994, 192.0, 0.0, 0.0, 0.0, 0.0, 0.0, 0.0, 0.0, 0.0, 0.0, 1.6444981781871045E9, 0.0, 2022-02-11 00:02:58.187
102.0, -9783.26914111008, -12300.500249922306, -9738.45389347719, -16033.934478036701, -3473.7516610326365, -3781.0881472931087, -5692.631684855424, -6616.026951793069, -17371.954604620292, -11843.898814189293, -24374.39851455671, -14182.606540036983, -8661.345679920398, -12698.830687860333, -9508.320332565349, -10785.297845041496, 0.008, -0.024, 0.994, 192.0, 0.0, 0.0, 0.0, 0.0, 0.0, 0.0, 0.0, 0.0, 0.0, 1.644498178187111E9, 0.0, 2022-02-11 00:02:58.187
104.0, -9776.69772824022, -12273.924025764945, -9738.051562076995, -16027.452472144661, -3468.051966196533, -3770.538123910204, -5678.147754448385, -6604.895783054327, -17359.3482207475, -11824.251630813078, -24377.572462269363, -14189.110897673476, -8638.077513942422, -12697.243714004007, -9510.622562244245, -10787.443612509205, 0.008, -0.024, 0.994, 192.0, 0.0, 0.0, 0.0, 0.0, 0.0, 0.0, 0.0, 0.0, 0.0, 1.6444981781871173E9, 0.0, 2022-02-11 00:02:58.187
106.0, -9771.959158415695, -12290.844296317613, -9732.798902129996, -16021.55161160846, -3461.860532982413, -3754.4672196468377, -5674.102088701974, -6582.879314765849, -17361.15871204838, -11811.287619029, -24361.903889406192, -14173.598787021494, -8652.941424005201, -12690.672301134146, -9504.83346043032, -10772.423240235239, 0.006, -0.028, 0.992, 192.0, 0.0, 24.0, 127.5, 16.0, 15.5, 0.0, 0.0, 0.0, 0.0, 1.644498178187124E9, 0.0, 2022-02-11 00:02:58.187
108.0, -9763.286681567035, -12287.044499760212, -9737.49276846561, -16025.351408165861, -3467.1355446738658, -3759.6528243604694, -5676.449021869782, -6593.831669548949, -17360.53286320363, -11834.57813675143, -24373.16916861167, -14172.101220142988, -8647.599357080384, -12680.859885318267, -9506.35337905328, -10776.044222837, 0.006, -0.028, 0.992, 192.0, 0.0, 0.0, 0.0, 0.0, 0.0, 0.0, 0.0, 0.0, 0.0, 1.6444981781871305E9, 0.0, 2022-02-11 00:02:58.187
110.0, -9774.574312516967, -12281.05423224619, -9731.949535840695, -16021.529259864004, -3455.1997131347316, -3762.2679784617403, -5662.412126351849, -6589.1825067022455, -17359.43762772532, -11828.900793659783, -24370.06227613238, -14175.722202744748, -8645.028906468024, -12688.995920299998, -9501.391291784203, -10773.160847802264, 0.006, -0.028, 0.992, 192.0, 0.0, 0.0, 0.0, 0.0, 0.0, 0.0, 0.0, 0.0, 0.0, 1.644498178187137E9, 0.0, 2022-02-11 00:02:58.187
112.0, -9787.203048134214, -12293.05711901869, -9744.019477846561, -16026.826623299912, -3456.898445713335, -3760.1892662273967, -5673.275074157128, -6593.943428271226, -17364.71263941677, -11832.745293706095, -24369.88346217674, -14176.437458567318, -8641.542034332995, -12695.589684914314, -9499.379634783225, -10773.18319954672, 0.006, -0.028, 0.992, 192.0, 0.0, 0.0, 0.0, 0.0, 0.0, 0.0, 0.0, 0.0, 0.0, 1.6444981781871436E9, 0.0, 2022-02-11 00:02:58.187
114.0, -9779.31288234149, -12291.604255629094, -9743.214815046169, -16027.452472144661, -3450.0364601655556, -3739.8044752841565, -5665.831943253511, -6585.405061889299, -17364.466770227762, -11836.410979796765, -24382.221625116068, -14184.61819703796, -8630.455569083164, -12663.067896731842, -9505.816937186353, -10773.853751880379, 0.006, -0.028, 0.992, 192.0, 0.0, 0.0, 0.0, 0.0, 0.0, 0.0, 0.0, 0.0, 0.0, 1.6444981781871505E9, 0.0, 2022-02-11 00:02:58.187
116.0, -9768.807562447497, -12276.025089743745, -9735.347000997901, -16025.574925610415, -3444.0461926515336, -3744.945376508877, -5663.954396719265, -6591.417681147776, -17362.164540548867, -11825.972715136137, -24366.933031908637, -14180.639586524914, -8642.480807600119, -12675.048431759888, -9497.725605693533, -10766.120048298842, 0.01, -0.028, 0.988, 192.0, 0.0, 40.0, 127.5, 16.0, 15.0, 112.0, 0.0, 0.0, 0.0, 1.6444981781871572E9, 0.0, 2022-02-11 00:02:58.187
118.0, -9779.290530597036, -12285.52458113725, -9742.030172590039, -16029.55353612346, -3448.0471549090335, -3745.4147631424385, -5685.300312674083, -6602.101814997413, -17362.879796371435, -11819.356598777367, -24380.34407858182, -14185.62402553845, -8633.003667951069, -12688.548885410892, -9502.732396451522, -10776.424202492739, 0.01, -0.028, 0.988, 192.0, 0.0, 0.0, 0.0, 0.0, 0.0, 0.0, 0.0, 0.0, 0.0, 1.6444981781871638E9, 0.0, 2022-02-11 00:02:58.187
120.0, -9768.137010113836, -12272.202941441887, -9734.408227730779, -16024.434986643195, -3439.9781751606674, -3733.0542484586535, -5653.314966358539, -6569.1106401813795, -17358.90118585839, -11832.857052428371, -24375.44904654611, -14168.524941030139, -8625.940516703191, -12671.65096660268, -9498.418509771647, -10771.931501857222, 0.01, -0.028, 0.988, 192.0, 0.0, 0.0, 0.0, 0.0, 0.0, 0.0, 0.0, 0.0, 0.0, 1.644498178667588E9, 0.0, 2022-02-11 00:02:58.667
122.0, -9773.389670060835, -12267.464371617363, -9745.628803447344, -16027.206602955654, -3442.928605428768, -3737.4128386274388, -5659.975786206221, -6579.928884497748, -17359.012944580667, -11835.896889674294, -24372.34215406682, -14172.078868398532, -8627.549842303973, -12666.621824100235, -9495.06574810335, -10769.204589033674, 0.01, -0.028, 0.988, 192.0, 0.0, 0.0, 0.0, 0.0, 0.0, 0.0, 0.0, 0.0, 0.0, 1.6444981786677248E9, 0.0, 2022-02-11 00:02:58.667
124.0, -9773.188504360736, -12285.971616026356, -9743.214815046169, -16026.714864577636, -3430.188111089243, -3732.0931234470754, -5658.657033283357, -6574.340948383921, -17362.365706248966, -11829.191366337702, -24367.335363308834, -14187.65803428388, -8620.218470122632, -12666.666527589146, -9502.039492373407, -10771.08213556792, 0.01, -0.028, 0.988, 192.0, 0.0, 0.0, 0.0, 0.0, 0.0, 0.0, 0.0, 0.0, 0.0, 1.6444981786677315E9, 0.0, 2022-02-11 00:02:58.667
126.0, -9777.524742785066, -12291.045462017712, -9743.907719124285, -16029.26296344554, -3433.295003568531, -3729.8132455126342, -5672.448059612282, -6594.032835249047, -17364.846749883505, -11843.563538022463, -24364.027305129446, -14173.174103876843, -8617.625667765817, -12666.398306655683, -9497.63619871571, -10770.27747276753, 0.012, -0.026000000000000002, 0.99, 192.0, 0.0, 48.0, 127.5, 24.0, 15.0, 120.0, 0.0, 0.0, 0.0, 1.6444981786677396E9, 0.0, 2022-02-11 00:02:58.667
128.0, -9793.886219726352, -12283.915255536469, -9750.322669782958, -16029.799405312468, -3441.833369950458, -3736.988155482788, -5664.1555624193625, -6589.294265424522, -17373.139247076422, -11852.39247708231, -24386.423753073665, -14186.071060427555, -8625.60524053636, -12665.236015944007, -9503.872335418742, -10781.498048484094, 0.012, -0.026000000000000002, 0.99, 192.0, 0.0, 0.0, 0.0, 0.0, 0.0, 0.0, 0.0, 0.0, 0.0, 1.644498178667746E9, 0.0, 2022-02-11 00:02:58.667
130.0, -9789.08059466846, -12283.132944480532, -9743.773608657553, -16029.486480890095, -3425.114265097888, -3724.2923646321733, -5643.614309264935, -6568.641253547818, -17374.435648254832, -11829.303125059978, -24386.200235629112, -14189.066194184566, -8634.56829006294, -12658.530492607415, -9500.139594094706, -10775.8430571369, 0.012, -0.026000000000000002, 0.99, 192.0, 0.0, 0.0, 0.0, 0.0, 0.0, 0.0, 0.0, 0.0, 0.0, 1.6444981786677527E9, 0.0, 2022-02-11 00:02:58.667
132.0, -9800.882315740862, -12298.734462110337, -9749.36154477138, -16032.213393713642, -3435.9772129031676, -3729.50032109026, -5669.095297943985, -6579.593608330919, -17385.410354782387, -11855.834645728428, -24385.93201469565, -14174.13522888842, -8631.237880139099, -12669.549902623881, -9500.765442939453, -10772.736164657614, 0.012, -0.026000000000000002, 0.99, 192.0, 0.0, 0.0, 0.0, 0.0, 0.0, 0.0, 0.0, 0.0, 0.0, 1.6444981786677666E9, 0.0, 2022-02-11 00:02:58.667
134.0, -9786.197219633725, -12287.268017204764, -9750.613242460877, -16035.767321082036, -3427.7964744325254, -3725.1864344103856, -5662.322719374028, -6576.531419340542, -17378.950700634803, -11855.432314328233, -24394.671546777674, -14193.693005286814, -8624.688819013694, -12666.241844444496, -9510.443748288602, -10779.821667649945, 0.012, -0.026000000000000002, 0.99, 192.0, 0.0, 0.0, 0.0, 0.0, 0.0, 0.0, 0.0, 0.0, 0.0, 1.6444981786677732E9, 0.0, 2022-02-11 00:02:58.667
136.0, -9789.50527781311, -12276.159200210477, -9749.4509517492, -16036.84020481589, -3425.427189520263, -3724.2029576543523, -5672.939797990299, -6585.583875844941, -17380.180046579844, -11852.839511971417, -24381.171093126668, -14192.597769808504, -8622.207775379155, -12666.063030488853, -9505.414605786158, -10777.65354843778, 0.012, -0.026000000000000002, 0.988, 192.0, 0.0, 48.0, 127.5, 24.0, 15.0, 112.0, 0.0, 0.0, 0.0, 1.6444981786677802E9, 0.0, 2022-02-11 00:02:58.667
138.0, -9812.058187968516, -12294.062947519178, -9764.337213556435, -16037.17548098272, -3436.737172214648, -3733.1883589253857, -5675.465545113748, -6585.919152011771, -17392.898189174914, -11857.309860862477, -24396.77261075647, -14193.313025631074, -8618.273868355021, -12690.091155778307, -9515.651704746688, -10783.487353740617, 0.012, -0.026000000000000002, 0.988, 192.0, 0.0, 0.0, 0.0, 0.0, 0.0, 0.0, 0.0, 0.0, 0.0, 1.6444981786677868E9, 0.0, 2022-02-11 00:02:58.667
140.0, -9800.927019229774, -12305.507040680295, -9755.26240530758, -16032.280448947007, -3425.9412796427346, -3721.0066581972433, -5645.558911032547, -6570.58585531543, -17395.178067109355, -11857.1981021402, -24401.824105003372, -14190.563761063071, -8623.079493412912, -12670.622786357735, -9512.522460522945, -10780.93925487271, 0.012, -0.026000000000000002, 0.988, 192.0, 0.0, 0.0, 0.0, 0.0, 0.0, 0.0, 0.0, 0.0, 0.0, 1.6444981786677933E9, 0.0, 2022-02-11 00:02:58.667
142.0, -9813.488699613656, -12295.426403930951, -9759.822161176464, -16039.187137983698, -3426.7235906986703, -3728.3156786341287, -5663.64147229689, -6591.01534974758, -17394.127535119955, -11862.227244642645, -24392.54813105442, -14180.930159202833, -8628.823891737926, -12658.709306563058, -9507.40391104268, -10782.570932217948, 0.012, -0.026000000000000002, 0.988, 192.0, 0.0, 0.0, 0.0, 0.0, 0.0, 0.0, 0.0, 0.0, 0.0, 1.6444981786677997E9, 0.0, 2022-02-11 00:02:58.667
144.0, -9802.402234363823, -12298.10861326559, -9758.97279488716, -16042.003457785066, -3417.671134194271, -3720.8725477305115, -5663.708527530257, -6586.0756142229575, -17393.322872319564, -11864.618881299362, -24401.645291047727, -14187.56862730606, -8618.85501371086, -12655.088323961298, -9509.817899443853, -10788.404737520783, 0.011, -0.027000000000000003, 0.988, 192.0, 0.0, 40.0, 127.5, 16.0, 15.0, 112.0, 0.0, 0.0, 0.0, 1.6444981786678064E9, 0.0, 2022-02-11 00:02:58.667
146.0, -9793.84151623744, -12281.881246791036, -9763.845475178417, -16046.250289231575, -3425.427189520263, -3717.139806406475, -5660.31106237305, -6571.994015216114, -17393.0546513861, -11862.003727198093, -24396.102058422814, -14197.202229166298, -8622.498348057074, -12653.590757082791, -9503.671169718644, -10778.748783916091, 0.011, -0.027000000000000003, 0.988, 192.0, 0.0, 0.0, 0.0, 0.0, 0.0, 0.0, 0.0, 0.0, 0.0, 1.644498178667813E9, 0.0, 2022-02-11 00:02:58.667
148.0, -9820.194222950247, -12307.67515989246, -9768.941672914229, -16044.439797930694, -3423.6390499638383, -3729.4779693458045, -5657.830018738511, -6582.946369999215, -17398.64258749993, -11878.856942517394, -24414.49754410953, -14209.965075250278, -8631.70726677266, -12679.585835884314, -9511.449576789091, -10786.191914819708, 0.011, -0.027000000000000003, 0.988, 192.0, 0.0, 0.0, 0.0, 0.0, 0.0, 0.0, 0.0, 0.0, 0.0, 1.6444981786678195E9, 0.0, 2022-02-11 00:02:58.667
150.0, -9806.000865221127, -12299.62853188855, -9760.31389955448, -16038.293068205485, -3414.653648692805, -3718.3468006070616, -5683.22160043974, -6583.661625821785, -17406.175125381367, -11874.20777967069, -24411.54711384143, -14197.738671033225, -8615.502252042563, -12671.36039392476, -9511.561335511367, -10785.99074911961, 0.011, -0.027000000000000003, 0.988, 192.0, 0.0, 0.0, 0.0, 0.0, 0.0, 0.0, 0.0, 0.0, 0.0, 1.644498178667826E9, 0.0, 2022-02-11 00:02:58.667
152.0, -9811.812318779506, -12303.67419763496, -9767.466457780178, -16039.544765894982, -3428.5117302550952, -3717.631544784492, -5665.898998486877, -6589.271913680067, -17409.0585004161, -11868.753954023596, -24408.909607995705, -14189.468525584762, -8609.46728103963, -12669.371088668238, -9511.650742489188, -10785.878990397334, 0.011, -0.027000000000000003, 0.988, 192.0, 0.0, 0.0, 0.0, 0.0, 0.0, 0.0, 0.0, 0.0, 0.0, 1.6444981786678326E9, 0.0, 2022-02-11 00:02:58.667
154.0, -9822.474100884689, -12301.304912722697, -9767.93584441374, -16046.205585742664, -3414.8548143929024, -3722.370114609017, -5641.334431330494, -6572.463401849676, -17410.73488125025, -11868.30691913449, -24416.442145877143, -14199.593865823015, -8619.458510811151, -12665.459533388559, -9508.633256987721, -10789.27645555454, 0.0095, -0.029500000000000002, 0.989, 192.0, 0.0, 32.0, 127.5, 0.0, 15.0, 120.0, 0.0, 0.0, 0.0, 1.6444981786678393E9, 0.0, 2022-02-11 00:02:58.667
156.0, -9813.13107170237, -12289.950226539402, -9760.64917572131, -16047.859614832356, -3410.3397620129304, -3717.139806406475, -5649.761038990145, -6593.094061981924, -17411.673654517374, -11865.892930733316, -24408.50727659551, -14208.847488027513, -8617.670371254728, -12653.322536149328, -9505.235791830515, -10788.829420665434, 0.0095, -0.029500000000000002, 0.989, 192.0, 0.0, 0.0, 0.0, 0.0, 0.0, 0.0, 0.0, 0.0, 0.0, 1.6444981786678455E9, 0.0, 2022-02-11 00:02:58.667
158.0, -9815.433301381267, -12308.546877926217, -9769.902797925806, -16042.763417096547, -3418.319334783475, -3716.0892744170756, -5657.248873382673, -6567.434259347232, -17407.00213992621, -11872.82197151446, -24413.379956886765, -14200.175011178853, -8619.838490466893, -12661.704440320069, -9511.40487330018, -10790.371691032851, 0.0095, -0.029500000000000002, 0.989, 192.0, 0.0, 0.0, 0.0, 0.0, 0.0, 0.0, 0.0, 0.0, 0.0, 1.6444981786678522E9, 0.0, 2022-02-11 00:02:58.667
160.0, -9807.073748954983, -12300.321435966664, -9763.845475178417, -16037.466053660639, -3404.617715432372, -3708.4449778133608, -5644.217806365229, -6559.789962743516, -17400.29661658962, -11876.510009349586, -24409.334291140356, -14192.575418064049, -8609.288467083987, -12654.998916983477, -9509.840251188309, -10780.022833350044, 0.0095, -0.029500000000000002, 0.989, 192.0, 0.0, 0.0, 0.0, 0.0, 0.0, 0.0, 0.0, 0.0, 0.0, 1.6444981786678588E9, 0.0, 2022-02-11 00:02:58.667
162.0, -9827.74911257614, -12313.285447750743, -9769.4557630367, -16042.22697522962, -3419.1016458394106, -3720.693733774869, -5663.574417063524, -6581.404099631799, -17414.512326063195, -11876.934692494237, -24407.993186473035, -14192.843638997512, -8606.807423449449, -12651.377934381717, -9504.297018563393, -10783.912036885267, 0.0095, -0.029500000000000002, 0.989, 192.0, 0.0, 0.0, 0.0, 0.0, 0.0, 0.0, 0.0, 0.0, 0.0, 1.6444981786678653E9, 0.0, 2022-02-11 00:02:58.667
164.0, -9817.534365360067, -12309.955037826901, -9771.445068293222, -16038.807158327958, -3416.8441196494246, -3717.6091930400366, -5666.681309542812, -6578.58777983043, -17412.54537255113, -11875.213608171178, -24420.89014302375, -14204.108918202988, -8625.09115041389, -12667.851170045278, -9515.74111172451, -10791.80220267799, 0.00675, -0.03075, 0.9904999999999999, 192.0, 0.0, 16.0, 127.5, 0.0, 15.5, 0.0, 0.0, 0.0, 0.0, 1.6444981786678736E9, 0.0, 2022-02-11 00:02:58.667
166.0, -9812.639333324354, -12314.179517528954, -9769.88044618135, -16040.237669973098, -3411.5914597024275, -3708.2661638577183, -5656.31010011555, -6585.181544444746, -17418.893267976437, -11878.856942517394, -24414.385785387254, -14204.399490880907, -8623.705342257661, -12654.8871582612, -9514.422358801647, -10787.957702631677, 0.00675, -0.03075, 0.9904999999999999, 192.0, 0.0, 0.0, 0.0, 0.0, 0.0, 0.0, 0.0, 0.0, 0.0, 1.6444981786678803E9, 0.0, 2022-02-11 00:02:58.667
168.0, -9822.205879951225, -12306.021130802766, -9776.384803817846, -16044.618611886337, -3418.7887214170364, -3707.6403150129695, -5661.74157401819, -6582.186410687735, -17419.809689499103, -11887.551771110508, -24414.475192365077, -14203.125441446953, -8619.592621277883, -12634.614126040236, -9511.941315167107, -10791.690443955713, 0.00675, -0.03075, 0.9904999999999999, 192.0, 0.0, 0.0, 0.0, 0.0, 0.0, 0.0, 0.0, 0.0, 0.0, 1.6444981786678867E9, 0.0, 2022-02-11 00:02:58.667
170.0, -9814.919211258795, -12314.358331484596, -9773.50142878311, -16044.596260141881, -3411.7926254025256, -3701.49358528776, -5654.1196291589295, -6574.765631528572, -17412.947703951326, -11868.530436579042, -24412.128259197267, -14197.828078011045, -8617.580964276905, -12642.861919744244, -9511.762501211466, -10787.354205531385, 0.00675, -0.03075, 0.9904999999999999, 192.0, 0.0, 0.0, 0.0, 0.0, 0.0, 0.0, 0.0, 0.0, 0.0, 1.6444981786678932E9, 0.0, 2022-02-11 00:02:58.667
172.0, -9830.811301566519, -12325.556555456706, -9778.910550941295, -16047.278469476518, -3422.029724363056, -3714.368190094017, -5656.31010011555, -6582.856963021393, -17422.603657556017, -11887.01532924358, -24414.02815747597, -14195.347034376508, -8616.999818921067, -12657.770533295934, -9507.31450406486, -10791.511630000072, 0.00675, -0.03075, 0.9904999999999999, 192.0, 0.0, 0.0, 0.0, 0.0, 0.0, 0.0, 0.0, 0.0, 0.0, 1.6444981786678998E9, 0.0, 2022-02-11 00:02:58.667
174.0, -9827.860871298417, -12315.855898363103, -9778.955254430206, -16047.390228198796, -3417.0452853495226, -3711.3507045925508, -5648.039954667086, -6579.034814719536, -17427.141061680446, -11895.3078264365, -24428.132108227266, -14211.19442119532, -8615.636362509294, -12664.721925821535, -9510.108472121772, -10797.032510880532, 0.0063750000000000005, -0.027375, 0.99125, 192.0, 0.0, 24.0, 127.5, 32.0, 15.5, 0.0, 0.0, 0.0, 0.0, 1.6444981786679063E9, 0.0, 2022-02-11 00:02:58.667
176.0, -9812.102891457425, -12318.605162931104, -9774.17198111677, -16045.758550853558, -3406.6293724333495, -3702.2982480881515, -5642.854349953455, -6573.87156175036, -17424.101224434522, -11881.047413474014, -24418.722023811584, -14203.594828080515, -8624.577060291418, -12660.922129264132, -9505.772233697442, -10788.85177240989, 0.0063750000000000005, -0.027375, 0.99125, 192.0, 0.0, 0.0, 0.0, 0.0, 0.0, 0.0, 0.0, 0.0, 0.0, 1.644498178667913E9, 0.0, 2022-02-11 00:02:58.667
178.0, -9830.274859699592, -12321.130910054555, -9778.262350352092, -16041.355257195863, -3417.4029132608075, -3698.9678381643107, -5655.103105914964, -6580.487678109131, -17426.425805857874, -11882.835553030438, -24429.02617800548, -14203.840697269523, -8611.970676418625, -12651.243823914985, -9503.917038907652, -10791.288112555518, 0.0063750000000000005, -0.027375, 0.99125, 192.0, 0.0, 0.0, 0.0, 0.0, 0.0, 0.0, 0.0, 0.0, 0.0, 1.6444981786679196E9, 0.0, 2022-02-11 00:02:58.667
180.0, -9826.117435230904, -12316.951133841412, -9768.472286280667, -16043.389265941296, -3412.9102126252906, -3692.2846665721736, -5652.845579724977, -6577.447840863209, -17420.63670404395, -11874.297186648511, -24416.442145877143, -14196.28580764363, -8620.553746289463, -12642.303126132862, -9505.749881952988, -10787.644778209304, 0.0063750000000000005, -0.027375, 0.99125, 192.0, 0.0, 0.0, 0.0, 0.0, 0.0, 0.0, 0.0, 0.0, 0.0, 1.644498178667926E9, 0.0, 2022-02-11 00:02:58.667
182.0, -9832.152406233836, -12335.793654417235, -9775.64719625082, -16047.010248543054, -3421.9179656407796, -3708.824957469101, -5687.177859208329, -6594.122242226868, -17430.24795415973, -11884.82485828696, -24416.911532510705, -14211.060310728588, -8624.510005058051, -12638.659791786647, -9505.772233697442, -10792.338644544918, 0.0063750000000000005, -0.027375, 0.99125, 192.0, 0.0, 0.0, 0.0, 0.0, 0.0, 0.0, 0.0, 0.0, 0.0, 1.6444981786679325E9, 0.0, 2022-02-11 00:02:58.667
184.0, -9835.885147557872, -12336.955945128911, -9780.810449219996, -16047.256117732064, -3422.0073726186006, -3711.4848150592825, -5654.924291959321, -6595.061015493991, -17431.20907917131, -11895.330178180955, -24433.83180306337, -14208.020473482666, -8613.334132830398, -12662.889082776199, -9514.891745435209, -10799.111223114876, 0.0081875, -0.025687500000000002, 0.991625, 192.0, 0.0, 40.0, 127.5, 32.0, 15.5, 0.0, 0.0, 0.0, 0.0, 1.6444981786679392E9, 0.0, 2022-02-11 00:02:58.667
186.0, -9838.388542936867, -12337.715904440392, -9770.618053748376, -16054.185158513208, -3420.15217782881, -3710.054303414143, -5639.076905140509, -6574.944445484215, -17434.78535828416, -11886.30007342101, -24425.762823315006, -14211.060310728588, -8629.89677547178, -12668.052335745375, -9506.68865522011, -10792.673920711746, 0.0081875, -0.025687500000000002, 0.991625, 192.0, 0.0, 0.0, 0.0, 0.0, 0.0, 0.0, 0.0, 0.0, 0.0, 1.6444981786679456E9, 0.0, 2022-02-11 00:02:58.667
188.0, -9843.551795906043, -12335.145453828032, -9777.345928829423, -16049.446588688683, -3426.410666276296, -3708.5790882800925, -5645.245986610173, -6568.082459936436, -17437.109939707512, -11896.693634592728, -24427.774480315984, -14218.682255587848, -8632.869557484337, -12672.36622242525, -9509.124995365739, -10794.909095157278, 0.0081875, -0.025687500000000002, 0.991625, 192.0, 0.0, 0.0, 0.0, 0.0, 0.0, 0.0, 0.0, 0.0, 0.0, 1.6444981786679523E9, 0.0, 2022-02-11 00:02:58.667
190.0, -9828.531423632077, -12345.829587677668, -9769.992204903629, -16042.517547907539, -3414.698352181715, -3688.9319049038777, -5643.0778673980085, -6567.791887258517, -17429.68916054835, -11897.453593904209, -24427.416852404698, -14199.839735012023, -8628.108635915356, -12639.866785987233, -9503.201783085082, -10789.365862532362, 0.0081875, -0.025687500000000002, 0.991625, 192.0, 0.0, 0.0, 0.0, 0.0, 0.0, 0.0, 0.0, 0.0, 0.0, 1.6444981786679587E9, 0.0, 2022-02-11 00:02:58.667
192.0, -9849.832636097985, -12359.240634350854, -9780.475173053166, -16046.764379354046, -3427.2376808211425, -3699.571335264604, -5657.293576871583, -6581.895838009816, -17436.774663540684, -11891.038643245536, -24425.315788425898, -14200.599694323504, -8633.294240628988, -12641.923146477122, -9500.07253886134, -10786.884818897823, 0.0081875, -0.025687500000000002, 0.991625, 192.0, 0.0, 0.0, 0.0, 0.0, 0.0, 0.0, 0.0, 0.0, 0.0, 1.6444981786679652E9, 0.0, 2022-02-11 00:02:58.667
194.0, -9838.634412125875, -12350.63521273556, -9783.693824254731, -16046.049123531477, -3429.450503522218, -3696.4867945297715, -5658.589978049991, -6582.856963021393, -17446.855300290026, -11893.58674211344, -24442.88425956777, -14203.81834552507, -8634.210662151654, -12657.636422829202, -9509.326161065837, -10791.891609655811, 0.009093750000000001, -0.02784375, 0.9948125, 192.0, 0.0, 40.0, 127.5, 8.0, 15.5, 24.0, 0.0, 0.0, 0.0, 1.6444981786679718E9, 0.0, 2022-02-11 00:02:58.667
196.0, -9821.602382850931, -12341.53805274225, -9768.449934536211, -16047.993725299088, -3423.057904608, -3697.8055474526345, -5655.661899526346, -6584.108660710891, -17433.9136402504, -11875.705346549195, -24422.633579091264, -14201.963150735279, -8647.509950102562, -12654.082495460809, -9506.465137775558, -10786.817763664456, 0.009093750000000001, -0.02784375, 0.9948125, 192.0, 0.0, 0.0, 0.0, 0.0, 0.0, 0.0, 0.0, 0.0, 0.0, 1.64449817866798E9, 0.0, 2022-02-11 00:02:58.667
198.0, -9858.415705968822, -12360.49233204035, -9773.054393894005, -16054.475731191127, -3431.708029712204, -3712.334181348584, -5641.781466219601, -6583.751032799606, -17440.328590909077, -11888.267026933077, -24430.948428028638, -14215.24008694173, -8643.777208778525, -12666.532417122415, -9503.246486573993, -10792.8974381563, 0.009093750000000001, -0.02784375, 0.9948125, 192.0, 0.0, 0.0, 0.0, 0.0, 0.0, 0.0, 0.0, 0.0, 0.0, 1.6444981786679869E9, 0.0, 2022-02-11 00:02:58.667
200.0, -9860.360307736435, -12369.142457144555, -9772.786172960541, -16056.666202147748, -3425.762465687092, -3711.4624633148273, -5648.8893209563885, -6587.751995057106, -17444.486015377763, -11907.400120186821, -24433.429471663174, -14210.38975839493, -8642.972545978135, -12665.727754322024, -9503.872335418742, -10795.13261260183, 0.009093750000000001, -0.02784375, 0.9948125, 192.0, 0.0, 0.0, 0.0, 0.0, 0.0, 0.0, 0.0, 0.0, 0.0, 1.6444981786679933E9, 0.0, 2022-02-11 00:02:58.667
202.0, -9855.465275700722, -12356.87134943859, -9786.979530689661, -16060.46599870515, -3443.1297711288657, -3717.0280476841986, -5669.989367722198, -6605.566335387985, -17452.756160826226, -11912.49631792263, -24439.77736708848, -14210.680331072848, -8645.408886123763, -12661.927957764621, -9513.662399490166, -10799.066519625965, 0.009093750000000001, -0.02784375, 0.9948125, 192.0, 0.0, 0.0, 0.0, 0.0, 0.0, 0.0, 0.0, 0.0, 0.0, 1.6444981786679995E9, 0.0, 2022-02-11 00:02:58.667
204.0, -9847.776275608096, -12365.83439896517, -9789.41587083529, -16062.254138261575, -3438.6147187488937, -3706.053341156643, -5659.774620506122, -6572.038718705025, -17448.062294490614, -11903.197992229223, -24451.780253860983, -14233.657924372903, -8652.315575160454, -12676.635405616213, -9516.322257080348, -10799.267685326062, 0.009546875, -0.028921875, 0.9964062499999999, 192.0, 0.0, 40.0, 127.5, 8.0, 15.5, 24.0, 0.0, 0.0, 0.0, 1.6444981786680064E9, 0.0, 2022-02-11 00:02:58.668
206.0, -9849.676173886797, -12382.285282884275, -9778.687033496743, -16059.236652760108, -3429.6293174778602, -3703.7734632222014, -5652.800876236067, -6581.895838009816, -17449.425750902385, -11907.847155075928, -24435.44112866415, -14210.032130483643, -8648.873406514336, -12661.659736831158, -9513.438882045613, -10795.646702724303, 0.009546875, -0.028921875, 0.9964062499999999, 192.0, 0.0, 0.0, 0.0, 0.0, 0.0, 0.0, 0.0, 0.0, 0.0, 1.6444981786680129E9, 0.0, 2022-02-11 00:02:58.668
208.0, -9867.3787554954, -12381.905303228534, -9788.968835946183, -16061.114199294354, -3440.715782727693, -3711.4624633148273, -5667.888303743399, -6585.338006655933, -17450.87861429198, -11913.010408045104, -24448.15927125922, -14206.768775793169, -8666.933616034225, -12677.12714399423, -9513.103605878783, -10799.960589404178, 0.009546875, -0.028921875, 0.9964062499999999, 192.0, 0.0, 0.0, 0.0, 0.0, 0.0, 0.0, 0.0, 0.0, 0.0, 1.6444981786680193E9, 0.0, 2022-02-11 00:02:58.668
210.0, -9852.067810543514, -12371.06470716771, -9785.236094622147, -16058.610803915359, -3438.547663515528, -3708.109701646531, -5684.719167318245, -6592.982303259648, -17449.693971835848, -11902.795660829028, -24444.091253768358, -14218.771662565669, -8664.229054955133, -12671.740373580502, -9519.898536193197, -10804.922676673255, 0.009546875, -0.028921875, 0.9964062499999999, 192.0, 0.0, 0.0, 0.0, 0.0, 0.0, 0.0, 0.0, 0.0, 0.0, 1.644498178668026E9, 0.0, 2022-02-11 00:02:58.668
212.0, -9855.28646174508, -12375.646814781048, -9788.07476616797, -16063.952870840178, -3449.0306316650667, -3715.0387424276764, -5667.329510132016, -6585.203896189201, -17446.36356191201, -11905.50022190812, -24441.40904443372, -14218.369331165473, -8663.446743899196, -12675.227245715529, -9520.993771671507, -10804.632103995336, 0.009546875, -0.028921875, 0.9964062499999999, 192.0, 0.0, 0.0, 0.0, 0.0, 0.0, 0.0, 0.0, 0.0, 0.0, 1.644498178668033E9, 0.0, 2022-02-11 00:02:58.668
214.0, -9862.61783392642, -12386.375652119596, -9792.008673192106, -16059.884853349311, -3449.7011839987263, -3715.865756972523, -5655.907768715354, -6591.01534974758, -17445.2683264337, -11911.69165512224, -24453.970724817602, -14227.354732436506, -8671.739241092115, -12673.193236970095, -9521.016123415962, -10805.637932495825, 0.0107734375, -0.0294609375, 0.995203125, 192.0, 0.0, 48.0, 127.5, 8.0, 15.5, 8.0, 0.0, 0.0, 0.0, 1.644498178668039E9, 0.0, 2022-02-11 00:02:58.668
216.0, -9868.921025862817, -12382.844076495658, -9788.052414423515, -16051.122969522832, -3444.314413584997, -3711.7083325038357, -5646.631794766402, -6569.915302981771, -17447.458797390318, -11903.913248051793, -24443.755977601526, -14205.360615892485, -8666.687746845217, -12687.543056910403, -9516.322257080348, -10796.674882969248, 0.0107734375, -0.0294609375, 0.995203125, 192.0, 0.0, 0.0, 0.0, 0.0, 0.0, 0.0, 0.0, 0.0, 0.0, 1.644498178668046E9, 0.0, 2022-02-11 00:02:58.668
218.0, -9883.360252780945, -12388.297902142753, -9795.093213926937, -16058.186120770708, -3458.060736425011, -3712.5129953042265, -5657.919425716332, -6578.610131574886, -17458.1205794955, -11912.853945833916, -24451.824957349894, -14222.325589934062, -8679.160020251276, -12683.519742908447, -9518.490376292513, -10798.172449847752, 0.0107734375, -0.0294609375, 0.995203125, 192.0, 0.0, 0.0, 0.0, 0.0, 0.0, 0.0, 0.0, 0.0, 0.0, 1.6444981786680536E9, 0.0, 2022-02-11 00:02:58.668
220.0, -9868.250473529157, -12382.464096839918, -9783.939693443739, -16053.492254435094, -3450.5952537769385, -3707.6179632685144, -5657.02535593812, -6576.598474573908, -17452.957326526324, -11916.318466224488, -24452.74137887256, -14212.759043307191, -8686.24552324361, -12677.21655097205, -9519.295039092904, -10799.357092303884, 0.0107734375, -0.0294609375, 0.995203125, 192.0, 0.0, 0.0, 0.0, 0.0, 0.0, 0.0, 0.0, 0.0, 0.0, 1.6444981786680608E9, 0.0, 2022-02-11 00:02:58.668
222.0, -9876.185342810792, -12386.666224797515, -9794.623827293377, -16063.014097573056, -3466.420288851296, -3713.250602871252, -5672.246893912184, -6583.3039979105, -17456.243032961254, -11915.245582490634, -24452.339047472364, -14218.928124776856, -8691.073500045955, -12666.264196188951, -9521.574917027345, -10800.407624293282, 0.0107734375, -0.0294609375, 0.995203125, 192.0, 0.0, 0.0, 0.0, 0.0, 0.0, 0.0, 0.0, 0.0, 0.0, 1.6444981786680677E9, 0.0, 2022-02-11 00:02:58.668
224.0, -9870.329185763501, -12395.808088279735, -9795.808469749507, -16061.002440572078, -3467.6943382852483, -3719.6208500410144, -5674.88439975791, -6593.54109687103, -17453.672582348896, -11903.44386141823, -24465.28070751199, -14238.664715130892, -8697.443747215719, -12682.93859755261, -9533.443693333113, -10807.783699963535, 0.008, -0.026000000000000002, 0.992, 192.0, 0.0, 32.0, 127.5, 24.0, 15.5, 0.0, 0.0, 0.0, 0.0, 1.6444981786680744E9, 0.0, 2022-02-11 00:02:58.668
226.0, -9867.266996773124, -12402.290094171774, -9796.121394171882, -16054.56513816895, -3469.929512730779, -3716.335143606084, -5676.426670125326, -6586.142669456323, -17454.119617238, -11897.453593904209, -24447.13109101428, -14221.900906789411, -8701.087081561933, -12691.633426145725, -9531.208518887583, -10803.13453711683, 0.008, -0.026000000000000002, 0.992, 192.0, 0.0, 0.0, 0.0, 0.0, 0.0, 0.0, 0.0, 0.0, 0.0, 1.644498178668081E9, 0.0, 2022-02-11 00:02:58.668
228.0, -9899.319398322034, -12419.635047869093, -9808.772481533586, -16057.9402515817, -3487.1627077058206, -3719.106759918542, -5675.845524769488, -6589.026044491058, -17457.472378906295, -11919.35830347041, -24457.167024274713, -14222.303238189608, -8703.09873856291, -12685.397289442693, -9536.997620701506, -10804.162717361774, 0.008, -0.026000000000000002, 0.992, 192.0, 0.0, 0.0, 0.0, 0.0, 0.0, 0.0, 0.0, 0.0, 0.0, 1.6444981786680892E9, 0.0, 2022-02-11 00:02:58.668
230.0, -9892.05508137406, -12411.610771609638, -9793.059205181504, -16050.452417189172, -3480.770108791603, -3720.5819750525925, -5663.060326941053, -6580.353567642399, -17462.54622489765, -11921.727588382673, -24464.140768544767, -14212.490822373727, -8718.119110836877, -12686.827801087833, -9533.019010188462, -10804.766214462068, 0.008, -0.026000000000000002, 0.992, 192.0, 0.0, 0.0, 0.0, 0.0, 0.0, 0.0, 0.0, 0.0, 0.0, 1.6444981786680956E9, 0.0, 2022-02-11 00:02:58.668
232.0, -9890.289293562091, -12409.59911460866, -9794.534420315555, -16057.873196348333, -3490.873097285402, -3730.1932251683743, -5672.1351351899075, -6584.175715944257, -17464.960213298826, -11918.196012758734, -24456.116492285313, -14216.603543353503, -8725.942221396235, -12705.223286774552, -9530.269745620459, -10804.855621439889, 0.008, -0.026000000000000002, 0.992, 192.0, 0.0, 0.0, 0.0, 0.0, 0.0, 0.0, 0.0, 0.0, 0.0, 1.6444981786681025E9, 0.0, 2022-02-11 00:02:58.668
234.0, -9895.564305253543, -12416.572858878715, -9804.793871020542, -16063.908167351266, -3499.5232223896055, -3731.5790333246036, -5674.102088701974, -6583.236942677134, -17469.810541845625, -11920.31942848199, -24479.317603029922, -14237.748293608225, -8737.520425024084, -12709.80539438789, -9539.74688526951, -10809.683598242236, 0.006, -0.026000000000000002, 0.992, 192.0, 0.0, 24.0, 127.5, 24.0, 15.5, 0.0, 0.0, 0.0, 0.0, 1.64449817866811E9, 0.0, 2022-02-11 00:02:58.668
236.0, -9886.601255726964, -12404.637027339582, -9807.185507677259, -16064.310498751462, -3504.4629579142284, -3723.5324053206928, -5680.271170171639, -6586.768518301073, -17471.55397791314, -11919.380655214865, -24473.66261168273, -14229.76872083768, -8747.0646199065, -12701.244676261507, -9533.913079966675, -10806.979037163144, 0.006, -0.026000000000000002, 0.992, 192.0, 0.0, 0.0, 0.0, 0.0, 0.0, 0.0, 0.0, 0.0, 0.0, 1.6444981786681168E9, 0.0, 2022-02-11 00:02:58.668
238.0, -9902.426290801322, -12420.037379269288, -9814.159251947314, -16067.395039486295, -3518.566908665527, -3742.3525741520616, -5686.864934785955, -6595.843326549927, -17469.162341256422, -11906.59545738643, -24481.642184453274, -14237.077741274565, -8741.744904726136, -12709.783042643434, -9543.434923104634, -10815.271534356063, 0.006, -0.026000000000000002, 0.992, 192.0, 0.0, 0.0, 0.0, 0.0, 0.0, 0.0, 0.0, 0.0, 0.0, 1.6444981786681232E9, 0.0, 2022-02-11 00:02:58.668
240.0, -9906.807232714562, -12423.904231060056, -9800.971722718683, -16071.328946510428, -3515.929402819801, -3739.8268270286117, -5688.429556897826, -6599.888992296338, -17471.241053490765, -11912.004579544615, -24474.93666111668, -14241.995125054733, -8753.501922309628, -12705.223286774552, -9547.346478384314, -10816.053845411998, 0.006, -0.026000000000000002, 0.992, 192.0, 0.0, 0.0, 0.0, 0.0, 0.0, 0.0, 0.0, 0.0, 0.0, 1.6444981786681297E9, 0.0, 2022-02-11 00:02:58.668
242.0, -9917.96075319776, -12436.376504466118, -9811.052359468027, -16073.608824444871, -3525.0712663020217, -3751.8297138011117, -5688.675426086835, -6604.113471998391, -17482.595739674063, -11907.333064953455, -24471.740361659573, -14248.924165835879, -8769.773992273093, -12722.747054427511, -9551.347440641814, -10823.765197249078, 0.006, -0.026000000000000002, 0.992, 192.0, 0.0, 0.0, 0.0, 0.0, 0.0, 0.0, 0.0, 0.0, 0.0, 1.644498179147376E9, 0.0, 2022-02-11 00:02:59.147
244.0, -9910.629381016419, -12438.07523704472, -9815.567411847998, -16064.154036540276, -3524.400713968362, -3740.3185654066287, -5692.36346392196, -6588.735471813139, -17488.60835893254, -11933.574012943986, -24496.2825770715, -14245.52670067867, -8776.948902243246, -12720.914211382176, -9554.230815676548, -10821.150043147809, 0.006, -0.028, 0.992, 192.0, 0.0, 24.0, 127.5, 16.0, 15.5, 0.0, 0.0, 0.0, 0.0, 1.6444981791473858E9, 0.0, 2022-02-11 00:02:59.147
246.0, -9912.931610695316, -12447.150045293576, -9814.427472880778, -16068.557330197971, -3523.12666453441, -3739.8938822619775, -5682.953379506276, -6587.595532845919, -17484.786210630682, -11936.882071123371, -24487.565396733928, -14232.428578427862, -8780.525181356095, -12716.868545635765, -9547.748809784509, -10809.393025564317, 0.006, -0.028, 0.992, 192.0, 0.0, 0.0, 0.0, 0.0, 0.0, 0.0, 0.0, 0.0, 0.0, 1.6444981791473932E9, 0.0, 2022-02-11 00:02:59.147
248.0, -9933.383456871923, -12439.84102485669, -9828.196147465247, -16078.459152991672, -3536.9623943522447, -3755.562455125148, -5691.581152866024, -6597.296189939522, -17493.883370623993, -11934.199861788735, -24503.926873675213, -14247.62776465747, -8788.303588426541, -12720.578935215348, -9557.740039556033, -10820.9041739588, 0.006, -0.028, 0.992, 192.0, 0.0, 0.0, 0.0, 0.0, 0.0, 0.0, 0.0, 0.0, 0.0, 1.6444981791474009E9, 0.0, 2022-02-11 00:02:59.147
250.0, -9926.320305624045, -12449.429923228017, -9820.976534006184, -16077.095696579898, -3535.733048407203, -3748.119324221531, -5698.13021399143, -6590.233038691645, -17488.049565321155, -11923.538079683552, -24496.2825770715, -14244.073837289077, -8785.867248280912, -12705.536211196926, -9562.99269950303, -10820.926525703255, 0.006, -0.028, 0.992, 192.0, 0.0, 0.0, 0.0, 0.0, 0.0, 0.0, 0.0, 0.0, 0.0, 1.6444981791474075E9, 0.0, 2022-02-11 00:02:59.147
252.0, -9937.2950121516, -12456.448370986984, -9831.504205644633, -16080.269644292552, -3557.1907230842976, -3763.0279377732204, -5706.892097817909, -6604.314637698489, -17496.342062514075, -11923.35926572791, -24499.903559673257, -14245.34788672303, -8817.98670506319, -12750.060886151898, -9568.155952472205, -10822.692313515225, 0.006, -0.028, 0.992, 192.0, 0.0, 0.0, 0.0, 0.0, 0.0, 0.0, 0.0, 0.0, 0.0, 1.6444981791474159E9, 0.0, 2022-02-11 00:02:59.147
254.0, -9939.284317408123, -12456.023687842333, -9833.80643532353, -16082.303653037985, -3564.1644673543537, -3763.9220075514327, -5715.095188033008, -6622.598364662929, -17504.813373662637, -11926.332047740467, -24517.1367546483, -14260.63647993046, -8826.659181911848, -12757.638127522247, -9579.153010744216, -10830.29190663003, 0.006, -0.026000000000000002, 0.99, 192.0, 0.0, 24.0, 127.5, 24.0, 15.0, 120.0, 0.0, 0.0, 0.0, 1.6444981791474228E9, 0.0, 2022-02-11 00:02:59.147
0.0, -9938.747875541196, -12476.252016574386, -9836.175720235791, -16092.205475831686, -3573.0381099031106, -3772.7732983557344, -5711.250687986695, -6621.927812329271, -17506.668568452427, -11932.769350143595, -24519.014301182546, -14262.53637820916, -8836.091618071989, -12750.351458829817, -9583.55630440191, -10833.555261320504, 0.006, -0.026000000000000002, 0.99, 192.0, 0.0, 0.0, 0.0, 0.0, 0.0, 0.0, 0.0, 0.0, 0.0, 1.6444981791474297E9, 0.0, 2022-02-11 00:02:59.147
2.0, -9961.211378718779, -12473.480400261928, -9844.825845339996, -16095.46883052216, -3591.791223501113, -3790.3417694976056, -5716.168071766862, -6619.469120439187, -17519.006731391757, -11949.019068362602, -24532.51475483355, -14269.308956779118, -8859.13626660541, -12765.394182848238, -9592.452298695123, -10842.786531780546, 0.006, -0.026000000000000002, 0.99, 192.0, 0.0, 0.0, 0.0, 0.0, 0.0, 0.0, 0.0, 0.0, 0.0, 1.6444981791474364E9, 0.0, 2022-02-11 00:02:59.147
4.0, -9959.266776951168, -12481.839952688213, -9840.444903426756, -16092.361938042874, -3585.4209763313506, -3777.8024408581787, -5711.205984497784, -6605.588687132441, -17516.81626043514, -11954.472894009697, -24531.933609477714, -14260.01063108571, -8845.948737376779, -12755.782932732456, -9594.799231862931, -10834.695200287724, 0.006, -0.026000000000000002, 0.99, 192.0, 0.0, 0.0, 0.0, 0.0, 0.0, 0.0, 0.0, 0.0, 0.0, 1.6444981791474545E9, 0.0, 2022-02-11 00:02:59.147
6.0, -9964.742954342719, -12469.792362426802, -9851.531368676588, -16097.70400496769, -3602.341246884018, -3789.045368319198, -5726.114598049474, -6620.586707661952, -17524.84053669459, -11954.249376565145, -24530.883077488314, -14260.837645630556, -8861.79612419559, -12748.719781484579, -9599.291932498447, -10831.945935719721, 0.006, -0.026000000000000002, 0.99, 192.0, 0.0, 0.0, 0.0, 0.0, 0.0, 0.0, 0.0, 0.0, 0.0, 1.6444981791474612E9, 0.0, 2022-02-11 00:02:59.147
8.0, -9974.331852714045, -12485.259769589875, -9856.09112454547, -16096.720528211657, -3611.438406877328, -3789.3806444860274, -5725.779321882645, -6621.59253616244, -17528.37211231853, -11943.677001437783, -24546.28342941802, -14284.262273819719, -8879.543409293105, -12764.611871792302, -9611.674798926688, -10839.94786023472, 0.012, -0.028, 0.992, 192.0, 0.0, 48.0, 127.5, 16.0, 15.5, 0.0, 0.0, 0.0, 0.0, 1.6444981791474693E9, 0.0, 2022-02-11 00:02:59.147
10.0, -9967.872198566462, -12502.448261076006, -9858.013374568627, -16087.936292640721, -3611.930145255345, -3796.8237753896447, -5727.902737605898, -6626.487568198153, -17529.400292563474, -11936.144463556346, -24538.974408981136, -14268.280776534175, -8883.387909339417, -12766.95880496011, -9611.116005315305, -10839.322011389973, 0.012, -0.028, 0.992, 192.0, 0.0, 0.0, 0.0, 0.0, 0.0, 0.0, 0.0, 0.0, 0.0, 1.644498179147476E9, 0.0, 2022-02-11 00:02:59.147
12.0, -9995.87893436896, -12502.224743631452, -9869.233950285192, -16099.693310224213, -3631.24205246473, -3804.9821621158317, -5739.257423789194, -6627.783969376561, -17537.223403122833, -11957.803303933539, -24552.318400420954, -14273.511084736716, -8899.212944413775, -12790.919875016198, -9615.340485017357, -10844.842892270433, 0.012, -0.028, 0.992, 192.0, 0.0, 0.0, 0.0, 0.0, 0.0, 0.0, 0.0, 0.0, 0.0, 1.6444981791474829E9, 0.0, 2022-02-11 00:02:59.147
14.0, -9984.54659993012, -12494.647502261103, -9867.3787554954, -16104.454231793194, -3630.4597414087943, -3800.556516713681, -5737.044601088119, -6624.565318174997, -17538.251583367775, -11962.94420515826, -24558.442778401706, -14280.127201095487, -8905.560839839083, -12764.120133414286, -9623.990610121562, -10848.173302194275, 0.012, -0.028, 0.992, 192.0, 0.0, 0.0, 0.0, 0.0, 0.0, 0.0, 0.0, 0.0, 0.0, 1.6444981791474895E9, 0.0, 2022-02-11 00:02:59.147
16.0, -9990.872143610972, -12513.020636203366, -9868.04930782906, -16105.571819015959, -3644.250767737719, -3821.6342117350355, -5752.422601273371, -6640.725629416183, -17541.961972947356, -11952.148312586345, -24552.161938209767, -14291.548942512149, -8913.071025976065, -12774.021956207986, -9624.19177582166, -10849.872034772878, 0.012, -0.028, 0.992, 192.0, 0.0, 0.0, 0.0, 0.0, 0.0, 0.0, 0.0, 0.0, 0.0, 1.6444981791474965E9, 0.0, 2022-02-11 00:02:59.147
18.0, -9989.21811452128, -12509.109080923687, -9869.524522963111, -16101.101470124899, -3646.6424043944367, -3826.305726326195, -5779.088232408551, -6652.393240021854, -17539.525632801728, -11966.475780782197, -24565.081246504935, -14291.794811701157, -8907.9524764958, -12809.941209547665, -9633.28893581497, -10860.265595944596, 0.006, -0.028, 0.998, 192.0, 0.0, 24.0, 127.5, 16.0, 15.5, 24.0, 0.0, 0.0, 0.0, 1.644498179147503E9, 0.0, 2022-02-11 00:02:59.147
20.0, -9994.671940168375, -12527.795139288324, -9866.57409269501, -16100.296807324507, -3649.525779429171, -3820.3825140455383, -5734.205929542295, -6616.965725060192, -17541.023199680236, -11964.732344714683, -24567.025848272544, -14293.940579168866, -8927.398494171917, -12799.190020464663, -9637.066380627917, -10850.609642339903, 0.006, -0.028, 0.998, 192.0, 0.0, 0.0, 0.0, 0.0, 0.0, 0.0, 0.0, 0.0, 0.0, 1.6444981791475098E9, 0.0, 2022-02-11 00:02:59.147
22.0, -10020.085873614058, -12537.33933417074, -9873.637243942887, -16103.738975970624, -3664.2779307696737, -3828.496197282815, -5735.815255143078, -6627.582803676463, -17552.51199633026, -11974.187132619278, -24573.597261142408, -14290.833686689579, -8948.409133959905, -12804.107404244829, -9634.942964904663, -10850.631994084359, 0.006, -0.028, 0.998, 192.0, 0.0, 0.0, 0.0, 0.0, 0.0, 0.0, 0.0, 0.0, 0.0, 1.6444981791475165E9, 0.0, 2022-02-11 00:02:59.147
24.0, -10009.3123327866, -12527.593973588226, -9869.010432840638, -16098.374557301351, -3659.6511196674255, -3818.013229133276, -5748.533397738147, -6624.542966430541, -17552.690810285905, -11971.616682006917, -24578.805217600493, -14290.029023889188, -8950.532549683161, -12793.065642483907, -9641.559081263433, -10850.319069661984, 0.006, -0.028, 0.998, 192.0, 0.0, 0.0, 0.0, 0.0, 0.0, 0.0, 0.0, 0.0, 0.0, 1.6444981791475236E9, 0.0, 2022-02-11 00:02:59.147
26.0, -10023.684504471363, -12537.67461033757, -9877.235874800192, -16105.840039949422, -3671.497544228738, -3831.6924967399236, -5758.703441465312, -6630.935565344759, -17558.18933942191, -11970.32028082851, -24578.62640364485, -14292.934750668377, -8951.136046783453, -12791.590427349858, -9642.073171385906, -10849.380296394862, 0.006, -0.028, 0.998, 192.0, 0.0, 0.0, 0.0, 0.0, 0.0, 0.0, 0.0, 0.0, 0.0, 1.6444981791475303E9, 0.0, 2022-02-11 00:02:59.147
28.0, -10052.048868185148, -12566.508360684915, -9883.092031847482, -16110.71272024068, -3682.248733311741, -3839.8732352105662, -5757.787019942644, -6640.099780571435, -17565.364249392063, -11980.46797281122, -24599.72645041066, -14311.576105544103, -8966.067012079598, -12805.940247290166, -9651.460904057134, -10859.751505822123, 0.006, -0.026000000000000002, 0.99, 192.0, 0.0, 24.0, 127.5, 24.0, 15.0, 120.0, 0.0, 0.0, 0.0, 1.6444981791475372E9, 0.0, 2022-02-11 00:02:59.147
30.0, -10063.403554368444, -12591.184686563574, -9886.064813860037, -16112.210287119186, -3686.987303136266, -3842.823665478667, -5759.932787410354, -6645.486550985164, -17575.780162308238, -11986.771164747617, -24598.340642254432, -14307.888067708978, -8984.931884399877, -12813.361026449327, -9652.511436046534, -10859.14800872183, 0.006, -0.026000000000000002, 0.99, 192.0, 0.0, 0.0, 0.0, 0.0, 0.0, 0.0, 0.0, 0.0, 0.0, 1.6444981791475444E9, 0.0, 2022-02-11 00:02:59.147
32.0, -10115.416063715944, -12622.722997990013, -9906.427253058822, -16122.201516890707, -3714.4128935829276, -3856.52528482977, -5776.137802140451, -6644.883053884871, -17590.174685737453, -12001.99270272168, -24618.30075005302, -14326.574126073614, -8993.626712992993, -12818.948962563154, -9663.396735596269, -10867.328747192472, 0.006, -0.026000000000000002, 0.99, 192.0, 0.0, 0.0, 0.0, 0.0, 0.0, 0.0, 0.0, 0.0, 0.0, 1.6444981791475518E9, 0.0, 2022-02-11 00:02:59.147
34.0, -10135.95731687037, -12640.671448787625, -9899.00647389966, -16120.458080823193, -3710.434283069883, -3846.5340550582478, -5765.163095612896, -6641.664402683306, -17613.755776137805, -12003.713787044739, -24643.69233175425, -14340.991001247288, -9008.088291655577, -12825.743892877566, -9675.980767724606, -10871.8661513169, 0.006, -0.026000000000000002, 0.99, 192.0, 0.0, 0.0, 0.0, 0.0, 0.0, 0.0, 0.0, 0.0, 0.0, 1.6444981791475587E9, 0.0, 2022-02-11 00:02:59.147
36.0, -10163.91934918396, -12670.332213679816, -9908.260096104157, -16124.14611865832, -3715.9328122058887, -3842.8013137342114, -5773.008557916708, -6619.871451839382, -17620.170726796478, -12014.599086594473, -24647.089796911456, -14362.761600346757, -9010.032893423187, -12827.196756267162, -9675.757250280054, -10863.081915745965, 0.008, -0.027000000000000003, 0.99, 192.0, 0.0, 40.0, 127.5, 16.0, 15.0, 120.0, 0.0, 0.0, 0.0, 1.6444981791475692E9, 0.0, 2022-02-11 00:02:59.147
38.0, -10194.742404787828, -12724.021103861465, -9914.317418851546, -16123.72143551367, -3726.7063530333467, -3852.7031365279126, -5780.563447542602, -6636.210577036211, -17632.30772403571, -12021.885755286903, -24678.918681015813, -14366.047306781687, -9028.853062254557, -12834.572831937414, -9684.653244573265, -10867.90989254831, 0.008, -0.027000000000000003, 0.99, 192.0, 0.0, 0.0, 0.0, 0.0, 0.0, 0.0, 0.0, 0.0, 0.0, 1.644498179147576E9, 0.0, 2022-02-11 00:02:59.147
40.0, -10213.048483496725, -12722.769406171967, -9908.975351926727, -16123.855545980401, -3720.0008296967544, -3849.395078348527, -5761.273892077672, -6627.783969376561, -17646.88106142057, -12031.675819358328, -24679.343364160464, -14352.055114752666, -9045.862739785045, -12841.568927951925, -9684.876762017819, -10866.077049502976, 0.008, -0.027000000000000003, 0.99, 192.0, 0.0, 0.0, 0.0, 0.0, 0.0, 0.0, 0.0, 0.0, 0.0, 1.644498179147583E9, 0.0, 2022-02-11 00:02:59.147
42.0, -10222.16799523449, -12730.123130097763, -9912.283410106113, -16120.748653501112, -3737.5469490941705, -3861.5320755877588, -5786.441956334348, -6643.921928873293, -17641.226070073375, -12018.555345363064, -24676.258823425633, -14364.728553858824, -9037.413780380939, -12854.599994969369, -9687.380157396812, -10868.178113481774, 0.008, -0.027000000000000003, 0.99, 192.0, 0.0, 0.0, 0.0, 0.0, 0.0, 0.0, 0.0, 0.0, 0.0, 1.6444981791475897E9, 0.0, 2022-02-11 00:02:59.147
44.0, -10216.468300398386, -12749.837368707344, -9912.283410106113, -16117.977037188655, -3738.1280944500086, -3859.5651220756918, -5759.5975112435235, -6619.893803583837, -17643.170671840988, -12041.599993896485, -24678.672811826804, -14361.420495679438, -9054.289347444696, -12861.953718895164, -9693.459831888656, -10868.513389648604, 0.008, -0.027000000000000003, 0.99, 192.0, 0.0, 0.0, 0.0, 0.0, 0.0, 0.0, 0.0, 0.0, 0.0, 1.6444981791475973E9, 0.0, 2022-02-11 00:02:59.147
46.0, -10228.828815082172, -12730.61486847578, -9915.256192118668, -16127.387121604339, -3749.2145596998407, -3870.808049536711, -5776.920113196387, -6632.589594434452, -17642.79069218525, -12037.95665955027, -24677.130541459388, -14362.828655580122, -9065.59933013908, -12848.87794838881, -9688.855372530863, -10864.691241346747, 0.011, -0.025500000000000002, 0.991, 192.0, 0.0, 56.0, 127.5, 32.0, 15.5, 0.0, 0.0, 0.0, 0.0, 1.6444981791476045E9, 0.0, 2022-02-11 00:02:59.147
48.0, -10214.568402119685, -12710.431243232637, -9919.927706709828, -16129.108205927398, -3761.753888339268, -3871.210380936907, -5788.1853924018615, -6633.260146768111, -17642.54482299624, -12037.2414037277, -24694.766067834626, -14383.481667456826, -9065.867551072544, -12854.912919391743, -9698.10899473536, -10869.608625126913, 0.011, -0.025500000000000002, 0.991, 192.0, 0.0, 0.0, 0.0, 0.0, 0.0, 0.0, 0.0, 0.0, 0.0, 1.6444981791476111E9, 0.0, 2022-02-11 00:02:59.147
50.0, -10193.133079187046, -12715.840365390823, -9912.14929963938, -16127.342418115428, -3763.5196761512375, -3878.6088083516133, -5778.037700419152, -6640.636222438362, -17635.615782215093, -12028.993610023692, -24688.664041598327, -14369.623585894537, -9081.17849602443, -12871.587320755401, -9704.389834927302, -10869.116886748898, 0.011, -0.025500000000000002, 0.991, 192.0, 0.0, 0.0, 0.0, 0.0, 0.0, 0.0, 0.0, 0.0, 0.0, 1.6444981791476185E9, 0.0, 2022-02-11 00:02:59.147
52.0, -10190.070890196668, -12691.052280789887, -9918.273677620135, -16124.660208780791, -3774.404975700972, -3880.3745961635827, -5776.920113196387, -6642.044382339047, -17630.63134320156, -12038.71661886175, -24679.969213005214, -14360.816998579145, -9087.906371105477, -12871.028527144019, -9702.691102348697, -10870.949729794233, 0.011, -0.025500000000000002, 0.991, 192.0, 0.0, 0.0, 0.0, 0.0, 0.0, 0.0, 0.0, 0.0, 0.0, 1.6444981791476257E9, 0.0, 2022-02-11 00:02:59.147
54.0, -10162.622948005552, -12676.657757360668, -9916.329075852524, -16121.307447112495, -3779.657635647969, -3880.396947908038, -5798.6907122958555, -6633.908347357315, -17616.840316872636, -12021.773996564627, -24678.672811826804, -14372.439905695905, -9086.31939724915, -12870.670899232735, -9707.049692517483, -10868.379279181872, 0.011, -0.025500000000000002, 0.991, 192.0, 0.0, 0.0, 0.0, 0.0, 0.0, 0.0, 0.0, 0.0, 0.0, 1.6444981791476328E9, 0.0, 2022-02-11 00:02:59.147
56.0, -10157.52675026974, -12677.596530627792, -9921.112349165958, -16124.14611865832, -3797.8743073790442, -3893.338607947661, -5800.747072785744, -6639.69744917124, -17613.509906948795, -12009.94992374777, -24676.571747848007, -14356.12313224353, -9090.163897295464, -12868.011041642552, -9710.78243384152, -10867.418154170295, 0.0125, -0.02475, 0.9904999999999999, 192.0, 0.0, 56.0, 127.5, 32.0, 15.0, 120.0, 0.0, 0.0, 0.0, 1.6444981791476395E9, 0.0, 2022-02-11 00:02:59.147
58.0, -10173.620006277562, -12682.536266152414, -9921.604087543976, -16128.61646754938, -3807.083226094631, -3895.1714509929957, -5786.24079063425, -6637.2164055367, -17613.934590093446, -12025.484386144208, -24687.79232356457, -14370.249434739286, -9115.175499340952, -12880.617425515346, -9718.002047300584, -10877.208218241718, 0.0125, -0.02475, 0.9904999999999999, 192.0, 0.0, 0.0, 0.0, 0.0, 0.0, 0.0, 0.0, 0.0, 0.0, 1.6444981791476464E9, 0.0, 2022-02-11 00:02:59.147
60.0, -10167.316814341166, -12672.656795103168, -9916.932572952815, -16133.355037373905, -3799.3942260020053, -3896.4678521714036, -5779.356453342015, -6643.161969561812, -17614.895715105024, -12025.283220444111, -24682.852588039947, -14366.31552771515, -9106.793595170211, -12879.253969103573, -9716.616239144354, -10870.8156193275, 0.0125, -0.02475, 0.9904999999999999, 192.0, 0.0, 0.0, 0.0, 0.0, 0.0, 0.0, 0.0, 0.0, 0.0, 1.6444981791476533E9, 0.0, 2022-02-11 00:02:59.147
62.0, -10171.854218465593, -12690.56054241187, -9929.069570192049, -16136.886612997845, -3820.8742524235554, -3915.176262280496, -5805.776215288189, -6651.879149899381, -17622.942343108934, -12030.602935624473, -24696.621262624416, -14384.107516301576, -9133.593336772125, -12906.053710705484, -9719.499614179089, -10876.87294207489, 0.0125, -0.02475, 0.9904999999999999, 192.0, 0.0, 0.0, 0.0, 0.0, 0.0, 0.0, 0.0, 0.0, 0.0, 1.6444981791476603E9, 0.0, 2022-02-11 00:02:59.147
64.0, -10156.967956658358, -12650.036829714398, -9924.085131178515, -16129.376426860861, -3821.5671565016696, -3912.6281634125908, -5807.899631011443, -6649.263995798111, -17610.313607491687, -12026.110234988957, -24696.420096924317, -14380.598292422092, -9137.23667111834, -12905.338454882914, -9728.529718939033, -10875.53183740757, 0.0125, -0.02475, 0.9904999999999999, 192.0, 0.0, 0.0, 0.0, 0.0, 0.0, 0.0, 0.0, 0.0, 0.0, 1.644498179147668E9, 0.0, 2022-02-11 00:02:59.147
66.0, -10157.258529336277, -12684.41381268666, -9930.030695203626, -16130.158737916798, -3844.432991079449, -3921.010067583331, -5817.086197982574, -6640.0774288269795, -17616.035654072246, -12012.945057504781, -24685.735963074683, -14369.668289383448, -9135.04620016172, -12925.209155703684, -9733.447102719201, -10873.9672152957, 0.01225, -0.027375, 0.99525, 192.0, 0.0, 48.0, 127.5, 8.0, 15.5, 32.0, 0.0, 0.0, 0.0, 1.6444981791476753E9, 0.0, 2022-02-11 00:02:59.147
68.0, -10157.571453758652, -12680.345795195795, -9933.025828960637, -16132.371560617872, -3853.95483421741, -3926.620355441613, -5818.963744516819, -6647.207635308223, -17615.655674416503, -12039.901261317882, -24696.46480041323, -14383.951054090388, -9154.112238182097, -12911.999274730597, -9745.070009835961, -10878.705785120224, 0.01225, -0.027375, 0.99525, 192.0, 0.0, 0.0, 0.0, 0.0, 0.0, 0.0, 0.0, 0.0, 0.0, 1.6444981791476853E9, 0.0, 2022-02-11 00:02:59.147
70.0, -10142.282860551222, -12661.726792064524, -9928.53312832512, -16133.645610051824, -3851.4067353495047, -3925.7709891523114, -5820.863642795521, -6645.441847496253, -17608.927799335455, -12029.15007223488, -24691.12273348841, -14378.430173209927, -9158.694345795435, -12898.36471061286, -9746.925204625752, -10873.944863551244, 0.01225, -0.027375, 0.99525, 192.0, 0.0, 0.0, 0.0, 0.0, 0.0, 0.0, 0.0, 0.0, 0.0, 1.6444981791476924E9, 0.0, 2022-02-11 00:02:59.147
72.0, -10150.173026343946, -12670.153399724175, -9937.429122618332, -16136.305467642007, -3869.8245727806775, -3943.898253905565, -5825.289288197671, -6670.699318730751, -17610.760642380792, -12026.110234988957, -24698.454105669753, -14390.835391382623, -9154.849845749122, -12912.289847408516, -9752.200216317204, -10880.985663054666, 0.01225, -0.027375, 0.99525, 192.0, 0.0, 0.0, 0.0, 0.0, 0.0, 0.0, 0.0, 0.0, 0.0, 1.644498179147699E9, 0.0, 2022-02-11 00:02:59.147
74.0, -10135.376171514532, -12653.389591382695, -9929.717770781252, -16133.310333884996, -3878.00531125132, -3940.836064915188, -5838.745038359766, -6659.724612203195, -17606.133831278545, -12021.550479120075, -24702.41036443834, -14393.405841994983, -9183.124802485085, -12936.832062820444, -9753.384858773334, -10884.092555533953, 0.01225, -0.027375, 0.99525, 192.0, 0.0, 0.0, 0.0, 0.0, 0.0, 0.0, 0.0, 0.0, 0.0, 1.6444981791477065E9, 0.0, 2022-02-11 00:02:59.147
76.0, -10145.032125119225, -12668.521722378937, -9934.545747583597, -16132.975057718166, -3893.0256835252862, -3960.6173587581347, -5843.327145973104, -6665.401955294843, -17611.744119136827, -12027.652505356373, -24694.296681201064, -14386.65561516948, -9184.175334474485, -12939.111940754885, -9757.564634986476, -10884.919570078799, 0.013125000000000001, -0.025687500000000002, 0.993625, 192.0, 0.0, 56.0, 127.5, 32.0, 15.5, 0.0, 0.0, 0.0, 0.0, 1.6444981791477134E9, 0.0, 2022-02-11 00:02:59.147
78.0, -10142.52872974023, -12659.826893785823, -9932.06470394906, -16127.342418115428, -3898.6359713835686, -3960.9302831805094, -5841.159026760939, -6665.536065761575, -17611.610008670094, -12026.981953022714, -24708.244169741174, -14386.543856447204, -9192.221962478396, -12958.736772386645, -9768.762858958586, -10892.742680638157, 0.013125000000000001, -0.025687500000000002, 0.993625, 192.0, 0.0, 0.0, 0.0, 0.0, 0.0, 0.0, 0.0, 0.0, 0.0, 1.64449817914772E9, 0.0, 2022-02-11 00:02:59.147
80.0, -10130.928174367926, -12662.12912346472, -9931.975296971237, -16126.76127275959, -3900.0664830287083, -3954.962367410942, -5828.954974288342, -6663.099725615946, -17602.57990391015, -12015.38139765041, -24694.967233534724, -14382.252321511785, -9195.284151468773, -12951.003068805108, -9769.612225247887, -10886.8194683575, 0.013125000000000001, -0.025687500000000002, 0.993625, 192.0, 0.0, 0.0, 0.0, 0.0, 0.0, 0.0, 0.0, 0.0, 0.0, 1.644498179147727E9, 0.0, 2022-02-11 00:02:59.147
82.0, -10140.964107628359, -12659.603376341269, -9945.319288411056, -16140.261726410596, -3922.4629309729257, -3972.776707741822, -5844.422381451414, -6679.438850812776, -17609.754813880303, -12017.594220351484, -24709.562922664038, -14397.473859485848, -9199.620389893102, -12945.616298391378, -9777.345928829423, -10892.340349237962, 0.013125000000000001, -0.025687500000000002, 0.993625, 192.0, 0.0, 0.0, 0.0, 0.0, 0.0, 0.0, 0.0, 0.0, 0.0, 1.644498179147734E9, 0.0, 2022-02-11 00:02:59.147
84.0, -10139.2430233053, -12664.140780465697, -9943.3970383879, -16130.851641994912, -3931.5600909662357, -3978.07407117773, -5849.5185791872245, -6681.316397347021, -17605.373871967062, -12012.430967382308, -24718.41421346834, -14419.959714407887, -9212.8749743551, -12949.080818781951, -9788.968835946183, -10895.134317294875, 0.013125000000000001, -0.025687500000000002, 0.993625, 192.0, 0.0, 0.0, 0.0, 0.0, 0.0, 0.0, 0.0, 0.0, 0.0, 1.6444981791477416E9, 0.0, 2022-02-11 00:02:59.147
86.0, -10148.071962365148, -12665.8395130443, -9944.693439566308, -16126.202479148207, -3946.3122423067384, -3987.9311904825204, -5856.045288568174, -6675.683757744284, -17610.71593889188, -12030.021790268636, -24702.41036443834, -14393.986987350821, -9237.551300233758, -12981.490848242147, -9795.316731371491, -10892.094480048952, 0.0125625, -0.02484375, 0.9918125, 192.0, 0.0, 48.0, 127.5, 32.0, 15.0, 120.0, 0.0, 0.0, 0.0, 1.6444981791477487E9, 0.0, 2022-02-11 00:02:59.147
88.0, -10157.258529336277, -12681.21751322955, -9949.521416368654, -16133.444444351728, -3959.9468064244757, -4000.5375743553136, -5866.796477651176, -6696.314417876532, -17606.37970046755, -12036.302630460577, -24716.536666934095, -14406.101632845597, -9225.973096605909, -12970.337327758949, -9804.36918787589, -10896.900105106844, 0.0125625, -0.02484375, 0.9918125, 192.0, 0.0, 0.0, 0.0, 0.0, 0.0, 0.0, 0.0, 0.0, 0.0, 1.6444981791477556E9, 0.0, 2022-02-11 00:02:59.147
90.0, -10149.681287965928, -12687.185428999119, -9949.767285557662, -16134.517328085582, -3951.5649022537355, -4003.040969734308, -5870.775088164221, -6679.260036857133, -17613.465203459884, -12033.57571763703, -24725.253847271666, -14405.811060167678, -9246.15672184905, -12980.976758119674, -9807.945466988738, -10897.324788251495, 0.0125625, -0.02484375, 0.9918125, 192.0, 0.0, 0.0, 0.0, 0.0, 0.0, 0.0, 0.0, 0.0, 0.0, 1.6444981791477628E9, 0.0, 2022-02-11 00:02:59.147
92.0, -10159.739572970817, -12678.46824866155, -9962.932463041838, -16142.09456945593, -3978.7222717669338, -4020.587089131724, -5878.262922556749, -6692.648731785862, -17617.980255839855, -12033.352200192476, -24729.701844418272, -14418.842127185122, -9257.287890587795, -12993.896066414842, -9808.32544664448, -10901.593971442458, 0.0125625, -0.02484375, 0.9918125, 192.0, 0.0, 0.0, 0.0, 0.0, 0.0, 0.0, 0.0, 0.0, 0.0, 1.6444981791477702E9, 0.0, 2022-02-11 00:02:59.147
94.0, -10152.050572878192, -12682.759783596968, -9958.640928106419, -16137.400703120316, -3982.7902892577995, -4020.989420531919, -5873.010262609752, -6696.649694043362, -17613.308741248697, -12022.153976220367, -24728.51720196214, -14437.841109972134, -9265.088649402696, -13009.676398000289, -9821.758845062119, -10907.338369767473, 0.0125625, -0.02484375, 0.9918125, 192.0, 0.0, 0.0, 0.0, 0.0, 0.0, 0.0, 0.0, 0.0, 0.0, 1.6444981791477773E9, 0.0, 2022-02-11 00:02:59.147
96.0, -10155.470389779854, -12686.537228409914, -9961.88193105244, -16136.283115897551, -4001.3645889001596, -4021.5929176322124, -5889.394091295492, -6701.9470574792695, -17620.237782029842, -12033.531014148119, -24725.499716460672, -14414.550592249703, -9276.376280352626, -12996.466517027202, -9828.553775376533, -10901.996302842654, 0.00728125, -0.026421875, 0.99190625, 192.0, 0.0, 8.0, 127.5, 16.0, 15.5, 0.0, 0.0, 0.0, 0.0, 1.6444981791477845E9, 0.0, 2022-02-11 00:02:59.147
98.0, -10158.398468303498, -12679.384670184216, -9967.760439844185, -16137.311296142496, -4013.1216064836512, -4033.618156149168, -5895.339655320604, -6701.075339445512, -17615.745081394325, -12038.403694439376, -24743.224649813732, -14437.639944272036, -9271.950634950475, -12998.81345019501, -9837.941508047761, -10903.203297043241, 0.00728125, -0.026421875, 0.99190625, 192.0, 0.0, 0.0, 0.0, 0.0, 0.0, 0.0, 0.0, 0.0, 0.0, 1.6444981791477911E9, 0.0, 2022-02-11 00:02:59.147
100.0, -10170.244892864812, -12700.283551249928, -9963.178332230847, -16136.707799042202, -4016.2061472184837, -4038.960223073986, -5903.07335890214, -6708.697284304772, -17618.561401195693, -12037.487272916707, -24732.384053752907, -14430.353275579606, -9291.419004371048, -13022.908630717831, -9845.585804651477, -10901.124584808897, 0.00728125, -0.026421875, 0.99190625, 192.0, 0.0, 0.0, 0.0, 0.0, 0.0, 0.0, 0.0, 0.0, 0.0, 1.6444981791478016E9, 0.0, 2022-02-11 00:02:59.147
102.0, -10176.503381312297, -12696.37199597025, -9971.895512568417, -16140.418188621783, -4034.8475020942096, -4046.649223166612, -5907.811928726665, -6712.251211673166, -17623.72465416487, -12040.14713050689, -24745.32571379253, -14442.110293163098, -9298.035120729819, -13030.351761621449, -9843.484740672677, -10903.49386972116, 0.00728125, -0.026421875, 0.99190625, 192.0, 0.0, 0.0, 0.0, 0.0, 0.0, 0.0, 0.0, 0.0, 0.0, 1.6444981791478088E9, 0.0, 2022-02-11 00:02:59.147
104.0, -10168.546160286209, -12701.736414639523, -9968.721564855763, -16139.032380465555, -4047.029202822352, -4059.389717506137, -5906.716693248355, -6708.227897671211, -17617.44381397293, -12039.297764217588, -24751.047760373087, -14453.979069468865, -9304.874754533143, -13043.271069916615, -9854.124171033403, -10905.170250555308, 0.00728125, -0.026421875, 0.99190625, 192.0, 0.0, 0.0, 0.0, 0.0, 0.0, 0.0, 0.0, 0.0, 0.0, 1.6444981791478167E9, 0.0, 2022-02-11 00:02:59.147
106.0, -10170.177837631445, -12705.849135619299, -9982.490239440232, -16140.932278744254, -4060.8425808957318, -4067.8833803991533, -5920.060684688174, -6721.750703066672, -17623.43408148695, -12029.2394792127, -24747.51618474915, -14448.413485099494, -9314.307190693282, -13051.72002932072, -9863.534255449087, -10905.997265100154, 0.002, -0.028, 0.994, 192.0, 0.0, 8.0, 127.5, 16.0, 15.5, 8.0, 0.0, 0.0, 0.0, 1.6444981796272972E9, 0.0, 2022-02-11 00:02:59.627
108.0, -10184.34884361611, -12717.248525291507, -9981.909094084394, -16147.838967780945, -4078.3663485486927, -4076.37704329217, -5935.528091851246, -6733.306554950065, -17622.00356984181, -12036.593203138496, -24760.56960351105, -14461.444552116938, -9327.047685032807, -13062.895901548374, -9870.306834019046, -10915.384997771383, 0.002, -0.028, 0.994, 192.0, 0.0, 0.0, 0.0, 0.0, 0.0, 0.0, 0.0, 0.0, 0.0, 1.6444981796273065E9, 0.0, 2022-02-11 00:02:59.627
110.0, -10172.167142887967, -12695.075594791842, -9983.518419685177, -16156.422037651782, -4079.61804623819, -4084.7142439739996, -5907.566059537657, -6728.7691508256385, -17622.517659964284, -12031.89933680288, -24754.199356341287, -14472.329851666673, -9330.109874023185, -13060.168988724827, -9874.665424187831, -10916.502584994148, 0.002, -0.028, 0.994, 192.0, 0.0, 0.0, 0.0, 0.0, 0.0, 0.0, 0.0, 0.0, 0.0, 1.6444981796273131E9, 0.0, 2022-02-11 00:02:59.627
112.0, -10183.007738948792, -12719.349589270305, -9992.749690145218, -16147.8613195254, -4096.940648191053, -4108.8764797301865, -5918.652524787489, -6735.117046250945, -17627.39034025554, -12039.275412473133, -24771.052571660588, -14477.694270335945, -9345.577281186257, -13087.840448360497, -9877.034709100093, -10920.034160618086, 0.002, -0.028, 0.994, 192.0, 0.0, 0.0, 0.0, 0.0, 0.0, 0.0, 0.0, 0.0, 0.0, 1.6444981796273215E9, 0.0, 2022-02-11 00:02:59.627
114.0, -10174.737593500327, -12722.65764744969, -9986.267684253178, -16137.311296142496, -4103.445005827547, -4112.05042744284, -5929.157844681483, -6731.2948979490875, -17620.662465174493, -12034.00040078168, -24765.241118102207, -14461.869235261589, -9349.310022510293, -13098.323416510037, -9884.4331365148, -10921.509375752137, 0.002, -0.028, 0.994, 192.0, 0.0, 0.0, 0.0, 0.0, 0.0, 0.0, 0.0, 0.0, 0.0, 1.6444981796273425E9, 0.0, 2022-02-11 00:02:59.627
116.0, -10199.391567634531, -12740.024952891465, -9989.732204643751, -16149.492996870638, -4114.486767588469, -4120.7899595248655, -5939.439647130925, -6752.841979604003, -17627.792671655738, -12040.549461907085, -24755.026370886135, -14469.781752798768, -9349.064153321286, -13104.693663679798, -9886.377738282412, -10924.437454275781, 0.01, -0.026000000000000002, 0.99, 192.0, 0.0, 40.0, 127.5, 24.0, 15.0, 120.0, 0.0, 0.0, 0.0, 1.6444981796273496E9, 0.0, 2022-02-11 00:02:59.627
118.0, -10200.330340901655, -12736.873356923266, -9995.811879135596, -16152.264613183095, -4134.424523642602, -4132.144645708161, -5958.662147362488, -6756.485313950219, -17627.993837355833, -12047.322040477044, -24764.056475646077, -14484.668014606003, -9359.413011004091, -13112.561477728068, -9897.732424465708, -10934.451035791759, 0.01, -0.026000000000000002, 0.99, 192.0, 0.0, 0.0, 0.0, 0.0, 0.0, 0.0, 0.0, 0.0, 0.0, 1.6444981796273568E9, 0.0, 2022-02-11 00:02:59.627
120.0, -10180.124363914058, -12715.929772368643, -9994.962512846294, -16151.459950382705, -4137.799637055354, -4138.783113811388, -5964.026566031763, -6751.791447614604, -17623.188212297944, -12026.870194300438, -24763.90001343489, -14500.269532235807, -9368.063136108296, -13111.198021316293, -9902.694511734786, -10931.053570634553, 0.01, -0.026000000000000002, 0.99, 192.0, 0.0, 0.0, 0.0, 0.0, 0.0, 0.0, 0.0, 0.0, 0.0, 1.6444981796273637E9, 0.0, 2022-02-11 00:02:59.627
122.0, -10206.991160749336, -12740.695505225123, -10008.664132197397, -16147.011953236099, -4161.850114089264, -4151.568311639823, -5976.923522582474, -6742.515473665652, -17626.29510477723, -12030.893508302392, -24764.861138446468, -14492.245255976351, -9380.580113003269, -13129.727617469744, -9908.461261804256, -10931.277088079107, 0.01, -0.026000000000000002, 0.99, 192.0, 0.0, 0.0, 0.0, 0.0, 0.0, 0.0, 0.0, 0.0, 0.0, 1.6444981796273706E9, 0.0, 2022-02-11 00:02:59.627
124.0, -10201.045596724225, -12743.020086648476, -10003.858507139506, -16143.793302034534, -4155.479866919502, -4146.695631348566, -5948.134475724039, -6743.901281821881, -17629.267886789785, -12039.498929917685, -24778.450999075296, -14499.06253803522, -9390.638398008155, -13132.722751226755, -9914.697398507285, -10926.06913162102, 0.01, -0.026000000000000002, 0.99, 192.0, 0.0, 0.0, 0.0, 0.0, 0.0, 0.0, 0.0, 0.0, 0.0, 1.6444981796273897E9, 0.0, 2022-02-11 00:02:59.627
126.0, -10205.02420723727, -12739.08617962434, -10007.300675785622, -16151.43759863825, -4163.995881556974, -4164.040585045885, -5959.667975862977, -6766.297729766099, -17629.24553504533, -12040.370647951442, -24769.219728615255, -14504.315197982216, -9392.940627687052, -13141.730504242243, -9912.976314184227, -10925.555041498548, 0.008, -0.026000000000000002, 0.986, 192.0, 0.0, 32.0, 127.5, 24.0, 15.0, 104.0, 0.0, 0.0, 0.0, 1.6444981796273963E9, 0.0, 2022-02-11 00:02:59.627
