%OpenBCI Raw EEG Data
%Number of channels = 16
%Sample Rate = 125 Hz
%Board = OpenBCI_GUI$BoardCytonSerialDaisy
Sample Index, EXG Channel 0, EXG Channel 1, EXG Channel 2, EXG Channel 3, EXG Channel 4, EXG Channel 5, EXG Channel 6, EXG Channel 7, EXG Channel 8, EXG Channel 9, EXG Channel 10, EXG Channel 11, EXG Channel 12, EXG Channel 13, EXG Channel 14, EXG Channel 15, Accel Channel 0, Accel Channel 1, Accel Channel 2, Other, Other, Other, Other, Other, Other, Other, Analog Channel 0, Analog Channel 1, Analog Channel 2, Timestamp, Other, Timestamp (Formatted)
36.0, -1257.330329099933, -3980.421004345537, -6117.471291717446, -10928.058436877542, 95.03961742396564, -590.4436815313913, -2946.988099454415, -3310.1145398753333, -8066.610463453587, -3242.9475477871356, -17312.163688202345, -6902.263391287732, -1962.1702387535859, -6329.723457065041, -6762.922616353348, -6036.155645389038, 0.0, 0.0, 0.0, 192.0, 0.0, 0.0, 0.0, 0.0, 0.0, 0.0, 0.0, 0.0, 0.0, 1.6444983962538912E9, 0.0, 2022-02-11 00:06:36.253
38.0, -1240.231244591623, -3978.744623511389, -6112.889184104108, -10925.242117076174, 104.56146056192644, -587.6050099855673, -2946.4516575874877, -3309.868670686325, -8059.636719183532, -3247.239082722555, -17293.030594948603, -6872.088536273067, -1950.3685176811837, -6313.853718501773, -6750.115066780457, -6025.71738072841, 0.0, 0.0, 0.0, 192.0, 0.0, 0.0, 0.0, 0.0, 0.0, 0.0, 0.0, 0.0, 0.0, 1.6444983962539E9, 0.0, 2022-02-11 00:06:36.253
40.0, -1264.7511082590947, -3989.4734608499366, -6110.5422509363, -10919.765939684623, 108.33890537487333, -586.3533122960702, -2954.5206373358533, -3309.198118352666, -8062.4530389849, -3255.196303748644, -17305.70403405476, -6883.711443389827, -1946.032279256854, -6309.092796932793, -6751.657337147873, -6026.454988295435, 0.0, 0.0, 0.0, 192.0, 0.0, 0.0, 0.0, 0.0, 0.0, 0.0, 0.0, 0.0, 0.0, 1.6444983962539067E9, 0.0, 2022-02-11 00:06:36.253
42.0, -1245.5956632608966, -3965.043004160286, -6094.270180972837, -10909.64059944637, 131.18238820819715, -563.4651259738357, -2937.7791807388285, -3276.899847614747, -8055.769867392763, -3240.555911130418, -17288.24732163517, -6868.087574015567, -1935.325793662762, -6296.620523526732, -6735.318211951043, -6007.277191552782, 0.0, 0.0, 0.0, 192.0, 0.0, 0.0, 0.0, 0.0, 0.0, 0.0, 0.0, 0.0, 0.0, 1.644498396253914E9, 0.0, 2022-02-11 00:06:36.253
44.0, -1246.9144161837598, -3963.701899492967, -6099.433433942013, -10912.345160525461, 127.78492305099047, -569.3212830211262, -2925.664535244052, -3286.4663942416187, -8055.1216668035595, -3243.908672798714, -17285.632167533895, -6865.651233869939, -1928.486159859438, -6279.923770418617, -6730.289069448599, -6001.510441483312, 0.003, -0.015, 0.493, 192.0, 0.0, 24.0, 127.5, 8.0, 15.0, 104.0, 0.0, 0.0, 0.0, 1.6444983962539208E9, 0.0, 2022-02-11 00:06:36.253
46.0, -1218.4382937476987, -3942.3336317936937, -6078.892180787585, -10897.481250462683, 158.31740597693994, -549.8529136005537, -2888.0018458368595, -3265.3663474758087, -8031.250003725291, -3227.144864457234, -17286.056850678546, -6862.521989646196, -1920.6406975556254, -6277.219209339525, -6720.543708866086, -5992.905019868019, 0.003, -0.015, 0.493, 192.0, 0.0, 0.0, 0.0, 0.0, 0.0, 0.0, 0.0, 0.0, 0.0, 1.6444983962539277E9, 0.0, 2022-02-11 00:06:36.253
48.0, -1219.4217705037322, -3953.2189313434283, -6072.387823151091, -10883.980796811677, 162.0501473009762, -550.4117072119365, -2888.1359563035917, -3261.253626496032, -8031.942907803405, -3225.468483623086, -17255.859643919426, -6844.104152215023, -1903.4522060694942, -6288.350378078268, -6702.014112712635, -5977.035281304751, 0.003, -0.015, 0.493, 192.0, 0.0, 0.0, 0.0, 0.0, 0.0, 0.0, 0.0, 0.0, 0.0, 1.6444983962539344E9, 0.0, 2022-02-11 00:06:36.253
50.0, -1211.911584366749, -3928.7884746537775, -6074.377128407613, -10878.325805464483, 163.77123162403484, -543.2591489862382, -2892.6510086835633, -3268.36148123282, -8015.804948306674, -3217.913593997192, -17259.547681754553, -6832.928279987369, -1891.4716710414496, -6270.491334258478, -6702.349388879466, -5976.811763860198, 0.003, -0.015, 0.493, 192.0, 0.0, 0.0, 0.0, 0.0, 0.0, 0.0, 0.0, 0.0, 0.0, 1.6444983962539413E9, 0.0, 2022-02-11 00:06:36.253
52.0, -1186.654113132252, -3924.809864140733, -6061.279006156803, -10866.68054660327, 182.8819731333224, -526.4729889003025, -2876.2671799978234, -3233.4480563936304, -8006.551326102177, -3207.005942703002, -17245.93546938127, -6822.087683926545, -1890.0635111407653, -6249.123066559204, -6697.432005099297, -5961.545522397223, 0.003, -0.015, 0.493, 192.0, 0.0, 0.0, 0.0, 0.0, 0.0, 0.0, 0.0, 0.0, 0.0, 1.644498396253948E9, 0.0, 2022-02-11 00:06:36.253
54.0, -1198.2770202490117, -3923.714628662423, -6056.227511909904, -10864.355965179917, 177.74107190860175, -532.5303116476907, -2888.6053429371527, -3253.4752194255852, -8004.316151656646, -3215.387846873742, -17233.30673376402, -6813.214041377788, -1879.5134877578603, -6242.6857641560755, -6685.9208567048145, -5955.667013605477, 0.0045000000000000005, -0.0205, 0.7424999999999999, 192.0, 0.0, 24.0, 127.5, 24.0, 15.5, 0.0, 0.0, 0.0, 0.0, 1.644498396253955E9, 0.0, 2022-02-11 00:06:36.253
56.0, -1180.1497554957575, -3901.832270840677, -6050.952500218452, -10855.549377864525, 190.66038020376925, -517.3087736736267, -2884.5820289351977, -3239.8853587967587, -7986.01007294775, -3198.802852487904, -17235.45250123173, -6809.816576220582, -1863.1743625610309, -6229.386476205168, -6688.536010806086, -5953.744763582321, 0.0045000000000000005, -0.0205, 0.7424999999999999, 192.0, 0.0, 0.0, 0.0, 0.0, 0.0, 0.0, 0.0, 0.0, 0.0, 1.6444983962539616E9, 0.0, 2022-02-11 00:06:36.253
58.0, -1152.2100749266237, -3885.8284218106774, -6048.538511817278, -10855.705840075712, 199.26580181906246, -512.1231689599954, -2874.3002264857564, -3240.9582425306135, -7989.072261938127, -3184.2742185919547, -17221.303846991523, -6797.657227236895, -1866.1471445735867, -6213.18146147507, -6675.594350766462, -5944.088809977628, 0.0045000000000000005, -0.0205, 0.7424999999999999, 192.0, 0.0, 0.0, 0.0, 0.0, 0.0, 0.0, 0.0, 0.0, 0.0, 1.6444983962539701E9, 0.0, 2022-02-11 00:06:36.253
60.0, -1162.1342494647802, -3873.6690728269905, -6045.029287937795, -10843.14415969183, 198.48349076312672, -514.7159713168111, -2874.032005552293, -3243.394582676242, -7969.022747161716, -3179.7591662119826, -17223.36020748141, -6791.354035300498, -1856.3570805021623, -6226.257231981424, -6673.3591763209315, -5940.758400053787, 0.0045000000000000005, -0.0205, 0.7424999999999999, 192.0, 0.0, 0.0, 0.0, 0.0, 0.0, 0.0, 0.0, 0.0, 0.0, 1.644498396253977E9, 0.0, 2022-02-11 00:06:36.253
62.0, -1143.8728742447943, -3873.825535038178, -6028.198424362949, -10830.627182796858, 222.7574852415902, -498.1309769309732, -2846.606415105631, -3225.06615222289, -7967.14520062747, -3190.1750791281556, -17216.006483555615, -6783.195648574311, -1853.205484533964, -6217.629458621676, -6662.362118048921, -5927.727333036343, 0.0045000000000000005, -0.0205, 0.7424999999999999, 192.0, 0.0, 0.0, 0.0, 0.0, 0.0, 0.0, 0.0, 0.0, 0.0, 1.644498396253984E9, 0.0, 2022-02-11 00:06:36.253
64.0, -1149.4831621030762, -3876.1501164615297, -6028.019610407307, -10831.387142108339, 222.4445608192159, -499.27091589819383, -2860.2409792233684, -3220.1264166982673, -7966.027613404705, -3181.5696575128627, -17209.792698597037, -6773.807915903082, -1839.6156239051372, -6210.968638773995, -6652.2814812995775, -5923.234632400827, 0.00625, -0.02525, 0.86525, 192.0, 0.0, 32.0, 127.5, 8.0, 15.0, 112.0, 0.0, 0.0, 0.0, 1.644498396253991E9, 0.0, 2022-02-11 00:06:36.253
66.0, -1129.590109537853, -3858.0228517082755, -6008.439482264457, -10823.161700148787, 243.58931107393636, -485.01050293570796, -2828.903833497028, -3194.846593719315, -7935.629240945487, -3172.5619044973737, -17197.678053102263, -6771.259817035177, -1823.3435539416737, -6198.563420601299, -6646.2688620411, -5915.724446263844, 0.00625, -0.02525, 0.86525, 192.0, 0.0, 0.0, 0.0, 0.0, 0.0, 0.0, 0.0, 0.0, 0.0, 1.6444983962539976E9, 0.0, 2022-02-11 00:06:36.253
68.0, -1114.368571563789, -3838.755647987801, -6002.717435683899, -10816.299714601008, 256.19569494672953, -478.75201448822196, -2824.031153205771, -3209.039951448435, -7936.232738045781, -3168.270369561955, -17169.78307602204, -6749.377459213431, -1812.88293753659, -6198.563420601299, -6634.176568290779, -5908.907164204975, 0.00625, -0.02525, 0.86525, 192.0, 0.0, 0.0, 0.0, 0.0, 0.0, 0.0, 0.0, 0.0, 0.0, 1.6444983962540095E9, 0.0, 2022-02-11 00:06:36.254
70.0, -1101.3822080352554, -3824.919918169966, -6002.873897895086, -10805.369711562362, 257.6485583363245, -469.9230754283757, -2820.1643014150027, -3193.460785563086, -7920.295944249147, -3148.62318618574, -17174.678108057753, -6740.012078286658, -1797.884917007079, -6178.379795358157, -6629.817978121994, -5903.878021702531, 0.00625, -0.02525, 0.86525, 192.0, 0.0, 0.0, 0.0, 0.0, 0.0, 0.0, 0.0, 0.0, 0.0, 1.6444983962540164E9, 0.0, 2022-02-11 00:06:36.254
72.0, -1085.5795247053534, -3807.016170861265, -5995.050787335728, -10801.145231860308, 277.63101787936904, -451.2817205526496, -2808.899022209528, -3181.7037679795944, -7906.124938264483, -3135.256843001466, -17163.07755268545, -6724.097636234479, -1787.4243006019951, -6146.752076953898, -6613.769425603084, -5890.601085496079, 0.00625, -0.02525, 0.86525, 192.0, 0.0, 0.0, 0.0, 0.0, 0.0, 0.0, 0.0, 0.0, 0.0, 1.6444983962540233E9, 0.0, 2022-02-11 00:06:36.254
74.0, -1096.1518998327138, -3813.207604075385, -5993.620275690589, -10792.718624200657, 264.7787648175675, -462.7705172026774, -2818.0408856917484, -3188.1187186382676, -7912.808109856619, -3150.858360631271, -17158.78601775003, -6727.226880458222, -1787.111376179621, -6170.713147009987, -6606.393349932832, -5888.92470466193, 0.008, -0.026000000000000002, 0.988, 192.0, 0.0, 32.0, 127.5, 24.0, 15.0, 112.0, 0.0, 0.0, 0.0, 1.6444983962540302E9, 0.0, 2022-02-11 00:06:36.254
76.0, -1074.9400943446274, -3804.6692376934575, -5981.99736857383, -10781.028661850532, 289.05275929603096, -444.73265942724464, -2809.4578158209106, -3178.82039294486, -7891.775118324175, -3144.108133805768, -17162.183482907236, -6725.595203112985, -1768.9617596819116, -6156.877417192151, -6601.207745219201, -5880.408690024458, 0.008, -0.026000000000000002, 0.988, 192.0, 0.0, 0.0, 0.0, 0.0, 0.0, 0.0, 0.0, 0.0, 0.0, 1.6444983962540371E9, 0.0, 2022-02-11 00:06:36.254
78.0, -1073.8895623552278, -3799.9306678689327, -5972.631987647055, -10779.061708338466, 302.06147456901965, -440.0834965805408, -2810.284830365757, -3179.3121313228767, -7887.08125198856, -3133.4239999561314, -17142.268078597557, -6714.1511099518675, -1769.5876085266602, -6149.523693266356, -6589.271913680067, -5870.529218975213, 0.008, -0.026000000000000002, 0.988, 192.0, 0.0, 0.0, 0.0, 0.0, 0.0, 0.0, 0.0, 0.0, 0.0, 1.6444983962540443E9, 0.0, 2022-02-11 00:06:36.254
80.0, -1065.2841407399346, -3790.9452665978993, -5970.083888779151, -10772.155019301776, 310.5104339731257, -433.33326975503803, -2794.3703883135786, -3160.2460933024995, -7875.860676271996, -3132.4405232000977, -17136.3448663169, -6702.617609812929, -1747.884064660557, -6136.246757059903, -6579.995939731114, -5862.795515393676, 0.008, -0.026000000000000002, 0.988, 192.0, 0.0, 0.0, 0.0, 0.0, 0.0, 0.0, 0.0, 0.0, 0.0, 1.644498396254051E9, 0.0, 2022-02-11 00:06:36.254
82.0, -1036.6515560926862, -3765.620740130036, -5956.136400239039, -10766.388269232306, 327.2295388256954, -424.79490337311074, -2783.283923063746, -3160.4472590025975, -7869.535132591144, -3120.4376364275977, -17132.18744184821, -6695.08507193149, -1749.7616111948028, -6128.334239522725, -6570.96583497117, -5853.698355400366, 0.008, -0.026000000000000002, 0.988, 192.0, 0.0, 0.0, 0.0, 0.0, 0.0, 0.0, 0.0, 0.0, 0.0, 1.6444983962540584E9, 0.0, 2022-02-11 00:06:36.254
84.0, -1044.8769980522393, -3763.4749726623268, -5959.511513651791, -10764.801295375979, 322.7815416790893, -424.4149237173705, -2792.4257865459667, -3157.3180147788544, -7865.958853478295, -3108.211232210545, -17125.10193885588, -6688.401900339353, -1737.9375383779454, -6118.611230684666, -6566.026099446547, -5851.105553043551, 0.01, -0.028, 0.994, 192.0, 0.0, 40.0, 127.5, 16.0, 15.5, 8.0, 0.0, 0.0, 0.0, 1.6444983962540653E9, 0.0, 2022-02-11 00:06:36.254
86.0, -1045.9945852750045, -3763.8996558069775, -5949.296766435715, -10749.244481235086, 339.2994808315612, -415.2954119796052, -2780.8475829181175, -3150.7242501645387, -7856.794638251619, -3095.9624762490366, -17128.633514479818, -6681.428156069298, -1720.525529447261, -6106.384826467613, -6561.533398811031, -5844.467084940325, 0.01, -0.028, 0.994, 192.0, 0.0, 0.0, 0.0, 0.0, 0.0, 0.0, 0.0, 0.0, 0.0, 1.644498396254072E9, 0.0, 2022-02-11 00:06:36.254
88.0, -1045.1675707301583, -3765.106650007564, -5943.08298147714, -10747.501045167572, 346.02735591260864, -416.658868391379, -2770.476373490855, -3146.7903431404047, -7851.161998648882, -3109.9993717669695, -17104.91831361274, -6672.688623987273, -1716.7704363787695, -6123.081579575727, -6551.720982995151, -5839.549701160157, 0.01, -0.028, 0.994, 192.0, 0.0, 0.0, 0.0, 0.0, 0.0, 0.0, 0.0, 0.0, 0.0, 1.6444983962540789E9, 0.0, 2022-02-11 00:06:36.254
90.0, -1040.6748700946416, -3752.992004512788, -5942.233615187838, -10741.041391019988, 348.3966408248712, -417.754103869689, -2768.0400333452267, -3174.014767886969, -7842.377763077947, -3111.4075316676535, -17111.780299160517, -6674.700280988251, -1710.1543200199987, -6115.25846901637, -6552.190369628713, -5841.3601924610375, 0.01, -0.028, 0.994, 192.0, 0.0, 0.0, 0.0, 0.0, 0.0, 0.0, 0.0, 0.0, 0.0, 1.6444983962540865E9, 0.0, 2022-02-11 00:06:36.254
92.0, -1028.403762388678, -3752.723783579324, -5935.416333128969, -10731.854824048856, 362.85821948745485, -393.52481288013615, -2739.385096953523, -3111.161662478645, -7837.236861853226, -3098.465871628031, -17105.611217690854, -6662.585635493474, -1708.2544217412976, -6104.7978526112865, -6548.614090515864, -5827.703276598844, 0.01, -0.028, 0.994, 192.0, 0.0, 0.0, 0.0, 0.0, 0.0, 0.0, 0.0, 0.0, 0.0, 1.6444983962540932E9, 0.0, 2022-02-11 00:06:36.254
94.0, -1022.2346809190132, -3726.684001288891, -5936.913900007475, -10732.190100215686, 363.7522892656671, -392.54133612410266, -2740.63679464302, -3127.590194653296, -7838.734428731732, -3096.9236012606148, -17105.365348501844, -6661.400993037342, -1705.6839711289372, -6092.616151883144, -6540.321593322944, -5820.215442206317, 0.012, -0.028, 0.99, 192.0, 0.0, 48.0, 127.5, 16.0, 15.0, 120.0, 0.0, 0.0, 0.0, 1.6444983962541E9, 0.0, 2022-02-11 00:06:36.254
96.0, -1002.0510556758709, -3715.7539982502462, -5919.2560218877825, -10722.69060882218, 384.58411509801334, -376.4704318607369, -2732.4337044279223, -3118.023648026425, -7817.254402310182, -3077.365824862221, -17101.1855722887, -6666.586597750974, -1688.1378517315213, -6066.889294015085, -6533.794883941995, -5812.414683391415, 0.012, -0.028, 0.99, 192.0, 0.0, 0.0, 0.0, 0.0, 0.0, 0.0, 0.0, 0.0, 0.0, 1.6444983962541072E9, 0.0, 2022-02-11 00:06:36.254
98.0, -985.3319508233012, -3708.824957469101, -5906.493175803802, -10714.442815118173, 398.7774728271333, -374.0117399706531, -2731.472579416344, -3112.525118890419, -7812.046445852095, -3074.951836461048, -17069.736667840083, -6619.469120439187, -1660.891075240502, -6063.91651200253, -6513.879479632316, -5802.848136764543, 0.012, -0.028, 0.99, 192.0, 0.0, 0.0, 0.0, 0.0, 0.0, 0.0, 0.0, 0.0, 0.0, 1.644498396254114E9, 0.0, 2022-02-11 00:06:36.254
100.0, -982.2697618329241, -3705.405140567439, -5904.682684502922, -10705.457413847138, 401.81731007305507, -369.8766672464213, -2740.0556492871824, -3115.1849764806007, -7795.394396232891, -3068.4251270800983, -17066.875644549804, -6622.4642541961975, -1660.1534676734768, -6060.563750334233, -6511.912526120249, -5802.021122219697, 0.012, -0.028, 0.99, 192.0, 0.0, 0.0, 0.0, 0.0, 0.0, 0.0, 0.0, 0.0, 0.0, 1.6444983962541234E9, 0.0, 2022-02-11 00:06:36.254
102.0, -960.2085900555361, -3689.3342363040733, -5892.277466330227, -10701.344692867362, 429.66758366436767, -346.02735591260864, -2705.9468872483835, -3100.723397818017, -7777.378890201913, -3052.7789059613833, -17054.828054288395, -6615.669323881784, -1651.5703978026388, -6032.266441853815, -6497.629761413308, -5790.599380803034, 0.012, -0.028, 0.99, 192.0, 0.0, 0.0, 0.0, 0.0, 0.0, 0.0, 0.0, 0.0, 0.0, 1.6444983962541308E9, 0.0, 2022-02-11 00:06:36.254
104.0, -968.0764041038042, -3682.7851751786684, -5888.589428495101, -10690.63820727327, 430.0475633201079, -355.88447521739903, -2715.3122681751574, -3104.8584705422486, -7774.339052955992, -3062.926597944093, -17057.107932222836, -6608.852041822915, -1635.9018249394685, -6048.583215306189, -6485.828040340905, -5785.212610389306, 0.01, -0.024, 0.996, 192.0, 0.0, 40.0, 127.5, 32.0, 15.5, 16.0, 0.0, 0.0, 0.0, 1.6444983962541375E9, 0.0, 2022-02-11 00:06:36.254
106.0, -955.4700202310111, -3672.6821866848695, -5875.78187892221, -10677.96476816711, 442.56454021507983, -334.8291319404998, -2705.9245355039284, -3087.5582203338413, -7759.542198126579, -3051.370746060699, -17055.923289766706, -6606.393349932832, -1617.9757258863124, -6043.397610592558, -6485.783336851995, -5780.6081510315125, 0.01, -0.024, 0.996, 192.0, 0.0, 0.0, 0.0, 0.0, 0.0, 0.0, 0.0, 0.0, 0.0, 1.644498396254145E9, 0.0, 2022-02-11 00:06:36.254
108.0, -946.730488148986, -3660.433430723361, -5874.619588210534, -10677.87536118929, 449.0241943626636, -327.3412975479719, -2696.9838377218057, -3083.490202842975, -7764.593692373478, -3040.9548331445258, -17034.80089125644, -6586.1873729452345, -1612.5889554725834, -6011.926354399486, -6475.546237891464, -5768.985243914753, 0.01, -0.024, 0.996, 192.0, 0.0, 0.0, 0.0, 0.0, 0.0, 0.0, 0.0, 0.0, 0.0, 1.6444983962541516E9, 0.0, 2022-02-11 00:06:36.254
110.0, -939.1085432897262, -3656.3877649769506, -5873.904332387964, -10672.466239031106, 454.1203920984736, -320.0769805999971, -2688.6019335510655, -3071.2861503703775, -7750.109761966439, -3022.3581817577106, -17037.438397102167, -6583.572218843963, -1610.5102432382398, -6003.589153717656, -6468.103106987847, -5768.784078214655, 0.01, -0.024, 0.996, 192.0, 0.0, 0.0, 0.0, 0.0, 0.0, 0.0, 0.0, 0.0, 0.0, 1.6444983962541585E9, 0.0, 2022-02-11 00:06:36.254
112.0, -912.3088016878131, -3632.8066745766014, -5858.146352546973, -10662.139733092754, 473.7675754746885, -306.17419554879615, -2692.5358405751995, -3056.4222403075983, -7744.275956663604, -3018.3125160113, -17024.004998684526, -6574.765631528572, -1602.8882983789802, -6001.33162752767, -6456.971938249104, -5752.355546040005, 0.01, -0.024, 0.996, 192.0, 0.0, 0.0, 0.0, 0.0, 0.0, 0.0, 0.0, 0.0, 0.0, 1.6444983962541652E9, 0.0, 2022-02-11 00:06:36.254
114.0, -921.4506651700336, -3631.7561425872022, -5864.851875883565, -10662.787933681957, 472.7393952297444, -312.1868148072737, -2675.324997344613, -3062.6136735217183, -7742.3760583849025, -3024.9286323700708, -17019.467594560097, -6565.221436646157, -1594.4616907193292, -5989.842830877642, -6449.03706896747, -5750.925034394865, 0.008, -0.02, 0.994, 192.0, 0.0, 32.0, 127.5, 48.0, 15.5, 8.0, 0.0, 0.0, 0.0, 1.644498396254172E9, 0.0, 2022-02-11 00:06:36.254
116.0, -913.4040371661231, -3629.275098952663, -5850.010317565241, -10652.282613787964, 489.12322391548446, -302.39675073584925, -2663.411517549934, -3055.08113564028, -7723.131206408883, -3014.468015964987, -17019.98168468257, -6567.031927947036, -1577.8319928445808, -5979.784545872753, -6443.717353787107, -5744.688897691834, 0.008, -0.02, 0.994, 192.0, 0.0, 0.0, 0.0, 0.0, 0.0, 0.0, 0.0, 0.0, 0.0, 1.6444983962541792E9, 0.0, 2022-02-11 00:06:36.254
118.0, -909.023095252883, -3635.9582705447997, -5851.820808866121, -10653.176683566177, 491.11252917200676, -300.74272164615655, -2666.1160786290266, -3049.850827437738, -7727.087465177473, -3014.8032921318168, -17009.632826999765, -6556.43720107522, -1580.5142021792178, -5989.976941344374, -6435.514263572009, -5740.509121478692, 0.008, -0.02, 0.994, 192.0, 0.0, 0.0, 0.0, 0.0, 0.0, 0.0, 0.0, 0.0, 0.0, 1.644498396254186E9, 0.0, 2022-02-11 00:06:36.254
120.0, -907.860804541207, -3624.827101806057, -5852.6925268998775, -10643.319564261385, 491.38075010547044, -291.8020238640337, -2676.9566746898504, -3044.8440366797495, -7728.808549500532, -3014.378608987166, -17015.399577069235, -6568.216570403168, -1561.1352397364665, -5981.684444151455, -6437.414161850711, -5733.669487675368, 0.008, -0.02, 0.994, 192.0, 0.0, 0.0, 0.0, 0.0, 0.0, 0.0, 0.0, 0.0, 0.0, 1.6444983962541933E9, 0.0, 2022-02-11 00:06:36.254
122.0, -882.3351123732463, -3613.7406365562247, -5832.4418464233695, -10639.072732814877, 518.1581399629283, -272.40070967682715, -2631.940261356862, -3031.1871208175567, -7717.409159828325, -2999.447643691021, -17002.279103073968, -6548.077648648936, -1563.437469415363, -5964.719470109877, -6427.780559990473, -5724.572327682058, 0.008, -0.02, 0.994, 192.0, 0.0, 0.0, 0.0, 0.0, 0.0, 0.0, 0.0, 0.0, 0.0, 1.6444983962542E9, 0.0, 2022-02-11 00:06:36.254
124.0, -891.8793072556624, -3600.4637003497724, -5833.313564457127, -10635.541157190939, 519.4545411413361, -274.0994422554305, -2643.294947540158, -3041.178350589079, -7715.173985382794, -2999.469995435476, -16999.17221059468, -6542.757933468572, -1558.7883065686592, -5961.970205541874, -6414.995362162038, -5722.806539870088, 0.012, -0.028, 0.988, 192.0, 0.0, 48.0, 127.5, 16.0, 15.0, 112.0, 0.0, 0.0, 0.0, 1.644498396254207E9, 0.0, 2022-02-11 00:06:36.254
126.0, -870.7122052564866, -3582.9399326968114, -5816.639163093468, -10619.872584327768, 543.326204219604, -255.14516295733011, -2632.1190753125043, -3026.8732341376826, -7694.364511294903, -2967.596407842208, -16988.666890700686, -6526.53056699402, -1535.117809190489, -5949.564987369178, -6408.759225459007, -5716.2798304891385, 0.012, -0.028, 0.988, 192.0, 0.0, 0.0, 0.0, 0.0, 0.0, 0.0, 0.0, 0.0, 0.0, 1.6444983962542143E9, 0.0, 2022-02-11 00:06:36.254
128.0, -860.9668446739728, -3578.603694272482, -5807.407892633426, -10615.178717992154, 553.6303584135006, -245.17628493026317, -2625.905290353929, -3013.015152575392, -7689.603589725923, -2982.6838353495405, -16961.464817698576, -6510.727883664118, -1531.1168469329891, -5928.062609203173, -6393.381225273755, -5702.578211138036, 0.012, -0.028, 0.988, 192.0, 0.0, 0.0, 0.0, 0.0, 0.0, 0.0, 0.0, 0.0, 0.0, 1.6444983962542214E9, 0.0, 2022-02-11 00:06:36.254
130.0, -865.4371935650341, -3561.3034440640745, -5809.285439167672, -10614.217592980576, 560.0453090721737, -240.28125289455093, -2614.617659403999, -3001.3251902252664, -7684.954426879219, -2969.250436931901, -16970.07023931387, -6513.231279043112, -1506.7534454767044, -5914.36098985207, -6384.529934469454, -5696.990275024209, 0.012, -0.028, 0.988, 192.0, 0.0, 0.0, 0.0, 0.0, 0.0, 0.0, 0.0, 0.0, 0.0, 1.644498396254228E9, 0.0, 2022-02-11 00:06:36.254
132.0, -836.5810914732327, -3556.542522495094, -5794.935619227364, -10599.107813728788, 580.2065825708607, -219.56118578448127, -2610.393179701946, -3001.9957425589255, -7675.834915141454, -2949.7373640224178, -16962.090666543325, -6503.9553050941595, -1502.0372273966345, -5923.011114956274, -6379.813716389384, -5687.736652819712, 0.012, -0.028, 0.988, 192.0, 0.0, 0.0, 0.0, 0.0, 0.0, 0.0, 0.0, 0.0, 0.0, 1.6444983962542377E9, 0.0, 2022-02-11 00:06:36.254
134.0, -835.508207739378, -3553.1897608267977, -5794.913267482909, -10595.375072404751, 583.6934547058886, -217.9742119281545, -2610.66140063541, -2997.1677657565792, -7674.158534307306, -2951.01141345637, -16951.98767804953, -6482.452926928155, -1503.1101111304893, -5905.800271725688, -6369.397803473211, -5684.987388251709, 0.008, -0.026000000000000002, 0.982, 192.0, 0.0, 32.0, 127.5, 24.0, 15.0, 88.0, 0.0, 0.0, 0.0, 1.6444983962542446E9, 0.0, 2022-02-11 00:06:36.254
136.0, -816.866852863652, -3532.179121038809, -5792.320465126093, -10584.71329029957, 597.5068327792684, -202.12682510934178, -2605.073464521583, -2991.4233674315656, -7657.484132943647, -2934.918157448549, -16953.529948416945, -6484.084604273392, -1484.4240527658526, -5888.142393605995, -6365.150972026703, -5677.767774792645, 0.008, -0.026000000000000002, 0.982, 192.0, 0.0, 0.0, 0.0, 0.0, 0.0, 0.0, 0.0, 0.0, 0.0, 1.6444983962542512E9, 0.0, 2022-02-11 00:06:36.254
138.0, -810.4742539494341, -3521.6961528892703, -5781.636331276457, -10579.035947207922, 606.35812358357, -197.27649656254013, -2597.4962231512336, -2981.58859987123, -7649.169284006272, -2916.634430484108, -16921.812823034863, -6470.695909344663, -1481.540677731118, -5888.902352917476, -6358.914835323672, -5669.1400014328965, 0.008, -0.026000000000000002, 0.982, 192.0, 0.0, 0.0, 0.0, 0.0, 0.0, 0.0, 0.0, 0.0, 0.0, 1.6444983962542589E9, 0.0, 2022-02-11 00:06:36.254
140.0, -832.6918879380094, -3523.50664419015, -5787.7160057683, -10583.349833887796, 610.7614172412655, -191.35328428188376, -2579.972455498273, -2980.3816056706437, -7651.382106707348, -2932.012430669359, -16936.87789879774, -6474.763926835529, -1464.9556833452802, -5878.262922556749, -6355.047983532904, -5666.591902564991, 0.008, -0.026000000000000002, 0.982, 192.0, 0.0, 0.0, 0.0, 0.0, 0.0, 0.0, 0.0, 0.0, 0.0, 1.6444983962542655E9, 0.0, 2022-02-11 00:06:36.254
142.0, -807.0320853033168, -3511.1684812508206, -5773.3885375724485, -10573.179790160631, 639.7292780553435, -172.37665323932808, -2568.7742315261644, -2972.2902741778225, -7646.598833393912, -2922.669401487041, -16931.20055570609, -6473.333415190389, -1461.6029216769841, -5868.696375929878, -6343.045096760404, -5656.064230926541, 0.008, -0.026000000000000002, 0.982, 192.0, 0.0, 0.0, 0.0, 0.0, 0.0, 0.0, 0.0, 0.0, 0.0, 1.6444983962542725E9, 0.0, 2022-02-11 00:06:36.254
144.0, -805.44511144699, -3522.3890569673845, -5772.829743961066, -10571.659871537671, 636.8906065095194, -182.83726964441178, -2583.392272399935, -2984.8072510727943, -7646.08474327144, -2928.77142772334, -16925.120881214247, -6459.900016772749, -1452.930444828325, -5878.039405112196, -6335.512558878966, -5653.73964950319, 0.01, -0.028, 0.988, 192.0, 0.0, 40.0, 127.5, 16.0, 15.0, 112.0, 0.0, 0.0, 0.0, 1.6444983962542796E9, 0.0, 2022-02-11 00:06:36.254
146.0, -794.0010182858728, -3509.4921004166727, -5766.660662491401, -10560.28283360992, 645.8760077805529, -164.06180430195383, -2581.738243310242, -2962.075526961747, -7632.830158809443, -2912.275840315323, -16936.050884252894, -6457.441324882666, -1440.346412699987, -5864.181323549906, -6338.373582169245, -5653.046745425075, 0.01, -0.028, 0.988, 192.0, 0.0, 0.0, 0.0, 0.0, 0.0, 0.0, 0.0, 0.0, 0.0, 1.6444983962542863E9, 0.0, 2022-02-11 00:06:36.254
148.0, -787.4072536715572, -3493.510603131128, -5762.659700233901, -10559.142894642699, 658.6165021200779, -154.4058506972612, -2553.5973970410105, -2944.663518031063, -7633.634821609834, -2904.6091919671526, -16914.324988642336, -6444.27614739849, -1433.2609097076547, -5857.408744979947, -6329.477587876033, -5639.859216196444, 0.01, -0.028, 0.988, 192.0, 0.0, 0.0, 0.0, 0.0, 0.0, 0.0, 0.0, 0.0, 0.0, 1.6444983962542932E9, 0.0, 2022-02-11 00:06:36.254
150.0, -783.4509949029679, -3482.111213458921, -5761.8103339446, -10556.237167863508, 663.7574033447985, -154.1599815082528, -2551.3175191065693, -2954.207712913479, -7632.070199497963, -2894.796776151273, -16914.079119453327, -6452.076906213392, -1427.963546271747, -5841.762523861233, -6325.431922129622, -5638.629870251402, 0.01, -0.028, 0.988, 192.0, 0.0, 0.0, 0.0, 0.0, 0.0, 0.0, 0.0, 0.0, 0.0, 1.6444983962543E9, 0.0, 2022-02-11 00:06:36.254
152.0, -765.9495789944624, -3480.6807018137815, -5745.4488570033145, -10546.067124136343, 685.6174094220888, -143.3640889363395, -2546.176617881849, -2935.4545993154766, -7607.907963741775, -2884.3585114906446, -16897.270607622937, -6436.385981605767, -1413.7478367981716, -5838.074486026107, -6313.116110934748, -5629.532710258092, 0.012, -0.028999999999999998, 0.991, 192.0, 0.0, 56.0, 127.5, 8.0, 15.5, 8.0, 0.0, 0.0, 0.0, 1.644498396254307E9, 0.0, 2022-02-11 00:06:36.254
154.0, -775.0020354988618, -3488.7720333066027, -5747.080534348552, -10546.245938091986, 683.3151797431922, -141.4641906576384, -2543.36029808048, -2955.9064454920826, -7621.6989900707, -2900.161194820547, -16895.4377645776, -6424.696019255641, -1412.2949734085767, -5833.626488879501, -6308.91398297715, -5628.281012568595, 0.012, -0.028999999999999998, 0.991, 192.0, 0.0, 0.0, 0.0, 0.0, 0.0, 0.0, 0.0, 0.0, 0.0, 1.644498396254314E9, 0.0, 2022-02-11 00:06:36.254
156.0, -752.3373666211804, -3467.6943382852483, -5745.694726192323, -10543.273156079431, 694.3345897596586, -132.63525159779212, -2541.7062689907875, -2947.8151139992615, -7614.345266144904, -2887.2642382698346, -16908.290017639403, -6430.507472814021, -1399.1968511577668, -5812.526442113691, -6308.109320176759, -5627.275184068106, 0.012, -0.028999999999999998, 0.991, 192.0, 0.0, 0.0, 0.0, 0.0, 0.0, 0.0, 0.0, 0.0, 0.0, 1.6444983962543223E9, 0.0, 2022-02-11 00:06:36.254
158.0, -763.222666170915, -3464.6545010393265, -5740.911452878887, -10537.461702521052, 703.7446741753429, -131.42825739720553, -2542.0191934131617, -2930.738381235407, -7614.144100444806, -2889.991151093382, -16886.34060458429, -6420.806815720417, -1390.1443946533675, -5829.245546966261, -6298.699235761075, -5620.927288642799, 0.012, -0.028999999999999998, 0.991, 192.0, 0.0, 0.0, 0.0, 0.0, 0.0, 0.0, 0.0, 0.0, 0.0, 1.6444983962543297E9, 0.0, 2022-02-11 00:06:36.254
0.0, -3552.2062840707645, -4627.928689471328, -5172.104259980233, -7843.852978211997, -1422.6885345802946, -1574.792155598659, -3446.482532797162, -3622.8154448050796, -3807.9325923839324, -1448.1918750037999, -8444.109075559269, -3210.4034078602085, -698.5367177172564, -2913.7510554493733, -3148.0196890854468, -2809.4801675653657, 0.008, -0.024, 0.992, 192.0, 0.0, 32.0, 127.5, 32.0, 15.5, 0.0, 0.0, 0.0, 0.0, 1.644498396820216E9, 0.0, 2022-02-11 00:06:36.820
2.0, -7117.778911325802, -9250.627070740113, -10354.266804965355, -15688.91295062458, -2854.4071739205333, -3163.1965235706, -6892.65214117195, -7257.901997316122, -15972.35542206233, -12439.259879500853, -22669.87683413945, -11790.411089707744, -6436.453036839132, -10832.370618864372, -11104.033720974174, -11287.966226096896, 0.008, -0.024, 0.992, 192.0, 0.0, 0.0, 0.0, 0.0, 0.0, 0.0, 0.0, 0.0, 0.0, 1.6444983968203344E9, 0.0, 2022-02-11 00:06:36.820
4.0, -7113.554431623749, -9251.297623073771, -10353.305679953775, -15683.034441832835, -2850.3615081741227, -3150.3442705087987, -6889.500545203751, -7235.326735416262, -15966.812189437413, -12429.22394624042, -22679.085752855033, -11793.00389206456, -6428.719333257596, -10827.743807762125, -11108.369959398504, -11287.921522607985, 0.008, -0.024, 0.992, 192.0, 0.0, 0.0, 0.0, 0.0, 0.0, 0.0, 0.0, 0.0, 0.0, 1.6444983968203547E9, 0.0, 2022-02-11 00:06:36.820
6.0, -7113.800300812758, -9253.957480663954, -10357.61956663365, -15690.030537847346, -2852.7754965752956, -3148.354965252276, -6886.684225402382, -7239.484159884949, -15975.037631396966, -12428.642800884581, -22668.4016190054, -11788.354729217855, -6436.833016494873, -10814.846851211412, -11106.380654141982, -11282.445345216436, 0.008, -0.022, 0.99, 192.0, 0.0, 32.0, 127.5, 48.0, 15.0, 112.0, 0.0, 0.0, 0.0, 1.644498396820362E9, 0.0, 2022-02-11 00:06:36.820
8.0, -7120.997562527366, -9249.30831781725, -10365.889712082115, -15688.018880846368, -2855.345947187656, -3149.629014686229, -6868.624015882495, -7206.895316469111, -15975.618776752804, -12425.245335727375, -22684.673688968862, -11810.080624828413, -6440.431647352177, -10829.174319407264, -11102.916133751409, -11277.885589347552, 0.008, -0.022, 0.99, 192.0, 0.0, 0.0, 0.0, 0.0, 0.0, 0.0, 0.0, 0.0, 0.0, 1.64449839682037E9, 0.0, 2022-02-11 00:06:36.820
10.0, -7108.994675754867, -9244.972079392921, -10355.205578232477, -15683.52618021085, -2845.377069160589, -3137.0673343023464, -6871.59679789505, -7201.508546055383, -15974.858817441323, -12426.519385161328, -22677.141151087424, -11790.165220518735, -6438.554100817932, -10843.971174236676, -11100.43509011687, -11267.313214220192, 0.008, -0.022, 0.99, 192.0, 0.0, 0.0, 0.0, 0.0, 0.0, 0.0, 0.0, 0.0, 0.0, 1.6444983968203769E9, 0.0, 2022-02-11 00:06:36.820
12.0, -7120.774045082813, -9253.085762630197, -10361.66523238006, -15689.225875046955, -2854.3401186871674, -3142.945843094092, -6887.041853313667, -7218.831148008246, -15973.920044174201, -12447.015934826844, -22672.804912663094, -11794.14383103178, -6446.645432310753, -10828.86139498489, -11099.33985463856, -11270.442458443935, 0.008, -0.022, 0.99, 192.0, 0.0, 0.0, 0.0, 0.0, 0.0, 0.0, 0.0, 0.0, 0.0, 1.6444983968203835E9, 0.0, 2022-02-11 00:06:36.820
14.0, -7110.089911233176, -9255.298585331271, -10351.606947375172, -15681.067488320768, -2841.0184789918044, -3131.7699708664386, -6860.622091367494, -7204.056644923287, -15965.001698136533, -12438.634030656103, -22678.549310988106, -11794.613217665341, -6439.582281062875, -10819.09368265792, -11098.62459881599, -11265.569778152678, 0.008, -0.022, 0.99, 192.0, 0.0, 0.0, 0.0, 0.0, 0.0, 0.0, 0.0, 0.0, 0.0, 1.6444983968203905E9, 0.0, 2022-02-11 00:06:36.820
16.0, -7113.062693245733, -9252.616375996635, -10348.924738040536, -15683.235607532932, -2841.286699925268, -3139.14604653669, -6868.556960649128, -7214.42785435055, -15974.076506385389, -12436.354152721662, -22665.875871881948, -11779.883418069294, -6434.933118216171, -10827.944973462221, -11090.175639411884, -11262.060554273196, 0.007, -0.020999999999999998, 0.989, 192.0, 0.0, 24.0, 127.5, 48.0, 15.0, 112.0, 0.0, 0.0, 0.0, 1.6444983968203979E9, 0.0, 2022-02-11 00:06:36.820
18.0, -7112.995638012367, -9255.700916731468, -10355.652613121583, -15680.799267387303, -2853.580159375687, -3148.0643925743575, -6872.133239761978, -7225.5366713448375, -15968.600328993838, -12435.50478643236, -22677.319965043065, -11791.640435652786, -6433.703772271129, -10824.368694349372, -11099.093985449552, -11269.03429854325, 0.007, -0.020999999999999998, 0.989, 192.0, 0.0, 0.0, 0.0, 0.0, 0.0, 0.0, 0.0, 0.0, 0.0, 1.6444983968204048E9, 0.0, 2022-02-11 00:06:36.820
20.0, -7101.663303573526, -9246.35788754915, -10339.268784435842, -15681.134543554133, -2842.1360662145694, -3136.530892435419, -6866.187675736866, -7221.803930020801, -15965.560491747916, -12432.308486975251, -22665.875871881948, -11789.517019929532, -6426.08182741187, -10816.255011112096, -11096.501183092736, -11267.044993286729, 0.007, -0.020999999999999998, 0.989, 192.0, 0.0, 0.0, 0.0, 0.0, 0.0, 0.0, 0.0, 0.0, 0.0, 1.6444983968204117E9, 0.0, 2022-02-11 00:06:36.820
22.0, -7114.962591524433, -9251.789361451789, -10345.661383350061, -15682.207427287989, -2857.6258251220975, -3143.817561127849, -6876.245960741754, -7211.767996760368, -15967.147465604243, -12415.656437356049, -22665.11591257047, -11790.656958896752, -6443.89616774275, -10831.76712176408, -11093.99778771374, -11269.548388665724, 0.007, -0.020999999999999998, 0.989, 192.0, 0.0, 0.0, 0.0, 0.0, 0.0, 0.0, 0.0, 0.0, 0.0, 1.6444983968204184E9, 0.0, 2022-02-11 00:06:36.820
24.0, -7120.55052763826, -9252.571672507724, -10342.174511215033, -15678.564092941773, -2848.729830828885, -3134.8992150901813, -6857.425791910386, -7205.151880401598, -15966.365154548306, -12434.230736998408, -22673.140188829922, -11789.405261207256, -6439.962260718616, -10826.134482161342, -11096.635293559468, -11262.865217073586, 0.007, -0.020999999999999998, 0.989, 192.0, 0.0, 0.0, 0.0, 0.0, 0.0, 0.0, 0.0, 0.0, 0.0, 1.6444983968204386E9, 0.0, 2022-02-11 00:06:36.820
26.0, -7116.527213636305, -9252.348155063171, -10341.95099377048, -15679.636976675629, -2837.509255112321, -3136.821465113338, -6865.003033280735, -7219.5464038308155, -15972.489532529062, -12441.9867923244, -22657.896299111402, -11785.650168138764, -6441.348068874845, -10808.878935441844, -11087.918113221898, -11263.245196729327, 0.0075, -0.0245, 0.9864999999999999, 192.0, 0.0, 32.0, 127.5, 16.0, 15.0, 96.0, 0.0, 0.0, 0.0, 1.6444983968204455E9, 0.0, 2022-02-11 00:06:36.820
28.0, -7124.707952106947, -9259.12073363313, -10347.494226395396, -15676.083049307234, -2845.2876621827677, -3144.4434099725977, -6871.1721147503995, -7213.109101427687, -15967.281576070975, -12446.859472615657, -22672.603746962996, -11791.349862974866, -6428.898147213238, -10825.687447272236, -11090.868543489998, -11265.256853730305, 0.0075, -0.0245, 0.9864999999999999, 192.0, 0.0, 0.0, 0.0, 0.0, 0.0, 0.0, 0.0, 0.0, 0.0, 1.6444983968204522E9, 0.0, 2022-02-11 00:06:36.820
30.0, -7117.6448008590705, -9262.674661001523, -10337.681810579517, -15674.764296384372, -2834.737638799863, -3136.6650029021507, -6857.246977954743, -7203.9001827121, -15968.44386678265, -12445.786588881801, -22662.00902009118, -11785.001967549559, -6432.854405981828, -10826.581517050448, -11086.398194598938, -11258.886606560542, 0.0075, -0.0245, 0.9864999999999999, 192.0, 0.0, 0.0, 0.0, 0.0, 0.0, 0.0, 0.0, 0.0, 0.0, 1.6444983968204591E9, 0.0, 2022-02-11 00:06:36.820
32.0, -7137.895481335579, -9272.710594261956, -10345.460217649963, -15677.334746996732, -2852.015537263815, -3146.0974390622905, -6875.284835730176, -7222.899165499111, -15978.613910509815, -12437.807016111257, -22666.121741070958, -11784.71139487164, -6438.732914773574, -10828.615525795882, -11089.594494056046, -11262.708754862399, 0.0075, -0.0245, 0.9864999999999999, 192.0, 0.0, 0.0, 0.0, 0.0, 0.0, 0.0, 0.0, 0.0, 0.0, 1.644498396820466E9, 0.0, 2022-02-11 00:06:36.820
34.0, -7126.9207748080225, -9270.229550627417, -10340.364019914154, -15674.943110340013, -2843.6336330930753, -3139.883654103715, -6865.807696081126, -7221.3121916427845, -15969.941433661155, -12446.948879593478, -22678.39284877692, -11790.321682729922, -6434.307269371423, -10818.691351257725, -11095.96474122581, -11265.212150241394, 0.0075, -0.0245, 0.9864999999999999, 192.0, 0.0, 0.0, 0.0, 0.0, 0.0, 0.0, 0.0, 0.0, 0.0, 1.6444983968204727E9, 0.0, 2022-02-11 00:06:36.820
36.0, -7127.79249284178, -9266.541512792292, -10337.346534412687, -15674.496075450907, -2841.5549208587317, -3141.045944815391, -6874.904856074436, -7223.994400977422, -15973.584768007371, -12452.55916745176, -22661.852557879993, -11786.678348383708, -6438.867025240305, -10825.32981936095, -11090.62267430099, -11264.027507785262, 0.00875, -0.02925, 0.98725, 192.0, 0.0, 40.0, 127.0, 120.0, 15.0, 112.0, 0.0, 0.0, 0.0, 1.6444983968204815E9, 0.0, 2022-02-11 00:06:36.820
38.0, -7135.280327234308, -9264.507504046858, -10343.873243793636, -15675.0995725512, -2847.0087465058264, -3146.723287907039, -6882.526800933695, -7229.828206280256, -15972.310718573419, -12448.737019149903, -22673.944851630313, -11796.04372931048, -6438.777618262484, -10822.28998211503, -11092.947255724343, -11270.80008635522, 0.00875, -0.02925, 0.98725, 192.0, 0.0, 0.0, 0.0, 0.0, 0.0, 0.0, 0.0, 0.0, 0.0, 1.6444983968204887E9, 0.0, 2022-02-11 00:06:36.820
40.0, -7126.138463752087, -9264.172227880028, -10333.010295988357, -15672.774991127848, -2837.956290001427, -3142.364697738254, -6879.3305014765865, -7219.4346451085385, -15969.337936560863, -12443.663173158548, -22668.82630215005, -11786.164258261235, -6437.704734528629, -10830.627182796858, -11090.801488256633, -11265.100391519118, 0.00875, -0.02925, 0.98725, 192.0, 0.0, 0.0, 0.0, 0.0, 0.0, 0.0, 0.0, 0.0, 0.0, 1.6444983968204951E9, 0.0, 2022-02-11 00:06:36.820
42.0, -7138.677792391514, -9276.152762908074, -10344.767313571849, -15677.24534001891, -2850.249749451846, -3149.226683286033, -6882.303283489142, -7225.737837044935, -15971.550759261938, -12449.787551139301, -22662.411351491377, -11790.768717619028, -6430.619231536297, -10836.930374733254, -11092.723738279788, -11265.413315941492, 0.00875, -0.02925, 0.98725, 192.0, 0.0, 0.0, 0.0, 0.0, 0.0, 0.0, 0.0, 0.0, 0.0, 1.644498396820502E9, 0.0, 2022-02-11 00:06:36.820
44.0, -7135.168568512031, -9274.342271607193, -10339.33583966921, -15677.24534001891, -2843.3654121596114, -3142.2976425048882, -6861.203236723332, -7219.166424175075, -15970.790799950457, -12448.021763327333, -22670.077999839545, -11793.674444398219, -6437.995307206548, -10820.479490814148, -11094.735395280766, -11264.832170585654, 0.00875, -0.02925, 0.98725, 192.0, 0.0, 0.0, 0.0, 0.0, 0.0, 0.0, 0.0, 0.0, 0.0, 1.6444983968205097E9, 0.0, 2022-02-11 00:06:36.820
46.0, -7137.739019124391, -9280.377242610126, -10342.576842615228, -15682.185075543533, -2846.472304638899, -3149.874883875237, -6869.875713571992, -7229.023543479865, -15978.703317487636, -12456.805998898268, -22659.10329331199, -11780.3304529584, -6446.84659801085, -10830.269554885574, -11095.540058081158, -11268.296690976225, 0.0063750000000000005, -0.029625, 0.986625, 192.0, 0.0, 16.0, 127.5, 8.0, 15.0, 104.0, 0.0, 0.0, 0.0, 1.6444983968205173E9, 0.0, 2022-02-11 00:06:36.820
48.0, -7147.506731451361, -9280.824277499232, -10349.885863052114, -15684.509656966884, -2851.8367233081726, -3144.1528372946786, -6872.379108950986, -7231.057552225298, -15980.0220704105, -12465.523179235839, -22678.549310988106, -11797.451889211165, -6439.649336296241, -10823.47462457116, -11099.608075572023, -11273.57170266768, 0.0063750000000000005, -0.029625, 0.986625, 192.0, 0.0, 0.0, 0.0, 0.0, 0.0, 0.0, 0.0, 0.0, 0.0, 1.644498396820524E9, 0.0, 2022-02-11 00:06:36.820
50.0, -7129.9829637984, -9280.377242610126, -10346.354287428176, -15683.325014510754, -2843.253653437335, -3134.1616075231564, -6873.876675829491, -7221.759226531891, -15974.9705761636, -12454.41436224155, -22669.407447505888, -11792.221581008624, -6435.89424322775, -10829.934278718743, -11098.937523238365, -11268.967243309886, 0.0063750000000000005, -0.029625, 0.986625, 192.0, 0.0, 0.0, 0.0, 0.0, 0.0, 0.0, 0.0, 0.0, 0.0, 1.6444983968205316E9, 0.0, 2022-02-11 00:06:36.820
52.0, -7140.443580203483, -9282.232437399916, -10344.968479271947, -15686.923645368059, -2856.150609988047, -3144.2422442724996, -6886.997149824757, -7226.09546495622, -15976.177570364187, -12463.489170490406, -22663.774807903148, -11794.032072309503, -6445.438438110165, -10827.766159506578, -11097.685825548868, -11266.508551419802, 0.0063750000000000005, -0.029625, 0.986625, 192.0, 0.0, 0.0, 0.0, 0.0, 0.0, 0.0, 0.0, 0.0, 0.0, 1.6444983968205392E9, 0.0, 2022-02-11 00:06:36.820
54.0, -7133.64864988907, -9271.12362040563, -10343.001525759879, -15684.174380800056, -2848.7745343177958, -3135.569767423841, -6906.264353545232, -7228.040066723832, -15972.310718573419, -12462.237472800907, -22675.710639442284, -11797.630703166808, -6445.326679387889, -10831.76712176408, -11106.023026230696, -11269.056650287706, 0.0063750000000000005, -0.029625, 0.986625, 192.0, 0.0, 0.0, 0.0, 0.0, 0.0, 0.0, 0.0, 0.0, 0.0, 1.644498396820546E9, 0.0, 2022-02-11 00:06:36.820
56.0, -7136.353210968163, -9279.818448998743, -10343.76148507136, -15687.616549446173, -2845.80175230524, -3133.5134069339524, -6886.84068761357, -7218.205299163497, -15981.720802989103, -12459.622318699638, -22666.0993893265, -11784.75609836055, -6455.8767027707945, -10829.330781618452, -11095.67416854789, -11264.720411863376, 0.0061875, -0.0268125, 0.9903124999999999, 192.0, 0.0, 24.0, 127.5, 32.0, 15.5, 8.0, 0.0, 0.0, 0.0, 1.6444983968205535E9, 0.0, 2022-02-11 00:06:36.820
58.0, -7143.684583149503, -9288.31211189176, -10350.690525852506, -15686.521313967862, -2849.6239006070973, -3140.7330203930164, -6858.096344244045, -7224.128511444153, -15973.696526729647, -12465.858455402667, -22679.264566810678, -11800.469374712631, -6450.46758061261, -10832.9070607313, -11097.171735426395, -11268.073173531673, 0.0061875, -0.0268125, 0.9903124999999999, 192.0, 0.0, 0.0, 0.0, 0.0, 0.0, 0.0, 0.0, 0.0, 0.0, 1.6444983968205607E9, 0.0, 2022-02-11 00:06:36.820
60.0, -7133.760408611347, -9287.105117691173, -10340.47577863643, -15684.040270333324, -2840.884368525072, -3133.021668555936, -6842.271309169688, -7207.319999613763, -15976.646956997749, -12471.692260705502, -22670.368572517466, -11798.234200267101, -6455.7649440485175, -10832.437674097739, -11093.14842142444, -11265.033336285751, 0.0061875, -0.0268125, 0.9903124999999999, 192.0, 0.0, 0.0, 0.0, 0.0, 0.0, 0.0, 0.0, 0.0, 0.0, 1.6444983968205688E9, 0.0, 2022-02-11 00:06:36.820
62.0, -7144.489245949894, -9291.55311483778, -10347.918909540047, -15688.823543646758, -2849.959176773927, -3141.783552382416, -6862.49963790174, -7217.802967763301, -15981.564340777915, -12474.32976655123, -22663.931270114335, -11795.14965953227, -6447.204225922135, -10830.984810708143, -11095.04831970314, -11269.28016773226, 0.0061875, -0.0268125, 0.9903124999999999, 192.0, 0.0, 0.0, 0.0, 0.0, 0.0, 0.0, 0.0, 0.0, 0.0, 1.6444983968205757E9, 0.0, 2022-02-11 00:06:36.820
64.0, -7132.285193477296, -9274.45403032947, -10341.727476325927, -15681.626281932151, -2833.1059614546257, -3132.015840055447, -6858.275158199687, -7213.220860149963, -15970.053192383433, -12461.522216978337, -22669.072171339056, -11799.95528459016, -6445.639603810264, -10826.805034495, -11100.591552328056, -11269.190760754438, 0.0061875, -0.0268125, 0.9903124999999999, 192.0, 0.0, 0.0, 0.0, 0.0, 0.0, 0.0, 0.0, 0.0, 0.0, 1.6444983968205829E9, 0.0, 2022-02-11 00:06:36.820
66.0, -7135.861472590145, -9281.628940299624, -10331.825653532225, -15684.599063944706, -2828.7473712858405, -3128.8865958317037, -6850.384992406964, -7205.420101335061, -15974.814113952412, -12450.726324406425, -22653.917688598358, -11786.611293150341, -6437.481217084077, -10830.537775819037, -11087.113450421508, -11262.172312995472, 0.00709375, -0.031406250000000004, 0.99115625, 192.0, 0.0, 32.0, 127.0, 112.0, 15.5, 0.0, 0.0, 0.0, 0.0, 1.6444983968205895E9, 0.0, 2022-02-11 00:06:36.820
68.0, -7141.427056959517, -9281.226608899427, -10338.173548957533, -15683.392069744119, -2832.5471678432427, -3130.942956321592, -6864.198370480343, -7212.706770027491, -15975.238797097063, -12468.048926359288, -22669.42979925034, -11795.641397910285, -6440.230481652079, -10818.981923935644, -11089.885066733965, -11261.70292636191, 0.00709375, -0.031406250000000004, 0.99115625, 192.0, 0.0, 0.0, 0.0, 0.0, 0.0, 0.0, 0.0, 0.0, 0.0, 1.6444983968206003E9, 0.0, 2022-02-11 00:06:36.820
70.0, -7127.6807341195035, -9280.891332732599, -10325.835386018203, -15682.095668565711, -2817.4597403359107, -3121.0187817834358, -6834.1352741879555, -7197.217011119964, -15969.919081916702, -12466.171379825042, -22656.82341537755, -11785.583112905397, -6443.22561540909, -10834.404627609805, -11084.654758531424, -11254.773885580766, 0.00709375, -0.031406250000000004, 0.99115625, 192.0, 0.0, 0.0, 0.0, 0.0, 0.0, 0.0, 0.0, 0.0, 0.0, 1.644498396820608E9, 0.0, 2022-02-11 00:06:36.820
72.0, -7135.772065612325, -9288.200353169485, -10334.70902856696, -15686.230741289943, -2829.149702686036, -3131.7923226108937, -6848.574501106084, -7206.157708902087, -15977.988061665066, -12473.748621195391, -22655.63877292142, -11789.986406563094, -6440.9680892191045, -10831.700066530713, -11083.470116075292, -11255.712658847888, 0.00709375, -0.031406250000000004, 0.99115625, 192.0, 0.0, 0.0, 0.0, 0.0, 0.0, 0.0, 0.0, 0.0, 0.0, 1.6444983968206153E9, 0.0, 2022-02-11 00:06:36.820
74.0, -7132.575766155215, -9279.818448998743, -10325.701275551472, -15679.949901098002, -2824.6570020505196, -3126.42790394162, -6851.703745329827, -7201.106214655187, -15968.488570271562, -12468.652423459582, -22658.47744446724, -11795.14965953227, -6435.8048362499285, -10820.658304769791, -11085.90645622092, -11256.94200479293, 0.00709375, -0.031406250000000004, 0.99115625, 192.0, 0.0, 0.0, 0.0, 0.0, 0.0, 0.0, 0.0, 0.0, 0.0, 1.6444983968206224E9, 0.0, 2022-02-11 00:06:36.820
76.0, -7133.469835933428, -9285.31697813475, -10325.23188891791, -15678.541741197318, -2825.349906128634, -3127.1878632531007, -6856.822294810092, -7209.063435681276, -15973.987099407566, -12474.530932251328, -22642.786519859616, -11778.81053433544, -6443.717353787107, -10821.194746636718, -11079.089174162053, -11253.119856491072, 0.01, -0.026000000000000002, 0.996, 192.0, 0.0, 40.0, 127.5, 24.0, 15.5, 16.0, 0.0, 0.0, 0.0, 1.6444983968206291E9, 0.0, 2022-02-11 00:06:36.820
78.0, -7138.946013324978, -9281.941864721997, -10333.457330877463, -15678.161761541578, -2832.144836443047, -3130.8982528326815, -6862.0749547570895, -7212.5056043273935, -15974.545893018949, -12473.435696773016, -22659.282107267634, -11784.174953004713, -6444.857292754328, -10823.42992108225, -11085.615883543001, -11258.528978649258, 0.01, -0.026000000000000002, 0.996, 192.0, 0.0, 0.0, 0.0, 0.0, 0.0, 0.0, 0.0, 0.0, 0.0, 1.644498396820636E9, 0.0, 2022-02-11 00:06:36.820
80.0, -7122.115149750131, -9280.109021676662, -10319.867470248637, -15680.084011564733, -2820.723095026385, -3117.8895375596926, -6848.172169705888, -7201.3520838441955, -15967.058058626422, -12472.0945921057, -22652.10719729748, -11781.984482048092, -6441.03514445247, -10818.601944279902, -11084.744165509244, -11254.103333247105, 0.01, -0.026000000000000002, 0.996, 192.0, 0.0, 0.0, 0.0, 0.0, 0.0, 0.0, 0.0, 0.0, 0.0, 1.6444983968206427E9, 0.0, 2022-02-11 00:06:36.820
82.0, -7137.180225513009, -9286.859248502165, -10328.674057564027, -15685.470781978463, -2832.636574821064, -3137.3132034913547, -6864.019556524701, -7217.646505552114, -15971.260186584019, -12475.715574707458, -22645.647543149895, -11784.934912316194, -6441.973917719593, -10818.646647768814, -11078.19510438384, -11257.769019337777, 0.01, -0.026000000000000002, 0.996, 192.0, 0.0, 0.0, 0.0, 0.0, 0.0, 0.0, 0.0, 0.0, 0.0, 1.6444983968206494E9, 0.0, 2022-02-11 00:06:36.820
84.0, -7135.302678978763, -9284.244094400894, -10330.462197120452, -15680.106363309189, -2825.863996251106, -3125.4444271855864, -6855.123562231489, -7209.778691503846, -15966.901596415235, -12476.877865419134, -22655.43760722132, -11789.606426907352, -6437.458865339621, -10820.546546047515, -11083.827743986576, -11259.668917616478, 0.01, -0.026000000000000002, 0.996, 192.0, 0.0, 0.0, 0.0, 0.0, 0.0, 0.0, 0.0, 0.0, 0.0, 1.6444983968206565E9, 0.0, 2022-02-11 00:06:36.820
86.0, -7131.681696377003, -9281.830105999721, -10325.164833684545, -15680.687508665027, -2822.868862494095, -3128.6407266426954, -6857.246977954743, -7215.836014251235, -15977.228102353587, -12470.060583360266, -22645.71459838326, -11775.010737778037, -6439.984612463071, -10825.866261227879, -11077.792772983645, -11251.242309956826, 0.012, -0.02, 0.99, 192.0, 0.0, 48.0, 127.5, 48.0, 15.0, 120.0, 0.0, 0.0, 0.0, 1.644498396820664E9, 0.0, 2022-02-11 00:06:36.820
88.0, -7140.935318581501, -9266.40740232556, -10333.390275644097, -15681.425116232052, -2837.1069237121255, -3137.3579069802654, -6866.411193181419, -7221.6027643207035, -15973.920044174201, -12475.84968517419, -22655.10233105449, -11784.465525682632, -6439.358763618322, -10830.515424074581, -11082.352528852527, -11256.338507692637, 0.012, -0.02, 0.99, 192.0, 0.0, 0.0, 0.0, 0.0, 0.0, 0.0, 0.0, 0.0, 0.0, 1.6444983968206716E9, 0.0, 2022-02-11 00:06:36.820
90.0, -7134.095684778176, -9290.212010170462, -10322.437920860997, -15678.877017364148, -2825.953403228927, -3130.495921432486, -6854.743582575748, -7208.5716973032595, -15973.361250562819, -12474.687394462515, -22649.91672634086, -11784.532580915999, -6450.46758061261, -10834.404627609805, -11083.380709097471, -11250.057667500696, 0.012, -0.02, 0.99, 192.0, 0.0, 0.0, 0.0, 0.0, 0.0, 0.0, 0.0, 0.0, 0.0, 1.6444983968206787E9, 0.0, 2022-02-11 00:06:36.820
92.0, -7150.233644274908, -9311.60262961419, -10327.131787196611, -15682.587406943729, -2835.899929511539, -3142.744677393994, -6865.539475147662, -7220.395770120117, -15981.117305888809, -12483.538685266816, -22647.10040653949, -11778.47525816861, -6446.332507888378, -10843.546491092025, -11081.033775929664, -11254.058629758196, 0.012, -0.02, 0.99, 192.0, 0.0, 0.0, 0.0, 0.0, 0.0, 0.0, 0.0, 0.0, 0.0, 1.6444983968206856E9, 0.0, 2022-02-11 00:06:36.820
94.0, -7137.9848883134, -9293.453013116481, -10320.605077815662, -15675.859531862681, -2826.3333828846676, -3129.423037698631, -6861.560864634617, -7210.896278726612, -15971.059020883922, -12477.61547298616, -22653.80592987608, -11775.346013944867, -6439.537577573965, -10828.079083928953, -11086.24173238775, -11253.477484402358, 0.012, -0.02, 0.99, 192.0, 0.0, 0.0, 0.0, 0.0, 0.0, 0.0, 0.0, 0.0, 0.0, 1.6444983968206923E9, 0.0, 2022-02-11 00:06:36.820
96.0, -7135.772065612325, -9290.949617737488, -10315.106548679656, -15681.738040654427, -2824.32172588369, -3130.2947557323882, -6859.906835544924, -7210.561002559782, -15975.21644535261, -12480.767068954357, -22638.942019813305, -11769.42280166421, -6441.437475852666, -10825.083950171942, -11078.820953228587, -11248.26952794427, 0.01, -0.026000000000000002, 0.994, 192.0, 0.0, 40.0, 127.5, 24.0, 15.5, 8.0, 0.0, 0.0, 0.0, 1.6444983968206995E9, 0.0, 2022-02-11 00:06:36.820
98.0, -7144.936280839001, -9290.435527615015, -10321.99088597189, -15684.040270333324, -2832.6142230766086, -3127.7690086089383, -6866.433544925874, -7215.746607273413, -15973.249491840541, -12480.454144531983, -22649.96142982977, -11780.866894825327, -6432.385019348267, -10819.384255335839, -11079.983243940263, -11251.287013445737, 0.01, -0.026000000000000002, 0.994, 192.0, 0.0, 0.0, 0.0, 0.0, 0.0, 0.0, 0.0, 0.0, 0.0, 1.6444983968207064E9, 0.0, 2022-02-11 00:06:36.820
100.0, -7133.045152788777, -9292.201315426984, -10315.888859735593, -15678.519389452862, -2824.5899468171533, -3121.2870027168997, -6857.269329699198, -7204.324865856751, -15975.082334885878, -12471.08876360521, -22648.41915946235, -11772.3285284434, -6437.391810106255, -10821.261801870085, -11080.720851507289, -11246.079056987652, 0.01, -0.026000000000000002, 0.994, 192.0, 0.0, 0.0, 0.0, 0.0, 0.0, 0.0, 0.0, 0.0, 0.0, 1.6444983968207164E9, 0.0, 2022-02-11 00:06:36.820
102.0, -7145.003336072366, -9294.190620683506, -10320.582726071207, -15680.262825520376, -2833.776513788285, -3130.5629766658517, -6864.868922814003, -7220.261659653385, -15980.424401810695, -12481.862304432667, -22645.15580477188, -11766.941758029672, -6446.690135799663, -10831.901232230812, -11076.116392149495, -11244.290917431226, 0.01, -0.026000000000000002, 0.994, 192.0, 0.0, 0.0, 0.0, 0.0, 0.0, 0.0, 0.0, 0.0, 0.0, 1.6444983968207233E9, 0.0, 2022-02-11 00:06:36.820
104.0, -7140.778856370313, -9279.013786198353, -10321.789720271794, -15676.731249896438, -2828.8144265192063, -3118.8953660601815, -6860.711498345316, -7207.007075191388, -15971.908387173224, -12479.135391609121, -22651.30253449709, -11771.009775520537, -6437.704734528629, -10819.786586736034, -11077.412793327903, -11242.212205196884, 0.01, -0.026000000000000002, 0.994, 192.0, 0.0, 0.0, 0.0, 0.0, 0.0, 0.0, 0.0, 0.0, 0.0, 1.64449839682073E9, 0.0, 2022-02-11 00:06:36.820
106.0, -7135.928527823512, -9271.12362040563, -10313.094891678678, -15683.950863355501, -2832.033077720771, -3116.101398003268, -6861.78438207917, -7211.253906637897, -15974.568244763404, -12470.641728716104, -22637.15388025688, -11764.70658358414, -6430.194548391646, -10823.586383293437, -11076.406964827414, -11235.774902793753, 0.004, -0.024, 0.996, 192.0, 0.0, 16.0, 127.5, 32.0, 15.5, 16.0, 0.0, 0.0, 0.0, 1.6444983968207364E9, 0.0, 2022-02-11 00:06:36.820
108.0, -7146.612661673148, -9292.514239849359, -10322.795548772281, -15682.00626158789, -2832.3012986542344, -3122.0916655172905, -6863.639576868961, -7217.847671252212, -15978.569207020904, -12470.507618249372, -22653.224784520244, -11783.325586715411, -6441.303365385934, -10823.787548993534, -11078.128049150473, -11243.665068586477, 0.004, -0.024, 0.996, 192.0, 0.0, 0.0, 0.0, 0.0, 0.0, 0.0, 0.0, 0.0, 0.0, 1.6444983968207433E9, 0.0, 2022-02-11 00:06:36.820
110.0, -7127.747789352869, -9278.41028909806, -10313.296057378777, -15679.279348764343, -2812.028266433271, -3101.461005385042, -6846.674602827383, -7199.943923943511, -15970.455523783628, -12462.438638501006, -22644.082921038025, -11768.059345252437, -6437.928251973182, -10808.700121486203, -11070.48375254676, -11239.708809817888, 0.004, -0.024, 0.996, 192.0, 0.0, 0.0, 0.0, 0.0, 0.0, 0.0, 0.0, 0.0, 0.0, 1.64449839682075E9, 0.0, 2022-02-11 00:06:36.820
112.0, -7146.03151631731, -9298.303341663282, -10319.308676637254, -15684.129677311144, -2816.811539746707, -3111.720456090028, -6848.574501106084, -7200.949752444, -15975.752887219536, -12478.42013578655, -22643.568830915552, -11767.031165007493, -6436.073057183392, -10822.178223392752, -11064.113505376996, -11237.026600483252, 0.004, -0.024, 0.996, 192.0, 0.0, 0.0, 0.0, 0.0, 0.0, 0.0, 0.0, 0.0, 0.0, 1.644498396820757E9, 0.0, 2022-02-11 00:06:36.820
114.0, -7139.124827280621, -9300.382053897627, -10314.793624257281, -15678.340575497221, -2814.196385645436, -3099.6728658286174, -6844.953518504324, -7197.28406635333, -15967.974480149089, -12484.455106789483, -22651.05666530808, -11770.13805748678, -6428.942850702149, -10804.162717361774, -11067.265101345194, -11237.205414438893, 0.004, -0.024, 0.996, 192.0, 0.0, 0.0, 0.0, 0.0, 0.0, 0.0, 0.0, 0.0, 0.0, 1.6444983968207633E9, 0.0, 2022-02-11 00:06:36.820
116.0, -7148.624318674126, -9305.098271977697, -10311.865545733637, -15679.882845864637, -2813.1011501671255, -3100.097548973268, -6846.87576852748, -7203.453147822995, -15977.183398864676, -12483.382223055629, -22632.1917929878, -11763.052554494448, -6431.8709292257945, -10799.75942370408, -11064.7617059662, -11232.265678914271, 0.008, -0.03, 0.994, 192.0, 0.0, 32.0, 127.5, 8.0, 15.5, 8.0, 0.0, 0.0, 0.0, 1.6444983968207707E9, 0.0, 2022-02-11 00:06:36.820
118.0, -7170.4172695180505, -9319.045760517807, -10320.895650493581, -15678.38527898613, -2822.7571037718185, -3102.667999585629, -6849.803847051126, -7193.104290140187, -15984.224198368098, -12490.668891748059, -22650.90020309689, -11768.551083630453, -6425.321868100389, -10802.66515048327, -11069.321461835083, -11234.590260337623, 0.008, -0.03, 0.994, 192.0, 0.0, 0.0, 0.0, 0.0, 0.0, 0.0, 0.0, 0.0, 0.0, 1.6444983968207774E9, 0.0, 2022-02-11 00:06:36.820
120.0, -7173.568865486249, -9334.446112447515, -10310.166813155034, -15676.127752796145, -2807.1108826531035, -3091.6709413136177, -6834.358791632509, -7186.7340429704245, -15980.849084955345, -12488.679586491537, -22647.212165261768, -11767.969938274615, -6431.490949570054, -10809.817708708968, -11067.399211811926, -11228.89056550152, 0.008, -0.03, 0.994, 192.0, 0.0, 0.0, 0.0, 0.0, 0.0, 0.0, 0.0, 0.0, 0.0, 1.6444983973009973E9, 0.0, 2022-02-11 00:06:37.300
122.0, -7209.152842659098, -9365.492685495936, -10322.504976094364, -15681.089840065222, -2810.7765687437736, -3104.1879182085895, -6850.720268573794, -7210.136319415131, -15996.651768285248, -12506.449223333506, -22650.788444374615, -11775.882455811794, -6433.122626915291, -10813.550450033004, -11060.559578008602, -11233.60678358159, 0.008, -0.03, 0.994, 192.0, 0.0, 0.0, 0.0, 0.0, 0.0, 0.0, 0.0, 0.0, 0.0, 1.644498397301194E9, 0.0, 2022-02-11 00:06:37.301
124.0, -7247.508436144404, -9390.90661894162, -10318.61577255914, -15680.553398198295, -2801.6794087504636, -3091.693293058073, -6830.089608441545, -7195.786499474824, -15997.188210152175, -12505.175173899554, -22669.519206228164, -11787.483011184098, -6422.997286677038, -10804.654455739792, -11064.202912354816, -11235.394923138014, 0.008, -0.03, 0.994, 192.0, 0.0, 0.0, 0.0, 0.0, 0.0, 0.0, 0.0, 0.0, 0.0, 1.644498397301211E9, 0.0, 2022-02-11 00:06:37.301
126.0, -7279.96316909351, -9438.53818637588, -10325.120130195633, -15688.57767445775, -2800.5841732721537, -3079.2210196520114, -6809.973038431769, -7157.252092033875, -16032.168690224731, -12528.353932899707, -22679.465732510776, -11796.423708966222, -6431.714467014607, -10795.244371324108, -11054.435200027849, -11220.21808865286, 0.012, -0.022, 0.996, 192.0, 0.0, 48.0, 127.5, 40.0, 15.5, 16.0, 0.0, 0.0, 0.0, 1.6444983973012187E9, 0.0, 2022-02-11 00:06:37.301
128.0, -7311.546184008859, -9464.175637266117, -10327.869394763637, -15682.00626158789, -2801.6570570060085, -3087.2005924225564, -6822.869994982481, -7171.199580573986, -16033.621553614326, -12528.979781744454, -22696.609520507995, -11812.069930084936, -6426.79708323444, -10801.391101049318, -11056.290394817639, -11220.151033419495, 0.012, -0.022, 0.996, 192.0, 0.0, 0.0, 0.0, 0.0, 0.0, 0.0, 0.0, 0.0, 0.0, 1.6444983973012261E9, 0.0, 2022-02-11 00:06:37.301
130.0, -7308.662808974124, -9469.517704190936, -10313.407816101053, -15676.977119085446, -2792.3363795681453, -3078.282246384889, -6817.863204224492, -7164.091725837198, -16037.89073680529, -12526.208165431997, -22695.603692007506, -11804.447985225677, -6427.713504757107, -10799.982941148632, -11054.166979094385, -11217.826451996143, 0.012, -0.022, 0.996, 192.0, 0.0, 0.0, 0.0, 0.0, 0.0, 0.0, 0.0, 0.0, 0.0, 1.6444983973012333E9, 0.0, 2022-02-11 00:06:37.301
132.0, -7326.030114415898, -9483.196971797583, -10326.863566263148, -15682.699165666005, -2807.669676264486, -3079.46688884102, -6822.5123670711955, -7170.976063129433, -16042.94223105219, -12532.489005623938, -22700.319910087575, -11802.257514269057, -6429.926327458183, -10791.511630000072, -11054.792827939133, -11223.772016021254, 0.012, -0.022, 0.996, 192.0, 0.0, 0.0, 0.0, 0.0, 0.0, 0.0, 0.0, 0.0, 0.0, 1.6444983973012493E9, 0.0, 2022-02-11 00:06:37.301
134.0, -7325.113692893231, -9475.217399027038, -10330.66336282055, -15674.607834173185, -2804.898059952028, -3081.791470264372, -6815.180994889855, -7161.9906618584, -16054.095751535388, -12531.304363167807, -22717.10607017351, -11816.674389442729, -6433.636717037763, -10810.488261042627, -11058.212644840794, -11224.979010221841, 0.012, -0.022, 0.996, 192.0, 0.0, 0.0, 0.0, 0.0, 0.0, 0.0, 0.0, 0.0, 0.0, 1.644498397301256E9, 0.0, 2022-02-11 00:06:37.301
136.0, -7309.735692707979, -9470.948215836075, -10328.338781397199, -15676.641842918616, -2802.796995973229, -3077.4105283511317, -6819.763102503193, -7167.869170650145, -16053.782827113013, -12541.38499991715, -22693.592035006528, -11799.016511323038, -6448.925310245194, -10811.628200009847, -11055.731601206257, -11221.805062509187, 0.014, -0.022, 0.988, 192.0, 0.0, 56.0, 127.5, 40.0, 15.0, 112.0, 0.0, 0.0, 0.0, 1.644498397301263E9, 0.0, 2022-02-11 00:06:37.301
138.0, -7300.5491257368485, -9451.524549904412, -10335.491339622897, -15676.351270240697, -2806.775606486274, -3085.367749377221, -6828.368524118487, -7177.70393821048, -16043.098693263377, -12538.47927313796, -22698.464715297785, -11809.72299691713, -6438.107065928825, -10806.979037163144, -11062.638290242945, -11225.850728255598, 0.014, -0.022, 0.988, 192.0, 0.0, 0.0, 0.0, 0.0, 0.0, 0.0, 0.0, 0.0, 0.0, 1.6444983973012702E9, 0.0, 2022-02-11 00:06:37.301
140.0, -7264.540465419348, -9424.411883880126, -10315.71004577995, -15678.29587200831, -2794.035112146749, -3077.7011010290507, -6817.505576313207, -7169.702013695481, -16028.279486689507, -12522.229554918953, -22677.38702027643, -11797.47424095562, -6430.619231536297, -10810.197688364708, -11059.866673930488, -11223.906126487986, 0.014, -0.022, 0.988, 192.0, 0.0, 0.0, 0.0, 0.0, 0.0, 0.0, 0.0, 0.0, 0.0, 1.6444983973012772E9, 0.0, 2022-02-11 00:06:37.301
142.0, -7262.2829392293625, -9410.866726740209, -10322.147348183078, -15678.497037708406, -2805.2556878633127, -3091.1568511911455, -6833.151797431922, -7182.956598157478, -16028.0336175005, -12524.129453197653, -22668.423970749853, -11786.119554772326, -6433.949641460138, -10811.963476176677, -11056.402153539915, -11228.465882356868, 0.014, -0.022, 0.988, 192.0, 0.0, 0.0, 0.0, 0.0, 0.0, 0.0, 0.0, 0.0, 0.0, 1.6444983973012853E9, 0.0, 2022-02-11 00:06:37.301
144.0, -7244.021564009377, -9396.025168421886, -10319.42043535953, -15672.774991127848, -2798.4384058044443, -3084.7419005324723, -6835.3646201329975, -7180.497906267394, -16010.755719036546, -12523.928287497556, -22671.709677184783, -11791.886304841793, -6421.70088549863, -10799.714720215168, -11065.007575155209, -11230.656353313489, 0.014, -0.020999999999999998, 0.99, 192.0, 0.0, 56.0, 127.5, 48.0, 15.5, 0.0, 0.0, 0.0, 0.0, 1.6444983973012931E9, 0.0, 2022-02-11 00:06:37.301
146.0, -7230.118778958175, -9379.820153691788, -10313.988961456891, -15673.847874861704, -2799.734806982852, -3085.412452866132, -6832.436541609352, -7183.7389092134135, -16013.437928371184, -12507.47740357845, -22655.079979310034, -11773.42376392171, -6435.089580427359, -10788.047109609499, -11062.392421053937, -11226.811853267176, 0.014, -0.020999999999999998, 0.99, 192.0, 0.0, 0.0, 0.0, 0.0, 0.0, 0.0, 0.0, 0.0, 0.0, 1.6444983973013003E9, 0.0, 2022-02-11 00:06:37.301
148.0, -7232.152787703609, -9380.222485091983, -10321.253278404865, -15670.71863063796, -2809.7483884988296, -3099.784624550894, -6836.325745144576, -7191.807888961779, -16013.013245226533, -12508.974970456955, -22664.847691637005, -11778.318795957422, -6428.22759487958, -10815.42799656725, -11066.795714711632, -11234.456149870892, 0.014, -0.020999999999999998, 0.99, 192.0, 0.0, 0.0, 0.0, 0.0, 0.0, 0.0, 0.0, 0.0, 0.0, 1.6444983973013084E9, 0.0, 2022-02-11 00:06:37.301
150.0, -7206.291819368818, -9361.514074982892, -10310.457385832953, -15668.215235258966, -2794.862126691595, -3084.0042929654473, -6824.568727561084, -7178.03921437731, -16003.066718943921, -12515.702845538002, -22651.995438575203, -11776.754173845551, -6429.233423380068, -10804.229772595141, -11063.62176699898, -11228.689399801422, 0.014, -0.020999999999999998, 0.99, 192.0, 0.0, 0.0, 0.0, 0.0, 0.0, 0.0, 0.0, 0.0, 0.0, 1.6444983973013153E9, 0.0, 2022-02-11 00:06:37.301
152.0, -7201.888525711122, -9364.03982210634, -10320.85094700467, -15672.305604494288, -2805.680371007964, -3097.6612088276397, -6839.1644166904, -7188.656292993581, -16005.883038745289, -12512.730063525447, -22645.2452117497, -11767.724069085607, -6431.89328097025, -10805.392063306817, -11056.312746562095, -11227.594164323113, 0.014, -0.020999999999999998, 0.99, 192.0, 0.0, 0.0, 0.0, 0.0, 0.0, 0.0, 0.0, 0.0, 0.0, 1.6444983973013225E9, 0.0, 2022-02-11 00:06:37.301
154.0, -7199.698054754503, -9359.99415635993, -10315.553583568762, -15671.00920331588, -2805.479205307866, -3100.4775286290087, -6843.791227792648, -7196.9487901864995, -15996.428250840694, -12512.931229225545, -22655.974049088247, -11772.149714487758, -6430.574528047387, -10818.020798924064, -11066.95217692282, -11234.143225448517, 0.014, -0.0215, 0.988, 192.0, 0.0, 56.0, 127.5, 40.0, 15.0, 104.0, 0.0, 0.0, 0.0, 1.6444983973013296E9, 0.0, 2022-02-11 00:06:37.301
156.0, -7182.9789499019325, -9345.242005019427, -10308.021045687325, -15672.372659727653, -2799.6454000050308, -3101.036322240391, -6837.73390504526, -7190.645598250103, -16001.032710198488, -12509.734929768436, -22637.355045956978, -11760.772676560007, -6432.65324028173, -10819.607772780391, -11060.738391964245, -11232.489196358823, 0.014, -0.0215, 0.988, 192.0, 0.0, 0.0, 0.0, 0.0, 0.0, 0.0, 0.0, 0.0, 0.0, 1.6444983973013368E9, 0.0, 2022-02-11 00:06:37.301
158.0, -7174.8205631757455, -9335.27312699236, -10311.239696888888, -15663.230796245432, -2802.282905850757, -3092.989694236481, -6840.349059146531, -7191.673778495047, -15994.237779884075, -12511.210144902487, -22643.255906493177, -11763.588996361375, -6426.573565789887, -10809.32597033095, -11060.827798942066, -11231.7515887918, 0.014, -0.0215, 0.988, 192.0, 0.0, 0.0, 0.0, 0.0, 0.0, 0.0, 0.0, 0.0, 0.0, 1.6444983973013437E9, 0.0, 2022-02-11 00:06:37.301
160.0, -7159.397859501584, -9317.190565728017, -10304.623580530117, -15660.369772955153, -2784.222696330869, -3074.2589323829334, -6822.467663582285, -7178.016862632855, -15981.944320433657, -12487.114964379665, -22628.503755152673, -11749.820321776906, -6406.591106246842, -10789.99171137711, -11052.512950004691, -11221.156861919984, 0.014, -0.0215, 0.988, 192.0, 0.0, 0.0, 0.0, 0.0, 0.0, 0.0, 0.0, 0.0, 0.0, 1.6444983973013544E9, 0.0, 2022-02-11 00:06:37.301
162.0, -7168.495019494894, -9307.579315612234, -10304.042435174279, -15668.282290492332, -2799.243068604835, -3081.724415031006, -6835.230509666266, -7179.80500218928, -15989.678024015193, -12481.772897454846, -22621.306493438067, -11759.789199803972, -6427.199414634635, -10782.950911873688, -11048.936670891842, -11218.765225263265, 0.014, -0.0215, 0.988, 192.0, 0.0, 0.0, 0.0, 0.0, 0.0, 0.0, 0.0, 0.0, 0.0, 1.644498397301362E9, 0.0, 2022-02-11 00:06:37.301
164.0, -7153.496998965383, -9305.634713844624, -10299.70619674995, -15657.24052873141, -2799.444234304933, -3087.13353718919, -6834.1352741879555, -7183.291874324307, -15978.16687562071, -12498.916685452066, -22633.108214510466, -11755.005926490538, -6416.202356362624, -10799.938237659722, -11057.340926807037, -11225.761321277776, 0.012, -0.02375, 0.987, 192.0, 0.0, 40.0, 127.5, 24.0, 15.0, 104.0, 0.0, 0.0, 0.0, 1.6444983973013716E9, 0.0, 2022-02-11 00:06:37.301
166.0, -7147.529083195816, -9308.853365046187, -10295.839344959182, -15658.872206076647, -2800.1147866385922, -3085.814784266327, -6838.627974823472, -7190.176211616542, -15977.473971542595, -12501.442432575517, -22609.415365387842, -11738.063304193414, -6426.171234389692, -10798.172449847752, -11052.915281404887, -11225.180175921938, 0.012, -0.02375, 0.987, 192.0, 0.0, 0.0, 0.0, 0.0, 0.0, 0.0, 0.0, 0.0, 0.0, 1.6444983973013785E9, 0.0, 2022-02-11 00:06:37.301
168.0, -7158.637900190103, -9302.483117876425, -10305.875278219615, -15665.734191624428, -2815.2692693792906, -3092.296790158366, -6848.820370295092, -7200.145089643609, -15981.050250655444, -12499.453127318995, -22621.686473093807, -11747.361629886822, -6425.8806617117725, -10787.555371231481, -11059.821970441577, -11230.231670168838, 0.012, -0.02375, 0.987, 192.0, 0.0, 0.0, 0.0, 0.0, 0.0, 0.0, 0.0, 0.0, 0.0, 1.6444983973013852E9, 0.0, 2022-02-11 00:06:37.301
170.0, -7141.918795337534, -9297.208106184973, -10295.99580717037, -15659.542758410307, -2803.668714006986, -3089.7710430349166, -6844.104152215023, -7198.5357640428265, -15983.151314634242, -12498.357891840684, -22621.2394382047, -11752.167254944714, -6425.612440778308, -10802.352226060895, -11059.732563463756, -11231.706885302889, 0.012, -0.02375, 0.987, 192.0, 0.0, 0.0, 0.0, 0.0, 0.0, 0.0, 0.0, 0.0, 0.0, 1.6444983973013923E9, 0.0, 2022-02-11 00:06:37.301
172.0, -7149.361926241151, -9299.666798075057, -10305.830574730704, -15664.594252657207, -2817.347981613634, -3105.976057765014, -6858.275158199687, -7215.388979362128, -15987.487553058572, -12508.28206637884, -22615.830316046515, -11745.618193819308, -6425.858309967317, -10809.147156375308, -11057.698554718323, -11231.997457980808, 0.012, -0.02375, 0.987, 192.0, 0.0, 0.0, 0.0, 0.0, 0.0, 0.0, 0.0, 0.0, 0.0, 1.6444983973013997E9, 0.0, 2022-02-11 00:06:37.301
174.0, -7137.783722613302, -9285.853420001677, -10302.611923529139, -15657.553453153785, -2811.961211199905, -3097.795319294372, -6857.045812254645, -7213.064397938776, -15976.624605253293, -12501.509487808882, -22619.965388770746, -11754.916519512715, -6419.353952330823, -10798.261856825573, -11062.124200120474, -11236.691324316422, 0.014, -0.021875, 0.9875, 192.0, 0.0, 64.0, 127.5, 48.0, 15.0, 112.0, 0.0, 0.0, 0.0, 1.644498397301426E9, 0.0, 2022-02-11 00:06:37.301
176.0, -7133.179263255509, -9289.161478181062, -10302.723682251417, -15657.039363031312, -2818.4655688363996, -3094.822537281816, -6859.236283211266, -7201.776766988846, -15984.604178023837, -12505.108118666187, -22607.828391531515, -11744.344144385355, -6418.504586041521, -10797.144269602808, -11059.553749508113, -11231.93040274744, 0.014, -0.021875, 0.9875, 192.0, 0.0, 0.0, 0.0, 0.0, 0.0, 0.0, 0.0, 0.0, 0.0, 1.6444983973014476E9, 0.0, 2022-02-11 00:06:37.301
178.0, -7139.549510425271, -9286.725138035434, -10309.093929421178, -15654.804188585782, -2822.51123458281, -3099.9410867620813, -6842.673640569883, -7200.279200110341, -15983.218369867609, -12506.605685544693, -22618.84780154798, -11746.892243253262, -6427.288821612457, -10798.127746358841, -11062.459476287304, -11231.595126580612, 0.014, -0.021875, 0.9875, 192.0, 0.0, 0.0, 0.0, 0.0, 0.0, 0.0, 0.0, 0.0, 0.0, 1.6444983973014543E9, 0.0, 2022-02-11 00:06:37.301
180.0, -7124.909117807045, -9280.623111799136, -10296.644007759573, -15653.574842640739, -2800.4277110609664, -3088.206420923045, -6828.457931096307, -7190.824412205746, -15975.104686630331, -12489.841877203213, -22613.639845089896, -11740.164368172213, -6419.219841864091, -10799.714720215168, -11056.7597814512, -11226.78950152272, 0.014, -0.021875, 0.9875, 192.0, 0.0, 0.0, 0.0, 0.0, 0.0, 0.0, 0.0, 0.0, 0.0, 1.6444983973014615E9, 0.0, 2022-02-11 00:06:37.301
182.0, -7131.368771954629, -9271.615358783647, -10301.874315962115, -15657.732267109426, -2809.703685009919, -3096.6330285826957, -6838.046829467635, -7194.221877362952, -15982.905445445234, -12504.99635994391, -22609.102440965467, -11748.300403153946, -6422.438493065655, -10807.671941241259, -11057.609147740503, -11228.93526899043, 0.014, -0.021875, 0.9875, 192.0, 0.0, 0.0, 0.0, 0.0, 0.0, 0.0, 0.0, 0.0, 0.0, 1.644498397301483E9, 0.0, 2022-02-11 00:06:37.301
184.0, -7119.187071226486, -9269.760163993855, -10306.501127064363, -15651.920813551047, -2806.3956268305337, -3076.985845206481, -6838.672678312383, -7194.825374463246, -15973.674174985192, -12503.409386087584, -22619.160725970356, -11748.456865365133, -6412.424911549677, -10789.70113869919, -11059.441990785837, -11227.41535036747, 0.013000000000000001, -0.0219375, 0.98675, 192.0, 0.0, 48.0, 127.5, 40.0, 15.0, 104.0, 0.0, 0.0, 0.0, 1.6444983973014896E9, 0.0, 2022-02-11 00:06:37.301
186.0, -7119.902327049056, -9270.654233772068, -10296.17462112601, -15653.440732174007, -2804.965115185394, -3081.4114906086315, -6842.316012658598, -7200.681531510536, -15974.344727318852, -12499.922513952555, -22600.295853650077, -11733.615307046808, -6423.332562843867, -10782.258007795574, -11055.351621550515, -11222.27444914275, 0.013000000000000001, -0.0219375, 0.98675, 192.0, 0.0, 0.0, 0.0, 0.0, 0.0, 0.0, 0.0, 0.0, 0.0, 1.6444983973014965E9, 0.0, 2022-02-11 00:06:37.301
188.0, -7134.69918187847, -9281.852457744177, -10305.718816008428, -15652.52431065134, -2813.347019356134, -3095.7389588044834, -6847.099285972034, -7198.692226254014, -15978.323337831896, -12502.202391886996, -22613.751603812172, -11741.974859473094, -6413.207222605613, -10798.75359520359, -11060.894854175433, -11228.398827123503, 0.013000000000000001, -0.0219375, 0.98675, 192.0, 0.0, 0.0, 0.0, 0.0, 0.0, 0.0, 0.0, 0.0, 0.0, 1.644498397301518E9, 0.0, 2022-02-11 00:06:37.301
190.0, -7117.845966559168, -9275.012823940853, -10288.932655922492, -15645.327048936731, -2798.12548138207, -3076.2929411283662, -6828.212061907299, -7175.960502142966, -15975.261148841519, -12500.99539768641, -22606.777859542115, -11733.056513435426, -6417.878737196772, -10793.389176534316, -11057.743258207234, -11222.252097398294, 0.013000000000000001, -0.0219375, 0.98675, 192.0, 0.0, 0.0, 0.0, 0.0, 0.0, 0.0, 0.0, 0.0, 0.0, 1.644498397301525E9, 0.0, 2022-02-11 00:06:37.301
192.0, -7123.009219528344, -9272.822352984233, -10297.046339159768, -15650.71381935046, -2810.016609432293, -3085.948894733059, -6841.511349858207, -7192.143165128608, -15983.151314634242, -12513.244153647918, -22601.905179250858, -11734.17410065819, -6425.008943678015, -10786.70600494218, -11053.652888971912, -11222.877946243043, 0.013000000000000001, -0.0219375, 0.98675, 192.0, 0.0, 0.0, 0.0, 0.0, 0.0, 0.0, 0.0, 0.0, 0.0, 1.6444983973015325E9, 0.0, 2022-02-11 00:06:37.301
194.0, -7117.9800770259, -9266.385050581104, -10295.884048448092, -15644.298868691787, -2805.2333361188576, -3076.6058655507404, -6838.225643423277, -7180.98964464541, -15971.841331939857, -12503.342330854217, -22610.04121423259, -11742.153673428737, -6411.486138282555, -10782.749746173591, -11060.09019137504, -11222.162690420473, 0.009500000000000001, -0.02296875, 0.989375, 192.0, 0.0, 24.0, 127.5, 32.0, 15.5, 0.0, 0.0, 0.0, 0.0, 1.6444983973015392E9, 0.0, 2022-02-11 00:06:37.301
196.0, -7113.286210690286, -9272.800001239777, -10293.335949580187, -15647.76338908236, -2804.741597740841, -3077.5446388178634, -6845.02057373769, -7185.236476091919, -15976.244625597552, -12504.392862843617, -22598.060679204547, -11730.016676189503, -6426.819434978895, -10774.61371119186, -11052.535301749147, -11216.686513028922, 0.009500000000000001, -0.02296875, 0.989375, 192.0, 0.0, 0.0, 0.0, 0.0, 0.0, 0.0, 0.0, 0.0, 0.0, 1.64449839730156E9, 0.0, 2022-02-11 00:06:37.301
198.0, -7127.256050974853, -9274.230512884917, -10295.66053100354, -15648.1433687381, -2816.1409874130472, -3095.917772760126, -6840.796094035637, -7196.054720408288, -15977.228102353587, -12503.275275620852, -22608.700109565274, -11741.617231561808, -6427.802911734929, -10797.501897514094, -11056.200987839817, -11225.56015557768, 0.009500000000000001, -0.02296875, 0.989375, 192.0, 0.0, 0.0, 0.0, 0.0, 0.0, 0.0, 0.0, 0.0, 0.0, 1.6444983973015668E9, 0.0, 2022-02-11 00:06:37.301
200.0, -7104.144347208065, -9260.998280167376, -10280.282530818287, -15644.164758225055, -2793.006931901805, -3080.4727173415085, -6825.283983383654, -7177.32395855474, -15972.757753462525, -12506.538630311326, -22600.049984461068, -11733.637658791264, -6414.749492973029, -10783.889685140812, -11049.718981947779, -11223.637905554522, 0.009500000000000001, -0.02296875, 0.989375, 192.0, 0.0, 0.0, 0.0, 0.0, 0.0, 0.0, 0.0, 0.0, 0.0, 1.6444983973015735E9, 0.0, 2022-02-11 00:06:37.301
202.0, -7105.507803619838, -9257.891387688087, -10284.238789586878, -15647.04813325979, -2806.4626820638996, -3080.875048741704, -6831.721285786783, -7178.530952755327, -15971.282538328474, -12505.935133211033, -22587.734173266195, -11731.737760512562, -6415.7329697290625, -10781.162772317264, -11044.265156300684, -11218.586411307622, 0.009500000000000001, -0.02296875, 0.989375, 192.0, 0.0, 0.0, 0.0, 0.0, 0.0, 0.0, 0.0, 0.0, 0.0, 1.6444983973015945E9, 0.0, 2022-02-11 00:06:37.301
204.0, -7108.88291703259, -9257.7349254769, -10282.65181573055, -15645.036476258812, -2801.768815728285, -3083.758423776439, -6830.111960186, -7180.743775456403, -15962.922985902189, -12500.14603139711, -22599.602949571963, -11737.012772204014, -6409.608591748309, -10793.567990489959, -11044.555728978603, -11217.692341529411, 0.00875, -0.024484375000000003, 0.9846874999999999, 192.0, 0.0, 32.0, 127.5, 24.0, 15.0, 80.0, 0.0, 0.0, 0.0, 1.6444983973016012E9, 0.0, 2022-02-11 00:06:37.301
206.0, -7107.228887942897, -9257.109076632152, -10280.640158729573, -15647.182243726522, -2794.705664480408, -3088.0276069674023, -6825.462797339296, -7174.865266664657, -15970.857855183824, -12506.583333800238, -22587.063620932535, -11725.881603465272, -6414.011885406004, -10799.267685326062, -11042.767589422177, -11219.055797941184, 0.00875, -0.024484375000000003, 0.9846874999999999, 192.0, 0.0, 0.0, 0.0, 0.0, 0.0, 0.0, 0.0, 0.0, 0.0, 1.6444983973016088E9, 0.0, 2022-02-11 00:06:37.301
208.0, -7118.628277615104, -9264.97689068042, -10293.112432135635, -15645.57291812574, -2806.932068697461, -3087.5135168449306, -6840.393762635442, -7180.699071967491, -15974.612948252316, -12497.396766829106, -22604.833257774506, -11735.694019281153, -6411.553193515921, -10799.647664981803, -11046.008592368198, -11224.308457888183, 0.00875, -0.024484375000000003, 0.9846874999999999, 192.0, 0.0, 0.0, 0.0, 0.0, 0.0, 0.0, 0.0, 0.0, 0.0, 1.644498397301628E9, 0.0, 2022-02-11 00:06:37.301
210.0, -7098.019969227311, -9256.840855698689, -10284.350548309154, -15640.588479112206, -2788.670693477475, -3072.3813858486874, -6827.653268295917, -7162.817676403246, -15970.768448206003, -12512.327732125252, -22600.720536794728, -11728.094426166348, -6409.541536514943, -10784.806106663478, -11042.767589422177, -11212.774957749243, 0.00875, -0.024484375000000003, 0.9846874999999999, 192.0, 0.0, 0.0, 0.0, 0.0, 0.0, 0.0, 0.0, 0.0, 0.0, 1.644498397301649E9, 0.0, 2022-02-11 00:06:37.301
212.0, -7105.9771902534, -9255.633861498101, -10295.74993798136, -15653.217214729455, -2796.8514319481174, -3082.909057487137, -6838.046829467635, -7174.239417819908, -15976.714012231114, -12512.752415269902, -22595.222007658722, -11727.401522088234, -6410.122681870781, -10776.714775170658, -11040.331249276549, -11213.60197229409, 0.00875, -0.024484375000000003, 0.9846874999999999, 192.0, 0.0, 0.0, 0.0, 0.0, 0.0, 0.0, 0.0, 0.0, 0.0, 1.64449839730168E9, 0.0, 2022-02-11 00:06:37.301
214.0, -7105.887783275579, -9252.057582385252, -10285.244618087367, -15647.33870593771, -2796.985542414849, -3083.177278420601, -6837.197463178332, -7177.413365532561, -15966.521616759494, -12509.8019850018, -22602.776897284617, -11740.253775150035, -6409.966219659594, -10785.789583419513, -11045.00276386771, -11222.408559609481, 0.009375000000000001, -0.0272421875, 0.98634375, 192.0, 0.0, 40.0, 127.5, 8.0, 15.0, 112.0, 0.0, 0.0, 0.0, 1.6444983973017013E9, 0.0, 2022-02-11 00:06:37.301
216.0, -7104.949010008456, -9262.384088323604, -10284.46230703143, -15649.23860421641, -2798.348998826623, -3081.4561940975423, -6841.936033002858, -7175.714632953958, -15971.148427861743, -12520.57552582926, -22586.683641276795, -11728.519109310999, -6421.9467546876385, -10796.071385868954, -11039.303069031605, -11218.541707818713, 0.009375000000000001, -0.0272421875, 0.98634375, 192.0, 0.0, 0.0, 0.0, 0.0, 0.0, 0.0, 0.0, 0.0, 0.0, 1.64449839730172E9, 0.0, 2022-02-11 00:06:37.301
218.0, -7116.862489803135, -9263.54637903528, -10293.984150169392, -15654.647726374595, -2807.2002896309245, -3083.3560923762434, -6846.540492360651, -7187.3822435596285, -15973.987099407566, -12519.949676984512, -22602.463972862242, -11734.263507636013, -6408.558059758909, -10786.236618308618, -11040.443007998825, -11220.821585753154, 0.009375000000000001, -0.0272421875, 0.98634375, 192.0, 0.0, 0.0, 0.0, 0.0, 0.0, 0.0, 0.0, 0.0, 0.0, 1.6444983973017266E9, 0.0, 2022-02-11 00:06:37.301
220.0, -7098.824632027702, -9245.463817770937, -10283.65764423104, -15651.451426917485, -2793.543373768732, -3075.8682579837155, -6835.230509666266, -7175.8934469096, -15969.650860983236, -12516.015769960377, -22598.03832746009, -11738.957373971627, -6413.050760394426, -10792.226885822642, -11042.253499299706, -11221.626248553544, 0.009375000000000001, -0.0272421875, 0.98634375, 192.0, 0.0, 0.0, 0.0, 0.0, 0.0, 0.0, 0.0, 0.0, 0.0, 1.64449839730175E9, 0.0, 2022-02-11 00:06:37.301
222.0, -7107.653571087548, -9255.186826608995, -10293.537115280285, -15655.966479297458, -2802.573478528676, -3089.8380982682825, -6844.394724892942, -7189.505659282882, -15979.060945398922, -12516.529860082848, -22594.350289624967, -11731.536594812465, -6410.815585948895, -10800.429976037738, -11036.732618419244, -11222.07328344265, 0.009375000000000001, -0.0272421875, 0.98634375, 192.0, 0.0, 0.0, 0.0, 0.0, 0.0, 0.0, 0.0, 0.0, 0.0, 1.644498397301769E9, 0.0, 2022-02-11 00:06:37.301
224.0, -7118.7623880818355, -9269.156666893563, -10298.253333360355, -15659.0957235212, -2803.1993273734247, -3083.7360720319834, -6835.3646201329975, -7170.998414873889, -15974.16591336321, -12520.262601406885, -22606.353176397464, -11747.786313031473, -6404.668856223686, -10814.735092489134, -11044.868653400976, -11225.314286388671, 0.008, -0.028, 0.99, 192.0, 0.0, 32.0, 127.5, 16.0, 15.0, 120.0, 0.0, 0.0, 0.0, 1.64449839730179E9, 0.0, 2022-02-11 00:06:37.301
226.0, -7112.861527545635, -9269.111963404652, -10287.144516366066, -15655.67590661954, -2799.2654203492907, -3082.4843743424863, -6834.962288732802, -7179.246208577897, -15981.027898910988, -12534.187738202541, -22594.95378672526, -11736.677496037186, -6417.521109285487, -10785.431955508227, -11042.432313255349, -11221.089806686618, 0.008, -0.028, 0.99, 192.0, 0.0, 0.0, 0.0, 0.0, 0.0, 0.0, 0.0, 0.0, 0.0, 1.644498397301797E9, 0.0, 2022-02-11 00:06:37.301
228.0, -7116.616620614126, -9263.166399379541, -10298.968589182925, -15653.328973451731, -2803.802824473718, -3083.3560923762434, -6833.978811976768, -7176.251074820885, -15980.78202972198, -12528.331581155251, -22602.62043507343, -11735.448150092143, -6404.668856223686, -10796.004330635587, -11044.667487700879, -11222.810891009676, 0.008, -0.028, 0.99, 192.0, 0.0, 0.0, 0.0, 0.0, 0.0, 0.0, 0.0, 0.0, 0.0, 1.644498397301818E9, 0.0, 2022-02-11 00:06:37.301
230.0, -7098.981094238889, -9244.905024159554, -10288.03858614428, -15647.115188493157, -2787.284885321246, -3070.9508742035478, -6826.960364217802, -7172.160705585565, -15972.377773806784, -12514.0041129594, -22596.496057092674, -11730.687228523164, -6402.232516078057, -10788.337682287418, -11042.275851044162, -11217.31236187367, 0.008, -0.028, 0.99, 192.0, 0.0, 0.0, 0.0, 0.0, 0.0, 0.0, 0.0, 0.0, 0.0, 1.6444983973018398E9, 0.0, 2022-02-11 00:06:37.301
232.0, -7097.774100038302, -9246.626108482613, -10287.859772188636, -15649.417418172054, -2793.8115947021956, -3072.336682359777, -6836.035172466657, -7182.777784201835, -15977.898654687246, -12522.006037474399, -22589.119981422424, -11720.092501651348, -6410.256792337513, -10770.545693700993, -11034.698609673813, -11217.334713618126, 0.008, -0.028, 0.99, 192.0, 0.0, 0.0, 0.0, 0.0, 0.0, 0.0, 0.0, 0.0, 0.0, 1.6444983973018465E9, 0.0, 2022-02-11 00:06:37.301
234.0, -7101.216268684419, -9243.943899147976, -10289.446746044963, -15644.343572180698, -2791.643475490031, -3062.6136735217183, -6825.999239206224, -7168.56207472826, -15967.661555726714, -12512.864173992179, -22597.680699548808, -11727.267411621502, -6396.309303797401, -10772.602054190882, -11037.85020564201, -11213.847841483099, 0.002, -0.03, 0.988, 192.0, 0.0, 8.0, 127.5, 8.0, 15.0, 112.0, 0.0, 0.0, 0.0, 1.6444983973018656E9, 0.0, 2022-02-11 00:06:37.301
236.0, -7099.495184361361, -9250.671774229024, -10285.714004720927, -15648.948031538492, -2791.9787516568604, -3066.36876659021, -6821.461835081796, -7160.604853702171, -15974.814113952412, -12514.831127504245, -22584.89550172037, -11724.898126709239, -6394.767033429985, -10773.496123969093, -11035.123292818464, -11207.812870480166, 0.002, -0.03, 0.988, 192.0, 0.0, 0.0, 0.0, 0.0, 0.0, 0.0, 0.0, 0.0, 0.0, 1.6444983973018868E9, 0.0, 2022-02-11 00:06:37.301
238.0, -7116.348399680663, -9253.801018452767, -10295.235847858889, -15646.62345011514, -2804.808652974207, -3080.495069085964, -6839.7679137906935, -7178.218028332953, -15980.714974488614, -12521.357836885196, -22599.111211193947, -11737.012772204014, -6409.9215161706825, -10783.196781062697, -11040.04067659863, -11213.914896716464, 0.002, -0.03, 0.988, 192.0, 0.0, 0.0, 0.0, 0.0, 0.0, 0.0, 0.0, 0.0, 0.0, 1.6444983973018937E9, 0.0, 2022-02-11 00:06:37.301
240.0, -7091.001521468344, -9241.7310764469, -10284.574065753706, -15639.873223289636, -2787.798975443718, -3065.3182346008107, -6820.031323436657, -7168.785592172813, -15975.082334885878, -12523.213031674986, -22598.440658860287, -11724.98753368706, -6405.920553913183, -10781.006310106077, -11039.593641709524, -11214.183117649927, 0.002, -0.03, 0.988, 192.0, 0.0, 0.0, 0.0, 0.0, 0.0, 0.0, 0.0, 0.0, 0.0, 1.6444983977805407E9, 0.0, 2022-02-11 00:06:37.780
242.0, -7101.193916939965, -9243.541567747781, -10290.005539656346, -15642.71189483546, -2791.419958045478, -3078.7739847629055, -6823.182919404855, -7172.272464307841, -15975.596425008349, -12525.783482287346, -22584.80609474255, -11717.544402783442, -6403.215992834091, -10777.027699593033, -11031.301144516605, -11212.17146064895, 0.002, -0.03, 0.988, 192.0, 0.0, 0.0, 0.0, 0.0, 0.0, 0.0, 0.0, 0.0, 0.0, 1.64449839778072E9, 0.0, 2022-02-11 00:06:37.780
244.0, -7104.524326863805, -9250.470608528925, -10297.023987415312, -15640.38731341211, -2788.9836178998494, -3072.470792826509, -6817.505576313207, -7162.348289769685, -15968.935605160666, -12524.040046219832, -22594.104420435957, -11726.060417420915, -6399.662065465697, -10781.945083373199, -11033.424560239859, -11212.5961437936, 0.006, -0.024, 0.99, 192.0, 0.0, 24.0, 127.5, 32.0, 15.0, 120.0, 0.0, 0.0, 0.0, 1.6444983977807279E9, 0.0, 2022-02-11 00:06:37.780
246.0, -7094.019006969811, -9239.719419445923, -10284.015272142324, -15642.398970413087, -2781.249914318313, -3070.0344526808803, -6816.29858211262, -7164.739926426402, -15976.40108780874, -12528.309229410796, -22586.12484766541, -11722.059455163415, -6404.087710867848, -10785.722528186147, -11027.903679359399, -11208.84105072511, 0.006, -0.024, 0.99, 192.0, 0.0, 0.0, 0.0, 0.0, 0.0, 0.0, 0.0, 0.0, 0.0, 1.6444983977807348E9, 0.0, 2022-02-11 00:06:37.780
248.0, -7103.585553596682, -9248.481303272403, -10294.341778080676, -15647.942203038003, -2794.5044987803103, -3079.9586272190368, -6829.933146230358, -7177.65923472157, -15973.383602307273, -12532.511357368394, -22596.272539648122, -11732.587126801864, -6397.203373575613, -10784.493182241105, -11030.675295671857, -11215.546574061702, 0.006, -0.024, 0.99, 192.0, 0.0, 0.0, 0.0, 0.0, 0.0, 0.0, 0.0, 0.0, 0.0, 1.6444983977807422E9, 0.0, 2022-02-11 00:06:37.780
250.0, -7094.197820925453, -9243.608622981146, -10286.272798332311, -15648.657458860573, -2785.9884841428384, -3071.0626329258243, -6823.227622893766, -7168.696185194992, -15973.204788351632, -12520.709636295991, -22594.685565791795, -11731.313077367911, -6407.440472536144, -10774.300786769485, -11033.111635817486, -11213.780786249732, 0.006, -0.024, 0.99, 192.0, 0.0, 0.0, 0.0, 0.0, 0.0, 0.0, 0.0, 0.0, 0.0, 1.6444983977807493E9, 0.0, 2022-02-11 00:06:37.780
252.0, -7104.300809419252, -9248.414248039038, -10294.095908891668, -15651.920813551047, -2793.5657255131873, -3079.3774818631987, -6832.324782887075, -7179.357967300173, -15980.603215766338, -12534.05362773581, -22587.62241454392, -11734.442321591654, -6409.608591748309, -10783.442650251705, -11033.491615473225, -11216.865326984564, 0.006, -0.024, 0.99, 192.0, 0.0, 0.0, 0.0, 0.0, 0.0, 0.0, 0.0, 0.0, 0.0, 1.6444983977807565E9, 0.0, 2022-02-11 00:06:37.780
254.0, -7102.400911140551, -9244.167416592529, -10291.592513512673, -15654.871243819147, -2792.023455145771, -3075.08594692778, -6832.145968931433, -7184.007130146877, -15974.478837785584, -12539.216880704986, -22595.959615225747, -11735.872833236794, -6402.277219566968, -10780.358109516872, -11036.866728885976, -11219.16755666346, 0.014, -0.026000000000000002, 0.99, 192.0, 0.0, 56.0, 127.5, 24.0, 15.0, 120.0, 0.0, 0.0, 0.0, 1.6444983977807634E9, 0.0, 2022-02-11 00:06:37.780
0.0, -7100.50101286185, -9257.64551849908, -10289.044414644768, -15656.391162442109, -2793.096338879626, -3079.8692202412153, -6834.8952334994365, -7185.281179580829, -15977.228102353587, -12536.959354515, -22581.94507145227, -11724.048760419937, -6408.088673125348, -10791.601036977892, -11034.251574784706, -11221.22391715335, 0.014, -0.026000000000000002, 0.99, 192.0, 0.0, 0.0, 0.0, 0.0, 0.0, 0.0, 0.0, 0.0, 0.0, 1.6444983977807703E9, 0.0, 2022-02-11 00:06:37.780
2.0, -7109.888745533079, -9255.075067886719, -10305.115318908134, -15655.72061010845, -2802.931106439961, -3083.4231476096093, -6836.772780033682, -7187.739871470913, -15988.158105392231, -12553.320831456283, -22601.94988273977, -11738.398580360245, -6407.619286491787, -10807.13549937433, -11040.912394632387, -11226.990667222819, 0.014, -0.026000000000000002, 0.99, 192.0, 0.0, 0.0, 0.0, 0.0, 0.0, 0.0, 0.0, 0.0, 0.0, 1.6444983977807772E9, 0.0, 2022-02-11 00:06:37.780
4.0, -7105.083120475188, -9246.268480571327, -10290.56433326773, -15652.971345540447, -2790.12355686707, -3067.8663334687158, -6829.35200087452, -7174.395880031095, -15984.313605345918, -12540.110950483198, -22598.70887979375, -11738.063304193414, -6399.907934654705, -10790.818725921956, -11040.085380087541, -11217.468824084857, 0.014, -0.026000000000000002, 0.99, 192.0, 0.0, 0.0, 0.0, 0.0, 0.0, 0.0, 0.0, 0.0, 0.0, 1.6444983977807944E9, 0.0, 2022-02-11 00:06:37.780
6.0, -7108.234716443386, -9254.002184152863, -10296.264028103833, -15660.056848532779, -2800.248897105324, -3073.208400393534, -6839.499692857229, -7189.125679627143, -15986.906407702734, -12548.269337209385, -22588.114152921935, -11730.307248867422, -6410.703827226619, -10785.499010741594, -11035.905603874398, -11217.826451996143, 0.014, -0.026000000000000002, 0.99, 192.0, 0.0, 0.0, 0.0, 0.0, 0.0, 0.0, 0.0, 0.0, 0.0, 1.6444983977808013E9, 0.0, 2022-02-11 00:06:37.780
8.0, -7107.027722242799, -9259.008974910854, -10296.398138570565, -15656.748790353393, -2797.0749493926705, -3070.883818970182, -6830.000201463724, -7179.626188233637, -15981.139657633265, -12545.497720896927, -22602.933359495804, -11736.94571697065, -6405.652332979719, -10786.70600494218, -11040.018324854174, -11222.475614842846, 0.01, -0.03, 0.988, 192.0, 0.0, 40.0, 127.5, 8.0, 15.0, 112.0, 0.0, 0.0, 0.0, 1.6444983977808082E9, 0.0, 2022-02-11 00:06:37.780
10.0, -7109.061730988233, -9264.351041835671, -10290.698443734462, -15655.854720575182, -2785.608504487098, -3069.565066047319, -6822.579422304562, -7174.977025386933, -15993.321358361407, -12554.48312216796, -22595.445525103274, -11733.347086113345, -6420.963277931604, -10788.784717176524, -11033.245746284218, -11217.513527573768, 0.01, -0.03, 0.988, 192.0, 0.0, 0.0, 0.0, 0.0, 0.0, 0.0, 0.0, 0.0, 0.0, 1.644498397780815E9, 0.0, 2022-02-11 00:06:37.780
12.0, -7119.723513093414, -9267.569693037236, -10298.789775227282, -15661.286194477821, -2788.424824288467, -3077.723452773506, -6826.893308984436, -7182.464859779461, -15992.583750794382, -12557.72412511398, -22604.14035369639, -11742.690115295663, -6405.965257402094, -10780.581626961426, -11028.41776948187, -11218.78757700772, 0.01, -0.03, 0.988, 192.0, 0.0, 0.0, 0.0, 0.0, 0.0, 0.0, 0.0, 0.0, 0.0, 1.6444983977808218E9, 0.0, 2022-02-11 00:06:37.780
14.0, -7099.0257977278, -9249.7330009619, -10286.518667521319, -15653.776008340838, -2777.606579972098, -3069.6097695362296, -6819.49488156973, -7174.6417492201035, -15984.581826279382, -12554.259604723407, -22598.88769374939, -11744.880586252284, -6397.337484042345, -10788.069461353954, -11027.590754937024, -11220.50866133078, 0.01, -0.03, 0.988, 192.0, 0.0, 0.0, 0.0, 0.0, 0.0, 0.0, 0.0, 0.0, 0.0, 1.6444983977808287E9, 0.0, 2022-02-11 00:06:37.780
16.0, -7105.954838508945, -9249.375373050616, -10292.263065846333, -15651.987868784414, -2790.056501633704, -3078.0587289403356, -6830.737809030749, -7186.868153437156, -15984.335957090374, -12549.275165709874, -22584.984908698192, -11727.647391277242, -6408.736873714552, -10803.536868517027, -11023.455682212792, -11219.346370619103, 0.01, -0.03, 0.988, 192.0, 0.0, 0.0, 0.0, 0.0, 0.0, 0.0, 0.0, 0.0, 0.0, 1.6444983977808356E9, 0.0, 2022-02-11 00:06:37.780
18.0, -7110.581649611194, -9250.001221895363, -10296.442842059474, -15651.518482150852, -2790.682350478453, -3069.2744933694, -6831.54247183114, -7180.699071967491, -15985.185323379676, -12543.86604355169, -22600.34055713899, -11733.99528670255, -6403.7524347010185, -10789.298807298996, -11032.776359650656, -11222.900297987497, 0.008, -0.028, 0.99, 192.0, 0.0, 32.0, 127.5, 16.0, 15.0, 120.0, 0.0, 0.0, 0.0, 1.6444983977808428E9, 0.0, 2022-02-11 00:06:37.780
20.0, -7107.228887942897, -9252.012878896341, -10293.917094936025, -15650.020915272346, -2788.514231266288, -3066.011138678925, -6828.68144854086, -7182.017824890355, -15988.091050158866, -12550.146883743631, -22588.22591164421, -11728.921440711194, -6410.6814754821635, -10786.37072877535, -11029.37889449345, -11217.088844429118, 0.008, -0.028, 0.99, 192.0, 0.0, 0.0, 0.0, 0.0, 0.0, 0.0, 0.0, 0.0, 0.0, 1.6444983977808504E9, 0.0, 2022-02-11 00:06:37.780
22.0, -7119.567050882227, -9253.041059141286, -10297.247504859866, -15652.457255417974, -2800.0253796607713, -3077.4775835844976, -6835.722248044282, -7181.280217323329, -15997.858762485834, -12560.518093170893, -22600.966405983738, -11737.03512394847, -6406.546402757932, -10790.237580566118, -11034.22922304025, -11221.760359020276, 0.008, -0.028, 0.99, 192.0, 0.0, 0.0, 0.0, 0.0, 0.0, 0.0, 0.0, 0.0, 0.0, 1.644498397780857E9, 0.0, 2022-02-11 00:06:37.780
24.0, -7100.83628902868, -9247.07314337172, -10282.338891308176, -15647.003429770879, -2784.2673998197797, -3067.173429390601, -6824.434617094353, -7172.004243374377, -15989.119230403809, -12553.857273323212, -22595.80315301456, -11734.844652991851, -6398.499774754021, -10793.322121300951, -11030.116502060475, -11218.608763052078, 0.008, -0.028, 0.99, 192.0, 0.0, 0.0, 0.0, 0.0, 0.0, 0.0, 0.0, 0.0, 0.0, 1.644498397780864E9, 0.0, 2022-02-11 00:06:37.780
26.0, -7109.307600177241, -9250.895291673576, -10287.70330997745, -15650.311487950265, -2796.2032313589134, -3069.721528258506, -6839.499692857229, -7175.80403993178, -15990.59444553786, -12557.05357278032, -22582.32505110801, -11727.245059877047, -6408.960391159105, -10789.567028232459, -11026.18259503634, -11216.84297524011, 0.008, -0.028, 0.99, 192.0, 0.0, 0.0, 0.0, 0.0, 0.0, 0.0, 0.0, 0.0, 0.0, 1.6444983977808712E9, 0.0, 2022-02-11 00:06:37.780
28.0, -7111.341608922674, -9242.267518313827, -10291.816030957227, -15648.255127460377, -2790.101205122615, -3067.7769264908943, -6822.691181026838, -7171.959539885466, -15987.040518169466, -12554.863101823701, -22597.70305129326, -11736.878661737283, -6410.927344671171, -10785.633121208326, -11029.222432282262, -11217.73704501832, 0.008, -0.028, 0.986, 192.0, 0.0, 32.0, 127.5, 16.0, 15.0, 104.0, 0.0, 0.0, 0.0, 1.6444983977808783E9, 0.0, 2022-02-11 00:06:37.780
30.0, -7104.16669895252, -9251.655250985057, -10287.166868110522, -15647.33870593771, -2783.1051091081035, -3065.5194003009083, -6823.987582205246, -7176.385185287618, -15989.610968781826, -12547.86700580919, -22587.66711803283, -11729.837862233862, -6412.380208060767, -10786.37072877535, -11021.75694963419, -11214.540745561213, 0.008, -0.028, 0.986, 192.0, 0.0, 0.0, 0.0, 0.0, 0.0, 0.0, 0.0, 0.0, 0.0, 1.644498397780885E9, 0.0, 2022-02-11 00:06:37.780
32.0, -7121.735170094392, -9255.20917835345, -10303.46128981844, -15652.323144951242, -2794.1692226134805, -3077.499935328953, -6833.665887554394, -7185.594104003204, -15995.847105484858, -12570.375212475683, -22600.541722839087, -11736.23046114808, -6406.568754502387, -10793.545638745503, -11023.589792679524, -11221.894469487008, 0.008, -0.028, 0.986, 192.0, 0.0, 0.0, 0.0, 0.0, 0.0, 0.0, 0.0, 0.0, 0.0, 1.6444983977808924E9, 0.0, 2022-02-11 00:06:37.780
34.0, -7102.915001263023, -9247.229605582907, -10288.262103588833, -15649.730342594426, -2777.450117760911, -3060.1326298871795, -6812.074102410567, -7163.890560137101, -15990.058003670933, -12563.692040883547, -22599.29002514959, -11737.191586159657, -6402.858364922806, -10788.494144498605, -11023.32157174606, -11219.614591552567, 0.008, -0.028, 0.986, 192.0, 0.0, 0.0, 0.0, 0.0, 0.0, 0.0, 0.0, 0.0, 0.0, 1.6444983977808995E9, 0.0, 2022-02-11 00:06:37.780
36.0, -7106.69244607597, -9242.334573547194, -10290.273760589811, -15652.680772862528, -2778.679463705953, -3060.758478731928, -6822.691181026838, -7172.630092219126, -15991.913198460723, -12558.72995361447, -22583.599100541964, -11722.215917374602, -6389.626132205264, -10772.55735070197, -11013.978542563742, -11211.433853081924, 0.008, -0.03, 0.988, 192.0, 0.0, 32.0, 127.5, 0.0, 15.0, 120.0, 0.0, 0.0, 0.0, 1.6444983977809093E9, 0.0, 2022-02-11 00:06:37.780
38.0, -7109.776986810803, -9241.865186913632, -10284.685824475984, -15649.640935616606, -2774.410280514989, -3056.086964140769, -6823.473492082774, -7166.125734582632, -15985.230026868587, -12556.271261724385, -22589.90229247836, -11735.13522566977, -6394.208239818602, -10769.606920433871, -11020.549955433602, -11217.401768851492, 0.008, -0.03, 0.988, 192.0, 0.0, 0.0, 0.0, 0.0, 0.0, 0.0, 0.0, 0.0, 0.0, 1.6444983977809172E9, 0.0, 2022-02-11 00:06:37.780
40.0, -7099.338722150174, -9248.235434083395, -10280.506048262841, -15647.38340942662, -2762.4520972314, -3053.2929960838555, -6810.375369831964, -7163.309414781263, -15985.677061757693, -12558.797008847834, -22573.719629492716, -11724.920478453694, -6398.723292198574, -10786.460135753172, -11014.805557108588, -11211.545611804202, 0.008, -0.03, 0.988, 192.0, 0.0, 0.0, 0.0, 0.0, 0.0, 0.0, 0.0, 0.0, 0.0, 1.6444983977809238E9, 0.0, 2022-02-11 00:06:37.780
42.0, -7106.781853053792, -9244.30152705926, -10293.51476353583, -15648.255127460377, -2776.131364838048, -3067.4863538129753, -6821.081855426056, -7172.048946863288, -15989.365099592818, -12563.96026181701, -22585.029612187103, -11728.876737222283, -6401.539611999943, -10787.331853786929, -11014.671446641856, -11216.12771941754, 0.008, -0.03, 0.988, 192.0, 0.0, 0.0, 0.0, 0.0, 0.0, 0.0, 0.0, 0.0, 0.0, 1.6444983977809305E9, 0.0, 2022-02-11 00:06:37.780
44.0, -7093.437861613973, -9237.618355467124, -10285.736356465382, -15642.197804712989, -2761.759193153285, -3060.691423498562, -6812.655247766405, -7169.903179395578, -15981.027898910988, -12554.237252978952, -22581.81096098554, -11726.418045332199, -6391.593085717331, -10779.352281016385, -11017.152490276396, -11214.004303694284, 0.008, -0.03, 0.988, 192.0, 0.0, 0.0, 0.0, 0.0, 0.0, 0.0, 0.0, 0.0, 0.0, 1.6444983977809377E9, 0.0, 2022-02-11 00:06:37.780
46.0, -7100.702178561947, -9244.234471825896, -10287.390385555076, -15648.232775715922, -2768.956454867894, -3070.526191058897, -6821.551242059618, -7177.748641699392, -15985.833523968879, -12560.026354792877, -22571.75267598065, -11720.427777818177, -6398.320960798378, -10781.18512406172, -11015.721978631256, -11216.21712639536, 0.009000000000000001, -0.028999999999999998, 0.988, 192.0, 0.0, 40.0, 127.5, 16.0, 15.0, 112.0, 0.0, 0.0, 0.0, 1.644498397780945E9, 0.0, 2022-02-11 00:06:37.780
48.0, -7105.172527453009, -9246.7825706938, -10287.32333032171, -15647.517519893352, -2762.2285797868467, -3067.888685213171, -6813.482262311252, -7165.186961315509, -15985.230026868587, -12551.15271224412, -22586.75069651016, -11730.37430410079, -6391.637789206242, -10782.28035954003, -11019.342961233016, -11218.78757700772, 0.009000000000000001, -0.028999999999999998, 0.988, 192.0, 0.0, 0.0, 0.0, 0.0, 0.0, 0.0, 0.0, 0.0, 0.0, 1.644498397780952E9, 0.0, 2022-02-11 00:06:37.780
50.0, -7096.097719204155, -9244.63680322609, -10286.138687865578, -15648.500996649385, -2752.2149982708693, -3061.719603743506, -6811.291791354632, -7162.325938025229, -15986.347614091352, -12561.72508737148, -22572.892614947872, -11720.27131560699, -6382.384167001745, -10786.393080519805, -11011.564554162569, -11212.149108904494, 0.009000000000000001, -0.028999999999999998, 0.988, 192.0, 0.0, 0.0, 0.0, 0.0, 0.0, 0.0, 0.0, 0.0, 0.0, 1.6444983977809591E9, 0.0, 2022-02-11 00:06:37.780
52.0, -7110.961629266933, -9250.180035851006, -10298.700368249461, -15649.99856352789, -2764.8884373770284, -3069.6321212806847, -6814.622201278473, -7175.535818998315, -15990.59444553786, -12563.177950761075, -22585.74486800967, -11732.65418203523, -6394.856440407806, -10784.381423518827, -11015.923144331355, -11218.251135140794, 0.009000000000000001, -0.028999999999999998, 0.988, 192.0, 0.0, 0.0, 0.0, 0.0, 0.0, 0.0, 0.0, 0.0, 0.0, 1.6444983977809663E9, 0.0, 2022-02-11 00:06:37.780
54.0, -7099.316370405719, -9250.939995162487, -10293.492411791374, -15644.075351247235, -2759.255797774291, -3052.89066468366, -6810.732997743249, -7150.859493119657, -15988.292215858963, -12563.848503094734, -22585.74486800967, -11731.581298301375, -6387.413309504189, -10781.140420572809, -11019.052388555097, -11215.904201972986, 0.009000000000000001, -0.028999999999999998, 0.988, 192.0, 0.0, 0.0, 0.0, 0.0, 0.0, 0.0, 0.0, 0.0, 0.0, 1.6444983977809732E9, 0.0, 2022-02-11 00:06:37.780
56.0, -7103.07146347421, -9246.760218949345, -10292.352472824154, -15649.775046083338, -2761.2003995419027, -3054.589397262263, -6817.1703001463775, -7158.235568789908, -15994.997739195554, -12564.563758917304, -22577.966460939224, -11726.216879632102, -6404.132414356758, -10764.689536653703, -11015.99019956472, -11210.65154202599, 0.0105, -0.0295, 0.987, 192.0, 0.0, 48.0, 127.5, 8.0, 15.0, 104.0, 0.0, 0.0, 0.0, 1.6444983977809803E9, 0.0, 2022-02-11 00:06:37.780
58.0, -7101.886821018079, -9242.915718903032, -10285.937522165481, -15647.875147804636, -2754.249007016302, -3057.5845310192744, -6816.477396068263, -7161.565978713749, -15986.794648980458, -12559.020526292388, -22585.09666742047, -11734.643487291753, -6389.156745571702, -10769.919844856244, -11017.577173421047, -11213.847841483099, 0.0105, -0.0295, 0.987, 192.0, 0.0, 0.0, 0.0, 0.0, 0.0, 0.0, 0.0, 0.0, 0.0, 1.6444983977809873E9, 0.0, 2022-02-11 00:06:37.780
60.0, -7100.456309372939, -9246.089666615686, -10282.69651921946, -15651.719647850949, -2748.9739953248495, -3063.1724671331012, -6811.20238437681, -7160.113115324154, -15987.845180969856, -12564.831979850767, -22570.52333003561, -11722.350027841334, -6387.435661248644, -10778.9946531051, -11011.60925765148, -11213.579620549634, 0.0105, -0.0295, 0.987, 192.0, 0.0, 0.0, 0.0, 0.0, 0.0, 0.0, 0.0, 0.0, 0.0, 1.6444983977809942E9, 0.0, 2022-02-11 00:06:37.780
62.0, -7112.258030445341, -9250.202387595462, -10296.353435081654, -15651.876110062136, -2760.3957367415114, -3073.3201591158104, -6822.311201371098, -7171.579560229727, -15996.987044452078, -12576.030203822877, -22586.37071685442, -11733.257679135524, -6385.893390881228, -10790.371691032851, -11017.04073155412, -11223.324981132148, 0.0105, -0.0295, 0.987, 192.0, 0.0, 0.0, 0.0, 0.0, 0.0, 0.0, 0.0, 0.0, 0.0, 1.644498397781001E9, 0.0, 2022-02-11 00:06:37.781
64.0, -7098.422300627506, -9239.741771190378, -10283.143554108567, -15641.482548890419, -2750.315099992168, -3060.1996851205454, -6817.01383793519, -7163.622339203637, -15990.125058904297, -12566.351898473727, -22582.70503076375, -11727.915612210705, -6384.664044936186, -10785.90134214179, -11017.487766443226, -11220.486309586324, 0.0105, -0.0295, 0.987, 192.0, 0.0, 0.0, 0.0, 0.0, 0.0, 0.0, 0.0, 0.0, 0.0, 1.6444983977810087E9, 0.0, 2022-02-11 00:06:37.781
66.0, -7100.702178561947, -9232.365695520128, -10287.36803381062, -15644.254165202878, -2757.445306473411, -3067.2851881128777, -6825.932183972858, -7173.010071874866, -15994.662463028726, -12558.126456514176, -22570.456274802244, -11719.690170251151, -6386.563943214887, -10779.821667649945, -11014.537336175124, -11219.748702019298, 0.00825, -0.02975, 0.9864999999999999, 192.0, 0.0, 24.0, 127.5, 8.0, 15.0, 104.0, 0.0, 0.0, 0.0, 1.644498397781016E9, 0.0, 2022-02-11 00:06:37.781
68.0, -7106.066597231222, -9240.546433990768, -10288.217400099922, -15646.444636159496, -2749.711602891875, -3060.5796647762854, -6812.655247766405, -7163.309414781263, -15988.426326325694, -12557.232386735963, -22583.979080197703, -11729.74845525604, -6379.009053588993, -10763.70605989767, -11016.861917598477, -11222.162690420473, 0.00825, -0.02975, 0.9864999999999999, 192.0, 0.0, 0.0, 0.0, 0.0, 0.0, 0.0, 0.0, 0.0, 0.0, 1.6444983977810264E9, 0.0, 2022-02-11 00:06:37.781
70.0, -7104.6137338416265, -9247.92250966102, -10284.305844820243, -15649.886804805614, -2743.7883906112183, -3058.2997868418443, -6807.1343668859445, -7158.816714145746, -15993.9248554617, -12552.046782022331, -22574.144312637367, -11721.701827252129, -6391.615437461786, -10780.380461261328, -11009.84346983951, -11215.993608950808, 0.00825, -0.02975, 0.9864999999999999, 192.0, 0.0, 0.0, 0.0, 0.0, 0.0, 0.0, 0.0, 0.0, 0.0, 1.6444983977810335E9, 0.0, 2022-02-11 00:06:37.781
72.0, -7121.5787078832045, -9255.298585331271, -10299.840307216682, -15648.009258271368, -2759.859294874584, -3071.0626329258243, -6824.456968838807, -7169.456144506472, -16002.686739288181, -12576.007852078421, -22586.862455232436, -11733.414141346711, -6392.285989795446, -10793.858563167878, -11015.744330375712, -11222.07328344265, 0.00825, -0.02975, 0.9864999999999999, 192.0, 0.0, 0.0, 0.0, 0.0, 0.0, 0.0, 0.0, 0.0, 0.0, 1.6444983977810407E9, 0.0, 2022-02-11 00:06:37.781
74.0, -7108.100605976654, -9253.130466119108, -10292.285417590789, -15643.76242682486, -2748.1469807800036, -3055.7740397183943, -6815.046884423124, -7155.441600732995, -16001.747966021057, -12583.339224259762, -22591.981004712703, -11737.191586159657, -6389.067338593882, -10781.408641506272, -11017.599525165502, -11219.547536319202, 0.00825, -0.02975, 0.9864999999999999, 192.0, 0.0, 0.0, 0.0, 0.0, 0.0, 0.0, 0.0, 0.0, 0.0, 1.644498397781048E9, 0.0, 2022-02-11 00:06:37.781
76.0, -7112.325085678707, -9240.479378757404, -10286.563371010228, -15649.126845494135, -2757.0653268176707, -3066.5475805458523, -6830.246070652732, -7173.434755019517, -16002.93260847719, -12581.484029469972, -22578.391144083875, -11734.308211124922, -6402.232516078057, -10774.948987358688, -11014.582039664036, -11219.055797941184, 0.006125, -0.028874999999999998, 0.98925, 192.0, 0.0, 16.0, 127.5, 16.0, 15.5, 0.0, 0.0, 0.0, 0.0, 1.6444983977810557E9, 0.0, 2022-02-11 00:06:37.781
78.0, -7104.300809419252, -9247.07314337172, -10288.686786733484, -15644.254165202878, -2753.0867163046264, -3059.305615342333, -6823.1605676603995, -7163.577635714726, -15991.98025369409, -12576.186666034064, -22588.404725599852, -11733.928231469183, -6391.727196184063, -10765.829475620923, -11020.527603689146, -11226.051893955695, 0.006125, -0.028874999999999998, 0.98925, 192.0, 0.0, 0.0, 0.0, 0.0, 0.0, 0.0, 0.0, 0.0, 0.0, 1.6444983977810633E9, 0.0, 2022-02-11 00:06:37.781
80.0, -7099.361073894629, -9250.716477717933, -10279.544923251262, -15644.164758225055, -2740.7262016208415, -3057.8080484638276, -6816.5220995571735, -7164.851685148679, -15992.36023334983, -12562.462694938506, -22571.1268271359, -11719.757225484518, -6386.988626359538, -10779.12876357183, -11010.983408806731, -11217.55823106268, 0.006125, -0.028874999999999998, 0.98925, 192.0, 0.0, 0.0, 0.0, 0.0, 0.0, 0.0, 0.0, 0.0, 0.0, 1.6444983977810705E9, 0.0, 2022-02-11 00:06:37.781
82.0, -7121.176376483009, -9255.075067886719, -10292.88891469108, -15650.155025739077, -2754.1819517829363, -3068.4474788245534, -6827.608564807006, -7166.08103109372, -16000.473916587105, -12585.127363816186, -22580.156931895846, -11731.447187834643, -6384.999321103016, -10776.312443770463, -11015.073778042053, -11221.134510175529, 0.006125, -0.028874999999999998, 0.98925, 192.0, 0.0, 0.0, 0.0, 0.0, 0.0, 0.0, 0.0, 0.0, 0.0, 1.6444983977810779E9, 0.0, 2022-02-11 00:06:37.781
84.0, -7104.233754185886, -9246.424942782514, -10286.2280948434, -15644.835310558716, -2742.0673062881597, -3056.8692751967046, -6812.319971599576, -7152.714687909447, -15994.483649073083, -12579.070041068799, -22581.47568481871, -11732.497719824043, -6375.365719242778, -10775.977167603633, -11012.771548363156, -11218.541707818713, 0.006125, -0.028874999999999998, 0.98925, 192.0, 0.0, 0.0, 0.0, 0.0, 0.0, 0.0, 0.0, 0.0, 0.0, 1.6444983977810853E9, 0.0, 2022-02-11 00:06:37.781
86.0, -7114.247335701863, -9256.594986509679, -10293.51476353583, -15651.04909551729, -2749.041050558216, -3061.9654729325143, -6820.545413559129, -7167.668004950047, -16004.005492211045, -12588.368366762206, -22572.065600403024, -11728.60851628882, -6383.88173388025, -10776.13362981482, -11006.17778374884, -11217.826451996143, 0.0060625, -0.0304375, 0.990625, 192.0, 0.0, 24.0, 127.5, 0.0, 15.5, 0.0, 0.0, 0.0, 0.0, 1.6444983977810924E9, 0.0, 2022-02-11 00:06:37.781
88.0, -7117.3542281811515, -9253.286928330293, -10295.727586236904, -15650.982040283925, -2750.940948836917, -3063.4853915554754, -6822.199442648822, -7166.505714238372, -16003.491402088572, -12591.765831919412, -22591.601025056963, -11742.958336229127, -6384.887562380739, -10777.161810059764, -11016.951324576297, -11224.397864866003, 0.0060625, -0.0304375, 0.990625, 192.0, 0.0, 0.0, 0.0, 0.0, 0.0, 0.0, 0.0, 0.0, 0.0, 1.644498397781099E9, 0.0, 2022-02-11 00:06:37.781
90.0, -7103.294980918763, -9248.682468972502, -10278.963777895426, -15653.083104262723, -2738.088695775115, -3061.3843275766767, -6814.085759411545, -7163.599987459182, -15998.439907841672, -12588.144849317652, -22574.83721671548, -11735.85048149234, -6385.826335647862, -10781.967435117655, -11011.251629740194, -11225.806024766687, 0.0060625, -0.0304375, 0.990625, 192.0, 0.0, 0.0, 0.0, 0.0, 0.0, 0.0, 0.0, 0.0, 0.0, 1.644498397781106E9, 0.0, 2022-02-11 00:06:37.781
92.0, -7110.961629266933, -9246.648460227068, -10287.613902999628, -15653.61954612965, -2749.8457133586066, -3061.2725688544, -6822.534718815651, -7163.152952570075, -15996.651768285248, -12583.272169026395, -22576.021859171615, -11740.74551352805, -6381.288931523434, -10781.967435117655, -11009.865821583966, -11226.387170122525, 0.0060625, -0.0304375, 0.990625, 192.0, 0.0, 0.0, 0.0, 0.0, 0.0, 0.0, 0.0, 0.0, 0.0, 1.644498397781113E9, 0.0, 2022-02-11 00:06:37.781
94.0, -7100.031626228289, -9238.400666523059, -10276.639196472073, -15642.95776402447, -2735.4288381849337, -3052.756554216928, -6806.0167796631795, -7157.207388544964, -15984.917102446212, -12562.44034319405, -22570.031591657593, -11733.972934958094, -6373.957559342094, -10785.342548530407, -11009.821118095055, -11220.754530519787, 0.0060625, -0.0304375, 0.990625, 192.0, 0.0, 0.0, 0.0, 0.0, 0.0, 0.0, 0.0, 0.0, 0.0, 1.64449839778112E9, 0.0, 2022-02-11 00:06:37.781
96.0, -7113.196803712464, -9247.050791627264, -10283.679995975495, -15649.126845494135, -2740.614442898565, -3061.563141532319, -6815.1139396564895, -7169.210275317464, -15996.338843862874, -12591.743480174957, -22564.957745666237, -11725.345161598345, -6377.377376243756, -10784.448478752194, -11004.032016281131, -11221.000399708797, 0.009031250000000001, -0.02721875, 0.9883124999999999, 192.0, 0.0, 48.0, 127.5, 32.0, 15.0, 104.0, 0.0, 0.0, 0.0, 1.6444983977811272E9, 0.0, 2022-02-11 00:06:37.781
98.0, -7115.387274669084, -9248.749524205867, -10286.965702410425, -15648.344534438198, -2744.794219111707, -3054.589397262263, -6811.895288454925, -7169.590254973204, -15994.26013162853, -12589.620064451703, -22584.13554240889, -11736.699847781641, -6366.648538905209, -10774.591359447404, -11010.737539617723, -11225.381341622036, 0.009031250000000001, -0.02721875, 0.9883124999999999, 192.0, 0.0, 0.0, 0.0, 0.0, 0.0, 0.0, 0.0, 0.0, 0.0, 1.644498397781135E9, 0.0, 2022-02-11 00:06:37.781
100.0, -7108.458233887939, -9255.432695798005, -10282.60711224164, -15646.601098370684, -2735.5182451627547, -3049.4708477819977, -6802.284038339143, -7163.443525247994, -15999.579846808892, -12584.926198116089, -22571.238585858177, -11729.256716878024, -6379.076108822359, -10780.425164750239, -11009.619952394958, -11217.401768851492, 0.009031250000000001, -0.02721875, 0.9883124999999999, 192.0, 0.0, 0.0, 0.0, 0.0, 0.0, 0.0, 0.0, 0.0, 0.0, 1.6444983977811444E9, 0.0, 2022-02-11 00:06:37.781
102.0, -7120.125844493609, -9246.939032904987, -10290.340815823176, -15652.390200184609, -2746.224730756847, -3054.142362373157, -6812.565840788584, -7162.102420580676, -16007.224143412608, -12596.9737883775, -22578.36879233942, -11740.097312938848, -6386.6757019371635, -10781.810972906467, -11009.687007628323, -11218.74287351881, 0.009031250000000001, -0.02721875, 0.9883124999999999, 192.0, 0.0, 0.0, 0.0, 0.0, 0.0, 0.0, 0.0, 0.0, 0.0, 1.6444983977811513E9, 0.0, 2022-02-11 00:06:37.781
104.0, -7101.7974140402575, -9247.609585238646, -10278.2261703284, -15645.148234981089, -2726.3987334249896, -3040.6195569776964, -6794.930314413347, -7150.278347763819, -15996.562361307428, -12593.755137175935, -22576.781818483094, -11733.324734368889, -6376.013919831982, -10775.060746080964, -11007.340074460517, -11216.328885117637, 0.009031250000000001, -0.02721875, 0.9883124999999999, 192.0, 0.0, 0.0, 0.0, 0.0, 0.0, 0.0, 0.0, 0.0, 0.0, 1.6444983982600358E9, 0.0, 2022-02-11 00:06:38.260
106.0, -7109.620524599615, -9250.381201551105, -10280.260179073832, -15647.539871637808, -2727.87394855904, -3050.0966966267465, -6799.177145859855, -7159.286100779307, -16000.652730542748, -12594.716262187512, -22565.65064974435, -11721.679475507675, -6368.8837133507395, -10780.983958361621, -10999.069929012052, -11218.27348688525, 0.012, -0.026000000000000002, 0.988, 192.0, 0.0, 48.0, 127.5, 24.0, 15.0, 112.0, 0.0, 0.0, 0.0, 1.644498398260151E9, 0.0, 2022-02-11 00:06:38.260
108.0, -7117.555393881249, -9254.628032997613, -10289.066766389224, -15650.557357139274, -2732.701925361386, -3049.5155512709084, -6805.145061629422, -7163.3764700146285, -15999.98217820909, -12594.40333776514, -22582.816789486027, -11739.717333283108, -6362.200541758602, -10773.89845536929, -11003.048539525098, -11223.190870665416, 0.012, -0.026000000000000002, 0.988, 192.0, 0.0, 0.0, 0.0, 0.0, 0.0, 0.0, 0.0, 0.0, 0.0, 1.6444983982602177E9, 0.0, 2022-02-11 00:06:38.260
110.0, -7116.8848415475895, -9256.863207443144, -10277.46621101692, -15652.032572273323, -2735.674707373942, -3056.824571707794, -6811.671771010372, -7166.461010749461, -16004.83250675589, -12603.008759380433, -22572.3785248254, -11732.050684934937, -6381.31128326789, -10769.808086133968, -11007.071853527052, -11222.967353220864, 0.012, -0.026000000000000002, 0.988, 192.0, 0.0, 0.0, 0.0, 0.0, 0.0, 0.0, 0.0, 0.0, 0.0, 1.6444983982602243E9, 0.0, 2022-02-11 00:06:38.260
112.0, -7141.181187770509, -9264.239283113395, -10295.66053100354, -15651.362019939665, -2750.0468790587042, -3068.6709962691066, -6822.355904860009, -7177.033385876822, -16017.17066969522, -12613.178803107598, -22583.37558309741, -11737.28099313748, -6395.236420063547, -10797.412490536271, -11016.124310031451, -11229.69522830191, 0.012, -0.026000000000000002, 0.988, 192.0, 0.0, 0.0, 0.0, 0.0, 0.0, 0.0, 0.0, 0.0, 0.0, 1.6444983982602315E9, 0.0, 2022-02-11 00:06:38.260
114.0, -7133.045152788777, -9266.765030236844, -10284.641120987073, -15645.841139059203, -2732.2995939611906, -3045.1569611021237, -6804.474509295763, -7160.18017055752, -16018.198849940163, -12609.110785616731, -22589.94699596727, -11740.365533872311, -6382.630036190753, -10786.214266564164, -11015.096129786507, -11224.487271843824, 0.012, -0.026000000000000002, 0.988, 192.0, 0.0, 0.0, 0.0, 0.0, 0.0, 0.0, 0.0, 0.0, 0.0, 1.6444983982602396E9, 0.0, 2022-02-11 00:06:38.260
116.0, -7153.675812921026, -9286.881600246621, -10283.925865164503, -15648.255127460377, -2738.222806241847, -3050.0743448822914, -6810.934163443347, -7166.416307260551, -16024.904373276757, -12616.576268264804, -22579.9781179402, -11735.537557069965, -6390.676664194663, -10777.56414145996, -11006.535411660125, -11217.848803740599, 0.014, -0.026000000000000002, 0.992, 192.0, 0.0, 56.0, 127.5, 24.0, 15.5, 0.0, 0.0, 0.0, 0.0, 1.6444983982602468E9, 0.0, 2022-02-11 00:06:38.260
118.0, -7174.5299904978265, -9303.421891143547, -10286.831591943694, -15647.67398210454, -2737.4628469303666, -3051.281339082878, -6808.698988997816, -7169.031461361821, -16025.373759910317, -12623.371198579216, -22599.535894338598, -11748.926251998693, -6381.445393734622, -10770.500990212082, -11010.514022173169, -11223.347332876603, 0.014, -0.026000000000000002, 0.992, 192.0, 0.0, 0.0, 0.0, 0.0, 0.0, 0.0, 0.0, 0.0, 0.0, 1.6444983982602546E9, 0.0, 2022-02-11 00:06:38.260
120.0, -7184.27535108034, -9322.063246019274, -10280.997786640857, -15648.433941416019, -2726.0187537692495, -3043.368821545699, -6793.835078935037, -7153.564054198749, -16027.452472144661, -12620.979561922499, -22590.23756864519, -11743.718295540608, -6376.840934376828, -10774.837228636412, -11003.294408714106, -11218.74287351881, 0.014, -0.026000000000000002, 0.992, 192.0, 0.0, 0.0, 0.0, 0.0, 0.0, 0.0, 0.0, 0.0, 0.0, 1.6444983982602615E9, 0.0, 2022-02-11 00:06:38.260
122.0, -7233.5162441153825, -9360.932929627053, -10294.386481569587, -15649.842101316704, -2735.8311695851294, -3047.056859380825, -6801.747596472215, -7157.922644367533, -16048.820739843935, -12639.710323776046, -22611.069394477534, -11761.04089749347, -6373.152896541703, -10782.123897328842, -11007.36242620497, -11220.709827030878, 0.014, -0.026000000000000002, 0.992, 192.0, 0.0, 0.0, 0.0, 0.0, 0.0, 0.0, 0.0, 0.0, 0.0, 1.6444983982602682E9, 0.0, 2022-02-11 00:06:38.260
124.0, -7241.831093052757, -9385.47514503898, -10284.216437842422, -15649.126845494135, -2718.195643209892, -3035.6798214530736, -6787.509535254185, -7147.596138429182, -16045.780902598013, -12642.213719155041, -22616.277350935623, -11766.450019651655, -6368.369623228267, -10777.921769371243, -11006.200135493295, -11214.98778045032, 0.014, -0.026000000000000002, 0.992, 192.0, 0.0, 0.0, 0.0, 0.0, 0.0, 0.0, 0.0, 0.0, 0.0, 1.6444983982602751E9, 0.0, 2022-02-11 00:06:38.260
126.0, -7275.358709735717, -9417.348732632248, -10293.42535655801, -15656.90525256458, -2715.4687303863443, -3047.1239146141907, -6787.218962576266, -7153.65346117657, -16062.812931872957, -12658.195216440585, -22615.00330150167, -11766.427667907199, -6368.414326717178, -10779.8440193944, -10997.617065622457, -11216.865326984564, 0.012, -0.03, 0.988, 192.0, 0.0, 48.0, 127.5, 8.0, 15.0, 112.0, 0.0, 0.0, 0.0, 1.6444983982602818E9, 0.0, 2022-02-11 00:06:38.260
