%OpenBCI Raw EEG Data
%Number of channels = 16
%Sample Rate = 125 Hz
%Board = OpenBCI_GUI$BoardCytonSerialDaisy
Sample Index, EXG Channel 0, EXG Channel 1, EXG Channel 2, EXG Channel 3, EXG Channel 4, EXG Channel 5, EXG Channel 6, EXG Channel 7, EXG Channel 8, EXG Channel 9, EXG Channel 10, EXG Channel 11, EXG Channel 12, EXG Channel 13, EXG Channel 14, EXG Channel 15, Accel Channel 0, Accel Channel 1, Accel Channel 2, Other, Other, Other, Other, Other, Other, Other, Analog Channel 0, Analog Channel 1, Analog Channel 2, Timestamp, Other, Timestamp (Formatted)
0.0, -12549.409276176606, -14839.74782702301, -10202.409053135998, -17131.025151136535, -3281.191382550166, -3437.2289105926648, -4579.71597668123, -6400.422024777177, 0.0, 0.0, 0.0, 0.0, 0.0, 0.0, 0.0, 0.0, 0.0, 0.0, 0.0, 192.0, 0.0, 0.0, 0.0, 0.0, 0.0, 0.0, 0.0, 0.0, 0.0, 1.6444980860184088E9, 0.0, 2022-02-11 00:01:26.018
10.0, -12539.038066749343, -14831.567088552367, -10188.975654718359, -17128.432348779723, -3270.9319318451803, -3420.9791923736566, -4573.502191722655, -6388.620303704775, -21087.596844148262, -19122.856154782316, -25576.117703451837, -15540.69853314144, -10179.565570302675, -14202.231371668742, -9379.104897869218, -11409.73852988941, 0.0, 0.0, 0.0, 192.0, 0.0, 0.0, 0.0, 0.0, 0.0, 0.0, 0.0, 0.0, 0.0, 1.6444980860184314E9, 0.0, 2022-02-11 00:01:26.018
12.0, -12554.036087278853, -14836.819748499365, -10198.721015300873, -17130.57811624743, -3285.706434930138, -3429.383448288852, -4588.611970974443, -6395.437585763644, -21085.138152258176, -19124.823108294382, -25575.15657844026, -15535.065893538702, -10175.698718511907, -14216.827060798058, -9375.752136200921, -11408.263314755359, 0.005, -0.013000000000000001, 0.497, 192.0, 0.0, 40.0, 127.5, 24.0, 15.5, 8.0, 0.0, 0.0, 0.0, 1.644498086018439E9, 0.0, 2022-02-11 00:01:26.018
14.0, -12538.367514415684, -14803.850925427787, -10198.944532745425, -17126.152470845278, -3269.523771944496, -3411.9490876137124, -4593.551706499065, -6383.278236779957, -21085.65224238065, -19126.343026917344, -25589.864026291852, -15539.625649407584, -10166.690965496418, -14212.24495318472, -9383.418784549092, -11407.63746591061, 0.005, -0.013000000000000001, 0.497, 192.0, 0.0, 0.0, 0.0, 0.0, 0.0, 0.0, 0.0, 0.0, 0.0, 1.644498086018446E9, 0.0, 2022-02-11 00:01:26.018
16.0, -12542.39082841764, -14812.970437165552, -10195.502364099308, -17119.379892275323, -3264.9193125867027, -3421.3144685404864, -4585.639188961886, -6390.855478150306, -21087.641547637173, -19101.711404527596, -25566.01471495804, -15532.98718130436, -10153.190511845412, -14214.390720652429, -9376.7132612125, -11402.63067515262, 0.005, -0.013000000000000001, 0.497, 192.0, 0.0, 0.0, 0.0, 0.0, 0.0, 0.0, 0.0, 0.0, 0.0, 1.644498086018453E9, 0.0, 2022-02-11 00:01:26.018
18.0, -12552.58322388926, -14832.304696119392, -10196.932875744447, -17122.10680509887, -3271.446021967652, -3424.15314008631, -4580.364177270434, -6395.750510186018, -21089.630852893693, -19109.758032531507, -25577.905843008262, -15536.339942972654, -10166.1992271184, -14214.457775885794, -9379.127249613673, -11406.63163741012, 0.005, -0.013000000000000001, 0.497, 192.0, 0.0, 0.0, 0.0, 0.0, 0.0, 0.0, 0.0, 0.0, 0.0, 1.6444980860184672E9, 0.0, 2022-02-11 00:01:26.018
20.0, -12531.371418401173, -14809.438861541614, -10180.01260519178, -17119.089319597402, -3253.6763851256833, -3410.183299801743, -4577.9948923581715, -6376.885637865739, -21083.350012701754, -19109.713329042595, -25566.037066702494, -15525.164070745, -10158.197302603401, -14208.534563605139, -9373.71812745549, -11401.155460018572, 0.005, -0.013000000000000001, 0.497, 192.0, 0.0, 0.0, 0.0, 0.0, 0.0, 0.0, 0.0, 0.0, 0.0, 1.644498086018474E9, 0.0, 2022-02-11 00:01:26.018
22.0, -12537.741665570935, -14818.670132001655, -10193.356596631598, -17120.631589964818, -3262.907655585725, -3417.8499481499134, -4578.173706313813, -6389.223800805069, -21084.758172602436, -19116.754128546017, -25565.120645179828, -15522.459509665909, -10151.49177926681, -14210.38975839493, -9369.448944264524, -11401.244866996392, 0.0075, -0.0175, 0.7455, 192.0, 0.0, 40.0, 127.5, 40.0, 15.5, 8.0, 0.0, 0.0, 0.0, 1.6444980860184808E9, 0.0, 2022-02-11 00:01:26.018
24.0, -12529.225650933464, -14814.803280210886, -10182.583055804142, -17117.927028885726, -3258.5937689058505, -3409.1104160678883, -4581.928799382305, -6387.547419970921, -21078.522035899405, -19112.68611105515, -25574.19545342868, -15527.041617279247, -10146.14971234199, -14202.09726120201, -9375.23804607845, -11401.893067585597, 0.0075, -0.0175, 0.7455, 192.0, 0.0, 0.0, 0.0, 0.0, 0.0, 0.0, 0.0, 0.0, 0.0, 1.6444980860184877E9, 0.0, 2022-02-11 00:01:26.018
26.0, -12525.42585437606, -14801.526344004435, -10187.209866906389, -17120.162203331256, -3257.386774705264, -3396.9510670842014, -4590.891848908884, -6382.674739679664, -21079.50551265544, -19104.43831735114, -25554.77178749702, -15516.849221807626, -10130.48113947882, -14183.411202837373, -9369.47129600898, -11398.473250683934, 0.0075, -0.0175, 0.7455, 192.0, 0.0, 0.0, 0.0, 0.0, 0.0, 0.0, 0.0, 0.0, 0.0, 1.6444980860185084E9, 0.0, 2022-02-11 00:01:26.018
28.0, -12530.834976534246, -14800.721681204044, -10185.712300027884, -17124.364331288856, -3260.6948328846497, -3408.9763056011566, -4589.640151219386, -6393.984722374049, -21078.36557368822, -19103.678358039662, -25569.68040104871, -15526.616934134596, -10131.86694763505, -14184.305272615586, -9373.852237922221, -11401.669550141043, 0.0075, -0.0175, 0.7455, 192.0, 0.0, 0.0, 0.0, 0.0, 0.0, 0.0, 0.0, 0.0, 0.0, 1.644498086018515E9, 0.0, 2022-02-11 00:01:26.018
30.0, -12524.554136342304, -14802.196896338093, -10180.124363914058, -17121.81623242095, -3245.1156669993006, -3400.9520293417013, -4563.823886373507, -6390.341388027834, -21077.60561437674, -19101.465535338586, -25559.44330208818, -15529.522660913786, -10142.796950673694, -14198.163354177876, -9372.824057677277, -11405.044663553796, 0.0075, -0.0175, 0.7455, 192.0, 0.0, 0.0, 0.0, 0.0, 0.0, 0.0, 0.0, 0.0, 0.0, 1.644498086018522E9, 0.0, 2022-02-11 00:01:26.018
32.0, -12534.43360739155, -14814.244486599504, -10188.372157618065, -17125.86189816736, -3261.253626496032, -3414.8324626484473, -4584.47689825021, -6416.6717429961855, -21082.858274323735, -19109.288645897945, -25553.542441551977, -15528.829756835672, -10137.43253200442, -14199.549162334104, -9370.633586720656, -11408.822108366741, 0.00575, -0.018750000000000003, 0.86975, 192.0, 0.0, 16.0, 127.5, 48.0, 15.5, 8.0, 0.0, 0.0, 0.0, 1.644498086018535E9, 0.0, 2022-02-11 00:01:26.018
34.0, -12521.514299096383, -14798.531210247424, -10184.997044205315, -17117.457642252164, -3252.715260114105, -3404.5283084545504, -4588.075529107515, -6377.779707643951, -21080.93602430058, -19117.98347449106, -25565.701790535666, -15529.254439980323, -10129.542366211697, -14188.172124406354, -9375.752136200921, -11408.844460111197, 0.00575, -0.018750000000000003, 0.86975, 192.0, 0.0, 0.0, 0.0, 0.0, 0.0, 0.0, 0.0, 0.0, 0.0, 1.644498086018542E9, 0.0, 2022-02-11 00:01:26.018
36.0, -12514.294685637318, -14792.920922389141, -10183.700643026907, -17115.423633506733, -3249.965995546102, -3403.7236456541596, -4588.544915741077, -6377.3550244993, -21078.186759732576, -19111.099137198824, -25551.240211873082, -15521.78895733225, -10136.694924437395, -14204.421842625361, -9365.827961662766, -11403.54709667529, 0.00575, -0.018750000000000003, 0.86975, 192.0, 0.0, 0.0, 0.0, 0.0, 0.0, 0.0, 0.0, 0.0, 0.0, 1.6444980860185506E9, 0.0, 2022-02-11 00:01:26.018
38.0, -12527.884546266145, -14807.6954254741, -10194.63064606555, -17120.363369031355, -3246.680289111172, -3414.5642417149834, -4577.19022955778, -6390.386091516744, -21074.431666664084, -19113.3119598999, -25559.57741255491, -15529.232088235867, -10134.325639525132, -14204.28773215863, -9371.706470454512, -11404.642332153599, 0.00575, -0.018750000000000003, 0.86975, 192.0, 0.0, 0.0, 0.0, 0.0, 0.0, 0.0, 0.0, 0.0, 0.0, 1.6444980860185575E9, 0.0, 2022-02-11 00:01:26.018
40.0, -12524.9564677425, -14800.721681204044, -10182.895980226514, -17123.40320627728, -3231.4811028815634, -3401.376712486352, -4573.323377767012, -6380.014882089482, -21081.18189348959, -19115.92711400117, -25555.554098552955, -15527.801576590728, -10135.420875003443, -14185.825191238546, -9371.505304754413, -11408.330369988726, 0.00575, -0.018750000000000003, 0.86975, 192.0, 0.0, 0.0, 0.0, 0.0, 0.0, 0.0, 0.0, 0.0, 0.0, 1.6444980860185685E9, 0.0, 2022-02-11 00:01:26.018
42.0, -12537.24992719292, -14809.908248175176, -10196.597599577619, -17126.510098756564, -3244.914501299203, -3410.5632794574835, -4588.187287829792, -6397.248077064523, -21091.128419772198, -19122.610285593306, -25560.44913058867, -15529.567364402696, -10126.457825476864, -14192.530714575138, -9369.583054731256, -11411.750186890387, 0.004875, -0.020375, 0.931875, 192.0, 0.0, 16.0, 127.5, 40.0, 15.5, 8.0, 0.0, 0.0, 0.0, 1.6444980860185752E9, 0.0, 2022-02-11 00:01:26.018
44.0, -12517.423929861061, -14800.252294570482, -10184.460602338386, -17123.939648144205, -3234.252719194021, -3400.035607819034, -4568.674214920308, -6369.151934284203, -21082.79121909037, -19119.659855325208, -25567.713447536644, -15527.667466123996, -10112.733854381306, -14188.105069172987, -9372.75700244391, -11410.185564778516, 0.004875, -0.020375, 0.931875, 192.0, 0.0, 0.0, 0.0, 0.0, 0.0, 0.0, 0.0, 0.0, 0.0, 1.6444980860185833E9, 0.0, 2022-02-11 00:01:26.018
46.0, -12514.384092615139, -14789.054070598373, -10175.765773745272, -17128.47705226863, -3232.4645796375967, -3403.1648520427766, -4569.992967843172, -6377.131507054747, -21078.164407988123, -19101.823163249872, -25541.517203035022, -15517.698588096928, -10118.657066661963, -14201.67257805736, -9363.70454593951, -11407.34689323269, 0.004875, -0.020375, 0.931875, 192.0, 0.0, 0.0, 0.0, 0.0, 0.0, 0.0, 0.0, 0.0, 0.0, 1.64449808601859E9, 0.0, 2022-02-11 00:01:26.018
48.0, -12525.872889265167, -14789.881085143219, -10186.338148872632, -17128.231183079624, -3236.1526174727223, -3404.86358462138, -4591.0259593756155, -6380.752489656507, -21078.9243672996, -19109.467459853586, -25554.414159585736, -15533.925954571481, -10104.039025788192, -14201.560819335082, -9367.727859941466, -11414.521803202844, 0.004875, -0.020375, 0.931875, 192.0, 0.0, 0.0, 0.0, 0.0, 0.0, 0.0, 0.0, 0.0, 0.0, 1.644498086018597E9, 0.0, 2022-02-11 00:01:26.018
50.0, -12512.19362165852, -14796.430146268625, -10180.034956936235, -17123.358502788367, -3229.8047220474155, -3396.48168045064, -4576.743194668674, -6379.791364644929, -21076.42097192061, -19116.821183779382, -25551.888412462285, -15524.471166666886, -10110.297514235677, -14190.787278507625, -9368.107839597207, -11407.481003699422, 0.004875, -0.020375, 0.931875, 192.0, 0.0, 0.0, 0.0, 0.0, 0.0, 0.0, 0.0, 0.0, 0.0, 1.644498086018604E9, 0.0, 2022-02-11 00:01:26.018
52.0, -12519.659104306593, -14789.188181065105, -10186.472259339364, -17124.163165588758, -3232.30811742641, -3401.5331746975394, -4575.1785725568025, -6389.827297905362, -21079.974899289, -19112.574352332875, -25549.407368827746, -15518.615009619596, -10109.314037479644, -14195.90582798789, -9366.274996551872, -11409.246791511392, 0.0054375, -0.0201875, 0.9639375, 192.0, 0.0, 24.0, 127.5, 48.0, 15.5, 16.0, 0.0, 0.0, 0.0, 1.6444980860186107E9, 0.0, 2022-02-11 00:01:26.018
54.0, -12504.23640063243, -14769.563349433345, -10175.96693944537, -17120.408072520266, -3223.7697510444823, -3390.4914129366175, -4570.261188776635, -6377.712652410585, -21066.519149126907, -19104.035985950948, -25543.126528635807, -15520.716073598394, -10093.109022749546, -14185.489915071717, -9370.253607064917, -11408.35272173318, 0.0054375, -0.0201875, 0.9639375, 192.0, 0.0, 0.0, 0.0, 0.0, 0.0, 0.0, 0.0, 0.0, 0.0, 1.6444980860186176E9, 0.0, 2022-02-11 00:01:26.018
56.0, -12499.922513952555, -14774.279567513415, -10172.97180568836, -17125.660732467262, -3215.745474785027, -3386.4010437012967, -4568.830677131496, -6373.577579686354, -21062.987573502967, -19095.54232305793, -25523.881676659785, -15508.869649037082, -10081.731984821796, -14168.837865452513, -9362.721069183477, -11405.044663553796, 0.0054375, -0.0201875, 0.9639375, 192.0, 0.0, 0.0, 0.0, 0.0, 0.0, 0.0, 0.0, 0.0, 0.0, 1.6444980860186245E9, 0.0, 2022-02-11 00:01:26.018
58.0, -12507.43270008954, -14787.578855464322, -10182.337186615132, -17124.878421411326, -3229.0894662248456, -3398.5827444294387, -4593.305837310057, -6393.962370629593, -21065.580375859783, -19100.12443067127, -25537.20331635515, -15513.339997928144, -10085.196505212369, -14176.795086478602, -9368.7113366975, -11407.860983355164, 0.0054375, -0.0201875, 0.9639375, 192.0, 0.0, 0.0, 0.0, 0.0, 0.0, 0.0, 0.0, 0.0, 0.0, 1.6444980860186312E9, 0.0, 2022-02-11 00:01:26.018
60.0, -12502.336502353728, -14774.6371954247, -10168.836732964128, -17119.826927164428, -3216.5277858409627, -3387.1610030127767, -4570.060023076538, -6382.361815257289, -21071.794160818357, -19101.756108016507, -25536.3763018103, -15520.224335220379, -10092.527877393708, -14191.591941308016, -9370.09714485373, -11408.509183944367, 0.0054375, -0.0201875, 0.9639375, 192.0, 0.0, 0.0, 0.0, 0.0, 0.0, 0.0, 0.0, 0.0, 0.0, 1.644498086018638E9, 0.0, 2022-02-11 00:01:26.018
62.0, -12505.801022744301, -14781.946215861586, -10177.084526668135, -17124.00670337757, -3216.997172474524, -3396.436976961729, -4591.137718097892, -6393.470632251577, -21072.1741404741, -19113.602532577817, -25532.82237444191, -15514.994027017836, -10099.613380386041, -14185.288749371619, -9369.828923920266, -11411.839593868208, 0.00771875, -0.023093750000000003, 0.9769687499999999, 192.0, 0.0, 40.0, 127.5, 24.0, 15.0, 120.0, 0.0, 0.0, 0.0, 1.6444980860186448E9, 0.0, 2022-02-11 00:01:26.018
64.0, -12496.122717395154, -14780.918035616642, -10172.189494632423, -17119.46929925314, -3203.340256612332, -3382.8918198218134, -4562.885113106384, -6375.633940176242, -21060.998268246447, -19104.30420688441, -25535.012845398527, -15514.79286131774, -10082.04490924417, -14172.816475965557, -9368.309005297304, -11409.894992100597, 0.00771875, -0.023093750000000003, 0.9769687499999999, 192.0, 0.0, 0.0, 0.0, 0.0, 0.0, 0.0, 0.0, 0.0, 0.0, 1.644498086018652E9, 0.0, 2022-02-11 00:01:26.018
66.0, -12495.742737739414, -14770.345660489282, -10171.653052765496, -17120.162203331256, -3198.48992806553, -3388.5244594245505, -4556.716031636719, -6368.369623228267, -21064.64160259266, -19104.080689439856, -25522.58527548138, -15504.645169335028, -10080.524990621208, -14171.430667809329, -9360.575301715768, -11403.703558886476, 0.00771875, -0.023093750000000003, 0.9769687499999999, 192.0, 0.0, 0.0, 0.0, 0.0, 0.0, 0.0, 0.0, 0.0, 0.0, 1.6444980860186589E9, 0.0, 2022-02-11 00:01:26.018
68.0, -12501.688301764525, -14762.477846441014, -10177.129230157047, -17116.697682940685, -3213.5773555728624, -3396.839308361925, -4580.922970881817, -6386.429832748156, -21061.154730457634, -19098.760974259494, -25536.242191343572, -15508.869649037082, -10088.258694202745, -14182.405374336884, -9370.119496598185, -11407.68216939952, 0.00771875, -0.023093750000000003, 0.9769687499999999, 192.0, 0.0, 0.0, 0.0, 0.0, 0.0, 0.0, 0.0, 0.0, 0.0, 1.6444980860186656E9, 0.0, 2022-02-11 00:01:26.018
70.0, -12485.796211456802, -14762.768419118933, -10162.846465450104, -17118.57522947493, -3194.5113175524853, -3380.254313976087, -4553.765601368618, -6373.130544797247, -21064.194567703555, -19091.67547126716, -25532.19652559716, -15496.77735528676, -10078.490981875775, -14171.743592231704, -9371.460601265502, -11406.274009498837, 0.00771875, -0.023093750000000003, 0.9769687499999999, 192.0, 0.0, 0.0, 0.0, 0.0, 0.0, 0.0, 0.0, 0.0, 0.0, 1.6444980860186725E9, 0.0, 2022-02-11 00:01:26.018
72.0, -12503.94582795451, -14769.49629419998, -10162.91352068347, -17121.90563939877, -3208.30234388141, -3389.619694902861, -4584.029863361105, -6380.730137912052, -21069.380172417186, -19090.379070088755, -25525.84863017185, -15509.160221715001, -10081.195542954867, -14186.719261016759, -9363.659842450601, -11408.30801824427, 0.008859375, -0.025546875000000004, 0.981484375, 192.0, 0.0, 40.0, 127.5, 16.0, 15.0, 104.0, 0.0, 0.0, 0.0, 1.644498086018684E9, 0.0, 2022-02-11 00:01:26.018
74.0, -12505.130470410642, -14776.537093703402, -10165.372212573555, -17122.263267310056, -3201.2615443779882, -3386.2669332345645, -4556.6266246588975, -6365.374489471256, -21070.162483473123, -19110.942674987637, -25534.34229306487, -15515.709282840406, -10077.932188264393, -14173.107048643476, -9368.778391930866, -11407.570410677245, 0.008859375, -0.025546875000000004, 0.981484375, 192.0, 0.0, 0.0, 0.0, 0.0, 0.0, 0.0, 0.0, 0.0, 0.0, 1.6444980860186913E9, 0.0, 2022-02-11 00:01:26.018
76.0, -12499.453127318995, -14765.45062845357, -10162.600596261096, -17121.548011487488, -3187.6716837491613, -3380.3660726983635, -4564.874418362906, -6380.663082678686, -21073.627003863694, -19110.942674987637, -25521.065356858417, -15506.701529824917, -10076.61343534153, -14168.681403241326, -9359.27890053736, -11405.715215887454, 0.008859375, -0.025546875000000004, 0.981484375, 192.0, 0.0, 0.0, 0.0, 0.0, 0.0, 0.0, 0.0, 0.0, 0.0, 1.644498086018698E9, 0.0, 2022-02-11 00:01:26.018
78.0, -12501.040101175322, -14764.35539297526, -10166.4003928185, -17120.519831242542, -3193.326675096354, -3378.354415697386, -4574.128040567403, -6369.196637773113, -21062.49583512495, -19098.939788215135, -25525.535705749477, -15518.302085197221, -10062.554188079142, -14159.986574648212, -9361.312909282793, -11405.178774020527, 0.008859375, -0.025546875000000004, 0.981484375, 192.0, 0.0, 0.0, 0.0, 0.0, 0.0, 0.0, 0.0, 0.0, 0.0, 1.644498086018705E9, 0.0, 2022-02-11 00:01:26.018
80.0, -12482.46580153296, -14758.275718483415, -10164.232273606334, -17122.084453354415, -3182.463727291075, -3368.072613247945, -4569.210656787236, -6353.572768398853, -21055.946773999545, -19094.558846301898, -25519.09840334635, -15504.868686779582, -10064.431734613388, -14130.169347544832, -9363.168104072583, -11400.77548036283, 0.008859375, -0.025546875000000004, 0.981484375, 192.0, 0.0, 0.0, 0.0, 0.0, 0.0, 0.0, 0.0, 0.0, 0.0, 1.644498086018712E9, 0.0, 2022-02-11 00:01:26.018
82.0, -12503.096461665209, -14765.49533194248, -10171.407183576488, -17120.586886475907, -3191.8961634512143, -3392.234849004132, -4573.3010260225565, -6366.827352860851, -21068.508454383427, -19101.331424871853, -25526.586237738877, -15503.013491989792, -10074.288853918179, -14174.314042844064, -9360.508246482403, -11405.4916984429, 0.012, -0.034, 0.988, 192.0, 0.0, 48.0, 127.0, 120.0, 15.0, 112.0, 0.0, 0.0, 0.0, 1.6444980860187185E9, 0.0, 2022-02-11 00:01:26.018
84.0, -12495.005130172389, -14758.298070227871, -10161.035974149225, -17115.043653850993, -3183.6036662582956, -3379.136726753322, -4566.3719852414115, -6363.765163870474, -21066.094465982256, -19102.53841907244, -25530.229572085093, -15510.121346726579, -10070.198484682856, -14176.929196945333, -9365.313871540293, -11410.431433967524, 0.012, -0.034, 0.988, 192.0, 0.0, 0.0, 0.0, 0.0, 0.0, 0.0, 0.0, 0.0, 0.0, 1.6444980860187256E9, 0.0, 2022-02-11 00:01:26.018
86.0, -12483.918664922556, -14755.146474259673, -10157.549102014196, -17110.48389798211, -3180.0497388899016, -3373.057052261478, -4563.399203228856, -6362.066431291871, -21059.657163579126, -19083.226511863057, -25502.759278149522, -15490.742384283827, -10050.640708284463, -14150.956469888268, -9358.004851103407, -11403.189468764003, 0.012, -0.034, 0.988, 192.0, 0.0, 0.0, 0.0, 0.0, 0.0, 0.0, 0.0, 0.0, 0.0, 1.6444980860187323E9, 0.0, 2022-02-11 00:01:26.018
88.0, -12493.552266782794, -14755.34763995977, -10165.729840484839, -17109.880400881815, -3189.4821750500414, -3381.3719011988524, -4581.7499854266625, -6366.313262738378, -21060.059494979323, -19090.468477066574, -25514.33748177737, -15509.227276948366, -10057.301528132144, -14178.940853946311, -9361.067040093785, -11402.585971663711, 0.012, -0.034, 0.988, 192.0, 0.0, 0.0, 0.0, 0.0, 0.0, 0.0, 0.0, 0.0, 0.0, 1.6444980860187392E9, 0.0, 2022-02-11 00:01:26.018
90.0, -12476.52023750785, -14753.15716900315, -10161.035974149225, -17112.71907242764, -3176.7863841994267, -3368.407889414774, -4556.179589769792, -6355.606777144287, -21061.40059964664, -19092.077802667358, -25515.63388295578, -15506.835640291649, -10057.994432210258, -14169.530769530627, -9362.296386038826, -11402.049529796783, 0.012, -0.034, 0.988, 192.0, 0.0, 0.0, 0.0, 0.0, 0.0, 0.0, 0.0, 0.0, 0.0, 1.644498086018746E9, 0.0, 2022-02-11 00:01:26.018
92.0, -12484.544513767305, -14756.711096371544, -10162.310023583177, -17120.519831242542, -3187.358759326787, -3386.8927820793133, -4561.454601461244, -6370.604797673798, -21064.08280898128, -19100.146782415723, -25517.936112634674, -15501.761794300295, -10049.053734428137, -14159.807760692569, -9358.429534248058, -11405.40229146508, 0.004, -0.028, 0.988, 192.0, 0.0, 16.0, 127.5, 16.0, 15.0, 112.0, 0.0, 0.0, 0.0, 1.644498086018753E9, 0.0, 2022-02-11 00:01:26.018
94.0, -12490.46772604796, -14760.913224329142, -10163.740535228317, -17111.86970613834, -3188.141070382723, -3378.5332296530282, -4573.435136489289, -6371.923550596661, -21059.388942645663, -19100.035023693446, -25521.177115580693, -15504.578114101663, -10056.876844987493, -14171.341260831507, -9366.766734929888, -11408.218611266448, 0.004, -0.028, 0.988, 192.0, 0.0, 0.0, 0.0, 0.0, 0.0, 0.0, 0.0, 0.0, 0.0, 1.64449808601876E9, 0.0, 2022-02-11 00:01:26.018
96.0, -12492.077051648743, -14762.746067374477, -10161.706526482883, -17113.590790461396, -3187.0234831599573, -3373.9511220396903, -4576.966712113227, -6367.050870305404, -21067.770846816406, -19100.884389982748, -25507.073164829395, -15495.100974452613, -10052.875882729993, -14155.225653079231, -9368.174894830572, -11407.838631610708, 0.004, -0.028, 0.988, 192.0, 0.0, 0.0, 0.0, 0.0, 0.0, 0.0, 0.0, 0.0, 0.0, 1.6444980860187666E9, 0.0, 2022-02-11 00:01:26.018
98.0, -12496.793269728812, -14761.092038284783, -10163.449962550398, -17120.944514387193, -3187.8728494492593, -3376.298055207498, -4553.385621712879, -6367.207332516591, -21071.54829162935, -19094.044756179424, -25520.014824869017, -15509.920181026482, -10043.55520529213, -14168.077906141032, -9364.509208739903, -11406.855154854675, 0.004, -0.028, 0.988, 192.0, 0.0, 0.0, 0.0, 0.0, 0.0, 0.0, 0.0, 0.0, 0.0, 1.6444980860187733E9, 0.0, 2022-02-11 00:01:26.018
100.0, -12462.460990245461, -14738.226203707005, -10154.218692090357, -17108.092261325393, -3173.5453812534074, -3357.746107309593, -4553.609139157431, -6355.584425399831, -21050.69411405255, -19084.902892697202, -25508.503676474535, -15514.099957239623, -10047.019725682703, -14154.353935045474, -9358.921272626076, -11402.250695496881, 0.004, -0.028, 0.988, 192.0, 0.0, 0.0, 0.0, 0.0, 0.0, 0.0, 0.0, 0.0, 0.0, 1.6444980860187807E9, 0.0, 2022-02-11 00:01:26.018
102.0, -12478.46483927546, -14739.991991518975, -10168.523808541753, -17106.14765955778, -3184.9671226700693, -3359.4001363992857, -4552.04451704556, -6349.013012529971, -21053.59984083174, -19091.563712544885, -25501.44052522666, -15482.941625468926, -10032.580498764575, -14152.074057111033, -9356.395525502627, -11393.846439581686, 0.006, -0.026000000000000002, 0.99, 192.0, 0.0, 24.0, 127.5, 24.0, 15.0, 120.0, 0.0, 0.0, 0.0, 1.6444980860187871E9, 0.0, 2022-02-11 00:01:26.018
104.0, -12476.60964448567, -14751.816064335831, -10158.845503192604, -17111.221505549136, -3179.5132970229743, -3352.1134677068553, -4548.9376245662725, -6345.950823539594, -21056.88554726667, -19098.06807018138, -25518.00316786804, -15487.188456915434, -10041.498844802243, -14147.827225664525, -9360.776467415866, -11394.91932331554, 0.006, -0.026000000000000002, 0.99, 192.0, 0.0, 0.0, 0.0, 0.0, 0.0, 0.0, 0.0, 0.0, 0.0, 1.6444980860187967E9, 0.0, 2022-02-11 00:01:26.018
106.0, -12461.075182089233, -14741.10957874174, -10151.96116590037, -17108.516944470044, -3170.170267840656, -3360.1153922218555, -4556.783086870085, -6362.4017074587, -21047.49781459544, -19096.034061435945, -25488.72238263159, -15482.338128368632, -10029.719475474296, -14148.9895163762, -9356.887263880642, -11397.355663461169, 0.006, -0.026000000000000002, 0.99, 192.0, 0.0, 0.0, 0.0, 0.0, 0.0, 0.0, 0.0, 0.0, 0.0, 1.6444980860188036E9, 0.0, 2022-02-11 00:01:26.018
108.0, -12479.113039864666, -14744.596450876768, -10165.461619551375, -17113.14375557229, -3174.0594713758796, -3363.7140230791597, -4546.881264076384, -6342.441599660111, -21049.97885822998, -19090.937863700135, -25498.13246704727, -15490.787087772738, -10018.476548013276, -14145.368533774441, -9361.223502304972, -11399.032044295316, 0.006, -0.026000000000000002, 0.99, 192.0, 0.0, 0.0, 0.0, 0.0, 0.0, 0.0, 0.0, 0.0, 0.0, 1.6444980860188105E9, 0.0, 2022-02-11 00:01:26.018
110.0, -12459.734077421914, -14738.315610684826, -10161.393602060509, -17105.47710722412, -3161.1848665696225, -3350.258272917065, -4534.543101137055, -6342.262785704468, -21051.521128597396, -19074.375221058755, -25496.43373446867, -15486.54025632623, -10025.36088530551, -14153.146940844887, -9361.04468834933, -11394.516991915345, 0.006, -0.026000000000000002, 0.99, 192.0, 0.0, 0.0, 0.0, 0.0, 0.0, 0.0, 0.0, 0.0, 0.0, 1.6444980860188177E9, 0.0, 2022-02-11 00:01:26.018
112.0, -12470.12763859363, -14744.082360754295, -10162.82411370565, -17119.692816697698, -3179.0662621338683, -3362.4176219007522, -4548.803514099541, -6354.489189921522, -21053.242212920453, -19088.099192154314, -25492.5668826779, -15477.085468421636, -10027.707818473318, -14145.077961096522, -9357.021374347374, -11393.667625626043, 0.008, -0.028, 0.99, 192.0, 0.0, 32.0, 127.5, 16.0, 15.0, 120.0, 0.0, 0.0, 0.0, 1.6444980860188243E9, 0.0, 2022-02-11 00:01:26.018
114.0, -12459.510559977361, -14736.862747295232, -10159.560759015174, -17115.75890967356, -3176.2499423324994, -3356.1814851977215, -4558.347708981956, -6358.423096945656, -21050.045913463346, -19083.762953729984, -25505.553246206433, -15495.570361086175, -10026.590231250553, -14141.456978494762, -9365.80560991831, -11403.524744930834, 0.008, -0.028, 0.99, 192.0, 0.0, 0.0, 0.0, 0.0, 0.0, 0.0, 0.0, 0.0, 0.0, 1.6444980860188313E9, 0.0, 2022-02-11 00:01:26.018
116.0, -12456.940109365, -14728.905526269142, -10155.425686290942, -17109.20984854816, -3166.616340472262, -3345.0503164589786, -4549.362307710923, -6345.414381672666, -21048.168366929098, -19077.280947837942, -25488.02947855347, -15485.668538292473, -10033.049885398137, -14144.362705273952, -9359.23419704845, -11395.947503560485, 0.008, -0.028, 0.99, 192.0, 0.0, 0.0, 0.0, 0.0, 0.0, 0.0, 0.0, 0.0, 0.0, 1.644498086018839E9, 0.0, 2022-02-11 00:01:26.018
118.0, -12465.031440857822, -14716.723825541, -10160.924215426949, -17106.214714791146, -3167.4210032726533, -3349.9229967502356, -4544.199054741747, -6354.668003877164, -21051.40936987512, -19086.691032253628, -25495.22674026808, -15484.595654558618, -10016.107263101014, -14139.400618004873, -9355.389697002138, -11396.573352405234, 0.008, -0.028, 0.99, 192.0, 0.0, 0.0, 0.0, 0.0, 0.0, 0.0, 0.0, 0.0, 0.0, 1.6444980860188456E9, 0.0, 2022-02-11 00:01:26.018
120.0, -12450.145179050587, -14725.597468089756, -10145.09918035259, -17098.615121676343, -3157.2733112899436, -3336.8919297327916, -4533.201996469736, -6349.97413754155, -21043.16157617111, -19074.554035014397, -25487.47068494209, -15471.005793929791, -10013.760329933206, -14101.64852161986, -9356.23906329144, -11391.164230247048, 0.008, -0.028, 0.99, 192.0, 0.0, 0.0, 0.0, 0.0, 0.0, 0.0, 0.0, 0.0, 0.0, 1.6444980860188525E9, 0.0, 2022-02-11 00:01:26.018
122.0, -12460.628147200126, -14731.900660026153, -10155.425686290942, -17101.81142113345, -3160.067279346857, -3344.8938542477913, -4537.068848260504, -6340.496997892499, -21040.21114590301, -19083.45002930761, -25481.90510057272, -15472.771581741761, -10007.054806596614, -14125.162556786843, -9355.099124324219, -11388.01263427885, 0.008, -0.028, 0.994, 192.0, 0.0, 32.0, 127.5, 16.0, 15.5, 8.0, 0.0, 0.0, 0.0, 1.6444980860188608E9, 0.0, 2022-02-11 00:01:26.018
124.0, -12461.455161744972, -14727.832642535288, -10149.994212388303, -17100.00092983257, -3164.29175904891, -3343.4633426026517, -4540.689830862264, -6343.313317693868, -21041.48519533696, -19070.396610545708, -25491.069315799396, -15495.369195386076, -10012.64274271044, -14148.900109398379, -9360.575301715768, -11390.761898846853, 0.008, -0.028, 0.994, 192.0, 0.0, 0.0, 0.0, 0.0, 0.0, 0.0, 0.0, 0.0, 0.0, 1.6444980860188684E9, 0.0, 2022-02-11 00:01:26.018
126.0, -12451.240414528897, -14744.954078788052, -10148.183721087424, -17103.018415334038, -3154.5687502108517, -3344.268005403043, -4549.943453066761, -6350.6893933641195, -21047.944849484546, -19072.452971035596, -25480.42988543867, -15466.803665972195, -10028.065446384602, -14139.244155793687, -9357.42370574757, -11388.996111034885, 0.008, -0.028, 0.994, 192.0, 0.0, 0.0, 0.0, 0.0, 0.0, 0.0, 0.0, 0.0, 0.0, 1.6444980860188766E9, 0.0, 2022-02-11 00:01:26.018
128.0, -12463.08683909021, -14732.302991426348, -10155.67155547995, -17104.62774093482, -3162.4365642591197, -3343.7315635361156, -4564.136810795881, -6350.488227664021, -21048.973029729492, -19082.06422115138, -25488.61062390931, -15477.823075988661, -10007.904172885916, -14117.853536349958, -9360.351784271215, -11389.353738946169, 0.008, -0.028, 0.994, 192.0, 0.0, 0.0, 0.0, 0.0, 0.0, 0.0, 0.0, 0.0, 0.0, 1.6444980860188837E9, 0.0, 2022-02-11 00:01:26.018
130.0, -12454.056734330266, -14715.919162740609, -10152.00586938928, -17107.95815085866, -3144.979851839525, -3332.3768773528195, -4529.379848167879, -6334.216157700558, -21046.469634350495, -19079.560825772387, -25485.168455263192, -15480.192360900923, -10006.183088562857, -14116.512431682639, -9356.395525502627, -11387.006805778361, 0.008, -0.028, 0.994, 192.0, 0.0, 0.0, 0.0, 0.0, 0.0, 0.0, 0.0, 0.0, 0.0, 1.6444980860188909E9, 0.0, 2022-02-11 00:01:26.018
130.0, -5841.717820372322, -6897.7036354188485, -4887.946532719914, -8220.189299606001, -1383.5729817835072, -1506.7087419877937, -2179.764471026, -3005.728483882962, -21046.469634350495, -19079.560825772387, -25485.168455263192, -15480.192360900923, -10006.183088562857, -14116.512431682639, -9356.395525502627, -11387.006805778361, 0.008, -0.028, 0.994, 192.0, 0.0, 0.0, 0.0, 0.0, 0.0, 0.0, 0.0, 0.0, 0.0, 1.6444980865741317E9, 0.0, 2022-02-11 00:01:26.574
2.0, -11691.683434448652, -13797.463631327586, -9788.521801057077, -16446.59238417058, -2774.2314665593467, -3023.587527702752, -4351.169389625716, -6018.609525991622, -20118.291094099415, -16803.102708232727, -24479.004678607547, -14681.318662323793, -8967.475171980283, -13224.677827915888, -8939.91547106689, -10861.159665722807, 0.008, -0.028, 0.994, 192.0, 0.0, 0.0, 0.0, 0.0, 0.0, 0.0, 0.0, 0.0, 0.0, 1.644498086574261E9, 0.0, 2022-02-11 00:01:26.574
4.0, -11677.73594590854, -13784.67843349915, -9781.346891086923, -16439.283363733695, -2764.6202164435645, -3024.4592457365093, -4345.626157000799, -6017.849566680142, -20115.94416093161, -16796.106612218216, -24476.881262884293, -14677.965900655498, -8965.39645974594, -13230.981019852285, -8941.949479812321, -10865.406497169317, 0.008, -0.028, 0.994, 192.0, 0.0, 0.0, 0.0, 0.0, 0.0, 0.0, 0.0, 0.0, 0.0, 1.6444980865742793E9, 0.0, 2022-02-11 00:01:26.574
6.0, -11693.181001327159, -13802.001035452013, -9786.308978356003, -16447.17352952642, -2776.9136758939835, -3033.310536540811, -4361.00415718605, -6021.247031837348, -20122.582629034834, -16810.7693565809, -24469.99692559206, -14672.914406408598, -8974.583026717071, -13239.675848445399, -8938.507311166204, -10866.814657070001, 0.011, -0.027000000000000003, 0.988, 192.0, 0.0, 56.0, 127.5, 24.0, 15.0, 88.0, 0.0, 0.0, 0.0, 1.6444980865742865E9, 0.0, 2022-02-11 00:01:26.574
8.0, -11692.733966438052, -13812.819279768382, -9794.109737170904, -16447.464102204336, -2782.903943408006, -3029.7119056835063, -4369.676634034709, -6026.879671440086, -20123.32023660186, -16814.166821738105, -24492.706297958648, -14693.679177007578, -8972.414907504906, -13243.453293258346, -8945.726924625269, -10871.083840260964, 0.011, -0.027000000000000003, 0.988, 192.0, 0.0, 0.0, 0.0, 0.0, 0.0, 0.0, 0.0, 0.0, 0.0, 1.6444980865742931E9, 0.0, 2022-02-11 00:01:26.574
10.0, -11691.571675726376, -13815.009750725003, -9791.829859236463, -16446.815901615133, -2779.327664295157, -3022.0005538464256, -4368.491991578579, -6029.070142396706, -20129.26580062697, -16815.4185194276, -24481.88805364228, -14674.993118642942, -8982.003805876233, -13249.980002639295, -8945.458703691806, -10871.709689105714, 0.011, -0.027000000000000003, 0.988, 192.0, 0.0, 0.0, 0.0, 0.0, 0.0, 0.0, 0.0, 0.0, 0.0, 1.6444980865743124E9, 0.0, 2022-02-11 00:01:26.574
12.0, -11696.042024617438, -13806.650198298717, -9795.339083115947, -16446.793549870676, -2790.5929435006315, -3030.091885339247, -4367.419107844724, -6018.47541552489, -20126.516536058967, -16812.937475793064, -24486.358402533344, -14684.961996670008, -8970.738526670757, -13241.531043235189, -8947.537415926148, -10869.832142571468, 0.011, -0.027000000000000003, 0.988, 192.0, 0.0, 0.0, 0.0, 0.0, 0.0, 0.0, 0.0, 0.0, 0.0, 1.644498086574319E9, 0.0, 2022-02-11 00:01:26.574
14.0, -11679.993472098527, -13789.1040789013, -9777.055356151504, -16441.11620677903, -2768.26355078978, -3014.535071198353, -4360.847694974863, -6012.216927077405, -20117.151155132193, -16812.75866183742, -24478.691754185173, -14684.269092591894, -8983.568427988104, -13232.299772775146, -8949.459665949305, -10863.886578546355, 0.011, -0.027000000000000003, 0.988, 192.0, 0.0, 0.0, 0.0, 0.0, 0.0, 0.0, 0.0, 0.0, 0.0, 1.6444980865743256E9, 0.0, 2022-02-11 00:01:26.574
16.0, -11690.007053614505, -13808.63950355524, -9784.587894032944, -16447.419398715425, -2769.4034897570004, -3030.6059754617186, -4356.24323561707, -6014.362694545114, -20116.257085353984, -16811.082281003273, -24470.533367458986, -14677.675327977578, -8969.308015025617, -13240.033476356683, -8942.0612385346, -10864.445372157737, 0.0095, -0.027500000000000004, 0.988, 192.0, 0.0, 32.0, 127.5, 16.0, 15.0, 112.0, 0.0, 0.0, 0.0, 1.6444980865743322E9, 0.0, 2022-02-11 00:01:26.574
18.0, -11676.730117408051, -13786.712442244583, -9785.996053933628, -16442.904346335454, -2767.034204844738, -3029.8683678946936, -4358.1654856402265, -6026.544395273256, -20112.23377135203, -16804.063833244305, -24479.2281960521, -14687.6665577491, -8960.099096310032, -13249.5776712391, -8946.95627057031, -10870.569750138493, 0.0095, -0.027500000000000004, 0.988, 192.0, 0.0, 0.0, 0.0, 0.0, 0.0, 0.0, 0.0, 0.0, 0.0, 1.644498086574339E9, 0.0, 2022-02-11 00:01:26.574
20.0, -11678.093573819826, -13793.216799881078, -9785.213742877691, -16449.54281443868, -2764.8213821436625, -3022.469940479987, -4337.423066785702, -6012.6416102220555, -20108.813954450365, -16797.626530841175, -24461.235041765576, -14665.963013882998, -8961.127276554977, -13231.740979163764, -8943.715267624291, -10866.233511714163, 0.0095, -0.027500000000000004, 0.988, 192.0, 0.0, 0.0, 0.0, 0.0, 0.0, 0.0, 0.0, 0.0, 0.0, 1.644498086574345E9, 0.0, 2022-02-11 00:01:26.574
22.0, -11703.239286332046, -13806.605494809806, -9798.98241746216, -16449.609869672047, -2784.0662341196817, -3039.07728661028, -4351.303500092447, -6033.182863376483, -20122.202649379095, -16815.954961294527, -24478.825864651903, -14671.819170930288, -8964.904721367922, -13239.519386234211, -8948.610299660004, -10868.558093137515, 0.0095, -0.027500000000000004, 0.988, 192.0, 0.0, 0.0, 0.0, 0.0, 0.0, 0.0, 0.0, 0.0, 0.0, 1.644498086574352E9, 0.0, 2022-02-11 00:01:26.574
24.0, -11684.083841333848, -13803.967988964081, -9791.27106562508, -16443.82076785812, -2778.83592591714, -3028.013173104903, -4356.399697828258, -6022.029342893284, -20124.348416846802, -16814.524449649387, -24485.84431241087, -14673.09322036424, -8973.77836391668, -13243.945031636362, -8957.215721275297, -10868.647500115336, 0.0095, -0.027500000000000004, 0.988, 192.0, 0.0, 0.0, 0.0, 0.0, 0.0, 0.0, 0.0, 0.0, 0.0, 1.6444980865743585E9, 0.0, 2022-02-11 00:01:26.574
26.0, -11695.080899605859, -13807.186640165644, -9794.959103460205, -16455.622488930523, -2784.669731219975, -3038.049106365336, -4369.274302634514, -6029.517177285812, -20127.16473664817, -16821.60995264172, -24475.249585539055, -14671.908577908109, -8979.232189563774, -13245.889633403975, -8954.622918918481, -10870.212122227207, 0.00675, -0.02475, 0.986, 192.0, 0.0, 16.0, 127.5, 40.0, 15.0, 96.0, 0.0, 0.0, 0.0, 1.6444980865743651E9, 0.0, 2022-02-11 00:01:26.574
28.0, -11701.831126431362, -13800.54817206242, -9797.283684883558, -16456.561262197647, -2778.388891028034, -3026.6720684375846, -4363.172276398215, -6014.988543389863, -20127.812937237377, -16821.47584217499, -24488.37005953432, -14699.892961966154, -8986.898837911946, -13247.789531682674, -8959.160323042908, -10873.810753084512, 0.00675, -0.02475, 0.986, 192.0, 0.0, 0.0, 0.0, 0.0, 0.0, 0.0, 0.0, 0.0, 0.0, 1.6444980865743718E9, 0.0, 2022-02-11 00:01:26.574
30.0, -11686.877809390762, -13800.950503462615, -9787.515972556588, -16449.855738861053, -2765.290768777224, -3016.792597388339, -4353.33750883788, -6006.181956074472, -20124.72839650254, -16809.003568768927, -24475.406047750243, -14683.442078047048, -8979.187486074863, -13246.04609561516, -8948.811465360102, -10865.875883802877, 0.00675, -0.02475, 0.986, 192.0, 0.0, 0.0, 0.0, 0.0, 0.0, 0.0, 0.0, 0.0, 0.0, 1.6444980865743785E9, 0.0, 2022-02-11 00:01:26.574
32.0, -11699.618303730287, -13806.046701198424, -9799.60826630691, -16454.54960519667, -2782.345149796623, -3031.07536209528, -4369.743689268075, -6026.09736038415, -20129.757539004986, -16821.341731708257, -24484.927890888204, -14672.780295941866, -8973.241922049752, -13242.358057780035, -8951.471322950283, -10869.116886748898, 0.00675, -0.02475, 0.986, 192.0, 0.0, 0.0, 0.0, 0.0, 0.0, 0.0, 0.0, 0.0, 0.0, 1.6444980865743847E9, 0.0, 2022-02-11 00:01:26.574
34.0, -11685.916684379183, -13802.671587785673, -9791.695748769731, -16454.639012174488, -2774.2985217927126, -3022.604050946719, -4365.295692121469, -6020.241203336859, -20127.678826770643, -16819.777109596387, -24486.380754277798, -14677.652976233123, -8976.952311629333, -13236.546604221656, -8959.048564320632, -10876.805886841523, 0.00675, -0.02475, 0.986, 192.0, 0.0, 0.0, 0.0, 0.0, 0.0, 0.0, 0.0, 0.0, 0.0, 1.6444980865743916E9, 0.0, 2022-02-11 00:01:26.574
36.0, -11697.025501373471, -13807.700730288117, -9799.027120951072, -16459.7352099103, -2789.0506731332152, -3036.663298209107, -4377.410337616246, -6039.24018612387, -20128.863469226777, -16822.392263697657, -24479.40701000774, -14683.129153624674, -8989.245771079752, -13237.463025744322, -8961.261387021708, -10877.319976963994, 0.007375, -0.021375, 0.987, 192.0, 0.0, 32.0, 127.5, 56.0, 15.0, 112.0, 0.0, 0.0, 0.0, 1.6444980865744002E9, 0.0, 2022-02-11 00:01:26.574
38.0, -11691.236399559546, -13799.11766041728, -9797.641312794842, -16453.92375635192, -2786.904905665506, -3033.7352196854617, -4391.9166197677405, -6026.834967951175, -20125.689521514123, -16816.603161883733, -24490.873454913315, -14685.18551411456, -8976.77349767369, -13246.76135143773, -8969.553884214627, -10881.611511899413, 0.007375, -0.021375, 0.987, 192.0, 0.0, 0.0, 0.0, 0.0, 0.0, 0.0, 0.0, 0.0, 0.0, 1.6444980865744069E9, 0.0, 2022-02-11 00:01:26.574
40.0, -11683.234475044546, -13796.63661678274, -9787.448917323223, -16453.186148784895, -2767.615350200576, -3028.2813940383667, -4372.67176779172, -6027.147892373549, -20122.403815079193, -16813.80919382682, -24472.83559713788, -14676.04365063234, -8969.48682898126, -13237.306563533135, -8962.11075331101, -10874.928340307277, 0.007375, -0.021375, 0.987, 192.0, 0.0, 0.0, 0.0, 0.0, 0.0, 0.0, 0.0, 0.0, 0.0, 1.6444980865744133E9, 0.0, 2022-02-11 00:01:26.574
42.0, -11697.450184518122, -13794.1555731482, -9800.390577362845, -16457.991773842787, -2774.2091148148916, -3038.205568576523, -4344.709735478132, -6026.969078417907, -20125.77892849194, -16809.003568768927, -24481.239853053077, -14681.43042104607, -8970.939692370855, -13246.180206081892, -8961.06022132161, -10882.72909912218, 0.007375, -0.021375, 0.987, 192.0, 0.0, 0.0, 0.0, 0.0, 0.0, 0.0, 0.0, 0.0, 0.0, 1.64449808657442E9, 0.0, 2022-02-11 00:01:26.574
44.0, -11682.36275701079, -13793.909703959192, -9800.010597707105, -16455.130750552507, -2764.039071087727, -3020.1006555677245, -4340.462904031623, -5996.302485025226, -20118.8498877108, -16816.536106650365, -24487.967728134125, -14683.911464680608, -8965.8658463795, -13242.223947313303, -8962.49073296675, -10878.77284035359, 0.007375, -0.021375, 0.987, 192.0, 0.0, 0.0, 0.0, 0.0, 0.0, 0.0, 0.0, 0.0, 0.0, 1.644498086574427E9, 0.0, 2022-02-11 00:01:26.574
46.0, -11705.385053799755, -13820.485928116552, -9811.141766445848, -16462.842102389586, -2776.444289260422, -3036.015097619903, -4356.7573257395425, -6010.607601476622, -20130.584553549834, -16822.61578114221, -24478.512940229528, -14677.541217510847, -8983.613131477015, -13244.682639203387, -8963.094230067043, -10881.231532243673, 0.0076875, -0.019687500000000004, 0.9875, 192.0, 0.0, 32.0, 127.5, 56.0, 15.0, 112.0, 0.0, 0.0, 0.0, 1.6444980865744336E9, 0.0, 2022-02-11 00:01:26.574
48.0, -11711.598838758331, -13819.725968805073, -9812.32640890198, -16460.271651777228, -2778.3665392835783, -3028.2813940383667, -4355.1703518832155, -6008.014799119806, -20135.65839954119, -16828.717807378507, -24494.785010192994, -14693.589770029757, -8979.835686664068, -13232.61269719752, -8973.040756349654, -10887.557075924526, 0.0076875, -0.019687500000000004, 0.9875, 192.0, 0.0, 0.0, 0.0, 0.0, 0.0, 0.0, 0.0, 0.0, 0.0, 1.64449808657444E9, 0.0, 2022-02-11 00:01:26.574
50.0, -11699.327731052368, -13811.053491956412, -9803.788042520053, -16461.992736100285, -2766.542466466721, -3021.330001512766, -4339.725296464598, -6005.176127573983, -20139.391140865224, -16827.153185266638, -24486.067829855423, -14685.453735048026, -8985.244808822252, -13226.644781427955, -8964.323576012084, -10880.024538043088, 0.0076875, -0.019687500000000004, 0.9875, 192.0, 0.0, 0.0, 0.0, 0.0, 0.0, 0.0, 0.0, 0.0, 0.0, 1.6444980865744472E9, 0.0, 2022-02-11 00:01:26.574
52.0, -11712.157632369714, -13815.680303058662, -9818.719007816197, -16467.200692558374, -2786.770795198774, -3035.5233592418863, -4365.921540966218, -6013.736845700365, -20141.514556588478, -16831.37766496869, -24495.567321248927, -14691.823982217787, -8981.959102387322, -13244.570880481111, -8969.218608047797, -10882.192657255251, 0.0076875, -0.019687500000000004, 0.9875, 192.0, 0.0, 0.0, 0.0, 0.0, 0.0, 0.0, 0.0, 0.0, 0.0, 1.644498086574454E9, 0.0, 2022-02-11 00:01:26.574
54.0, -11687.749527424518, -13798.87179122827, -9804.190373920248, -16457.25416627576, -2759.836943130129, -3021.307649768311, -4351.482314048089, -6005.466700251902, -20133.892611729218, -16822.41461544211, -24492.058097369445, -14696.830772975776, -8976.72879418478, -13246.068447359616, -8974.11364008351, -10881.432697943772, 0.0076875, -0.019687500000000004, 0.9875, 192.0, 0.0, 0.0, 0.0, 0.0, 0.0, 0.0, 0.0, 0.0, 0.0, 1.6444980865744605E9, 0.0, 2022-02-11 00:01:26.574
56.0, -11701.60760898681, -13801.308131373899, -9804.793871020542, -16460.271651777228, -2766.609521700087, -3032.438818507054, -4355.796200727964, -6018.09543586915, -20129.55637330489, -16816.960789795015, -24476.009544850534, -14681.117496623696, -8971.431430748873, -13248.840063672074, -8965.664680679403, -10883.734927622669, 0.00784375, -0.02084375, 0.98375, 192.0, 0.0, 32.0, 127.5, 40.0, 15.0, 80.0, 0.0, 0.0, 0.0, 1.6444980865744672E9, 0.0, 2022-02-11 00:01:26.574
58.0, -11704.066300876893, -13798.916494717181, -9808.012522222105, -16465.770180913234, -2768.509419978788, -3031.2541760509225, -4363.954587454151, -6017.38018004658, -20132.149175661707, -16822.99576079795, -24492.952167147658, -14694.305025852327, -8981.646177964947, -13237.440673999869, -8972.638424949459, -10889.591084669959, 0.00784375, -0.02084375, 0.98375, 192.0, 0.0, 0.0, 0.0, 0.0, 0.0, 0.0, 0.0, 0.0, 0.0, 1.6444980865744736E9, 0.0, 2022-02-11 00:01:26.574
60.0, -11689.448260003122, -13812.97574197957, -9805.84440300994, -16468.608852459056, -2760.574550697154, -3038.339679043255, -4357.606692028844, -6021.3364388151695, -20133.289114628926, -16829.388359712168, -24478.267071040522, -14690.996967672942, -8985.20010533334, -13243.922679891906, -8967.63163419147, -10890.842782359456, 0.00784375, -0.02084375, 0.98375, 192.0, 0.0, 0.0, 0.0, 0.0, 0.0, 0.0, 0.0, 0.0, 0.0, 1.6444980865744803E9, 0.0, 2022-02-11 00:01:26.574
62.0, -11710.235382346556, -13824.889221774249, -9813.578106591476, -16470.195826315383, -2776.5336962382435, -3042.4524000230313, -4377.700910294165, -6028.757217974332, -20138.56412632038, -16838.843147616764, -24488.012431623036, -14693.81328747431, -8985.758898944725, -13247.320145049114, -8973.353680772028, -10896.564828940014, 0.00784375, -0.02084375, 0.98375, 192.0, 0.0, 0.0, 0.0, 0.0, 0.0, 0.0, 0.0, 0.0, 0.0, 1.6444980865744867E9, 0.0, 2022-02-11 00:01:26.574
64.0, -11695.21501007259, -13806.82901225436, -9804.100966942426, -16462.93150936741, -2762.765021653774, -3027.78965566035, -4375.510439337545, -6020.732941714877, -20130.785719249932, -16834.082226047783, -24488.548873489963, -14690.52758103938, -8974.337157528062, -13239.251165300748, -8971.744355171246, -10889.792250370056, 0.00784375, -0.02084375, 0.98375, 192.0, 0.0, 0.0, 0.0, 0.0, 0.0, 0.0, 0.0, 0.0, 0.0, 1.6444980865744932E9, 0.0, 2022-02-11 00:01:26.574
66.0, -11703.731024710063, -13826.252678186022, -9810.18064143427, -16467.535968725202, -2775.706681693397, -3032.952908629526, -4371.576532313411, -6022.163453360016, -20138.809995509386, -16834.484557447977, -24480.368135019322, -14690.23700836146, -8987.7705559457, -13250.985831139784, -8971.789058660157, -10888.093517791453, 0.005921875, -0.021421875, 0.9828749999999999, 192.0, 0.0, 16.0, 127.5, 40.0, 15.0, 88.0, 0.0, 0.0, 0.0, 1.6444980865745E9, 0.0, 2022-02-11 00:01:26.574
68.0, -11702.658140976208, -13816.932000748158, -9811.633504823865, -16463.199730300872, -2768.8446961456175, -3026.537957970853, -4361.495895564067, -6012.932182899975, -20138.474719342557, -16819.933571807574, -24495.992004393578, -14704.743290512955, -8986.87648616749, -13252.215177084825, -8976.885256395968, -10891.267465504106, 0.005921875, -0.021421875, 0.9828749999999999, 192.0, 0.0, 0.0, 0.0, 0.0, 0.0, 0.0, 0.0, 0.0, 0.0, 1.6444980865745084E9, 0.0, 2022-02-11 00:01:26.574
70.0, -11697.539591495943, -13819.63656182725, -9803.050434953027, -16460.7857418997, -2755.7465738948076, -3026.470902737487, -4351.437610559179, -6020.352962059136, -20137.200669908605, -16829.90244983464, -24478.22236755161, -14682.302139079828, -8984.238980321763, -13240.167586823414, -8968.34689001404, -10889.188753269764, 0.005921875, -0.021421875, 0.9828749999999999, 192.0, 0.0, 0.0, 0.0, 0.0, 0.0, 0.0, 0.0, 0.0, 0.0, 1.6444980865745149E9, 0.0, 2022-02-11 00:01:26.574
72.0, -11704.64744623273, -13814.048625713423, -9808.079577455472, -16463.244433789783, -2765.938969366428, -3035.858635408716, -4358.970148440618, -6019.928278914485, -20134.563164062878, -16834.775130125898, -24479.161140818735, -14689.745269983445, -8973.040756349654, -13236.792473410664, -8971.498485982238, -10895.06726206151, 0.005921875, -0.021421875, 0.9828749999999999, 192.0, 0.0, 0.0, 0.0, 0.0, 0.0, 0.0, 0.0, 0.0, 0.0, 1.6444980865745213E9, 0.0, 2022-02-11 00:01:26.574
74.0, -11686.207257057102, -13804.459727342097, -9796.74724301663, -16461.523349466723, -2748.1693325244587, -3019.050123578325, -4346.609633756832, -6012.731017199876, -20122.202649379095, -16829.164842267615, -24472.120341315313, -14690.482877550468, -8961.417849232896, -13229.706970418332, -8967.072840580087, -10891.043948059554, 0.005921875, -0.021421875, 0.9828749999999999, 192.0, 0.0, 0.0, 0.0, 0.0, 0.0, 0.0, 0.0, 0.0, 0.0, 1.644498086574528E9, 0.0, 2022-02-11 00:01:26.574
76.0, -11694.343292038833, -13808.952427977614, -9803.18454541976, -16464.764352412745, -2756.931216350939, -3017.5525566998194, -4369.453116590156, -6004.863203151608, -20128.327027359846, -16830.818871357307, -24468.49935871355, -14682.548008268835, -8967.430468491373, -13235.317258276613, -8963.451857978327, -10887.065337546508, 0.002, -0.03, 0.99, 192.0, 0.0, 8.0, 127.5, 8.0, 15.0, 120.0, 0.0, 0.0, 0.0, 1.6444980865745344E9, 0.0, 2022-02-11 00:01:26.574
78.0, -11693.449222260622, -13810.852326256316, -9804.302132642524, -16462.864454134044, -2757.579416940143, -3014.2892020093445, -4363.596959542866, -6012.306334055225, -20128.014102937475, -16836.943249338063, -24480.681059441693, -14693.969749685497, -8958.132142797964, -13219.693388902353, -8968.995090603245, -10890.038119559065, 0.002, -0.03, 0.99, 192.0, 0.0, 0.0, 0.0, 0.0, 0.0, 0.0, 0.0, 0.0, 0.0, 1.644498086574541E9, 0.0, 2022-02-11 00:01:26.574
80.0, -11678.831181386851, -13803.185677908144, -9798.490679084145, -16456.427151730913, -2744.3918877115116, -3008.991838573437, -4361.540599052978, -6008.350075286637, -20121.375634834247, -16825.856784088228, -24465.50422495654, -14673.562606997803, -8971.476134237782, -13220.56510693611, -8964.636500434459, -10885.634825901368, 0.002, -0.03, 0.99, 192.0, 0.0, 0.0, 0.0, 0.0, 0.0, 0.0, 0.0, 0.0, 0.0, 1.6444980865745475E9, 0.0, 2022-02-11 00:01:26.574
82.0, -11687.369547768778, -13796.413099338186, -9808.03487396656, -16457.41062848695, -2753.8243238716514, -3015.2503270209227, -4371.822401502419, -6016.106130612628, -20123.007312179485, -16819.978275296482, -24469.438131980674, -14680.469296034491, -8970.805581904124, -13225.437787227367, -8967.922206869389, -10886.685357890769, 0.002, -0.03, 0.99, 192.0, 0.0, 0.0, 0.0, 0.0, 0.0, 0.0, 0.0, 0.0, 0.0, 1.644498086574554E9, 0.0, 2022-02-11 00:01:26.574
84.0, -11681.289873276935, -13799.788212750938, -9800.725853529675, -16451.956802839853, -2742.6931551329085, -3012.3222484972775, -4350.677651247698, -6009.400607276036, -20118.31344584387, -16808.400071668635, -24472.008582593036, -14679.798743700832, -8966.782267902168, -13220.989790080761, -8970.313843526106, -10887.44531720225, 0.002, -0.03, 0.99, 192.0, 0.0, 0.0, 0.0, 0.0, 0.0, 0.0, 0.0, 0.0, 0.0, 1.6444980865745606E9, 0.0, 2022-02-11 00:01:26.574
86.0, -11688.97887336956, -13811.2099541676, -9804.168022175792, -16461.12101806653, -2750.1362860365257, -3013.8421671202386, -4363.932235709695, -6011.568726488201, -20121.196820878606, -16825.588563154764, -24459.13397778678, -14673.09322036424, -8965.619977190492, -13219.939258091363, -8965.687032423859, -10885.813639857011, 0.008, -0.028, 0.994, 192.0, 0.0, 32.0, 127.5, 16.0, 15.5, 8.0, 0.0, 0.0, 0.0, 1.6444980865745673E9, 0.0, 2022-02-11 00:01:26.574
88.0, -11690.74466118153, -13807.11958493228, -9809.957123989716, -16459.64580293248, -2748.2810912467353, -3018.3572195002102, -4352.868122204319, -6008.014799119806, -20123.476698813047, -16833.478728947488, -24477.685925684684, -14673.897883164631, -8955.315822996596, -13222.621467425999, -8967.63163419147, -10885.992453812654, 0.008, -0.028, 0.994, 192.0, 0.0, 0.0, 0.0, 0.0, 0.0, 0.0, 0.0, 0.0, 0.0, 1.644498086574574E9, 0.0, 2022-02-11 00:01:26.574
90.0, -11678.45120173111, -13799.743509262027, -9803.229248908669, -16456.851834875564, -2740.346221965101, -3001.459300691998, -4354.835075716385, -6000.102281582628, -20123.32023660186, -16827.823737600298, -24464.40898947823, -14668.198188328528, -8960.926110854878, -13223.180261037382, -8960.97081434379, -10881.05271828803, 0.008, -0.028, 0.994, 192.0, 0.0, 0.0, 0.0, 0.0, 0.0, 0.0, 0.0, 0.0, 0.0, 1.6444980865745807E9, 0.0, 2022-02-11 00:01:26.574
92.0, -11688.308321035902, -13800.01173019549, -9813.868679269395, -16457.343573253584, -2754.4054692274894, -3002.3533704702104, -4373.521134081022, -6009.221793320393, -20128.483489571034, -16830.61770565721, -24472.90265237125, -14675.887188421153, -8967.184599302363, -13213.256086499225, -8963.9659481008, -10881.365642710405, 0.008, -0.028, 0.994, 192.0, 0.0, 0.0, 0.0, 0.0, 0.0, 0.0, 0.0, 0.0, 0.0, 1.644498086574587E9, 0.0, 2022-02-11 00:01:26.574
94.0, -11676.730117408051, -13780.565712519374, -9798.960065717705, -16448.291116749184, -2737.0828672746266, -2993.792652343828, -4348.353069824347, -5994.491993724346, -20121.956780190085, -16817.5195834064, -24474.042591338468, -14677.09418262174, -8960.836703877058, -13198.749804347732, -8963.518913211694, -10877.25292173063, 0.008, -0.028, 0.994, 192.0, 0.0, 0.0, 0.0, 0.0, 0.0, 0.0, 0.0, 0.0, 0.0, 1.6444980865745935E9, 0.0, 2022-02-11 00:01:26.574
96.0, -11692.398690271222, -13797.195410394123, -9803.430414608767, -16453.096741807072, -2742.4249341994446, -3009.282411251356, -4350.923520436707, -6004.840851407153, -20121.64385576771, -16813.60802812672, -24451.154405016234, -14666.767676683388, -8958.355660242518, -13219.603981924532, -8956.947500341834, -10877.744660108645, 0.01, -0.028, 0.994, 192.0, 0.0, 40.0, 127.5, 16.0, 15.5, 8.0, 0.0, 0.0, 0.0, 1.6444980865746002E9, 0.0, 2022-02-11 00:01:26.574
98.0, -11684.955559367605, -13801.755166263005, -9812.192298435248, -16454.59430868558, -2744.9953848118053, -3012.9033938531156, -4353.158694882238, -6005.131424085072, -20122.426166823647, -16818.90539156263, -24473.774370405004, -14684.313796080805, -8952.253634006218, -13219.156947035426, -8963.876541122978, -10885.992453812654, 0.01, -0.028, 0.994, 192.0, 0.0, 0.0, 0.0, 0.0, 0.0, 0.0, 0.0, 0.0, 0.0, 1.644498086574607E9, 0.0, 2022-02-11 00:01:26.574
100.0, -11678.428849986656, -13802.537477318941, -9808.012522222105, -16455.06369531914, -2739.228634742336, -3003.761530370895, -4357.092601906372, -5995.788394902754, -20116.681768498634, -16826.437929444066, -24455.960030074126, -14667.19235982804, -8947.91739558189, -13211.780871365176, -8962.021346333187, -10881.656215388324, 0.01, -0.028, 0.994, 192.0, 0.0, 0.0, 0.0, 0.0, 0.0, 0.0, 0.0, 0.0, 0.0, 1.6444980865746152E9, 0.0, 2022-02-11 00:01:26.574
102.0, -11691.303454792913, -13809.667683800184, -9820.440092139255, -16460.29400352168, -2749.711602891875, -3015.8985276101266, -4386.194573187181, -6033.451084309946, -20130.249277383005, -16834.976295825996, -24463.671381911205, -14672.199150586028, -8952.097171795032, -13211.467946942801, -8967.676337680381, -10884.62899740088, 0.01, -0.028, 0.994, 192.0, 0.0, 0.0, 0.0, 0.0, 0.0, 0.0, 0.0, 0.0, 0.0, 1.644498086574622E9, 0.0, 2022-02-11 00:01:26.574
104.0, -11674.807867384896, -13799.408233095197, -9808.727778044675, -16455.82365463062, -2733.998326539794, -3001.414597203088, -4341.960470910129, -5995.743691413843, -20127.567068048367, -16830.416539957114, -24469.572242447408, -14675.6636709766, -8954.131180540464, -13209.389234708457, -8968.39159350295, -10888.361738724916, 0.01, -0.028, 0.994, 192.0, 0.0, 0.0, 0.0, 0.0, 0.0, 0.0, 0.0, 0.0, 0.0, 1.6444980865746284E9, 0.0, 2022-02-11 00:01:26.574
106.0, -11669.26463475998, -13784.879599199248, -9805.486775098656, -16456.11422730854, -2735.4958934182996, -3005.3261524827662, -4353.404564071246, -6011.52402299929, -20124.057844168885, -16818.100728762238, -24453.36722771731, -14665.784199927355, -8952.72302063978, -13212.764348121209, -8961.082573066065, -10882.796154355545, 0.012, -0.02, 0.988, 192.0, 0.0, 48.0, 127.5, 48.0, 15.0, 112.0, 0.0, 0.0, 0.0, 1.6444980865746348E9, 0.0, 2022-02-11 00:01:26.574
108.0, -11671.544512694421, -13787.606512022796, -9811.253525168124, -16461.92568086692, -2737.68636437492, -3003.2697919928783, -4344.039183144472, -6010.607601476622, -20114.31248358637, -16814.747967093943, -24465.45952146763, -14679.977557656475, -8939.535491411149, -13197.632217124965, -8964.882369623467, -10890.932189337276, 0.012, -0.02, 0.988, 192.0, 0.0, 0.0, 0.0, 0.0, 0.0, 0.0, 0.0, 0.0, 0.0, 1.6444980865746415E9, 0.0, 2022-02-11 00:01:26.574
110.0, -11668.54937893741, -13795.49667781552, -9806.55965883251, -16456.628317431012, -2736.1440940075036, -3003.8732890931715, -4349.649471002755, -6005.287886296259, -20111.853791696285, -16805.337882678257, -24452.048474794447, -14673.47320001998, -8941.502444923217, -13214.083101044072, -8962.356622500018, -10889.859305603422, 0.012, -0.02, 0.988, 192.0, 0.0, 0.0, 0.0, 0.0, 0.0, 0.0, 0.0, 0.0, 0.0, 1.644498086574648E9, 0.0, 2022-02-11 00:01:26.574
112.0, -11694.522105994476, -13809.555925077908, -9819.903650272328, -16461.992736100285, -2755.16542853897, -3017.105521810713, -4363.395793842768, -6017.737807957865, -20121.21917262306, -16832.785824869374, -24455.55769867393, -14667.594691228234, -8942.396514701428, -13226.778891894686, -8970.224436548286, -10897.235381273673, 0.012, -0.02, 0.988, 192.0, 0.0, 0.0, 0.0, 0.0, 0.0, 0.0, 0.0, 0.0, 0.0, 1.6444980865746543E9, 0.0, 2022-02-11 00:01:26.574
114.0, -11685.335539023345, -13806.471384343075, -9816.32737115948, -16465.21138730185, -2749.376326725045, -3011.0705508077804, -4355.729145494598, -6012.708665455421, -20131.612733794776, -16843.447606974558, -24473.394390749265, -14680.37988905667, -8941.77066585668, -13226.287153516669, -8975.052413350631, -10898.509430707625, 0.012, -0.02, 0.988, 192.0, 0.0, 0.0, 0.0, 0.0, 0.0, 0.0, 0.0, 0.0, 0.0, 1.644498086574661E9, 0.0, 2022-02-11 00:01:26.574
116.0, -11694.83503041685, -13814.696826302628, -9814.002789736127, -16468.608852459056, -2755.254835516791, -3016.814949132794, -4363.820476987419, -6017.469587024401, -20136.619524552767, -16844.967525597516, -24464.85602436734, -14679.038784389351, -8953.39357297344, -13226.220098283304, -8971.207913304319, -10896.162497539819, 0.008, -0.026000000000000002, 0.982, 192.0, 0.0, 32.0, 127.5, 24.0, 15.0, 88.0, 0.0, 0.0, 0.0, 1.6444980865746677E9, 0.0, 2022-02-11 00:01:26.574
118.0, -11694.097422849825, -13806.78430876545, -9814.248658925135, -16466.843064647088, -2753.73491689383, -3012.478710708465, -4370.973035213117, -6016.597868990644, -20135.03255069644, -16844.319325008313, -24480.926928630703, -14689.253531605427, -8948.453837448817, -13224.744883149253, -8973.867770894502, -10897.68241616278, 0.008, -0.026000000000000002, 0.982, 192.0, 0.0, 0.0, 0.0, 0.0, 0.0, 0.0, 0.0, 0.0, 0.0, 1.6444980865746744E9, 0.0, 2022-02-11 00:01:26.574
120.0, -11667.83412311484, -13784.544323032418, -9800.815260507496, -16465.479608235313, -2740.4579806873776, -2996.2289924894562, -4356.600863528355, -6011.836947421664, -20126.60594303679, -16818.011321784415, -24462.307925499434, -14690.102897894729, -8943.067067035088, -13225.303676760635, -8967.72104116929, -10894.284951005573, 0.008, -0.026000000000000002, 0.982, 192.0, 0.0, 0.0, 0.0, 0.0, 0.0, 0.0, 0.0, 0.0, 0.0, 1.6444980870548904E9, 0.0, 2022-02-11 00:01:27.054
122.0, -11688.911818136194, -13802.716291274583, -9809.75595828962, -16471.849855405075, -2750.650376158998, -3005.9072978386043, -4359.126610651804, -6013.893307911552, -20124.057844168885, -16831.53412717988, -24463.581974933386, -14688.135944382662, -8936.227433231763, -13214.016045810706, -8965.77643940168, -10898.800003385544, 0.008, -0.026000000000000002, 0.982, 192.0, 0.0, 0.0, 0.0, 0.0, 0.0, 0.0, 0.0, 0.0, 0.0, 1.6444980870550864E9, 0.0, 2022-02-11 00:01:27.055
124.0, -11682.899198877716, -13801.330483118354, -9806.716121043697, -16464.40672450146, -2741.7543818657855, -2994.016169788381, -4347.5260552795, -6007.277191552782, -20119.006349921983, -16843.067627318815, -24462.330277243887, -14679.374060556182, -8926.705590093803, -13212.18320276537, -8971.163209815408, -10902.242172031662, 0.008, -0.026000000000000002, 0.982, 192.0, 0.0, 0.0, 0.0, 0.0, 0.0, 0.0, 0.0, 0.0, 0.0, 1.6444980870550933E9, 0.0, 2022-02-11 00:01:27.055
126.0, -11681.602797699308, -13792.658006269696, -9809.890068756351, -16466.82071290263, -2742.7825621107295, -3004.5214896823754, -4340.060572631428, -6014.563860245212, -20125.35424534729, -16838.798444127853, -24454.93184982918, -14674.233159331461, -8922.637572602936, -13218.66520865741, -8965.619977190492, -10900.074052819498, 0.004, -0.02, 0.99, 192.0, 0.0, 16.0, 127.5, 48.0, 15.0, 120.0, 0.0, 0.0, 0.0, 1.6444980870551002E9, 0.0, 2022-02-11 00:01:27.055
128.0, -11687.436603002145, -13797.73185226105, -9815.679170570274, -16465.50195997977, -2753.936082593928, -3014.0656845647914, -4356.556160039444, -6030.679467997488, -20123.99078893552, -16836.987952826974, -24469.527538958497, -14689.879380450177, -8935.378066942461, -13217.480566201279, -8978.852209908035, -10906.86898313391, 0.004, -0.02, 0.99, 192.0, 0.0, 0.0, 0.0, 0.0, 0.0, 0.0, 0.0, 0.0, 0.0, 1.6444980870551069E9, 0.0, 2022-02-11 00:01:27.055
130.0, -11668.169399281669, -13793.127392903256, -9805.732644287664, -16462.6856401784, -2745.9788615678385, -3004.3203239822774, -4340.842883687364, -6012.6192584776, -20123.56610579087, -16840.608935428732, -24458.619887664307, -14667.259415061406, -8940.049581533622, -13216.273572000691, -8975.030061606176, -10905.550230211047, 0.004, -0.02, 0.99, 192.0, 0.0, 0.0, 0.0, 0.0, 0.0, 0.0, 0.0, 0.0, 0.0, 1.6444980870551133E9, 0.0, 2022-02-11 00:01:27.055
132.0, -11680.798134898918, -13786.041889910925, -9815.500356614633, -16466.6866024359, -2755.92538785045, -3014.445664220532, -4352.443439059668, -6025.516215028312, -20124.12489940225, -16832.38349346918, -24461.07857955439, -14678.457639033513, -8939.62489838897, -13216.005351067228, -8977.376994773984, -10908.075977334498, 0.004, -0.02, 0.99, 192.0, 0.0, 0.0, 0.0, 0.0, 0.0, 0.0, 0.0, 0.0, 0.0, 1.6444980870551288E9, 0.0, 2022-02-11 00:01:27.055
134.0, -11675.143143551726, -13792.63565452524, -9813.13107170237, -16467.7371344253, -2749.5551406806876, -2996.273695978367, -4348.62129075781, -6023.437502793969, -20122.26970461246, -16825.163880010114, -24466.21948077911, -14686.772487970888, -8931.622973873971, -13206.595266651544, -8982.361433787517, -10908.9253436238, 0.004, -0.02, 0.99, 192.0, 0.0, 0.0, 0.0, 0.0, 0.0, 0.0, 0.0, 0.0, 0.0, 1.6444980870551353E9, 0.0, 2022-02-11 00:01:27.055
136.0, -11683.972082611572, -13792.903875458704, -9817.444958382244, -16472.5874629721, -2752.662033159975, -3006.8460711057273, -4355.3491658388575, -6028.734866229876, -20127.678826770643, -16831.690589391066, -24459.044570808957, -14680.75986871241, -8930.460683162295, -13209.27747598618, -8981.668529709403, -10907.293666278561, 0.006, -0.022, 0.988, 192.0, 0.0, 24.0, 127.5, 40.0, 15.0, 112.0, 0.0, 0.0, 0.0, 1.6444980870551417E9, 0.0, 2022-02-11 00:01:27.055
138.0, -11691.88460014875, -13805.666721542684, -9821.021237495093, -16462.707991922856, -2758.2946727627127, -3007.606030417208, -4356.064421661427, -6021.358790559625, -20129.914001216173, -16852.00832510094, -24477.238890795576, -14691.399299073137, -8936.830930332057, -13225.95187734984, -8989.804564691134, -10908.791233157068, 0.006, -0.022, 0.988, 192.0, 0.0, 0.0, 0.0, 0.0, 0.0, 0.0, 0.0, 0.0, 0.0, 1.6444980870551484E9, 0.0, 2022-02-11 00:01:27.055
140.0, -11675.187847040635, -13804.817355253383, -9810.068882711994, -16462.953861111862, -2748.1693325244587, -3007.0025333169147, -4344.285052333481, -6015.86026142362, -20129.93635296063, -16842.888813363174, -24468.78993139147, -14679.597578000734, -8942.888253079445, -13220.453348213834, -8981.087384353565, -10902.666855176312, 0.006, -0.022, 0.988, 192.0, 0.0, 0.0, 0.0, 0.0, 0.0, 0.0, 0.0, 0.0, 0.0, 1.6444980870551555E9, 0.0, 2022-02-11 00:01:27.055
142.0, -11694.008015872005, -13810.807622767405, -9819.635429338865, -16467.51361698075, -2759.792239641218, -3019.7430276564396, -4358.277244362503, -6028.198424362949, -20131.210402394583, -16850.980144855996, -24468.32054475791, -14685.319624581292, -8937.948517554822, -13230.533984963178, -8976.125297084487, -10910.087634335476, 0.006, -0.022, 0.988, 192.0, 0.0, 0.0, 0.0, 0.0, 0.0, 0.0, 0.0, 0.0, 0.0, 1.6444980870551622E9, 0.0, 2022-02-11 00:01:27.055
144.0, -11682.675681433164, -13796.122526660267, -9814.315714158502, -16465.300794279672, -2746.805876112685, -3001.3251902252664, -4351.527017537001, -6025.516215028312, -20129.422262838158, -16847.649734932154, -24474.243757038566, -14687.57715077128, -8933.209947730296, -13214.66424639991, -8980.573294231093, -10907.718349423212, 0.006, -0.022, 0.988, 192.0, 0.0, 0.0, 0.0, 0.0, 0.0, 0.0, 0.0, 0.0, 0.0, 1.644498087055169E9, 0.0, 2022-02-11 00:01:27.055
146.0, -11680.529913965454, -13786.712442244583, -9821.065940984005, -16470.821675160132, -2755.523056450255, -3000.408768702599, -4360.2218461301145, -6029.807749963731, -20128.88582097123, -16844.05110407485, -24459.60336442034, -14676.222464587983, -8933.031133774655, -13206.818784096096, -8978.807506419123, -10907.316018023017, 0.006, -0.026000000000000002, 0.986, 192.0, 0.0, 24.0, 127.5, 24.0, 15.0, 104.0, 0.0, 0.0, 0.0, 1.6444980870551755E9, 0.0, 2022-02-11 00:01:27.055
148.0, -11686.967216368583, -13797.307169116399, -9821.580031106476, -16471.246358304783, -2762.742669909319, -3005.683780394051, -4363.0381659314835, -6010.540546243256, -20126.74005350352, -16834.864537103716, -24472.187396548677, -14685.878418192677, -8923.844566803524, -13191.686653099854, -8982.54024774316, -10904.119718565908, 0.006, -0.026000000000000002, 0.986, 192.0, 0.0, 0.0, 0.0, 0.0, 0.0, 0.0, 0.0, 0.0, 0.0, 1.644498087055183E9, 0.0, 2022-02-11 00:01:27.055
150.0, -11676.506599963499, -13797.01659643848, -9811.298228657035, -16465.39020125749, -2752.8184953711625, -2999.045312290825, -4349.582415769389, -6017.044903879751, -20127.36590234827, -16840.743045895462, -24457.524652185995, -14676.088354121252, -8932.695857607825, -13220.587458680566, -8980.39448027545, -10903.650331932347, 0.006, -0.026000000000000002, 0.986, 192.0, 0.0, 0.0, 0.0, 0.0, 0.0, 0.0, 0.0, 0.0, 0.0, 1.6444980870551903E9, 0.0, 2022-02-11 00:01:27.055
152.0, -11686.69899543512, -13796.368395849277, -9819.501318872133, -16469.54762572618, -2760.8204198861627, -3009.863556607194, -4365.139229910282, -6035.887424455575, -20131.098643672307, -16854.265851290926, -24467.13590230178, -14693.030976418375, -8932.114712251987, -13220.386292980469, -8979.67922445288, -10909.260619790628, 0.006, -0.026000000000000002, 0.986, 192.0, 0.0, 0.0, 0.0, 0.0, 0.0, 0.0, 0.0, 0.0, 0.0, 1.6444980870551968E9, 0.0, 2022-02-11 00:01:27.055
154.0, -11677.333614508345, -13784.007881165491, -9813.55575484702, -16464.317317523637, -2746.9176348349615, -2994.2620389773892, -4347.503703535045, -6017.134310857572, -20121.956780190085, -16839.357237739234, -24468.49935871355, -14689.409993816615, -8930.52773839566, -13208.204592252327, -8980.819163420101, -10909.037102346076, 0.006, -0.026000000000000002, 0.987, 192.0, 0.0, 24.0, 127.5, 24.0, 15.0, 112.0, 0.0, 0.0, 0.0, 1.6444980870552037E9, 0.0, 2022-02-11 00:01:27.055
156.0, -11687.056623346403, -13805.532611075952, -9824.262240441114, -16471.60398621607, -2757.221789028858, -3003.2474402484227, -4346.922558179207, -6023.9739446608955, -20128.50584131549, -16838.262002260926, -24458.374018475297, -14679.23995008945, -8934.282831464152, -13206.148231762438, -8975.007709861722, -10907.561887212025, 0.006, -0.026000000000000002, 0.987, 192.0, 0.0, 0.0, 0.0, 0.0, 0.0, 0.0, 0.0, 0.0, 0.0, 1.6444980870552104E9, 0.0, 2022-02-11 00:01:27.055
158.0, -11692.666911204686, -13794.177924892656, -9828.285554443068, -16472.922739138932, -2761.066289075171, -3006.242574005434, -4357.986671684584, -6036.759142489332, -20133.8032047514, -16848.163825054628, -24475.473102983608, -14686.012528659408, -8932.941726796833, -13213.5690109216, -8985.0212913777, -10913.529802981593, 0.006, -0.026000000000000002, 0.987, 192.0, 0.0, 0.0, 0.0, 0.0, 0.0, 0.0, 0.0, 0.0, 0.0, 1.6444980870552168E9, 0.0, 2022-02-11 00:01:27.055
160.0, -11670.315166749378, -13794.49084931503, -9817.310847915513, -16468.45239024787, -2753.0420128157157, -2992.7421203544286, -4370.637759046288, -6028.131369129583, -20129.668132027167, -16837.18911852707, -24463.045533066455, -14682.212732102005, -8925.610354615494, -13207.04230154065, -8981.668529709403, -10911.741663425168, 0.006, -0.026000000000000002, 0.987, 192.0, 0.0, 0.0, 0.0, 0.0, 0.0, 0.0, 0.0, 0.0, 0.0, 1.6444980870552237E9, 0.0, 2022-02-11 00:01:27.055
162.0, -11685.335539023345, -13799.475288328564, -9821.758845062119, -16469.055887348164, -2766.4530594888997, -2998.4194634460764, -4370.481296835101, -6018.47541552489, -20124.437823824625, -16840.832452873285, -24457.859928352827, -14675.23898783195, -8935.735694853747, -13201.789641593652, -8981.288550053663, -10906.489003478171, 0.006, -0.026000000000000002, 0.987, 192.0, 0.0, 0.0, 0.0, 0.0, 0.0, 0.0, 0.0, 0.0, 0.0, 1.6444980870552304E9, 0.0, 2022-02-11 00:01:27.055
164.0, -11679.144105809226, -13786.377166077753, -9814.27101066959, -16472.319242038637, -2750.158637780981, -2993.1444517546242, -4328.147092836749, -6001.979828116873, -20126.918867459164, -16847.627383187697, -24465.90655635674, -14690.19230487255, -8933.947555297322, -13195.151173490427, -8977.533456985171, -10904.320884266006, 0.008, -0.022000000000000002, 0.9864999999999999, 192.0, 0.0, 40.0, 127.5, 56.0, 15.0, 104.0, 0.0, 0.0, 0.0, 1.6444980870552392E9, 0.0, 2022-02-11 00:01:27.055
166.0, -11685.492001234532, -13797.173058649667, -9815.410949636811, -16474.08502985061, -2752.5949779266093, -3006.7343123834507, -4344.352107566847, -6024.264517338815, -20132.88678322873, -16835.66919990411, -24459.402198720243, -14680.581054756769, -8934.171072741876, -13226.71183666132, -8970.470305737294, -10907.49483197866, 0.008, -0.022000000000000002, 0.9864999999999999, 192.0, 0.0, 0.0, 0.0, 0.0, 0.0, 0.0, 0.0, 0.0, 0.0, 1.6444980870552456E9, 0.0, 2022-02-11 00:01:27.055
168.0, -11699.819469430384, -13804.951465720114, -9820.618906094898, -16471.134599582507, -2758.875818118551, -3007.628382161663, -4360.28890136348, -6026.834967951175, -20134.965495463075, -16854.198796057557, -24474.154350060744, -14696.473145064492, -8927.644363360925, -13219.201650524337, -8979.63452096397, -10915.295590793561, 0.008, -0.022000000000000002, 0.9864999999999999, 192.0, 0.0, 0.0, 0.0, 0.0, 0.0, 0.0, 0.0, 0.0, 0.0, 1.6444980870552523E9, 0.0, 2022-02-11 00:01:27.055
170.0, -11679.814658142885, -13796.167230149178, -9812.460519368711, -16469.637032704002, -2746.3588412235786, -2998.8664983351828, -4343.636851744277, -6014.765025945309, -20131.970361706062, -16848.230880287992, -24463.492567955564, -14686.884246693166, -8919.642438845925, -13207.556391663122, -8973.666605194403, -10910.422910502304, 0.008, -0.022000000000000002, 0.9864999999999999, 192.0, 0.0, 0.0, 0.0, 0.0, 0.0, 0.0, 0.0, 0.0, 0.0, 1.6444980870552588E9, 0.0, 2022-02-11 00:01:27.055
172.0, -11692.510448993498, -13805.756128520505, -9821.647086339843, -16479.136524097506, -2762.407393742489, -3012.3222484972775, -4340.731124965087, -6031.3723720756025, -20132.104472172796, -16852.18713905658, -24465.90655635674, -14694.57324678579, -8926.482072649249, -13212.406720209923, -8977.131125584976, -10916.882564649888, 0.008, -0.022000000000000002, 0.9864999999999999, 192.0, 0.0, 0.0, 0.0, 0.0, 0.0, 0.0, 0.0, 0.0, 0.0, 1.6444980870552654E9, 0.0, 2022-02-11 00:01:27.055
174.0, -11695.438527517144, -13806.91841923218, -9812.974609491182, -16477.54955024118, -2753.5337511937323, -3010.511757196398, -4350.096505891861, -6030.165377875016, -20132.730321017545, -16869.040354375884, -24470.488663970074, -14698.373043343192, -8940.496616422728, -13220.207479024826, -8983.859000666023, -10920.838823418479, 0.008, -0.022, 0.98825, 192.0, 0.0, 32.0, 127.5, 40.0, 15.0, 120.0, 0.0, 0.0, 0.0, 1.644498087055272E9, 0.0, 2022-02-11 00:01:27.055
176.0, -11699.12656535227, -13801.330483118354, -9815.120376958892, -16481.59521598759, -2755.2995390057017, -3014.69153340954, -4356.913787950729, -6024.979773161384, -20139.257030398494, -16870.314403809836, -24458.418721964208, -14692.114554895707, -8937.546186154626, -13215.75948187822, -8982.272026809696, -10920.436492018282, 0.008, -0.022, 0.98825, 192.0, 0.0, 0.0, 0.0, 0.0, 0.0, 0.0, 0.0, 0.0, 0.0, 1.6444980870552783E9, 0.0, 2022-02-11 00:01:27.055
178.0, -11705.429757288666, -13803.49860233052, -9823.994019507649, -16481.058774120662, -2764.1508298100034, -3017.887832866649, -4354.656261760743, -6023.415151049513, -20144.107358945294, -16874.181255600604, -24475.495454728065, -14701.211714889017, -8941.167168756387, -13220.676865658388, -8985.468326266806, -10923.342218797472, 0.008, -0.022, 0.98825, 192.0, 0.0, 0.0, 0.0, 0.0, 0.0, 0.0, 0.0, 0.0, 0.0, 1.644498087055285E9, 0.0, 2022-02-11 00:01:27.055
180.0, -11694.74562343903, -13813.44512861313, -9815.410949636811, -16483.808038688665, -2754.9866145833275, -3005.92964958306, -4343.100409877349, -6022.0963981266505, -20141.626315310754, -16858.84795890426, -24467.06884706841, -14691.399299073137, -8945.950442069823, -13211.467946942801, -8982.763765187712, -10920.503547251648, 0.008, -0.022, 0.98825, 192.0, 0.0, 0.0, 0.0, 0.0, 0.0, 0.0, 0.0, 0.0, 0.0, 1.6444980870552917E9, 0.0, 2022-02-11 00:01:27.055
182.0, -11701.69701596463, -13804.01269245299, -9826.631525353376, -16490.178285858427, -2765.804858899696, -3015.6750101655734, -4364.401622343257, -6033.451084309946, -20145.31435314588, -16864.972336885017, -24477.104780328846, -14697.657787520622, -8934.573404142071, -13212.607885910022, -8984.77542218869, -10925.644448476369, 0.008, -0.022, 0.98825, 192.0, 0.0, 0.0, 0.0, 0.0, 0.0, 0.0, 0.0, 0.0, 0.0, 1.644498087055298E9, 0.0, 2022-02-11 00:01:27.055
184.0, -11701.719367709085, -13811.992265223536, -9818.584897349465, -16481.237588076307, -2761.4909722198217, -3010.3329432407554, -4351.10233439235, -6030.455950552935, -20143.995600223017, -16867.25221481946, -24486.939547889182, -14714.689816795566, -8932.00295352971, -13214.731301633276, -8989.804564691134, -10924.01277113113, 0.005, -0.022, 0.989125, 192.0, 0.0, 8.0, 127.5, 40.0, 15.0, 120.0, 0.0, 0.0, 0.0, 1.6444980870553048E9, 0.0, 2022-02-11 00:01:27.055
186.0, -11703.485155521055, -13809.980608222559, -9817.266144426601, -16480.924663653932, -2759.3005012632016, -3009.952963585015, -4352.912825693229, -6029.092494141161, -20146.94603049112, -16867.073400863817, -24464.118416800313, -14698.931836954574, -8944.475226935772, -13217.592324923555, -8980.550942486638, -10919.58712572898, 0.005, -0.022, 0.989125, 192.0, 0.0, 0.0, 0.0, 0.0, 0.0, 0.0, 0.0, 0.0, 0.0, 1.6444980870553114E9, 0.0, 2022-02-11 00:01:27.055
188.0, -11708.357835812312, -13809.39946286672, -9825.625696852887, -16481.908140409963, -2772.0856990916373, -3021.620574190685, -4371.420070102224, -6047.465628083423, -20146.56605083538, -16868.749781697963, -24477.395353006763, -14700.787031744365, -8939.691953622336, -13215.580667922577, -8989.357529802028, -10924.21393683123, 0.005, -0.022, 0.989125, 192.0, 0.0, 0.0, 0.0, 0.0, 0.0, 0.0, 0.0, 0.0, 0.0, 1.644498087055318E9, 0.0, 2022-02-11 00:01:27.055
190.0, -11700.467670019589, -13813.959218735603, -9820.171871205792, -16485.573826500633, -2765.648396688509, -3017.59726018873, -4347.503703535045, -6034.322802343703, -20147.303658402405, -16869.08505786479, -24472.88030062679, -14699.736499754967, -8945.704572880813, -13220.721569147297, -8995.079576382586, -10928.214899088729, 0.005, -0.022, 0.989125, 192.0, 0.0, 0.0, 0.0, 0.0, 0.0, 0.0, 0.0, 0.0, 0.0, 1.6444980870553243E9, 0.0, 2022-02-11 00:01:27.055
192.0, -11713.40933005921, -13818.898954260225, -9833.404103923334, -16492.949902170887, -2772.197457813914, -3037.2891470538557, -4359.059555418438, -6047.823255994708, -20157.18312945165, -16879.255101591956, -24481.955108875645, -14700.764679999911, -8936.875633820968, -13223.448481970845, -8994.744300215758, -10932.752303213156, 0.005, -0.022, 0.989125, 192.0, 0.0, 0.0, 0.0, 0.0, 0.0, 0.0, 0.0, 0.0, 0.0, 1.644498087055331E9, 0.0, 2022-02-11 00:01:27.055
194.0, -11699.148917096725, -13812.68516930165, -9831.124225988893, -16486.870227679043, -2768.6211787010648, -3019.8771381231713, -4361.205322886148, -6043.509369314835, -20151.483434615548, -16872.482523022, -24489.353536290353, -14709.05717719283, -8940.027229789166, -13227.04711282815, -9000.756919474235, -10938.697867238268, 0.0035, -0.025, 0.9925625, 192.0, 0.0, 8.0, 127.5, 16.0, 15.5, 16.0, 0.0, 0.0, 0.0, 1.6444980870553377E9, 0.0, 2022-02-11 00:01:27.055
196.0, -11710.4141963022, -13808.147765177222, -9833.761731834618, -16490.6923759809, -2763.972015854361, -3023.4757689804756, -4365.943892710673, -6051.086610685184, -20156.37846665126, -16879.00923240295, -24471.919175615214, -14697.05429042033, -8952.700668895324, -13220.922734847396, -9000.555753774137, -10936.417989303827, 0.0035, -0.025, 0.9925625, 192.0, 0.0, 0.0, 0.0, 0.0, 0.0, 0.0, 0.0, 0.0, 0.0, 1.6444980870553463E9, 0.0, 2022-02-11 00:01:27.055
198.0, -11713.588144014853, -13813.06514895739, -9836.667458613809, -16486.043213134195, -2765.2460652883133, -3025.2862602813557, -4372.470602091623, -6052.807695008242, -20153.808016038896, -16875.76822945693, -24482.960937376134, -14708.09605218125, -8943.312936224096, -13220.542755191656, -9005.808413721135, -10942.050628906563, 0.0035, -0.025, 0.9925625, 192.0, 0.0, 0.0, 0.0, 0.0, 0.0, 0.0, 0.0, 0.0, 0.0, 1.6444980870553527E9, 0.0, 2022-02-11 00:01:27.055
200.0, -11699.238324074546, -13807.812489010394, -9824.172833463292, -16484.947977655887, -2751.7232598928526, -3009.014190317892, -4351.370555325813, -6028.757217974332, -20147.460120613592, -16870.113238109738, -24472.433265737687, -14694.685005508067, -8938.663773377391, -13210.395063208945, -8994.185506604375, -10933.7804834581, 0.0035, -0.025, 0.9925625, 192.0, 0.0, 0.0, 0.0, 0.0, 0.0, 0.0, 0.0, 0.0, 0.0, 1.6444980870553591E9, 0.0, 2022-02-11 00:01:27.055
202.0, -11704.490984021544, -13803.610361052795, -9836.846272569452, -16488.233684090817, -2766.251893788802, -3027.476731237976, -4374.973997470617, -6047.443276338969, -20151.25991717099, -16871.6331567327, -24476.523634973008, -14699.512982310413, -8937.121503009976, -13218.888726101963, -8990.519820513704, -10935.725085225713, 0.0035, -0.025, 0.9925625, 192.0, 0.0, 0.0, 0.0, 0.0, 0.0, 0.0, 0.0, 0.0, 0.0, 1.644498087055366E9, 0.0, 2022-02-11 00:01:27.055
204.0, -11703.820431687884, -13803.29743663042, -9834.61109812392, -16488.07722187963, -2757.2664925177687, -3015.07151306528, -4362.211151386637, -6039.441351823968, -20148.17537643616, -16875.209435845547, -24488.258300812042, -14705.05621493533, -8935.66863962038, -13220.47569995829, -8998.275875839696, -10937.043838148575, 0.00575, -0.0275, 0.99228125, 192.0, 0.0, 32.0, 127.5, 8.0, 15.5, 0.0, 0.0, 0.0, 0.0, 1.6444980870553725E9, 0.0, 2022-02-11 00:01:27.055
206.0, -11699.081861863358, -13795.630788282251, -9831.414798666812, -16493.79926846019, -2756.0147948282715, -3018.8936613671376, -4367.508514822544, -6044.939880959974, -20154.970306750572, -16867.140456097182, -24469.706352914138, -14708.252514392438, -8946.509235681206, -13223.783758137675, -8994.96781766031, -10939.055495149552, 0.00575, -0.0275, 0.99228125, 192.0, 0.0, 0.0, 0.0, 0.0, 0.0, 0.0, 0.0, 0.0, 0.0, 1.644498087055379E9, 0.0, 2022-02-11 00:01:27.055
208.0, -11715.666856249198, -13815.54619259193, -9840.221385982202, -16491.340576570103, -2765.6260449440533, -3018.7371991559507, -4365.67567177721, -6042.883520470085, -20153.338629405338, -16875.4329532901, -24481.150446075255, -14708.38662485917, -8942.038886790144, -13228.231755284281, -8998.521745028704, -10944.822245219022, 0.00575, -0.0275, 0.99228125, 192.0, 0.0, 0.0, 0.0, 0.0, 0.0, 0.0, 0.0, 0.0, 0.0, 1.6444980870553856E9, 0.0, 2022-02-11 00:01:27.055
210.0, -11700.400614786222, -13811.165250678689, -9829.4701968992, -16486.445544534392, -2754.316062249668, -3004.566193171286, -4355.885607705785, -6041.6988780139545, -20150.097626459316, -16893.91784595464, -24474.13199831629, -14699.803554988332, -8936.227433231763, -13221.034493569672, -8996.979474661288, -10940.530710283603, 0.00575, -0.0275, 0.99228125, 192.0, 0.0, 0.0, 0.0, 0.0, 0.0, 0.0, 0.0, 0.0, 0.0, 1.644498087055392E9, 0.0, 2022-02-11 00:01:27.055
212.0, -11706.636751489254, -13809.935904733647, -9838.477949914688, -16485.8420474341, -2756.6629954174755, -3011.40582697461, -4358.925444951707, -6038.4131715790245, -20150.634068326246, -16878.271624835925, -24471.718009915116, -14703.759813756922, -8935.132197753454, -13203.577781150077, -8996.711253727824, -10940.128378883408, 0.00575, -0.0275, 0.99228125, 192.0, 0.0, 0.0, 0.0, 0.0, 0.0, 0.0, 0.0, 0.0, 0.0, 1.6444980870553987E9, 0.0, 2022-02-11 00:01:27.055
214.0, -11702.03229213146, -13808.170116921678, -9837.4721214142, -16480.723497953833, -2748.683422646931, -3006.8684228501825, -4357.964319940129, -6028.95838367443, -20144.84496651232, -16873.533055011398, -24478.267071040522, -14701.85991547822, -8929.030171517155, -13210.439766697857, -8999.438166551372, -10935.412160803338, 0.006875, -0.02775, 0.991140625, 192.0, 0.0, 32.0, 127.5, 16.0, 15.0, 120.0, 0.0, 0.0, 0.0, 1.6444980870554051E9, 0.0, 2022-02-11 00:01:27.055
216.0, -11702.45697527611, -13814.853288513816, -9846.65868838533, -16489.08305038012, -2756.6629954174755, -3013.149263042124, -4351.90699719274, -6032.869938954108, -20152.109283460293, -16872.99661314447, -24471.114512814824, -14695.802592730832, -8931.868843062979, -13205.432975939868, -8995.750128716247, -10935.345105569972, 0.006875, -0.02775, 0.991140625, 192.0, 0.0, 0.0, 0.0, 0.0, 0.0, 0.0, 0.0, 0.0, 0.0, 1.6444980870554116E9, 0.0, 2022-02-11 00:01:27.055
218.0, -11710.905934680217, -13808.97477972207, -9850.838464598473, -16489.373623058036, -2758.7864111407293, -3024.6157079476966, -4366.994424700073, -6058.8426660111745, -20160.044152741928, -16886.20649411756, -24489.442943268175, -14715.941514485065, -8947.492712437239, -13225.795415138653, -9002.634466008481, -10946.096294652974, 0.006875, -0.02775, 0.991140625, 192.0, 0.0, 0.0, 0.0, 0.0, 0.0, 0.0, 0.0, 0.0, 0.0, 1.6444980870554183E9, 0.0, 2022-02-11 00:01:27.055
220.0, -11701.60760898681, -13802.202201152111, -9840.780179593585, -16487.920759668443, -2747.0070418127825, -3006.7343123834507, -4364.356918854346, -6040.737753002376, -20153.09276021633, -16883.457229549556, -24477.03772509548, -14706.799651002842, -8942.731790868258, -13222.017970325705, -8997.605323506037, -10945.425742319316, 0.006875, -0.02775, 0.991140625, 192.0, 0.0, 0.0, 0.0, 0.0, 0.0, 0.0, 0.0, 0.0, 0.0, 1.6444980870554247E9, 0.0, 2022-02-11 00:01:27.055
222.0, -11702.814603187395, -13798.268294127976, -9846.122246518404, -16486.713765467855, -2755.5007047057993, -3004.432082704554, -4366.659148533243, -6044.068162926217, -20152.399856138214, -16870.53792125439, -24473.08146632689, -14702.642226534157, -8934.707514608803, -13210.573877164588, -8996.577143261093, -10941.69300099528, 0.006875, -0.02775, 0.991140625, 192.0, 0.0, 0.0, 0.0, 0.0, 0.0, 0.0, 0.0, 0.0, 0.0, 1.6444980870554311E9, 0.0, 2022-02-11 00:01:27.055
224.0, -11689.381204769756, -13793.060337669891, -9842.702429616742, -16485.327957311627, -2747.744649379808, -2994.5526116553083, -4360.735936252587, -6043.621128037111, -20148.98003923655, -16877.690479480087, -24479.004678607547, -14711.761738271922, -8933.165244241387, -13204.985941050762, -8996.957122916832, -10937.40146605986, 0.006, -0.026000000000000002, 0.988, 192.0, 0.0, 24.0, 127.5, 24.0, 15.0, 112.0, 0.0, 0.0, 0.0, 1.6444980870554378E9, 0.0, 2022-02-11 00:01:27.055
226.0, -11684.93320762315, -13801.68811102964, -9843.931775561783, -16486.512599767757, -2751.656204659487, -2995.893716322627, -4359.037203673984, -6036.893252956063, -20148.823577025363, -16871.119066610227, -24469.19226279167, -14697.546028798346, -8933.76874134168, -13203.980112550273, -8992.531477514682, -10936.26152709264, 0.006, -0.026000000000000002, 0.988, 192.0, 0.0, 0.0, 0.0, 0.0, 0.0, 0.0, 0.0, 0.0, 0.0, 1.6444980870554445E9, 0.0, 2022-02-11 00:01:27.055
228.0, -11703.283989820957, -13802.291608129932, -9845.384638951378, -16489.50773352477, -2751.008004070283, -2997.815966345783, -4347.593110512867, -6035.060409910729, -20145.13553919024, -16876.14820911267, -24478.334126273887, -14709.86183999322, -8939.62489838897, -13207.310522474114, -8992.978512403788, -10939.234309105195, 0.006, -0.026000000000000002, 0.988, 192.0, 0.0, 0.0, 0.0, 0.0, 0.0, 0.0, 0.0, 0.0, 0.0, 1.6444980870554528E9, 0.0, 2022-02-11 00:01:27.055
230.0, -11684.955559367605, -13788.142953889723, -9825.491586386155, -16478.845951419586, -2727.2704514587467, -2984.11434699468, -4332.550386494445, -6025.940898172963, -20136.351303619304, -16867.319270052823, -24465.548928445452, -14701.14465965565, -8930.907718051401, -13198.682749114365, -8986.608265234026, -10934.585146258492, 0.006, -0.026000000000000002, 0.988, 192.0, 0.0, 0.0, 0.0, 0.0, 0.0, 0.0, 0.0, 0.0, 0.0, 1.6444980870554593E9, 0.0, 2022-02-11 00:01:27.055
232.0, -11698.925399652171, -13800.168192406678, -9833.18058647878, -16476.901349651976, -2740.837960343118, -2992.3844924431437, -4350.565892525422, -6022.454026037935, -20137.46889084207, -16865.933461896595, -24461.1232830433, -14686.750136226432, -8921.944668524822, -13206.461156184812, -8981.847343665046, -10931.232384590196, 0.006, -0.026000000000000002, 0.988, 192.0, 0.0, 0.0, 0.0, 0.0, 0.0, 0.0, 0.0, 0.0, 0.0, 1.644498087055466E9, 0.0, 2022-02-11 00:01:27.055
234.0, -11692.778669926962, -13790.668701013174, -9837.114493502915, -16479.807076431167, -2741.35205046559, -2990.015207530881, -4334.42793302869, -6033.33932558767, -20143.74973103401, -16874.382421300703, -24476.724800673106, -14705.011511446419, -8924.358656925995, -13205.924714317885, -8985.781250689179, -10930.248907834162, 0.008, -0.024, 0.992, 192.0, 0.0, 32.0, 127.5, 32.0, 15.5, 0.0, 0.0, 0.0, 0.0, 1.6444980870554726E9, 0.0, 2022-02-11 00:01:27.055
236.0, -11699.417138030189, -13809.980608222559, -9842.031877283081, -16491.31822482565, -2736.7252393633416, -2993.3903209436326, -4334.360877795324, -6031.886462198075, -20155.953783506608, -16880.529151025912, -24468.54406220246, -14701.614046289213, -8931.310049451597, -13203.778946850176, -8984.350739044039, -10934.696904980769, 0.008, -0.024, 0.992, 192.0, 0.0, 0.0, 0.0, 0.0, 0.0, 0.0, 0.0, 0.0, 0.0, 1.6444980870554793E9, 0.0, 2022-02-11 00:01:27.055
238.0, -11715.398635315732, -13801.956331963103, -9845.809322096029, -16487.429021290423, -2743.184893510925, -2992.5409546543306, -4352.599901270855, -6039.173130890505, -20160.31237367539, -16877.981052158004, -24486.201940322157, -14716.522659840903, -8930.013648273189, -13207.958723063317, -8989.156364101931, -10938.764922471633, 0.008, -0.024, 0.992, 192.0, 0.0, 0.0, 0.0, 0.0, 0.0, 0.0, 0.0, 0.0, 0.0, 1.6444980870554855E9, 0.0, 2022-02-11 00:01:27.055
240.0, -11696.98079788456, -13794.379090592754, -9834.94637429075, -16483.36100379956, -2733.037201528216, -2983.9355330390376, -4345.492046534067, -6033.562843032222, -20151.46108287109, -16876.505837023957, -24476.054248339446, -14705.86087773572, -8937.43442743235, -13199.733281103765, -8990.855096680534, -10934.674553236313, 0.008, -0.024, 0.992, 192.0, 0.0, 0.0, 0.0, 0.0, 0.0, 0.0, 0.0, 0.0, 0.0, 1.644498087534362E9, 0.0, 2022-02-11 00:01:27.534
242.0, -11716.404463816221, -13802.984512208048, -9844.267051728613, -16494.469820793845, -2746.6270621570425, -2992.853879076705, -4350.9458721811625, -6041.542415802767, -20159.060675985897, -16881.57968301531, -24475.964841361623, -14715.136851684672, -8942.821197846079, -13195.508801401711, -8991.883276925479, -10937.155596870853, 0.008, -0.024, 0.992, 192.0, 0.0, 0.0, 0.0, 0.0, 0.0, 0.0, 0.0, 0.0, 0.0, 1.6444980875345445E9, 0.0, 2022-02-11 00:01:27.534
244.0, -11705.74268171104, -13810.852326256316, -9835.728685346685, -16486.15497185647, -2740.547387665199, -2991.8256988317607, -4354.924482694207, -6041.542415802767, -20154.724437561566, -16880.05976439235, -24487.207768822645, -14709.235991148471, -8932.785264585646, -13212.451423698834, -8997.44886129485, -10942.877643451411, 0.004, -0.028, 0.994, 192.0, 0.0, 16.0, 127.5, 16.0, 15.5, 8.0, 0.0, 0.0, 0.0, 1.6444980875345528E9, 0.0, 2022-02-11 00:01:27.534
246.0, -11705.563867755398, -13810.181773922655, -9838.992040037161, -16490.06652713615, -2737.4628469303666, -2994.4855564219424, -4342.563968010422, -6042.6376512810775, -20157.160777707195, -16888.598130774277, -24470.80158839245, -14700.787031744365, -8936.495654165228, -13209.590400408555, -8991.190372847364, -10940.64246900588, 0.004, -0.028, 0.994, 192.0, 0.0, 0.0, 0.0, 0.0, 0.0, 0.0, 0.0, 0.0, 0.0, 1.64449808753456E9, 0.0, 2022-02-11 00:01:27.534
248.0, -11703.976893899071, -13796.793078993927, -9841.361324949423, -16487.07139337914, -2743.4084109554783, -2993.4797279214536, -4345.067363389417, -6048.806732750742, -20154.70208581711, -16882.026717904417, -24481.552777475452, -14711.873496994198, -8919.553031868105, -13207.936371318863, -8996.487736283272, -10948.577338287514, 0.004, -0.028, 0.994, 192.0, 0.0, 0.0, 0.0, 0.0, 0.0, 0.0, 0.0, 0.0, 0.0, 1.6444980875345669E9, 0.0, 2022-02-11 00:01:27.534
250.0, -11690.342329781333, -13790.735756246539, -9834.097008001449, -16482.578692743624, -2734.5347684067215, -2986.148355740113, -4338.987688897573, -6029.360715074625, -20148.778873536456, -16865.754647940954, -24470.019277336512, -14700.116479410706, -8931.332401196052, -13198.794507836641, -8996.957122916832, -10940.575413772514, 0.004, -0.028, 0.994, 192.0, 0.0, 0.0, 0.0, 0.0, 0.0, 0.0, 0.0, 0.0, 0.0, 1.644498087534574E9, 0.0, 2022-02-11 00:01:27.534
252.0, -11708.111966623303, -13805.420852353676, -9848.133903519381, -16490.245341091795, -2745.420067956456, -3000.9452105695264, -4347.213130857126, -6044.604604793144, -20153.338629405338, -16888.843999963286, -24470.913347114725, -14703.603351545735, -8929.544261639627, -13211.289132987158, -8995.973646160799, -10946.185701630797, 0.004, -0.028, 0.994, 192.0, 0.0, 0.0, 0.0, 0.0, 0.0, 0.0, 0.0, 0.0, 0.0, 1.6444980875345817E9, 0.0, 2022-02-11 00:01:27.534
254.0, -11688.956521625105, -13793.239151625534, -9841.696601116253, -16490.044175391697, -2738.1333992640257, -2978.3923004141216, -4345.3132325784245, -6037.049715167251, -20149.6058880813, -16886.20649411756, -24476.098951828357, -14714.511002839925, -8925.588002871038, -13193.921827545384, -8996.890067683467, -10945.06811440803, 0.008, -0.03, 0.992, 192.0, 0.0, 32.0, 127.5, 8.0, 15.5, 0.0, 0.0, 0.0, 0.0, 1.6444980875345886E9, 0.0, 2022-02-11 00:01:27.534
0.0, -11693.337463538344, -13801.531648818453, -9842.56831915001, -16490.98294865882, -2737.3063847191793, -2980.3816056706437, -4345.648508745255, -6029.360715074625, -20147.683638058144, -16879.702136481064, -24465.83950112337, -14701.323473611294, -8923.688104592336, -13200.13561250396, -8994.677244982391, -10942.184739373295, 0.008, -0.03, 0.992, 192.0, 0.0, 0.0, 0.0, 0.0, 0.0, 0.0, 0.0, 0.0, 0.0, 1.6444980875345955E9, 0.0, 2022-02-11 00:01:27.534
2.0, -11715.130414382269, -13799.519991817475, -9851.754886121142, -16492.34640507059, -2746.2694342457576, -2983.1308702386464, -4337.9148051637185, -6028.488997040868, -20152.019876482475, -16885.468886550534, -24480.546948974963, -14711.024130704896, -8918.927183023356, -13202.773118349687, -8997.962951417321, -10939.54723352757, 0.008, -0.03, 0.992, 192.0, 0.0, 0.0, 0.0, 0.0, 0.0, 0.0, 0.0, 0.0, 0.0, 1.6444980875346024E9, 0.0, 2022-02-11 00:01:27.534
4.0, -11708.044911389938, -13807.030177954457, -9845.116418017915, -16496.749698728287, -2736.5240736632436, -2973.117288722669, -4343.390982555268, -6031.595889520156, -20153.629202083255, -16882.384345815703, -24475.830730894893, -14711.91820048311, -8918.18957545633, -13198.481583414268, -8998.812317706623, -10937.937907926787, 0.008, -0.03, 0.992, 192.0, 0.0, 0.0, 0.0, 0.0, 0.0, 0.0, 0.0, 0.0, 0.0, 1.6444980875346203E9, 0.0, 2022-02-11 00:01:27.534
6.0, -11715.89037369375, -13817.803718781915, -9852.984232066183, -16502.78466973122, -2752.617329671065, -2994.3961494441214, -4359.707756007642, -6055.311090387237, -20162.6593068432, -16884.999499916972, -24478.088257084877, -14712.253476649938, -8929.790130828635, -13213.94899057734, -9001.695692741358, -10947.325640598017, 0.008, -0.03, 0.992, 192.0, 0.0, 0.0, 0.0, 0.0, 0.0, 0.0, 0.0, 0.0, 0.0, 1.6444980875346272E9, 0.0, 2022-02-11 00:01:27.534
8.0, -11708.26842883449, -13809.734739033549, -9852.4254384548, -16499.856591207576, -2749.421030213956, -2990.4175389310767, -4349.045973902461, -6042.123561158605, -20163.66513534369, -16900.042223935394, -24491.61106248034, -14720.031883720385, -8928.113749994487, -13210.909153331419, -9004.757881731735, -10949.806684232555, 0.01, -0.026000000000000002, 0.998, 192.0, 0.0, 40.0, 127.5, 24.0, 15.5, 24.0, 0.0, 0.0, 0.0, 1.644498087534634E9, 0.0, 2022-02-11 00:01:27.534
10.0, -11701.227629331068, -13784.969006177069, -9846.681040129786, -16502.114117397563, -2741.575567910143, -2981.4321376600433, -4353.896302449262, -6060.362584634136, -20164.5592051219, -16896.488296567, -24470.153387803246, -14711.024130704896, -8932.539395396638, -13202.504897416222, -9000.667512496413, -10949.31494585454, 0.01, -0.026000000000000002, 0.998, 192.0, 0.0, 0.0, 0.0, 0.0, 0.0, 0.0, 0.0, 0.0, 0.0, 1.6444980875346413E9, 0.0, 2022-02-11 00:01:27.534
12.0, -11713.386978314755, -13806.1584599207, -9855.353516978445, -16506.53976279971, -2751.1197627925594, -2996.4301581895543, -4359.618349029822, -6035.842720966664, -20161.720533576077, -16898.432898334613, -24483.966765876623, -14727.698532068556, -8921.944668524822, -13201.432013682368, -9005.07080615411, -10949.851387721466, 0.01, -0.026000000000000002, 0.998, 192.0, 0.0, 0.0, 0.0, 0.0, 0.0, 0.0, 0.0, 0.0, 0.0, 1.6444980875346484E9, 0.0, 2022-02-11 00:01:27.534
14.0, -11696.98079788456, -13809.377111122265, -9844.311755217524, -16499.722480740846, -2736.389963196512, -2983.1308702386464, -4349.180084369193, -6030.321840086203, -20163.486321388045, -16900.4892588245, -24480.502245486052, -14712.409938861125, -8921.72115108027, -13218.4193394684, -9005.920172443412, -10944.799893474566, 0.01, -0.026000000000000002, 0.998, 192.0, 0.0, 0.0, 0.0, 0.0, 0.0, 0.0, 0.0, 0.0, 0.0, 1.644498087534655E9, 0.0, 2022-02-11 00:01:27.534
16.0, -11704.423928788177, -13804.079747686357, -9849.720877375708, -16504.438698820915, -2744.190722011414, -2991.5127744093866, -4357.852561217852, -6046.213930393927, -20163.531024876957, -16893.716680254543, -24471.718009915116, -14711.135889427173, -8932.807616330101, -13215.6700749004, -9002.053320652643, -10950.946623199776, 0.01, -0.026000000000000002, 0.998, 192.0, 0.0, 0.0, 0.0, 0.0, 0.0, 0.0, 0.0, 0.0, 0.0, 1.6444980875346625E9, 0.0, 2022-02-11 00:01:27.534
18.0, -11697.31607405139, -13793.01563418098, -9842.791836594562, -16500.147163885496, -2734.8923963180064, -2990.752815097906, -4350.700002992154, -6042.190616391971, -20153.673905572166, -16882.04906964887, -24476.70244892865, -14707.403148103136, -8923.598697614516, -13205.432975939868, -9006.322503843607, -10954.858178479455, 0.014, -0.026000000000000002, 0.994, 192.0, 0.0, 56.0, 127.5, 24.0, 15.5, 8.0, 0.0, 0.0, 0.0, 1.6444980875346696E9, 0.0, 2022-02-11 00:01:27.534
20.0, -11697.3607775403, -13793.283855114443, -9841.495435416155, -16499.096631896096, -2730.82437882714, -2984.181402228046, -4335.299651062447, -6036.088590155672, -20159.41830389718, -16891.05682266436, -24465.70539065664, -14700.518810810901, -8918.658962089892, -13221.325066247591, -8995.146631615953, -10952.69005926729, 0.014, -0.026000000000000002, 0.994, 192.0, 0.0, 0.0, 0.0, 0.0, 0.0, 0.0, 0.0, 0.0, 0.0, 1.6444980875346768E9, 0.0, 2022-02-11 00:01:27.534
22.0, -11698.992454885538, -13781.1021543863, -9844.691734873264, -16500.12481214104, -2735.697059118397, -2985.567210384275, -4339.568834253411, -6039.933090201985, -20156.758446306998, -16890.833305219807, -24480.90457688625, -14716.924991241098, -8913.920392265367, -13204.896534072941, -8995.951294416343, -10952.60065228947, 0.014, -0.026000000000000002, 0.994, 192.0, 0.0, 0.0, 0.0, 0.0, 0.0, 0.0, 0.0, 0.0, 0.0, 1.6444980875346837E9, 0.0, 2022-02-11 00:01:27.534
24.0, -11688.688300691641, -13788.902913201204, -9828.129092231882, -16491.966425414852, -2715.6251925975316, -2974.950131768004, -4321.016886355506, -6032.154683131538, -20149.4047223812, -16886.34060458429, -24470.734533159084, -14699.825906732787, -8907.259572417686, -13199.152135747927, -8990.832744936079, -10947.057419664552, 0.014, -0.026000000000000002, 0.994, 192.0, 0.0, 0.0, 0.0, 0.0, 0.0, 0.0, 0.0, 0.0, 0.0, 1.6444980875346923E9, 0.0, 2022-02-11 00:01:27.534
26.0, -11701.31703630889, -13793.172096392167, -9835.929851046783, -16497.55436152868, -2731.450227671889, -2975.821849801761, -4336.707810963132, -6024.577441761189, -20152.46691137158, -16888.352261585267, -24466.75592264604, -14705.659712035622, -8907.416034628874, -13191.239618210748, -8985.378919288984, -10946.699791753268, 0.014, -0.026000000000000002, 0.994, 192.0, 0.0, 0.0, 0.0, 0.0, 0.0, 0.0, 0.0, 0.0, 0.0, 1.6444980875346997E9, 0.0, 2022-02-11 00:01:27.534
28.0, -11698.143088596236, -13788.165305634178, -9832.331220189479, -16490.11123062506, -2723.9847450238162, -2976.2018294575014, -4336.149017351749, -6020.755293459331, -20151.79635903792, -16894.43193607711, -24474.64608843876, -14711.359406871727, -8916.848470789013, -13200.001502037228, -8993.000864148244, -10942.095332395475, 0.01, -0.024, 0.992, 192.0, 0.0, 40.0, 127.5, 32.0, 15.5, 0.0, 0.0, 0.0, 0.0, 1.6444980875347073E9, 0.0, 2022-02-11 00:01:27.534
30.0, -11698.523068251976, -13800.436413340141, -9828.687885843265, -16495.676814994433, -2719.223823454836, -2971.6197218441635, -4335.545520251456, -6026.81261620672, -20152.668077071678, -16877.824589946817, -24460.050399309446, -14691.600464773235, -8909.651209074404, -13197.922789802884, -8986.608265234026, -10941.335373083994, 0.01, -0.024, 0.992, 192.0, 0.0, 0.0, 0.0, 0.0, 0.0, 0.0, 0.0, 0.0, 0.0, 1.644498087534715E9, 0.0, 2022-02-11 00:01:27.534
32.0, -11708.98368465706, -13802.82804999686, -9839.528481904088, -16500.035405163217, -2733.104256761582, -2979.8004603148056, -4347.034316901483, -6023.638668494066, -20159.552414363912, -16891.593264531286, -24477.55181521795, -14705.391491102158, -8910.43352013034, -13204.203629994827, -8994.49843102675, -10947.325640598017, 0.01, -0.024, 0.992, 192.0, 0.0, 0.0, 0.0, 0.0, 0.0, 0.0, 0.0, 0.0, 0.0, 1.6444980875347223E9, 0.0, 2022-02-11 00:01:27.534
34.0, -11694.008015872005, -13790.44518356862, -9828.509071887622, -16494.246303349293, -2714.574660608132, -2961.5167333503646, -4329.309383548425, -6006.316066541203, -20155.819673039874, -16887.01115691795, -24470.35455350334, -14697.926008454086, -8911.9534387533, -13196.581685135567, -8989.983378646777, -10940.731875983702, 0.01, -0.024, 0.992, 192.0, 0.0, 0.0, 0.0, 0.0, 0.0, 0.0, 0.0, 0.0, 0.0, 1.644498087534731E9, 0.0, 2022-02-11 00:01:27.534
36.0, -11707.4637660341, -13798.983549950546, -9833.739380090163, -16495.20742836087, -2721.481349644822, -2959.818000771761, -4337.132494107783, -6015.6367439790665, -20158.814806796887, -16889.358090085756, -24462.1738150327, -14692.628645018178, -8903.057444460088, -13190.569065877089, -8988.575218746093, -10937.155596870853, 0.012, -0.023, 0.992, 192.0, 0.0, 56.0, 127.5, 40.0, 15.5, 0.0, 0.0, 0.0, 0.0, 1.644498087534742E9, 0.0, 2022-02-11 00:01:27.534
38.0, -11715.219821360091, -13805.085576186846, -9824.239888696658, -16493.486344037814, -2716.6533728424756, -2956.82286701475, -4326.42600851369, -6011.300505554736, -20157.496053874023, -16890.25215986397, -24469.572242447408, -14701.390528844659, -8902.431595615339, -13187.216304208792, -8993.939637415366, -10939.055495149552, 0.012, -0.023, 0.992, 192.0, 0.0, 0.0, 0.0, 0.0, 0.0, 0.0, 0.0, 0.0, 0.0, 1.6444980875347488E9, 0.0, 2022-02-11 00:01:27.534
40.0, -11732.900051224238, -13818.630733326761, -9820.507147372622, -16495.69916673889, -2710.283125672713, -2955.0123757138704, -4323.743799179054, -6013.625086978089, -20163.486321388045, -16890.05099416387, -24458.597535919853, -14698.641264276655, -8896.66484554587, -13188.445650153835, -8983.143744843454, -10936.775617215111, 0.012, -0.023, 0.992, 192.0, 0.0, 0.0, 0.0, 0.0, 0.0, 0.0, 0.0, 0.0, 0.0, 1.6444980875347562E9, 0.0, 2022-02-11 00:01:27.534
42.0, -11765.04185975097, -13841.228346971076, -9828.576127120987, -16494.089841138106, -2724.096503746093, -2962.321396150756, -4335.880796418285, -6016.933145157474, -20173.723420348575, -16899.505782068467, -24482.245681553566, -14710.532392326879, -8904.756177038691, -13186.99278676424, -8985.49067801126, -10940.955393428254, 0.012, -0.023, 0.992, 192.0, 0.0, 0.0, 0.0, 0.0, 0.0, 0.0, 0.0, 0.0, 0.0, 1.6444980875347636E9, 0.0, 2022-02-11 00:01:27.534
44.0, -11773.490819155077, -13863.960071082125, -9820.440092139255, -16492.525219026236, -2709.5902215945985, -2944.529407564331, -4317.32884852038, -6001.801014161231, -20182.597062897334, -16913.67678805313, -24492.818056680928, -14715.762700529422, -8905.38202588344, -13184.377632662969, -8987.7705559457, -10938.004963160154, 0.012, -0.023, 0.992, 192.0, 0.0, 0.0, 0.0, 0.0, 0.0, 0.0, 0.0, 0.0, 0.0, 1.6444980875347705E9, 0.0, 2022-02-11 00:01:27.534
46.0, -11793.80855486495, -13877.952263111147, -9826.005676508626, -16495.69916673889, -2711.6912855733976, -2947.8374657437166, -4319.407560754724, -5994.3355315131585, -20185.79336235444, -16913.274456652936, -24494.22621658161, -14715.405072618136, -8900.196421169809, -13169.558426089101, -8981.73558494277, -10928.885451422388, 0.012, -0.0225, 0.991, 192.0, 0.0, 48.0, 127.5, 40.0, 15.0, 120.0, 0.0, 0.0, 0.0, 1.6444980875347776E9, 0.0, 2022-02-11 00:01:27.534
48.0, -11839.517872276054, -13908.529449526008, -9827.167967220303, -16498.381376073525, -2703.711712802853, -2945.3564221091774, -4298.776900622475, -5978.577551672167, -20198.399746227235, -16922.5951340908, -24509.313644088943, -14728.43613963558, -8889.534639064626, -13176.576873848067, -8981.087384353565, -10929.06426537803, 0.012, -0.0225, 0.991, 192.0, 0.0, 0.0, 0.0, 0.0, 0.0, 0.0, 0.0, 0.0, 0.0, 1.6444980875347853E9, 0.0, 2022-02-11 00:01:27.534
50.0, -11848.995011925104, -13927.729598013115, -9819.255449683125, -16497.68847199541, -2699.4872331008, -2939.924948206538, -4297.681665144166, -5982.734976140854, -20210.603798699834, -16936.87789879774, -24503.8821701863, -14732.101825726251, -8903.213906671275, -13184.735260574254, -8972.169038315897, -10923.655143219847, 0.012, -0.0225, 0.991, 192.0, 0.0, 0.0, 0.0, 0.0, 0.0, 0.0, 0.0, 0.0, 0.0, 1.6444980875347936E9, 0.0, 2022-02-11 00:01:27.534
52.0, -11869.178637168246, -13927.528432313018, -9824.843385796952, -16497.26378885076, -2707.3103436601573, -2951.301986134289, -4292.406653452713, -5987.18297328746, -20208.301569020936, -16936.58732611982, -24513.85104821337, -14740.349619430259, -8905.158508438886, -13194.726490345776, -8969.151552814432, -10923.252811819651, 0.012, -0.0225, 0.991, 192.0, 0.0, 0.0, 0.0, 0.0, 0.0, 0.0, 0.0, 0.0, 0.0, 1.6444980875348005E9, 0.0, 2022-02-11 00:01:27.534
54.0, -11871.749087780607, -13929.920068969735, -9814.293362414046, -16496.28031209473, -2696.626209810521, -2939.6790790175296, -4283.868287070785, -5984.947798841929, -20212.682510934177, -16925.746730058996, -24515.0356906695, -14748.038619522886, -8897.827136257547, -13187.70804258681, -8969.129201069976, -10922.805776930545, 0.012, -0.0225, 0.991, 192.0, 0.0, 0.0, 0.0, 0.0, 0.0, 0.0, 0.0, 0.0, 0.0, 1.644498087534808E9, 0.0, 2022-02-11 00:01:27.534
56.0, -11869.893892990816, -13948.382609889819, -9822.719970073696, -16502.6952627534, -2710.193718694892, -2951.3466896232, -4300.609743667811, -5996.414243747502, -20216.504659236034, -16949.3501722038, -24507.838428954892, -14746.004610777452, -8898.967075224768, -13177.068612226083, -8968.101020825032, -10925.331524053994, 0.012, -0.02425, 0.9904999999999999, 192.0, 0.0, 48.0, 127.5, 24.0, 15.0, 120.0, 0.0, 0.0, 0.0, 1.6444980875348153E9, 0.0, 2022-02-11 00:01:27.534
58.0, -11852.839511971417, -13940.335981885908, -9821.155347961825, -16492.905198681976, -2709.2772971722243, -2941.802494740784, -4306.175328037182, -5976.856467349108, -20207.675720176187, -16958.78260836394, -24515.125097647324, -14745.714038099533, -8900.866973503467, -13197.542810147144, -8975.275930795186, -10928.058436877542, 0.012, -0.02425, 0.9904999999999999, 192.0, 0.0, 0.0, 0.0, 0.0, 0.0, 0.0, 0.0, 0.0, 0.0, 1.6444980875348225E9, 0.0, 2022-02-11 00:01:27.534
60.0, -11848.05623865798, -13946.505063355573, -9821.758845062119, -16497.599065017588, -2704.0246372252273, -2942.093067418703, -4308.745778649542, -5980.857429606608, -20205.52995270848, -16948.657268125688, -24498.428344539207, -14730.224279192005, -8894.161450166876, -13199.934446803862, -8971.878465637978, -10922.425797274804, 0.012, -0.02425, 0.9904999999999999, 192.0, 0.0, 0.0, 0.0, 0.0, 0.0, 0.0, 0.0, 0.0, 0.0, 1.6444980875348296E9, 0.0, 2022-02-11 00:01:27.534
62.0, -11842.155378121779, -13933.51869982704, -9827.391484664857, -16501.085937152617, -2713.166500707448, -2952.4866285904204, -4303.291953002447, -5989.440499477447, -20206.222856786593, -16962.962384577084, -24513.292254601987, -14753.693610870077, -8896.687197290326, -13192.42426066688, -8973.06310809411, -10925.957372898743, 0.012, -0.02425, 0.9904999999999999, 192.0, 0.0, 0.0, 0.0, 0.0, 0.0, 0.0, 0.0, 0.0, 0.0, 1.6444980875348363E9, 0.0, 2022-02-11 00:01:27.534
64.0, -11815.19917430868, -13909.84820244887, -9815.209783936714, -16493.084012637617, -2700.96244823485, -2941.176645896035, -4300.922668090185, -5984.8807436085635, -20197.036289815464, -16946.01976227996, -24503.390431808286, -14740.39432291917, -8896.486031590228, -13195.665263612898, -8972.593721460547, -10920.794119929567, 0.012, -0.02425, 0.9904999999999999, 192.0, 0.0, 0.0, 0.0, 0.0, 0.0, 0.0, 0.0, 0.0, 0.0, 1.644498087534846E9, 0.0, 2022-02-11 00:01:27.534
66.0, -11804.827964881417, -13895.028995875002, -9812.549926346532, -16492.324053326138, -2703.9799337363165, -2947.792762254806, -4305.728293148076, -6003.164470573005, -20190.353118223324, -16932.899288284694, -24484.346745532366, -14731.945363515064, -8886.47245007425, -13172.061821468094, -8966.737564413257, -10921.06234086303, 0.013000000000000001, -0.025125, 0.98925, 192.0, 0.0, 56.0, 127.5, 24.0, 15.0, 112.0, 0.0, 0.0, 0.0, 1.6444980875348532E9, 0.0, 2022-02-11 00:01:27.534
68.0, -11792.556857175454, -13875.404164243242, -9807.185507677259, -16482.06460262115, -2698.973142978328, -2938.852064472683, -4284.024749281973, -5979.046938305729, -20179.04313552894, -16919.2423724225, -24487.09601010037, -14725.843337278766, -8890.182839653831, -13169.156094688904, -8968.525703969683, -10917.910744894833, 0.013000000000000001, -0.025125, 0.98925, 192.0, 0.0, 0.0, 0.0, 0.0, 0.0, 0.0, 0.0, 0.0, 0.0, 1.6444980875348637E9, 0.0, 2022-02-11 00:01:27.534
70.0, -11784.532580915999, -13871.716126408117, -9806.827879765973, -16486.78082070122, -2698.1684801779365, -2936.594538282697, -4288.9644848065955, -5975.269493492782, -20183.245263486537, -16918.370654388746, -24475.27193728351, -14710.375930115693, -8887.232409385731, -13170.452495867312, -8960.43437247686, -10910.914648880322, 0.013000000000000001, -0.025125, 0.98925, 192.0, 0.0, 0.0, 0.0, 0.0, 0.0, 0.0, 0.0, 0.0, 0.0, 1.6444980875348709E9, 0.0, 2022-02-11 00:01:27.534
72.0, -11788.310025728944, -13870.062097318423, -9821.84825203994, -16494.22395160484, -2708.450282627378, -2941.53427380732, -4315.563060708411, -5997.464775736902, -20184.60871989831, -16925.00912249197, -24491.409896780242, -14725.10572971174, -8883.23144712823, -13179.572007605078, -8973.845419150046, -10922.090521107975, 0.013000000000000001, -0.025125, 0.98925, 192.0, 0.0, 0.0, 0.0, 0.0, 0.0, 0.0, 0.0, 0.0, 0.0, 1.6444980875348775E9, 0.0, 2022-02-11 00:01:27.534
74.0, -11763.387830661277, -13835.193375968145, -9812.862850768906, -16490.98294865882, -2689.6971690293753, -2927.1397503781022, -4279.375586435269, -5977.392909216036, -20178.014955283994, -16912.939180486104, -24484.70437344365, -14725.686875067579, -8888.461755330773, -13164.953966731307, -8969.553884214627, -10920.905878651844, 0.013000000000000001, -0.025125, 0.98925, 192.0, 0.0, 0.0, 0.0, 0.0, 0.0, 0.0, 0.0, 0.0, 0.0, 1.644498087534885E9, 0.0, 2022-02-11 00:01:27.534
76.0, -11768.975766775104, -13855.958146567125, -9822.652914840332, -16495.520352783245, -2706.2821634152133, -2946.2504918873897, -4294.820641853886, -5989.149926799528, -20180.697164618632, -16919.555296844876, -24478.22236755161, -14716.500308096447, -8886.159525651876, -13176.46511512579, -8965.910549868411, -10921.464672263226, 0.0115, -0.025562500000000002, 0.987625, 192.0, 0.0, 40.0, 127.5, 24.0, 15.0, 104.0, 0.0, 0.0, 0.0, 1.6444980875348918E9, 0.0, 2022-02-11 00:01:27.534
78.0, -11754.871816023806, -13845.050495272935, -9821.356513661924, -16488.41249804646, -2705.9468872483835, -2934.8287504707278, -4299.80508086742, -5994.4472902354355, -20174.729248849064, -16918.616523577755, -24485.710201944137, -14723.541107599869, -8891.658054787882, -13174.65462382491, -8975.87942789548, -10930.092445622975, 0.0115, -0.025562500000000002, 0.987625, 192.0, 0.0, 0.0, 0.0, 0.0, 0.0, 0.0, 0.0, 0.0, 0.0, 1.644498087534899E9, 0.0, 2022-02-11 00:01:27.534
80.0, -11743.092446695859, -13831.34887592183, -9811.812318779506, -16483.651576477478, -2694.5698493206323, -2936.996869682893, -4298.1734035221825, -5985.238371519848, -20168.247242957026, -16912.179221174625, -24465.88420461228, -14699.155354399129, -8891.52394432115, -13165.915091742885, -8968.659814436414, -10924.929192653799, 0.0115, -0.025562500000000002, 0.987625, 192.0, 0.0, 0.0, 0.0, 0.0, 0.0, 0.0, 0.0, 0.0, 0.0, 1.6444980875349057E9, 0.0, 2022-02-11 00:01:27.534
82.0, -11746.84753976435, -13825.582125852363, -9816.707350815219, -16486.937282912408, -2701.1412621904924, -2946.183436654024, -4306.912935604208, -5990.871011122586, -20170.70593484711, -16904.266703637448, -24469.147559302757, -14699.62474103269, -8886.405394840884, -13179.974339005274, -8971.409079004417, -10927.20907058824, 0.0115, -0.025562500000000002, 0.987625, 192.0, 0.0, 0.0, 0.0, 0.0, 0.0, 0.0, 0.0, 0.0, 0.0, 1.6444980875349128E9, 0.0, 2022-02-11 00:01:27.534
84.0, -11727.736798255062, -13811.2099541676, -9804.4138913648, -16483.562169499655, -2691.1723841634257, -2925.86570094415, -4300.90031634573, -5986.624179676078, -20164.60390861081, -16910.88281999622, -24467.918213357712, -14713.102842939239, -8879.006967426178, -13176.956853503807, -8971.386727259962, -10926.851442676956, 0.0115, -0.025562500000000002, 0.987625, 192.0, 0.0, 0.0, 0.0, 0.0, 0.0, 0.0, 0.0, 0.0, 0.0, 1.64449808753492E9, 0.0, 2022-02-11 00:01:27.534
86.0, -11732.095388423848, -13805.934942476148, -9816.863813026406, -16487.920759668443, -2706.1480529484816, -2932.9735556809374, -4317.66412468721, -5995.922505369485, -20167.241414456537, -16907.686520539108, -24456.78704461897, -14702.038729433863, -8874.693080746303, -13164.819856264576, -8968.324538269584, -10925.555041498548, 0.01075, -0.025781250000000002, 0.9888125, 192.0, 0.0, 40.0, 127.5, 24.0, 15.0, 120.0, 0.0, 0.0, 0.0, 1.644498087534927E9, 0.0, 2022-02-11 00:01:27.534
88.0, -11720.807757473918, -13797.77655574996, -9816.595592092943, -16479.941186897897, -2700.157785434459, -2931.5653957802533, -4307.2705635154925, -5990.893362867041, -20165.69914408912, -16909.072328695336, -24470.958050603636, -14696.875476464687, -8893.133269921931, -13169.312556900091, -8977.086422096065, -10927.410236288339, 0.01075, -0.025781250000000002, 0.9888125, 192.0, 0.0, 0.0, 0.0, 0.0, 0.0, 0.0, 0.0, 0.0, 0.0, 1.6444980875349343E9, 0.0, 2022-02-11 00:01:27.534
90.0, -11700.087690363847, -13782.82323870936, -9809.331275144968, -16478.130695597018, -2694.8827737430065, -2925.508073032865, -4307.695246660143, -5996.7942234032425, -20163.218100454582, -16904.579628059822, -24456.40706496323, -14690.751098483934, -8893.245028644209, -13162.383516118947, -8973.599549961036, -10921.73289319669, 0.01075, -0.025781250000000002, 0.9888125, 192.0, 0.0, 0.0, 0.0, 0.0, 0.0, 0.0, 0.0, 0.0, 0.0, 1.6444980875349417E9, 0.0, 2022-02-11 00:01:27.534
92.0, -11710.168327113191, -13796.949541205115, -9820.708313072719, -16480.768201442745, -2710.327829161624, -2938.4050295835773, -4314.601935696833, -6013.312162555714, -20155.32793466186, -16890.274511608426, -24459.60336442034, -14690.840505461754, -8884.37138609545, -13159.477789339757, -8977.376994773984, -10929.600707244957, 0.01075, -0.025781250000000002, 0.9888125, 192.0, 0.0, 0.0, 0.0, 0.0, 0.0, 0.0, 0.0, 0.0, 0.0, 1.6444980875349488E9, 0.0, 2022-02-11 00:01:27.534
94.0, -11700.400614786222, -13768.920453658158, -9811.074711212483, -16477.683660707913, -2701.968276735339, -2935.0969714041917, -4311.763264151009, -5998.783528659765, -20154.053885227906, -16885.670052250633, -24454.84244285136, -14698.104822409729, -8887.858258230479, -13179.572007605078, -8983.031986121177, -10932.752303213156, 0.01075, -0.025781250000000002, 0.9888125, 192.0, 0.0, 0.0, 0.0, 0.0, 0.0, 0.0, 0.0, 0.0, 0.0, 1.644498087534956E9, 0.0, 2022-02-11 00:01:27.534
96.0, -11713.252867848023, -13792.121564402767, -9814.740397303152, -16481.528160754224, -2703.845823269585, -2946.5187128208536, -4330.359915537824, -6026.589098762167, -20158.188957952138, -16902.545619314387, -24443.51010841252, -14694.57324678579, -8881.42095582735, -13178.94615876033, -8984.864829166512, -10932.886413679887, 0.011375, -0.025890625, 0.9904062499999999, 192.0, 0.0, 48.0, 127.5, 24.0, 15.5, 0.0, 0.0, 0.0, 0.0, 1.6444980875349634E9, 0.0, 2022-02-11 00:01:27.534
98.0, -11704.312170065901, -13792.881523714248, -9817.623772337887, -16481.483457265313, -2699.1743086784254, -2936.7510004938845, -4320.413389255213, -5999.699950182432, -20156.490225373534, -16913.05093920838, -24458.28461149748, -14692.29336885135, -8871.027394655634, -13157.689649783331, -8988.374053045995, -10939.25666084965, 0.011375, -0.025890625, 0.9904062499999999, 192.0, 0.0, 0.0, 0.0, 0.0, 0.0, 0.0, 0.0, 0.0, 0.0, 1.6444980875349703E9, 0.0, 2022-02-11 00:01:27.534
100.0, -11684.93320762315, -13775.916549672671, -9812.594629835443, -16476.521369996237, -2693.720483031331, -2935.655765015574, -4299.492156445045, -5991.675673922977, -20154.344457905827, -16897.360014600756, -24444.0689020239, -14684.738479225456, -8883.790240739614, -13164.864559753485, -8980.05920410862, -10931.478253779203, 0.011375, -0.025890625, 0.9904062499999999, 192.0, 0.0, 0.0, 0.0, 0.0, 0.0, 0.0, 0.0, 0.0, 0.0, 1.6444980875349803E9, 0.0, 2022-02-11 00:01:27.534
102.0, -11691.191696070635, -13772.697898471106, -9818.115510715903, -16477.77306768573, -2706.5056808597665, -2938.695602261496, -4316.032447341972, -6002.4939182393455, -20153.94212650563, -16901.562142558356, -24449.746245115548, -14687.487743793457, -8880.549237793593, -13168.79846677762, -8983.657834965925, -10936.373285814916, 0.011375, -0.025890625, 0.9904062499999999, 192.0, 0.0, 0.0, 0.0, 0.0, 0.0, 0.0, 0.0, 0.0, 0.0, 1.6444980875349877E9, 0.0, 2022-02-11 00:01:27.534
104.0, -11671.455105716599, -13745.048790579891, -9806.738472788153, -16479.427096775424, -2685.584448049599, -2926.312735833256, -4289.32211271788, -5995.274304780281, -20144.532042089944, -16889.67101450813, -24446.30407646943, -14698.395395087648, -8875.85537145798, -13153.219300892271, -8981.44501226485, -10934.741608469678, 0.011375, -0.025890625, 0.9904062499999999, 192.0, 0.0, 0.0, 0.0, 0.0, 0.0, 0.0, 0.0, 0.0, 0.0, 1.6444980880147333E9, 0.0, 2022-02-11 00:01:28.014
106.0, -11691.437565259645, -13781.325671830855, -9816.66264732631, -16488.07722187963, -2700.9847999793055, -2945.2223116424457, -4303.291953002447, -6010.205270076427, -20153.22687068306, -16896.175372144626, -24442.750149101037, -14690.86285720621, -8880.28101686013, -13170.407792378403, -8978.96396863031, -10939.8825096944, 0.012, -0.022, 0.986, 192.0, 0.0, 48.0, 127.5, 40.0, 15.0, 104.0, 0.0, 0.0, 0.0, 1.6444980880149007E9, 0.0, 2022-02-11 00:01:28.014
108.0, -11696.511411250998, -13790.1546108907, -9821.222403195192, -16486.065564878652, -2702.6164773245428, -2938.7179540059515, -4310.422159483691, -6005.6008107186335, -20158.166606207684, -16896.53300005591, -24457.547003930453, -14705.078566679786, -8876.57062728055, -13178.208551193304, -8992.35266355904, -10946.677440008812, 0.012, -0.022, 0.986, 192.0, 0.0, 0.0, 0.0, 0.0, 0.0, 0.0, 0.0, 0.0, 0.0, 1.6444980880149088E9, 0.0, 2022-02-11 00:01:28.014
110.0, -11680.798134898918, -13783.359680576288, -9815.23213568117, -16483.003375888275, -2694.7263115318196, -2942.5177505633537, -4312.098540317838, -6009.177089831483, -20158.010143996496, -16909.63112230672, -24441.766672345006, -14684.626720503178, -8883.052633172589, -13174.520513358179, -8987.412928034417, -10941.178910872808, 0.012, -0.022, 0.986, 192.0, 0.0, 0.0, 0.0, 0.0, 0.0, 0.0, 0.0, 0.0, 0.0, 1.644498088014917E9, 0.0, 2022-02-11 00:01:28.014
112.0, -11691.281103048457, -13779.828104952348, -9824.530461374577, -16484.344480555592, -2711.7359890623084, -2953.023070457348, -4317.731179920576, -6018.47541552489, -20156.490225373534, -16900.243389635492, -24456.250602752043, -14694.550895041335, -8883.633778528427, -13176.5098186147, -8988.910494912923, -10947.392695831382, 0.012, -0.022, 0.986, 192.0, 0.0, 0.0, 0.0, 0.0, 0.0, 0.0, 0.0, 0.0, 0.0, 1.6444980880149248E9, 0.0, 2022-02-11 00:01:28.014
114.0, -11685.000262856516, -13768.33930830232, -9818.361379904913, -16477.37073628554, -2697.7214452888306, -2938.7850092393173, -4310.131586805772, -6008.99827587584, -20156.266707928982, -16905.5407530714, -24448.02516079249, -14688.985310671964, -8887.657092530382, -13182.120106472983, -8992.844401937056, -10948.398524331871, 0.012, -0.022, 0.986, 192.0, 0.0, 0.0, 0.0, 0.0, 0.0, 0.0, 0.0, 0.0, 0.0, 1.6444980880149317E9, 0.0, 2022-02-11 00:01:28.014
116.0, -11692.331635037855, -13773.949596160603, -9824.284592185568, -16484.098611366586, -2702.504718602266, -2939.567320295253, -4320.905127633229, -6017.71545621341, -20157.47370212957, -16904.15494491517, -24437.855117065326, -14670.18749358505, -8879.23048487073, -13163.501103341712, -8987.435279778872, -10946.74449524218, 0.012, -0.018000000000000002, 0.992, 192.0, 0.0, 48.0, 127.5, 56.0, 15.5, 0.0, 0.0, 0.0, 0.0, 1.6444980880149393E9, 0.0, 2022-02-11 00:01:28.014
118.0, -11690.968178626083, -13774.195465349612, -9825.402179408335, -16486.64671023449, -2696.648561554976, -2929.889014946105, -4304.610705925311, -6013.4686247669015, -20157.83133004085, -16902.88089548122, -24456.965858574615, -14695.959054942019, -8874.13428713492, -13150.17946364635, -8986.20593383383, -10949.158483643352, 0.012, -0.018000000000000002, 0.992, 192.0, 0.0, 0.0, 0.0, 0.0, 0.0, 0.0, 0.0, 0.0, 0.0, 1.6444980880149462E9, 0.0, 2022-02-11 00:01:28.014
120.0, -11671.008070827493, -13746.85928188077, -9815.835632781462, -16482.35517529907, -2686.9479044613727, -2918.5343287628093, -4293.0101505530065, -5993.933200112963, -20152.109283460293, -16873.644813733677, -24440.000884533034, -14696.227275875483, -8871.072098144543, -13175.436934880845, -8975.857076151024, -10944.755189985657, 0.012, -0.018000000000000002, 0.992, 192.0, 0.0, 0.0, 0.0, 0.0, 0.0, 0.0, 0.0, 0.0, 0.0, 1.6444980880149655E9, 0.0, 2022-02-11 00:01:28.014
122.0, -11698.32190255188, -13785.483096299542, -9826.765635820107, -16479.941186897897, -2700.6942273013865, -2928.77142772334, -4300.18506052316, -6002.248049050338, -20152.33280090485, -16902.43386059211, -24447.35460845883, -14688.47122054949, -8870.110973132965, -13161.26592889618, -8976.527628484682, -10938.988439916187, 0.012, -0.018000000000000002, 0.992, 192.0, 0.0, 0.0, 0.0, 0.0, 0.0, 0.0, 0.0, 0.0, 0.0, 1.6444980880149724E9, 0.0, 2022-02-11 00:01:28.014
124.0, -11695.147954839225, -13799.49764007302, -9822.69761832924, -16477.102515352075, -2689.898334729473, -2923.3846573096107, -4300.363874478802, -6002.628028706077, -20157.94308876313, -16919.10826195577, -24449.79094860446, -14675.820133187788, -8881.018624427155, -13154.69451602632, -8982.584951232071, -10939.033143405099, 0.012, -0.018000000000000002, 0.992, 192.0, 0.0, 0.0, 0.0, 0.0, 0.0, 0.0, 0.0, 0.0, 0.0, 1.6444980880149791E9, 0.0, 2022-02-11 00:01:28.014
126.0, -11701.473498520078, -13786.53362828894, -9832.264164956114, -16484.255073577773, -2694.5027940872665, -2935.968689437949, -4293.099557530828, -6004.438520006957, -20169.56599587989, -16911.776889774428, -24451.623791649796, -14682.257435590916, -8880.504534304682, -13160.237748651238, -8979.388651774962, -10938.74257072718, 0.01, -0.02, 0.992, 192.0, 0.0, 40.0, 127.5, 48.0, 15.5, 0.0, 0.0, 0.0, 0.0, 1.644498088014986E9, 0.0, 2022-02-11 00:01:28.014
