%OpenBCI Raw EEG Data
%Number of channels = 16
%Sample Rate = 125 Hz
%Board = OpenBCI_GUI$BoardCytonSerialDaisy
Sample Index, EXG Channel 0, EXG Channel 1, EXG Channel 2, EXG Channel 3, EXG Channel 4, EXG Channel 5, EXG Channel 6, EXG Channel 7, EXG Channel 8, EXG Channel 9, EXG Channel 10, EXG Channel 11, EXG Channel 12, EXG Channel 13, EXG Channel 14, EXG Channel 15, Accel Channel 0, Accel Channel 1, Accel Channel 2, Other, Other, Other, Other, Other, Other, Other, Analog Channel 0, Analog Channel 1, Analog Channel 2, Timestamp, Other, Timestamp (Formatted)
0.0, -11718.214955117102, -13823.995151996036, -10051.288908873667, -16844.43108373059, -2514.7277134332317, -2705.3657418925454, -4260.89069377073, -6017.424883535491, 0.0, 0.0, 0.0, 0.0, 0.0, 0.0, 0.0, 0.0, 0.0, 0.0, 0.0, 192.0, 0.0, 0.0, 0.0, 0.0, 0.0, 0.0, 0.0, 0.0, 0.0, 1.6444981196193748E9, 0.0, 2022-02-11 00:01:59.619
162.0, -11724.786367986962, -13813.534535590952, -10056.340403120566, -16852.768284412417, -2515.7335419337205, -2695.7544917767636, -4268.669100841177, -6027.684334240477, -20505.691528998796, -17724.911001314045, -24561.929650536735, -14776.335928003304, -8680.702290618694, -13103.576076457033, -9110.861612661078, -11264.89922581902, 0.0, 0.0, 0.0, 192.0, 0.0, 0.0, 0.0, 0.0, 0.0, 0.0, 0.0, 0.0, 0.0, 1.6444981196193876E9, 0.0, 2022-02-11 00:01:59.619
164.0, -11717.544402783442, -13822.564640350896, -10053.009993196725, -16848.677915177097, -2513.967754121751, -2693.5640208201435, -4266.2998159289145, -6018.318953313703, -20498.561322517555, -17708.460117394938, -24573.507854164585, -14788.204704309072, -8690.447651201208, -13095.127117052927, -9114.147319096008, -11267.290862475737, 0.0, 0.0, 0.0, 192.0, 0.0, 0.0, 0.0, 0.0, 0.0, 0.0, 0.0, 0.0, 0.0, 1.6444981196193943E9, 0.0, 2022-02-11 00:01:59.619
166.0, -11714.392806815244, -13834.299306189932, -10054.75342926424, -16844.09580756376, -2515.286507044614, -2698.6602185559536, -4267.640920596233, -6021.314087070714, -20493.86745618194, -17713.243390708376, -24553.748912066094, -14766.031773809407, -8689.91120933428, -13106.750024169687, -9107.888830648522, -11264.653356630011, 0.0, 0.0, 0.0, 192.0, 0.0, 0.0, 0.0, 0.0, 0.0, 0.0, 0.0, 0.0, 0.0, 1.6444981196194015E9, 0.0, 2022-02-11 00:01:59.619
168.0, -11733.928231469183, -13836.266259701999, -10062.353022379044, -16846.688609920577, -2531.8938531749077, -2713.881756530018, -4285.634074882755, -6033.160511632027, -20503.81398246455, -17734.723417129924, -24565.32711569394, -14776.380631492215, -8693.57689542495, -13109.991027115706, -9118.99764764281, -11272.722336378376, 0.0, 0.0, 0.0, 192.0, 0.0, 0.0, 0.0, 0.0, 0.0, 0.0, 0.0, 0.0, 0.0, 1.644498119619408E9, 0.0, 2022-02-11 00:01:59.619
170.0, -11717.790271972452, -13825.895050274738, -10054.686374030875, -16845.682781420088, -2516.4487977562903, -2697.319113888635, -4257.962615247085, -6017.33547655767, -20499.88007544042, -17724.486318169395, -24570.11038900738, -14777.431163481613, -8691.0511483015, -13103.799593901587, -9119.75760695429, -11268.162580509494, 0.006, -0.03, 0.994, 192.0, 0.0, 24.0, 127.5, 8.0, 15.5, 8.0, 0.0, 0.0, 0.0, 1.6444981196194148E9, 0.0, 2022-02-11 00:01:59.619
172.0, -11719.17608012868, -13822.184660695155, -10055.848664742549, -16847.850900632253, -2527.4011525393908, -2703.510547102755, -4272.603007865311, -6027.840796451664, -20498.91895042884, -17719.524230900315, -24559.448606902195, -14772.625538423723, -8689.486526189628, -13101.96675085625, -9111.845089417111, -11265.882702575052, 0.006, -0.03, 0.994, 192.0, 0.0, 0.0, 0.0, 0.0, 0.0, 0.0, 0.0, 0.0, 0.0, 1.6444981196194215E9, 0.0, 2022-02-11 00:01:59.619
174.0, -11711.621190502787, -13815.099157702824, -10057.815618254617, -16841.301839506847, -2527.1105798614717, -2697.229706910814, -4280.426118424669, -6020.084741125673, -20497.711956228253, -17715.97030353192, -24570.28920296302, -14772.35731749026, -8684.43503194273, -13100.469183977746, -9115.935458652433, -11267.849656087119, 0.006, -0.03, 0.994, 192.0, 0.0, 0.0, 0.0, 0.0, 0.0, 0.0, 0.0, 0.0, 0.0, 1.6444981196194286E9, 0.0, 2022-02-11 00:01:59.619
176.0, -11712.001170158526, -13817.513146103996, -10049.053734428137, -16843.961697097027, -2517.812254168064, -2692.9828754643054, -4249.938338987629, -6009.601772976133, -20492.68281372581, -17703.945065014967, -24553.637153343818, -14767.864616854742, -8701.087081561933, -13088.73451813871, -9109.676970204946, -11260.94296705043, 0.006, -0.03, 0.994, 192.0, 0.0, 0.0, 0.0, 0.0, 0.0, 0.0, 0.0, 0.0, 0.0, 1.6444981196194355E9, 0.0, 2022-02-11 00:01:59.619
178.0, -11729.189661644657, -13818.966009493592, -10053.613490297019, -16845.48161571999, -2524.4730740157456, -2707.7573785492636, -4270.568999119878, -6025.158587117027, -20497.82371495053, -17714.36097793114, -24559.82858655794, -14764.578910419812, -8690.559409923484, -13098.68104442132, -9106.771243425757, -11264.787467096743, 0.006, -0.03, 0.994, 192.0, 0.0, 0.0, 0.0, 0.0, 0.0, 0.0, 0.0, 0.0, 0.0, 1.6444981196194425E9, 0.0, 2022-02-11 00:01:59.619
180.0, -11714.146937626236, -13820.754149050015, -10041.990583180259, -16841.212432529024, -2514.951230877785, -2701.4988901017773, -4252.017051221973, -6017.201366090938, -20498.695432984285, -17710.762347073836, -24567.29406920601, -14771.552654689867, -8688.145421522311, -13099.910390366364, -9109.47580450485, -11264.407487441003, 0.01, -0.026000000000000002, 0.99, 192.0, 0.0, 40.0, 127.5, 24.0, 15.0, 120.0, 0.0, 0.0, 0.0, 1.6444981196194491E9, 0.0, 2022-02-11 00:01:59.619
182.0, -11720.070149906893, -13823.101082217823, -10049.791341995162, -16842.553537196345, -2529.5022165181895, -2707.8467855270846, -4270.8819235422525, -6015.882613168074, -20504.730403987218, -17722.161736746042, -24557.705170834684, -14759.616823150734, -8684.122107520356, -13104.671311935344, -9105.318380036162, -11263.08873451814, 0.01, -0.026000000000000002, 0.99, 192.0, 0.0, 0.0, 0.0, 0.0, 0.0, 0.0, 0.0, 0.0, 0.0, 1.6444981196194563E9, 0.0, 2022-02-11 00:01:59.619
184.0, -11720.494833051544, -13815.725006547573, -10049.389010594967, -16842.709999407532, -2533.480827031234, -2703.9799337363165, -4272.312435187392, -6020.420017292502, -20503.031671408615, -17729.023722293823, -24574.37957219834, -14772.089096556796, -8692.392252968819, -13106.347692769492, -9117.880060420044, -11263.5581211517, 0.01, -0.026000000000000002, 0.99, 192.0, 0.0, 0.0, 0.0, 0.0, 0.0, 0.0, 0.0, 0.0, 0.0, 1.6444981196194637E9, 0.0, 2022-02-11 00:01:59.619
186.0, -11706.167364855692, -13808.415986110687, -10037.386123822465, -16843.112330807726, -2518.3710477794466, -2697.654390055465, -4263.8411240388305, -6010.831118921175, -20498.80719170656, -17712.528134885804, -24567.271717461554, -14769.652756411168, -8693.800412869503, -13101.609122944967, -9111.465109761371, -11258.976013538362, 0.01, -0.026000000000000002, 0.99, 192.0, 0.0, 0.0, 0.0, 0.0, 0.0, 0.0, 0.0, 0.0, 0.0, 1.6444981196194708E9, 0.0, 2022-02-11 00:01:59.619
188.0, -11737.303344881933, -13830.20893695461, -10049.366658850511, -16847.783845398884, -2526.663544972366, -2710.2160704393473, -4275.2852171999475, -6030.81357846422, -20504.305720842567, -17725.246277480874, -24567.048200017, -14776.201817536572, -8696.303808248498, -13107.442928247801, -9110.638095216525, -11264.94392930793, 0.01, -0.026000000000000002, 0.99, 192.0, 0.0, 0.0, 0.0, 0.0, 0.0, 0.0, 0.0, 0.0, 0.0, 1.6444981196194775E9, 0.0, 2022-02-11 00:01:59.619
190.0, -11718.259658606012, -13813.869811757782, -10042.437618069365, -16847.247403531957, -2517.432274512324, -2693.407558608956, -4261.158914704194, -6009.937049142963, -20497.689604483796, -17717.445518665972, -24565.260060460576, -14783.600244951278, -8689.419470956263, -13092.35550074047, -9109.56521148267, -11265.346260708126, 0.01, -0.024, 0.992, 192.0, 0.0, 40.0, 127.5, 32.0, 15.5, 0.0, 0.0, 0.0, 0.0, 1.6444981196194847E9, 0.0, 2022-02-11 00:01:59.619
192.0, -11720.427777818177, -13815.099157702824, -10050.975984451294, -16848.32028726581, -2535.157207865382, -2704.784596536708, -4285.298798715925, -6023.14693011605, -20505.937398187805, -17722.899344313068, -24558.3980749128, -14774.59249193579, -8691.587590168429, -13099.575114199533, -9106.078339347641, -11263.602824640611, 0.01, -0.024, 0.992, 192.0, 0.0, 0.0, 0.0, 0.0, 0.0, 0.0, 0.0, 0.0, 0.0, 1.6444981196194992E9, 0.0, 2022-02-11 00:01:59.619
194.0, -11723.154690641724, -13813.467480357585, -10049.94780420635, -16841.279487762393, -2539.8287224565415, -2713.3453146630904, -4288.89742957323, -6031.90881394253, -20500.215351607247, -17722.206440234953, -24573.239633231122, -14772.469076212536, -8689.1512500228, -13101.944399111797, -9112.359179539584, -11268.542560165235, 0.01, -0.024, 0.992, 192.0, 0.0, 0.0, 0.0, 0.0, 0.0, 0.0, 0.0, 0.0, 0.0, 1.644498119619518E9, 0.0, 2022-02-11 00:01:59.619
196.0, -11720.539536540455, -13815.076805958368, -10044.449275070343, -16843.961697097027, -2529.949251407296, -2704.382265136512, -4271.463068898091, -6029.226604607893, -20502.91991268634, -17719.099547755664, -24568.05402851749, -14772.5361314459, -8695.186221025733, -13110.63922770491, -9110.235763816328, -11270.241292743838, 0.01, -0.024, 0.992, 192.0, 0.0, 0.0, 0.0, 0.0, 0.0, 0.0, 0.0, 0.0, 0.0, 1.6444981196195247E9, 0.0, 2022-02-11 00:01:59.619
198.0, -11741.08078969488, -13826.766768308493, -10056.22864439829, -16848.56615645482, -2537.079457888539, -2709.8807942725175, -4280.292007957936, -6031.90881394253, -20508.10551739997, -17729.873088583125, -24572.502025664096, -14779.599282693778, -8693.666302402771, -13110.616875960455, -9108.917010893467, -11268.94489156543, 0.01, -0.024, 0.992, 192.0, 0.0, 0.0, 0.0, 0.0, 0.0, 0.0, 0.0, 0.0, 0.0, 1.6444981196195316E9, 0.0, 2022-02-11 00:01:59.619
200.0, -11728.474405822088, -13828.77842530947, -10053.077048430092, -16848.275583776904, -2526.752951950187, -2691.5747155636213, -4262.0753362268615, -6015.882613168074, -20509.33486334501, -17731.281248483807, -24579.67693563425, -14785.768364163443, -8697.823726871458, -13097.675215920832, -9111.554516739192, -11266.843827586632, 0.012, -0.028, 0.99, 192.0, 0.0, 48.0, 127.5, 16.0, 15.0, 120.0, 0.0, 0.0, 0.0, 1.6444981196195385E9, 0.0, 2022-02-11 00:01:59.619
202.0, -11727.736798255062, -13824.173965951679, -10054.909891475427, -16847.80619714334, -2527.937594406318, -2695.4862708432997, -4265.964539762084, -6019.257726580826, -20509.938360445307, -17726.22975423691, -24568.791636084516, -14788.584683964811, -8698.58368618294, -13093.271922263137, -9105.921877136454, -11262.149961251016, 0.012, -0.028, 0.99, 192.0, 0.0, 0.0, 0.0, 0.0, 0.0, 0.0, 0.0, 0.0, 0.0, 1.6444981196195452E9, 0.0, 2022-02-11 00:01:59.619
204.0, -11727.915612210705, -13832.734684078061, -10047.08678091607, -16836.6750284046, -2525.7694751941535, -2702.6164773245428, -4263.08116472735, -6032.557014531733, -20505.333901087513, -17732.532946173305, -24577.10648502189, -14783.175561806627, -8693.755709380594, -13106.235934047216, -9109.520507993759, -11262.954624051408, 0.012, -0.028, 0.99, 192.0, 0.0, 0.0, 0.0, 0.0, 0.0, 0.0, 0.0, 0.0, 0.0, 1.6444981196195524E9, 0.0, 2022-02-11 00:01:59.619
206.0, -11716.918553938694, -13809.578276822362, -10039.08485640107, -16834.305743492336, -2517.946364634796, -2689.7195207738305, -4272.871228798775, -6011.434616021468, -20500.125944629424, -17721.08885301219, -24561.572022625453, -14766.545863931879, -8688.346587222408, -13100.960922355764, -9103.351426524094, -11257.143170493027, 0.012, -0.028, 0.99, 192.0, 0.0, 0.0, 0.0, 0.0, 0.0, 0.0, 0.0, 0.0, 0.0, 1.6444981196195593E9, 0.0, 2022-02-11 00:01:59.619
208.0, -11743.360667629322, -13821.536460105952, -10054.529911819687, -16842.24061277397, -2533.3020130755917, -2701.3647796350456, -4275.665196855688, -6022.2752120822925, -20505.356252831967, -17722.69817861297, -24568.05402851749, -14771.373840734226, -8680.523476663051, -13094.836544375008, -9105.586600969626, -11256.405562926002, 0.012, -0.028, 0.99, 192.0, 0.0, 0.0, 0.0, 0.0, 0.0, 0.0, 0.0, 0.0, 0.0, 1.644498119619566E9, 0.0, 2022-02-11 00:01:59.619
210.0, -11723.959353442116, -13813.042797212935, -10047.198539638346, -16839.401941228145, -2520.9638501362624, -2703.6223058250316, -4258.901388514208, -6024.6221452500995, -20502.71874698624, -17715.456213409452, -24568.456359917684, -14778.168771048639, -8690.358244223386, -13099.485707221713, -9111.889792906022, -11261.32294670617, 0.012, -0.028, 0.994, 192.0, 0.0, 48.0, 127.5, 16.0, 15.5, 8.0, 0.0, 0.0, 0.0, 1.6444981196195724E9, 0.0, 2022-02-11 00:01:59.619
212.0, -11727.647391277242, -13825.06803572989, -10051.46772282931, -16838.686685405577, -2525.7918269386087, -2698.481404600311, -4264.377565905758, -6013.2898108112595, -20500.952959174272, -17723.41343443554, -24555.53705162252, -14766.903491843164, -8683.853886586892, -13113.366140528458, -9107.978237626343, -11257.098467004118, 0.012, -0.028, 0.994, 192.0, 0.0, 0.0, 0.0, 0.0, 0.0, 0.0, 0.0, 0.0, 0.0, 1.6444981196195796E9, 0.0, 2022-02-11 00:01:59.619
214.0, -11728.429702333176, -13821.894088017236, -10058.173246165901, -16841.212432529024, -2530.932728163329, -2693.9440004758835, -4270.189019464137, -6011.926354399486, -20504.4398313093, -17726.632085637106, -24573.686668120226, -14778.325233259826, -8685.843191843414, -13090.097974550483, -9114.080263862643, -11255.153865236505, 0.012, -0.028, 0.994, 192.0, 0.0, 0.0, 0.0, 0.0, 0.0, 0.0, 0.0, 0.0, 0.0, 1.6444981196195867E9, 0.0, 2022-02-11 00:01:59.619
216.0, -11706.480289278066, -13802.44807034112, -10045.365696593011, -16841.592412184764, -2514.168919821849, -2687.2384771392917, -4261.829467037853, -6014.80972943422, -20501.221180107736, -17716.998483776868, -24562.600202870395, -14777.49821871498, -8689.486526189628, -13096.512925209157, -9109.788728927222, -11252.449304157413, 0.012, -0.028, 0.994, 192.0, 0.0, 0.0, 0.0, 0.0, 0.0, 0.0, 0.0, 0.0, 0.0, 1.6444981196195934E9, 0.0, 2022-02-11 00:01:59.619
218.0, -11723.93700169766, -13802.179849407656, -10057.122714176503, -16844.60989768623, -2523.333135048525, -2697.632038311009, -4272.066565998383, -6011.568726488201, -20498.516619028644, -17723.569896646728, -24566.847034316903, -14769.183369777606, -8671.046337014, -13105.610085202467, -9103.127909079541, -11255.667955358978, 0.012, -0.028, 0.994, 192.0, 0.0, 0.0, 0.0, 0.0, 0.0, 0.0, 0.0, 0.0, 0.0, 1.6444981196196E9, 0.0, 2022-02-11 00:01:59.619
220.0, -11720.472481307088, -13794.982587693046, -10050.908929217927, -16839.46899646151, -2517.074646601039, -2685.003302693761, -4273.742946832532, -6019.235374836371, -20494.15802885986, -17711.164678474033, -24565.796502327503, -14777.431163481613, -8678.645930128805, -13095.551800197578, -9107.352388781594, -11252.315193690682, 0.008, -0.032, 0.988, 192.0, 0.0, 32.0, 127.5, 0.0, 15.0, 112.0, 0.0, 0.0, 0.0, 1.6444981196196067E9, 0.0, 2022-02-11 00:01:59.619
222.0, -11730.37430410079, -13831.237117199555, -10057.525045576698, -16842.66529591862, -2523.646059470899, -2693.8322417536074, -4265.338690917336, -6001.756310672321, -20503.121078386437, -17711.63406510759, -24558.465130146164, -14765.383573220202, -8677.975377795146, -13096.043538575595, -9101.920914878954, -11253.544539635723, 0.008, -0.032, 0.988, 192.0, 0.0, 0.0, 0.0, 0.0, 0.0, 0.0, 0.0, 0.0, 0.0, 1.644498119619614E9, 0.0, 2022-02-11 00:01:59.619
224.0, -11734.062341935914, -13831.997076511036, -10064.208217168834, -16846.08511282028, -2532.2514810861926, -2697.900259244473, -4287.80219409492, -6009.020627620295, -20510.050119167583, -17726.587382148195, -24581.263909490575, -14773.609015179756, -8675.114354504867, -13092.757832140665, -9109.051121360199, -11256.696135603921, 0.008, -0.032, 0.988, 192.0, 0.0, 0.0, 0.0, 0.0, 0.0, 0.0, 0.0, 0.0, 0.0, 1.6444981196196227E9, 0.0, 2022-02-11 00:01:59.619
226.0, -11716.136242882758, -13817.73666354855, -10061.526007834198, -16849.348467510757, -2528.1164083619606, -2694.1898696648923, -4276.581618378355, -6014.206232333927, -20509.603084278475, -17720.910039056544, -24572.14439775281, -14773.094925057285, -8684.926770320746, -13102.480840978724, -9113.007380128787, -11258.014888526784, 0.008, -0.032, 0.988, 192.0, 0.0, 0.0, 0.0, 0.0, 0.0, 0.0, 0.0, 0.0, 0.0, 1.6444981196196303E9, 0.0, 2022-02-11 00:01:59.619
228.0, -11729.74845525604, -13824.442186885142, -10075.4287928854, -16853.975278613005, -2542.332117835536, -2713.993515252294, -4285.499964416023, -6036.870901211608, -20511.905313957373, -17731.057731039255, -24580.52630192355, -14776.87236987023, -8697.220229771165, -13124.229088333737, -9116.874231919555, -11264.362783952092, 0.008, -0.032, 0.988, 192.0, 0.0, 0.0, 0.0, 0.0, 0.0, 0.0, 0.0, 0.0, 0.0, 1.644498119619637E9, 0.0, 2022-02-11 00:01:59.619
230.0, -11737.973897215594, -13827.392617153242, -10062.934167734882, -16849.795502399862, -2531.0444868856057, -2701.5882970795988, -4285.701130116121, -6020.196499847949, -20511.994720935192, -17737.56208867575, -24581.979165313147, -14783.153210062172, -8683.540962164518, -13113.544954484101, -9117.455377275393, -11261.61351938409, 0.012, -0.024, 0.982, 192.0, 0.0, 48.0, 127.5, 32.0, 15.0, 88.0, 0.0, 0.0, 0.0, 1.6444981196196437E9, 0.0, 2022-02-11 00:01:59.619
232.0, -11735.694019281153, -13821.78232929496, -10062.531836334687, -16854.66818269112, -2532.720867719754, -2708.58439309411, -4289.702092373621, -6035.865072711119, -20516.196848892792, -17730.275419983318, -24569.10456050689, -14774.279567513415, -8695.990883826124, -13115.511907996168, -9114.437891773927, -11263.736935107343, 0.012, -0.024, 0.982, 192.0, 0.0, 0.0, 0.0, 0.0, 0.0, 0.0, 0.0, 0.0, 0.0, 1.6444981196196504E9, 0.0, 2022-02-11 00:01:59.619
234.0, -11728.899088966738, -13818.250753671022, -10061.66011830093, -16855.830473402795, -2535.805408454586, -2709.545518105688, -4294.261848242503, -6036.781494233786, -20512.262941868656, -17721.69235011248, -24584.035525803036, -14785.947178119086, -8678.422412684253, -13113.50025099519, -9116.293086563717, -11270.46481018839, 0.012, -0.024, 0.982, 192.0, 0.0, 0.0, 0.0, 0.0, 0.0, 0.0, 0.0, 0.0, 0.0, 1.6444981196196568E9, 0.0, 2022-02-11 00:01:59.619
236.0, -11709.922457924184, -13810.07001520038, -10050.283080373178, -16854.71288618003, -2520.852091413986, -2701.834166268607, -4265.606911850799, -6013.602735233633, -20495.923816671828, -17725.514498414337, -24565.014191271566, -14781.186256550105, -8680.657587129783, -13099.68687292181, -9110.146356838508, -11263.13343800705, 0.012, -0.024, 0.982, 192.0, 0.0, 0.0, 0.0, 0.0, 0.0, 0.0, 0.0, 0.0, 0.0, 1.6444981196196637E9, 0.0, 2022-02-11 00:01:59.619
238.0, -11742.958336229127, -13826.342085163842, -10073.03715622868, -16859.742028682474, -2544.164960880871, -2710.707808817364, -4278.392109679236, -6032.7805319762865, -20506.831467966018, -17729.917792072036, -24572.658487875284, -14778.906378615664, -8684.591494153916, -13093.182515285316, -9108.46997600436, -11262.798161840221, 0.009000000000000001, -0.024, 0.983, 192.0, 0.0, 24.0, 127.5, 32.0, 15.0, 96.0, 0.0, 0.0, 0.0, 1.644498119619672E9, 0.0, 2022-02-11 00:01:59.619
240.0, -11725.769844742996, -13810.204125667111, -10060.989565967271, -16846.91212736513, -2533.749047964698, -2702.1470906909813, -4274.480554399557, -6022.8563574381305, -20522.276523384637, -17727.83907983769, -24585.354278725896, -14777.632329181712, -8691.922866335257, -13114.148451584393, -9118.32709530915, -11265.927406063964, 0.009000000000000001, -0.024, 0.983, 192.0, 0.0, 0.0, 0.0, 0.0, 0.0, 0.0, 0.0, 0.0, 0.0, 1.6444981196196797E9, 0.0, 2022-02-11 00:01:59.619
242.0, -11738.46563559361, -13809.69003554464, -10061.727173534295, -16855.629307702697, -2538.845245700508, -2701.521241846233, -4285.946999305129, -6026.47734003989, -20520.667197783852, -17724.329855958207, -24570.065685518468, -14769.764515133444, -8683.183334253232, -13109.454585248779, -9113.029731873243, -11263.155789751505, 0.009000000000000001, -0.024, 0.983, 192.0, 0.0, 0.0, 0.0, 0.0, 0.0, 0.0, 0.0, 0.0, 0.0, 1.6444981196196866E9, 0.0, 2022-02-11 00:01:59.619
244.0, -11737.99624896005, -13801.419890096175, -10067.13629569248, -16853.86351989073, -2539.8510742009967, -2699.1743086784254, -4283.220086481582, -6019.704761469932, -20517.672064026843, -17718.741919844382, -24586.225996759655, -14787.422393253137, -8681.015215041067, -13108.44875674829, -9116.002513885798, -11265.346260708126, 0.009000000000000001, -0.024, 0.983, 192.0, 0.0, 0.0, 0.0, 0.0, 0.0, 0.0, 0.0, 0.0, 0.0, 1.6444981196196933E9, 0.0, 2022-02-11 00:01:59.619
246.0, -11720.919516196194, -13822.139957206246, -10060.743696778261, -16849.706095422043, -2535.067800887561, -2691.9770469638165, -4278.2803509569585, -6018.922450413997, -20514.05108142508, -17727.79437634878, -24576.68180187724, -14773.49725645748, -8687.743090122114, -13100.11155606646, -9113.029731873243, -11256.98670828184, 0.009000000000000001, -0.024, 0.983, 192.0, 0.0, 0.0, 0.0, 0.0, 0.0, 0.0, 0.0, 0.0, 0.0, 1.6444981196197011E9, 0.0, 2022-02-11 00:01:59.619
248.0, -11740.186719916668, -13827.59378285334, -10073.70770856234, -16857.171578070116, -2554.26794937467, -2700.6271720680206, -4297.27933374397, -6030.031267408284, -20517.91793321585, -17731.37065546163, -24578.849921089404, -14782.370899006237, -8682.088098774922, -13101.07268107804, -9118.461205775882, -11262.619347884578, 0.0055000000000000005, -0.027, 0.9855, 192.0, 0.0, 8.0, 127.5, 8.0, 15.0, 112.0, 0.0, 0.0, 0.0, 1.644498119619708E9, 0.0, 2022-02-11 00:01:59.619
250.0, -11732.676533779686, -13819.815375782893, -10065.772839280706, -16856.09869433626, -2541.7062689907875, -2692.5581923196546, -4285.455260927112, -6021.470549281901, -20516.95680820427, -17723.458137924452, -24583.163807769277, -14784.628425196222, -8687.832497099937, -13087.795744871586, -9120.964601154876, -11261.680574617456, 0.0055000000000000005, -0.027, 0.9855, 192.0, 0.0, 0.0, 0.0, 0.0, 0.0, 0.0, 0.0, 0.0, 0.0, 1.6444981196197147E9, 0.0, 2022-02-11 00:01:59.619
252.0, -11742.84657750685, -13822.11760546179, -10068.544455593164, -16859.183235071094, -2544.0755539030497, -2698.1684801779365, -4283.287141714948, -6023.057523138228, -20522.097709428992, -17735.8857078416, -24577.66527863327, -14776.15711404766, -8683.026872042044, -13107.778204414632, -9109.922839393956, -11258.32781294916, 0.0055000000000000005, -0.027, 0.9855, 192.0, 0.0, 0.0, 0.0, 0.0, 0.0, 0.0, 0.0, 0.0, 0.0, 1.644498119619722E9, 0.0, 2022-02-11 00:01:59.619
254.0, -11745.439379863667, -13821.223535683577, -10072.970100995315, -16856.18810131408, -2547.204798126793, -2704.136395947504, -4279.912028302197, -6031.305316842237, -20519.72842451673, -17738.076178798223, -24595.97135734217, -14787.176524064127, -8693.465136702674, -13111.488593994212, -9114.057912118187, -11258.640737371534, 0.0055000000000000005, -0.027, 0.9855, 192.0, 0.0, 0.0, 0.0, 0.0, 0.0, 0.0, 0.0, 0.0, 0.0, 1.6444981196197288E9, 0.0, 2022-02-11 00:01:59.619
0.0, -11723.199394130635, -13808.572448321875, -10059.13437117748, -16853.751761168453, -2531.536225263623, -2699.353122634068, -4289.657388884711, -6029.561880774722, -20510.094822656494, -17730.163661261042, -24579.67693563425, -14776.537093703402, -8695.074462303455, -13108.02407360364, -9111.75568243929, -11257.724315848865, 0.0055000000000000005, -0.027, 0.9855, 192.0, 0.0, 0.0, 0.0, 0.0, 0.0, 0.0, 0.0, 0.0, 0.0, 1.6444981196197371E9, 0.0, 2022-02-11 00:01:59.619
2.0, -11745.126455441292, -13810.293532644931, -10069.237359671279, -16859.585566471287, -2545.237844614726, -2710.126663461526, -4300.386226223258, -6039.553110546245, -20517.761471004662, -17729.31429497174, -24581.934461824236, -14782.169733306138, -8684.502087176095, -13107.934666625819, -9115.399016785505, -11262.529940906757, 0.004750000000000001, -0.026500000000000003, 0.98675, 192.0, 0.0, 16.0, 127.5, 24.0, 15.0, 112.0, 0.0, 0.0, 0.0, 1.644498119619746E9, 0.0, 2022-02-11 00:01:59.619
4.0, -11726.88743196576, -13811.455823356608, -10058.195597910357, -16856.903357136653, -2534.1513793648937, -2697.632038311009, -4277.743909090032, -6019.257726580826, -20511.748851746186, -17715.07623375371, -24579.833397845436, -14768.177541277117, -8684.47973543164, -13103.106689823473, -9116.516604008271, -11258.171350737972, 0.004750000000000001, -0.026500000000000003, 0.98675, 192.0, 0.0, 0.0, 0.0, 0.0, 0.0, 0.0, 0.0, 0.0, 0.0, 1.644498119619753E9, 0.0, 2022-02-11 00:01:59.619
6.0, -11718.259658606012, -13813.735701291049, -10062.509484590231, -16865.262909562935, -2541.996841668706, -2708.293820416191, -4295.0665110428945, -6041.005973935839, -20514.364005847456, -17722.094681512677, -24568.545766895506, -14773.139628546194, -8683.742127864614, -13102.078509578529, -9115.33196155214, -11264.251025229816, 0.004750000000000001, -0.026500000000000003, 0.98675, 192.0, 0.0, 0.0, 0.0, 0.0, 0.0, 0.0, 0.0, 0.0, 0.0, 1.6444981196197743E9, 0.0, 2022-02-11 00:01:59.619
8.0, -11714.661027748709, -13807.141936676733, -10065.795191025161, -16860.256118804948, -2550.445801072812, -2719.6261548550315, -4295.334731976358, -6048.963194961929, -20512.48645931321, -17736.153928775064, -24582.984993813636, -14787.02006185294, -8683.250389486599, -13113.388492272914, -9122.70803722239, -11273.012909056295, 0.004750000000000001, -0.026500000000000003, 0.98675, 192.0, 0.0, 0.0, 0.0, 0.0, 0.0, 0.0, 0.0, 0.0, 0.0, 1.6444981196197815E9, 0.0, 2022-02-11 00:01:59.619
10.0, -11728.295591866445, -13804.63854129774, -10058.776743266195, -16863.363011284233, -2549.909359205885, -2710.4395878839005, -4292.093729030339, -6037.094418656161, -20508.53020054462, -17729.001370549366, -24570.825644829947, -14775.486561714002, -8697.086119304433, -13106.571210214044, -9123.222127344863, -11274.219903256882, 0.004750000000000001, -0.026500000000000003, 0.98675, 192.0, 0.0, 0.0, 0.0, 0.0, 0.0, 0.0, 0.0, 0.0, 0.0, 1.6444981196197884E9, 0.0, 2022-02-11 00:01:59.619
12.0, -11741.661935050719, -13811.366416378787, -10066.577502081098, -16853.23767104598, -2554.558522052589, -2712.674762329431, -4301.950848335129, -6040.022497179806, -20519.996645450192, -17728.733149615902, -24575.00542104309, -14779.822800138332, -8695.432090214741, -13107.934666625819, -9125.971391912864, -11271.582397411155, 0.004375, -0.02325, 0.986375, 192.0, 0.0, 16.0, 127.5, 48.0, 15.0, 104.0, 0.0, 0.0, 0.0, 1.644498119619795E9, 0.0, 2022-02-11 00:01:59.619
14.0, -11722.506490052521, -13803.900933730714, -10056.675679287397, -16851.695400678564, -2537.2359200997257, -2705.030465725716, -4285.365853949292, -6045.252805382348, -20514.05108142508, -17725.492146669883, -24577.754685611093, -14781.812105394854, -8688.503049433595, -13100.960922355764, -9124.47382503436, -11269.570740410178, 0.004375, -0.02325, 0.986375, 192.0, 0.0, 0.0, 0.0, 0.0, 0.0, 0.0, 0.0, 0.0, 0.0, 1.6444981196198037E9, 0.0, 2022-02-11 00:01:59.619
16.0, -11723.646429019742, -13811.656989056706, -10061.101324689547, -16856.34456352527, -2542.8015044690974, -2711.557175106666, -4290.082072029361, -6032.534662787279, -20518.1414506604, -17726.922658315023, -24566.53410989453, -14769.451590711069, -8695.320331492465, -13099.664521177356, -9119.645848232014, -11269.28016773226, 0.004375, -0.02325, 0.986375, 192.0, 0.0, 0.0, 0.0, 0.0, 0.0, 0.0, 0.0, 0.0, 0.0, 1.6444981196198106E9, 0.0, 2022-02-11 00:01:59.619
18.0, -11727.334466854867, -13806.672550043173, -10067.538627092676, -16854.355258268744, -2547.36126033798, -2710.1490152059814, -4287.578676650367, -6035.328630844192, -20516.196848892792, -17732.063559539743, -24583.744953125115, -14781.543884461391, -8687.608979655382, -13102.346730511992, -9120.80813894369, -11269.481333432357, 0.004375, -0.02325, 0.986375, 192.0, 0.0, 0.0, 0.0, 0.0, 0.0, 0.0, 0.0, 0.0, 0.0, 1.644498119619818E9, 0.0, 2022-02-11 00:01:59.619
20.0, -11720.807757473918, -13811.2099541676, -10061.078972945092, -16854.08703733528, -2537.660603244377, -2705.7904250371967, -4292.496060430534, -6034.76983723281, -20513.939322702805, -17724.151042002566, -24571.630307630337, -14767.909320343653, -8688.324235477952, -13097.630512431922, -9117.053045875198, -11266.061516530695, 0.004375, -0.02325, 0.986375, 192.0, 0.0, 0.0, 0.0, 0.0, 0.0, 0.0, 0.0, 0.0, 0.0, 1.644498119619825E9, 0.0, 2022-02-11 00:01:59.619
22.0, -11734.442321591654, -13817.133166448257, -10073.975929495804, -16864.99468862947, -2549.17175163886, -2720.475521144333, -4288.383339450757, -6039.150779146049, -20519.951941961284, -17735.37161771913, -24577.017078044068, -14774.771305891432, -8695.09681404791, -13107.375873014436, -9115.913106907978, -11272.096487533629, 0.0051875, -0.024625, 0.9871875, 192.0, 0.0, 24.0, 127.5, 24.0, 15.0, 112.0, 0.0, 0.0, 0.0, 1.6444981196198325E9, 0.0, 2022-02-11 00:01:59.619
24.0, -11733.347086113345, -13812.394596623732, -10067.650385814952, -16867.453380519557, -2542.0638969020724, -2711.065436728649, -4297.704016888621, -6042.10120941415, -20520.26486638366, -17734.298733985273, -24585.57779617045, -14785.567198463345, -8699.72362515016, -13106.012416602662, -9122.082188377643, -11275.873932346574, 0.0051875, -0.024625, 0.9871875, 192.0, 0.0, 0.0, 0.0, 0.0, 0.0, 0.0, 0.0, 0.0, 0.0, 1.6444981196198394E9, 0.0, 2022-02-11 00:01:59.619
0.0, -5805.776215288189, -6883.845553856559, -4944.7423153808495, -8331.948021882537, -1424.2084532032554, -1536.1906929243437, -2263.628216222312, -3062.36780433271, -10264.703364932939, -8873.642548756903, -12298.354482454597, -7396.482812939026, -4348.956566924639, -6557.755953998084, -4562.4380782172775, -5643.3684400759275, 0.01, -0.024, 0.986, 192.0, 0.0, 40.0, 127.5, 32.0, 15.0, 104.0, 0.0, 0.0, 0.0, 1.644498120215726E9, 0.0, 2022-02-11 00:02:00.215
2.0, -11604.355168861768, -13773.837837438326, -9883.829639414507, -16656.363505883637, -2830.826083520184, -3060.378499076188, -4513.957144493716, -6116.7783876393305, -20305.21873297915, -17815.927304736055, -24358.95345913809, -14515.066387065219, -9278.790268753799, -13670.773943754906, -9069.488533674305, -11019.745292633212, 0.01, -0.024, 0.986, 192.0, 0.0, 0.0, 0.0, 0.0, 0.0, 0.0, 0.0, 0.0, 0.0, 1.64449812021587E9, 0.0, 2022-02-11 00:02:00.215
4.0, -11606.880915985217, -13764.606566978284, -9882.5332382361, -16657.525796595313, -2832.6589265655193, -3065.944083445559, -4514.3594758939125, -6127.775445911342, -20304.97286379014, -17816.46374660298, -24335.662941415663, -14501.945913069954, -9271.257730872361, -13658.346373837754, -9063.297100460184, -11014.47028094176, 0.01, -0.024, 0.986, 192.0, 0.0, 0.0, 0.0, 0.0, 0.0, 0.0, 0.0, 0.0, 0.0, 1.6444981202158775E9, 0.0, 2022-02-11 00:02:00.215
6.0, -11624.53879410491, -13767.713459457573, -9887.808249927552, -16656.609375072643, -2843.3654121596114, -3076.5388103173746, -4520.662667830309, -6138.191358827515, -20309.666730125755, -17826.43262463005, -24355.73480793653, -14516.362788243627, -9279.594931554191, -13658.055801159837, -9068.706222618368, -11022.025170567653, 0.01, -0.024, 0.986, 192.0, 0.0, 0.0, 0.0, 0.0, 0.0, 0.0, 0.0, 0.0, 0.0, 1.6444981202158923E9, 0.0, 2022-02-11 00:02:00.215
8.0, -11612.53590733241, -13764.137180344724, -9883.00262486966, -16652.653116304056, -2833.6200515770975, -3073.141345160168, -4524.909499276817, -6125.383809254624, -20310.4937446706, -17821.29172340533, -24352.87378464625, -14515.669884165512, -9271.972986694931, -13656.401772070143, -9070.583769152614, -11021.153452533896, 0.008, -0.026000000000000002, 0.988, 192.0, 0.0, 32.0, 127.5, 24.0, 15.0, 112.0, 0.0, 0.0, 0.0, 1.6444981202159E9, 0.0, 2022-02-11 00:02:00.215
10.0, -11620.157852191669, -13774.128410116246, -9890.713976706742, -16656.743485539377, -2841.823141792195, -3085.2336389104894, -4543.975537297194, -6150.238949088925, -20317.06515754046, -17818.609514070693, -24349.252802044488, -14515.334607998682, -9269.983681438409, -13662.392039584165, -9072.304853475673, -11023.969772335264, 0.008, -0.026000000000000002, 0.988, 192.0, 0.0, 0.0, 0.0, 0.0, 0.0, 0.0, 0.0, 0.0, 0.0, 1.644498120215907E9, 0.0, 2022-02-11 00:02:00.215
12.0, -11622.594192337297, -13775.469514783565, -9886.914180149339, -16657.43638961749, -2848.1710372175025, -3077.4105283511317, -4532.1514644803365, -6129.988268612417, -20320.775547120043, -17825.51620310738, -24360.987467883526, -14512.808860875233, -9276.64450128609, -13684.676728806107, -9076.350519222084, -11028.149548548407, 0.008, -0.026000000000000002, 0.988, 192.0, 0.0, 0.0, 0.0, 0.0, 0.0, 0.0, 0.0, 0.0, 0.0, 1.6444981202159135E9, 0.0, 2022-02-11 00:02:00.215
14.0, -11621.789529536907, -13777.1011921288, -9884.299026048067, -16664.119561209627, -2844.70651682693, -3075.6447405391623, -4531.2126912132135, -6138.7278006944425, -20318.138041274316, -17826.47732811896, -24345.76592990946, -14504.896343338054, -9266.765030236844, -13668.203493142546, -9068.236835984808, -11025.981429336241, 0.008, -0.026000000000000002, 0.988, 192.0, 0.0, 0.0, 0.0, 0.0, 0.0, 0.0, 0.0, 0.0, 0.0, 1.6444981202159204E9, 0.0, 2022-02-11 00:02:00.215
16.0, -11623.845890026796, -13769.658061225184, -9886.847124915974, -16665.170093199027, -2846.405249405533, -3071.8002404928498, -4534.18547322577, -6134.883300648129, -20320.999064564596, -17827.61726708618, -24358.305258548888, -14521.391930746071, -9279.6396350431, -13660.916824450116, -9074.361213965562, -11029.624763682457, 0.008, -0.025, 0.988, 192.0, 0.0, 32.0, 127.5, 32.0, 15.0, 112.0, 0.0, 0.0, 0.0, 1.6444981202159271E9, 0.0, 2022-02-11 00:02:00.215
18.0, -11592.933427445107, -13747.306316769877, -9881.370947524423, -16658.531625095802, -2828.3226881411897, -3051.8401326942603, -4522.808435298019, -6119.080617318227, -20307.49861091359, -17814.496793090915, -24357.567650981862, -14523.135366813585, -9263.904006946565, -13650.590318511764, -9069.667347629947, -11019.678237399845, 0.008, -0.025, 0.988, 192.0, 0.0, 0.0, 0.0, 0.0, 0.0, 0.0, 0.0, 0.0, 0.0, 1.644498120215934E9, 0.0, 2022-02-11 00:02:00.215
20.0, -11631.758407563973, -13782.219741609068, -9882.890866147383, -16658.10694195115, -2840.794961547251, -3064.7147375005175, -4546.948319309749, -6125.272050532348, -20307.610369635866, -17813.893295990623, -24348.53754622192, -14505.030453804786, -9263.50167554637, -13657.407600570632, -9066.739269106301, -11015.811385609077, 0.008, -0.025, 0.988, 192.0, 0.0, 0.0, 0.0, 0.0, 0.0, 0.0, 0.0, 0.0, 0.0, 1.6444981202159412E9, 0.0, 2022-02-11 00:02:00.215
22.0, -11628.83032904033, -13779.202256107601, -9881.125078335415, -16659.42569487401, -2834.4247143774887, -3065.65351076764, -4528.105798733926, -6130.412951757068, -20318.719186630155, -17825.024464729366, -24355.73480793653, -14512.361825986127, -9268.106134904163, -13649.808007455827, -9072.058984286665, -11021.55578393409, 0.008, -0.025, 0.988, 192.0, 0.0, 0.0, 0.0, 0.0, 0.0, 0.0, 0.0, 0.0, 0.0, 1.6444981202159483E9, 0.0, 2022-02-11 00:02:00.215
24.0, -11620.761349291963, -13772.004994392992, -9881.639168457887, -16656.16234018354, -2833.754162043829, -3068.3580718467324, -4528.642240600853, -6137.654916960588, -20317.06515754046, -17817.91660999258, -24347.777586910437, -14497.408508945528, -9262.384088323604, -13661.632080272686, -9065.666385372448, -11021.46637695627, 0.008, -0.025, 0.988, 192.0, 0.0, 0.0, 0.0, 0.0, 0.0, 0.0, 0.0, 0.0, 0.0, 1.6444981202159557E9, 0.0, 2022-02-11 00:02:00.215
26.0, -11629.903212774183, -13768.048735624401, -9890.088127861993, -16662.756104797852, -2845.4888278828657, -3072.5825515487854, -4546.344822209457, -6133.765713425364, -20317.668654640755, -17824.62213332917, -24358.551127737897, -14509.187878273473, -9264.753373235866, -13666.057725674837, -9070.136734263508, -11027.344885748016, 0.005, -0.0225, 0.988, 192.0, 0.0, 8.0, 127.5, 48.0, 15.0, 112.0, 0.0, 0.0, 0.0, 1.6444981202159631E9, 0.0, 2022-02-11 00:02:00.215
28.0, -11609.518421830944, -13755.10707558478, -9881.147430079869, -16665.281851921303, -2829.1720544304912, -3062.5466182883524, -4529.08927548996, -6127.887204633618, -20311.499573171088, -17813.602723312702, -24350.95153462309, -14510.528982940792, -9265.468629058436, -13659.262795360422, -9078.496286689793, -11027.099016559008, 0.005, -0.0225, 0.988, 192.0, 0.0, 0.0, 0.0, 0.0, 0.0, 0.0, 0.0, 0.0, 0.0, 1.64449812021597E9, 0.0, 2022-02-11 00:02:00.215
30.0, -11611.284209642912, -13762.170226832657, -9886.064813860037, -16666.086514721694, -2842.873673781595, -3077.365824862221, -4533.51492089211, -6136.716143693465, -20309.73378535912, -17809.400595355106, -24346.72705492104, -14512.004198074843, -9265.468629058436, -13657.251138359445, -9073.020109298242, -11026.80844388109, 0.005, -0.0225, 0.988, 192.0, 0.0, 0.0, 0.0, 0.0, 0.0, 0.0, 0.0, 0.0, 0.0, 1.6444981202159767E9, 0.0, 2022-02-11 00:02:00.215
32.0, -11615.799262022885, -13760.270328553956, -9884.634302214898, -16662.242014675383, -2840.593795847153, -3066.4134700791205, -4543.528502408088, -6130.077675590239, -20308.079756269428, -17815.323807635763, -24355.779511425437, -14517.30156151075, -9266.988547681398, -13659.888644205172, -9080.239722757307, -11029.937688104832, 0.005, -0.0225, 0.988, 192.0, 0.0, 0.0, 0.0, 0.0, 0.0, 0.0, 0.0, 0.0, 0.0, 1.6444981202159834E9, 0.0, 2022-02-11 00:02:00.215
34.0, -11619.464948113555, -13760.985584376525, -9882.130906835902, -16661.817331530732, -2842.4042871480333, -3069.3639003472213, -4533.693734847753, -6142.21467282947, -20311.231352237624, -17817.91660999258, -24341.139118807212, -14504.359901471127, -9261.825294712222, -13653.808969713327, -9078.853914601077, -11026.80844388109, 0.005, -0.0225, 0.988, 192.0, 0.0, 0.0, 0.0, 0.0, 0.0, 0.0, 0.0, 0.0, 0.0, 1.6444981202159903E9, 0.0, 2022-02-11 00:02:00.215
36.0, -11626.103416216782, -13770.283910069933, -9891.608046484953, -16667.137046711094, -2855.1671332320134, -3076.8293829952936, -4544.444923930755, -6150.685983978032, -20316.707529629177, -17810.629941300147, -24349.744540422507, -14501.34241596966, -9263.8369517132, -13656.781751725883, -9087.973426338844, -11038.163130064384, 0.0045000000000000005, -0.02425, 0.991, 192.0, 0.0, 16.0, 127.5, 24.0, 15.5, 8.0, 0.0, 0.0, 0.0, 1.6444981202159967E9, 0.0, 2022-02-11 00:02:00.215
38.0, -11607.909096230162, -13762.505502999486, -9884.790764426085, -16663.940747253986, -2844.728868571385, -3060.087926398269, -4533.760790081119, -6139.912443150573, -20315.7464046176, -17819.414176871083, -24353.521985235453, -14511.311293996729, -9275.862190230155, -13655.977088925492, -9088.554571694682, -11035.011534096186, 0.0045000000000000005, -0.02425, 0.991, 192.0, 0.0, 0.0, 0.0, 0.0, 0.0, 0.0, 0.0, 0.0, 0.0, 1.6444981202160056E9, 0.0, 2022-02-11 00:02:00.216
40.0, -11616.067482956349, -13765.925319901147, -9891.473936018221, -16669.506331623357, -2850.2273977073905, -3059.7079467425283, -4530.408028412822, -6124.109759820672, -20314.226485994637, -17817.201354170007, -24343.62016244175, -14504.292846237762, -9269.558998293758, -13644.465940531009, -9080.127964035031, -11027.635458425935, 0.0045000000000000005, -0.02425, 0.991, 192.0, 0.0, 0.0, 0.0, 0.0, 0.0, 0.0, 0.0, 0.0, 0.0, 1.6444981202160125E9, 0.0, 2022-02-11 00:02:00.216
42.0, -11618.079139957326, -13766.43941002362, -9884.410784770345, -16663.001973986862, -2836.659888823019, -3061.697251999051, -4530.586842368465, -6123.618021442655, -20313.82415459444, -17820.218839671474, -24354.460758502577, -14510.05959630723, -9265.043945913785, -13658.838112215772, -9079.770336123745, -11029.691818915822, 0.0045000000000000005, -0.02425, 0.991, 192.0, 0.0, 0.0, 0.0, 0.0, 0.0, 0.0, 0.0, 0.0, 0.0, 1.644498120216019E9, 0.0, 2022-02-11 00:02:00.216
44.0, -11614.368750377746, -13761.969061132559, -9881.728575435707, -16662.040848975284, -2839.856188280128, -3058.0315659083803, -4531.70442959123, -6129.652992445587, -20311.41016619327, -17815.27910414685, -24341.0944153183, -14503.935218326476, -9256.706745231957, -13654.993612169459, -9073.355385465073, -11024.863842113476, 0.0045000000000000005, -0.02425, 0.991, 192.0, 0.0, 0.0, 0.0, 0.0, 0.0, 0.0, 0.0, 0.0, 0.0, 1.6444981202160256E9, 0.0, 2022-02-11 00:02:00.216
46.0, -11629.858509285274, -13770.753296703495, -9892.233895329702, -16671.428581646513, -2849.892121540561, -3057.4504205525427, -4541.047458773549, -6144.203978085992, -20316.17108776225, -17822.38695888364, -24350.97388636755, -14511.847735863656, -9258.740753977389, -13645.829396942783, -9078.295120989695, -11033.402208495405, 0.00425, -0.024125, 0.9915, 192.0, 0.0, 16.0, 127.5, 32.0, 15.5, 0.0, 0.0, 0.0, 0.0, 1.6444981202160325E9, 0.0, 2022-02-11 00:02:00.216
48.0, -11616.492166101, -13768.33930830232, -9887.830601672007, -16671.33917466869, -2841.890197025561, -3054.164714117612, -4536.107723248926, -6139.465408261467, -20313.89120982781, -17819.369473382172, -24349.901002633695, -14513.881744609089, -9255.365640564638, -13640.375571295688, -9077.825734356134, -11035.32445851856, 0.00425, -0.024125, 0.9915, 192.0, 0.0, 0.0, 0.0, 0.0, 0.0, 0.0, 0.0, 0.0, 0.0, 1.6444981202160392E9, 0.0, 2022-02-11 00:02:00.216
50.0, -11626.237526683513, -13769.412192036176, -9890.199886584269, -16672.233244446903, -2850.8755982965945, -3066.0334904233805, -4554.056174046537, -6156.430382303046, -20317.087509284916, -17820.107080949198, -24347.06233108787, -14510.7748521298, -9263.50167554637, -13654.725391235996, -9076.685795388914, -11036.799673652611, 0.00425, -0.024125, 0.9915, 192.0, 0.0, 0.0, 0.0, 0.0, 0.0, 0.0, 0.0, 0.0, 0.0, 1.6444981202160463E9, 0.0, 2022-02-11 00:02:00.216
52.0, -11622.795358037396, -13773.3013955714, -9888.232933072202, -16671.62974734661, -2852.060240752726, -3062.5466182883524, -4555.352575224945, -6149.4119345440795, -20320.194401764205, -17828.913668264588, -24359.668714960662, -14523.984733102887, -9264.172227880028, -13651.640850501162, -9083.346615236595, -11043.035810355641, 0.00425, -0.024125, 0.9915, 192.0, 0.0, 0.0, 0.0, 0.0, 0.0, 0.0, 0.0, 0.0, 0.0, 1.6444981202160532E9, 0.0, 2022-02-11 00:02:00.216
54.0, -11620.58253533632, -13766.417058279165, -9888.81407842804, -16673.328479925214, -2851.5014471413433, -3062.971301433003, -4545.048421031049, -6141.030030373339, -20318.003930807583, -17820.017673971375, -24350.370389267253, -14511.579514930192, -9258.517236532836, -13651.305574334334, -9079.9938535683, -11039.258365542695, 0.00425, -0.024125, 0.9915, 192.0, 0.0, 0.0, 0.0, 0.0, 0.0, 0.0, 0.0, 0.0, 0.0, 1.64449812021606E9, 0.0, 2022-02-11 00:02:00.216
56.0, -11624.717608060553, -13763.399572777698, -9893.843220930485, -16674.602529359167, -2857.2011419774467, -3063.7983159778496, -4544.154351252836, -6149.680155477543, -20321.379044220335, -17822.029330972353, -24358.372313782253, -14531.181994817496, -9262.339384834693, -13656.066495903313, -9082.60900766957, -11046.388572023938, 0.007125, -0.0230625, 0.98575, 192.0, 0.0, 40.0, 127.5, 40.0, 15.0, 80.0, 0.0, 0.0, 0.0, 1.6444981202160666E9, 0.0, 2022-02-11 00:02:00.216
58.0, -11606.545639818387, -13758.705706442084, -9888.836430172496, -16668.67931707851, -2846.0029180053375, -3053.874141439693, -4548.579996654988, -6141.745286195909, -20316.528715673532, -17811.367548867172, -24352.58321196833, -14518.665017922523, -9259.299547588773, -13653.808969713327, -9083.234856514318, -11042.208795810795, 0.007125, -0.0230625, 0.98575, 192.0, 0.0, 0.0, 0.0, 0.0, 0.0, 0.0, 0.0, 0.0, 0.0, 1.6444981202160733E9, 0.0, 2022-02-11 00:02:00.216
60.0, -11620.560183591866, -13761.72319194355, -9898.224162843724, -16675.094267737182, -2860.218627478913, -3071.979054448492, -4554.458505446733, -6147.467332776468, -20319.076814541437, -17809.89233373312, -24350.683313689628, -14510.171355029506, -9255.477399286914, -13652.333754579277, -9085.291217004207, -11043.885176644942, 0.007125, -0.0230625, 0.98575, 192.0, 0.0, 0.0, 0.0, 0.0, 0.0, 0.0, 0.0, 0.0, 0.0, 1.64449812021608E9, 0.0, 2022-02-11 00:02:00.216
62.0, -11619.174375435636, -13773.234340338033, -9890.110479606448, -16672.568520613735, -2850.830894807684, -3064.5135718004194, -4521.1767579527805, -6138.4372280165235, -20327.92810534574, -17834.680418334057, -24361.25568881699, -14519.11205281163, -9275.504562318869, -13643.102484119236, -9087.325225749639, -11046.030944112652, 0.007125, -0.0230625, 0.98575, 192.0, 0.0, 0.0, 0.0, 0.0, 0.0, 0.0, 0.0, 0.0, 0.0, 1.6444981202160869E9, 0.0, 2022-02-11 00:02:00.216
64.0, -11611.798299765385, -13765.67945071214, -9884.880171403905, -16668.209930444948, -2851.412040163522, -3068.268664868911, -4535.459522659722, -6148.920196166062, -20320.730843631132, -17824.510374606893, -24337.518136205454, -14505.298674738251, -9267.055602914763, -13650.076228389291, -9078.742155878801, -11043.147569077919, 0.007125, -0.0230625, 0.98575, 192.0, 0.0, 0.0, 0.0, 0.0, 0.0, 0.0, 0.0, 0.0, 0.0, 1.6444981202160933E9, 0.0, 2022-02-11 00:02:00.216
66.0, -11613.72054978854, -13762.997241377503, -9892.591523240986, -16671.741506068887, -2854.3401186871674, -3069.565066047319, -4543.506150663633, -6154.575187513255, -20322.094300042903, -17825.71736880748, -24347.68817993262, -14507.712663139424, -9263.613434268646, -13669.678708276595, -9085.55943793767, -11050.791865681633, 0.0105625, -0.02653125, 0.9858750000000001, 192.0, 0.0, 56.0, 127.5, 8.0, 15.0, 104.0, 0.0, 0.0, 0.0, 1.6444981202161E9, 0.0, 2022-02-11 00:02:00.216
68.0, -11602.701139772074, -13760.96323263207, -9891.3845290404, -16673.82021830323, -2852.261406452824, -3056.9363304300705, -4537.0241447715935, -6133.028105858339, -20320.21675350866, -17825.940886252032, -24347.509365976974, -14506.908000339032, -9258.539588277292, -13650.500911533942, -9087.079356560631, -11049.18254008085, 0.0105625, -0.02653125, 0.9858750000000001, 192.0, 0.0, 0.0, 0.0, 0.0, 0.0, 0.0, 0.0, 0.0, 0.0, 1.6444981202161071E9, 0.0, 2022-02-11 00:02:00.216
70.0, -11618.615581824253, -13770.306261814389, -9899.431157044311, -16682.805619574265, -2856.485886154877, -3060.8031822208386, -4542.3662116964115, -6146.148579853604, -20325.17884077774, -17828.846613031223, -24344.62599094224, -14510.931314340987, -9259.411306311049, -13650.567966767308, -9085.358272237572, -11045.382743523449, 0.0105625, -0.02653125, 0.9858750000000001, 192.0, 0.0, 0.0, 0.0, 0.0, 0.0, 0.0, 0.0, 0.0, 0.0, 1.6444981202161157E9, 0.0, 2022-02-11 00:02:00.216
72.0, -11619.4425963691, -13763.310165799878, -9895.094918619981, -16683.207950974458, -2850.249749451846, -3053.628272250685, -4542.165045996314, -6144.472199019457, -20327.123442545348, -17831.171194454575, -24361.3003923059, -14532.388989018082, -9270.587178538703, -13647.349315565743, -9087.504039705282, -11050.881272659455, 0.0105625, -0.02653125, 0.9858750000000001, 192.0, 0.0, 0.0, 0.0, 0.0, 0.0, 0.0, 0.0, 0.0, 0.0, 1.6444981202161224E9, 0.0, 2022-02-11 00:02:00.216
74.0, -11619.129671946726, -13761.410267521176, -9893.329130808012, -16684.12437249713, -2849.2215692069017, -3056.779868218883, -4540.488665162166, -6156.050402647305, -20320.708491886675, -17812.976874467957, -24349.476319489044, -14514.06055856473, -9250.87293992912, -13638.74389395045, -9082.854876858579, -11046.880310401953, 0.0105625, -0.02653125, 0.9858750000000001, 192.0, 0.0, 0.0, 0.0, 0.0, 0.0, 0.0, 0.0, 0.0, 0.0, 1.6444981202161293E9, 0.0, 2022-02-11 00:02:00.216
76.0, -11628.696218573597, -13757.565767474864, -9900.4369855448, -16685.309014953258, -2862.18558099098, -3069.498010813953, -4551.441019945267, -6158.754963726397, -20326.385834978322, -17835.01569450089, -24360.87570916125, -14525.839927892677, -9269.40253608257, -13649.159806866624, -9088.442812972406, -11056.200987839817, 0.01028125, -0.029265625, 0.9859375, 192.0, 0.0, 40.0, 127.5, 0.0, 15.0, 104.0, 0.0, 0.0, 0.0, 1.644498120216136E9, 0.0, 2022-02-11 00:02:00.216
78.0, -11633.658305842675, -13783.694956743117, -9897.397148298878, -16685.912512053554, -2854.7200983429075, -3068.9839206914808, -4551.5751304119985, -6141.007678628884, -20329.380968735335, -17828.511336864394, -24357.34413353731, -14523.314180769228, -9271.771820994833, -13654.79244646936, -9090.633283929024, -11053.630537227456, 0.01028125, -0.029265625, 0.9859375, 192.0, 0.0, 0.0, 0.0, 0.0, 0.0, 0.0, 0.0, 0.0, 0.0, 1.644498120216143E9, 0.0, 2022-02-11 00:02:00.216
80.0, -11637.905137289184, -13791.361605091288, -9901.062834389548, -16685.219607975436, -2860.1962757344577, -3067.911036957626, -4551.150447267348, -6152.675289234554, -20332.465509470167, -17839.977781769965, -24356.405360270186, -14523.068311580219, -9264.194579624484, -13666.728278008495, -9088.107536805575, -11054.6587174724, 0.01028125, -0.029265625, 0.9859375, 192.0, 0.0, 0.0, 0.0, 0.0, 0.0, 0.0, 0.0, 0.0, 0.0, 1.6444981202161493E9, 0.0, 2022-02-11 00:02:00.216
82.0, -11633.278326186935, -13785.34898583281, -9905.24261060269, -16681.531570140312, -2860.799772834751, -3063.1277636441905, -4546.076601275993, -6141.83469317373, -20339.103977573395, -17845.38690392815, -24369.34702030981, -14530.891422139577, -9269.35783259366, -13660.961527939025, -9094.187211297418, -11058.033830885153, 0.01028125, -0.029265625, 0.9859375, 192.0, 0.0, 0.0, 0.0, 0.0, 0.0, 0.0, 0.0, 0.0, 0.0, 1.644498120216156E9, 0.0, 2022-02-11 00:02:00.216
84.0, -11615.598096322787, -13763.041944866412, -9899.565267511043, -16686.180732987017, -2857.894046055561, -3060.6020165207406, -4544.511979164121, -6143.823998430253, -20332.97959959264, -17826.678493819058, -24355.555993980885, -14525.661113937034, -9270.341309349693, -13660.17921688309, -9093.583714197126, -11054.256386072206, 0.01028125, -0.029265625, 0.9859375, 192.0, 0.0, 0.0, 0.0, 0.0, 0.0, 0.0, 0.0, 0.0, 0.0, 1.6444981202161627E9, 0.0, 2022-02-11 00:02:00.216
86.0, -11630.931393019127, -13765.522988500952, -9906.896639692384, -16696.01550054735, -2868.3323107161896, -3076.6729207841067, -4542.522673907599, -6155.916292180574, -20331.50438445859, -17840.827148059267, -24367.670639475662, -14528.343323271672, -9267.770858737333, -13638.095693361247, -9093.002568841288, -11064.404078054915, 0.016, -0.03, 0.994, 192.0, 0.0, 64.0, 127.5, 8.0, 15.5, 8.0, 0.0, 0.0, 0.0, 1.6444981202161696E9, 0.0, 2022-02-11 00:02:00.216
88.0, -11628.696218573597, -13778.844628196315, -9900.302875078069, -16693.467401679445, -2859.5257234007986, -3064.4912200559643, -4540.823941328996, -6154.083449135238, -20334.07483507095, -17846.996229528933, -24365.793092941418, -14535.87586115311, -9273.671719273534, -13645.672934731596, -9093.85193513059, -11062.817104198588, 0.016, -0.03, 0.994, 192.0, 0.0, 0.0, 0.0, 0.0, 0.0, 0.0, 0.0, 0.0, 0.0, 1.6444981202161763E9, 0.0, 2022-02-11 00:02:00.216
90.0, -11635.334686676822, -13767.892273413216, -9907.567192026043, -16699.77059361584, -2856.3294239436896, -3069.3862520916764, -4545.048421031049, -6160.520751538366, -20335.88532637183, -17837.183813713054, -24357.277078303945, -14528.58919246068, -9269.938977949498, -13646.075266131791, -9087.258170516274, -11064.113505376996, 0.016, -0.03, 0.994, 192.0, 0.0, 0.0, 0.0, 0.0, 0.0, 0.0, 0.0, 0.0, 0.0, 1.6444981202161827E9, 0.0, 2022-02-11 00:02:00.216
92.0, -11626.818672039351, -13777.190599106623, -9915.502061307676, -16691.92513131203, -2859.056336767237, -3069.9003422141486, -4555.911368836328, -6155.201036358004, -20332.867840870364, -17838.748435824924, -24369.3023168209, -14544.794207190778, -9260.998280167376, -13653.339583079765, -9092.555533952182, -11066.125162377974, 0.016, -0.03, 0.994, 192.0, 0.0, 0.0, 0.0, 0.0, 0.0, 0.0, 0.0, 0.0, 0.0, 1.6444981202161896E9, 0.0, 2022-02-11 00:02:00.216
94.0, -11632.227794197535, -13786.511276544486, -9912.641038017397, -16693.936788313007, -2863.370223447111, -3068.8945137136598, -4549.719935622208, -6155.424553802557, -20334.87949787134, -17841.788273070844, -24359.82517717185, -14524.320009269717, -9270.855399472166, -13657.809931970827, -9093.471955474848, -11061.543054764636, 0.016, -0.03, 0.994, 192.0, 0.0, 0.0, 0.0, 0.0, 0.0, 0.0, 0.0, 0.0, 0.0, 1.6444981202161963E9, 0.0, 2022-02-11 00:02:00.216
96.0, -11639.961497779072, -13789.417003323675, -9919.503023565178, -16695.859038336162, -2869.4051944500443, -3075.2871126278774, -4554.3914502133675, -6167.628606275154, -20343.283753786534, -17848.38203768516, -24379.002973914503, -14539.16156758804, -9278.276178631328, -13657.944042437559, -9092.354368252083, -11069.164999623896, 0.016, -0.03, 0.992, 192.0, 0.0, 64.0, 127.5, 8.0, 15.5, 0.0, 0.0, 0.0, 0.0, 1.644498120216203E9, 0.0, 2022-02-11 00:02:00.216
98.0, -11640.87791930174, -13776.520046772963, -9910.472918805233, -16693.869733079642, -2857.3576041886336, -3064.044185166858, -4542.23210122968, -6149.702507221998, -20339.103977573395, -17846.43743591755, -24365.882499919237, -14525.415244748026, -9269.715460504945, -13650.724428978496, -9089.269827517252, -11065.991051911242, 0.016, -0.03, 0.992, 192.0, 0.0, 0.0, 0.0, 0.0, 0.0, 0.0, 0.0, 0.0, 0.0, 1.6444981202162101E9, 0.0, 2022-02-11 00:02:00.216
100.0, -11637.368695422256, -13779.179904363145, -9911.456395561267, -16694.62969239112, -2859.9057030565386, -3075.9353132170813, -4557.5653979260205, -6174.870571478674, -20346.36829452137, -17837.988476513445, -24362.82031092886, -14527.583363960191, -9277.762088508856, -13651.640850501162, -9087.414632727461, -11066.415735055893, 0.016, -0.03, 0.992, 192.0, 0.0, 0.0, 0.0, 0.0, 0.0, 0.0, 0.0, 0.0, 0.0, 1.644498120216217E9, 0.0, 2022-02-11 00:02:00.216
102.0, -11635.759369821475, -13780.67747124165, -9915.703227007774, -16693.377994701623, -2864.644272881064, -3069.788583491872, -4545.89778732035, -6154.59753925771, -20342.59084970842, -17846.90682255111, -24370.06227613238, -14535.920564642021, -9276.443335585993, -13644.667106231107, -9095.841240387112, -11074.797639226634, 0.016, -0.03, 0.992, 192.0, 0.0, 0.0, 0.0, 0.0, 0.0, 0.0, 0.0, 0.0, 0.0, 1.644498120216226E9, 0.0, 2022-02-11 00:02:00.216
104.0, -11629.366770907256, -13774.910721172182, -9912.462224061755, -16698.004805803874, -2863.9066653140385, -3062.4572113105314, -4554.011470557627, -6154.888111935629, -20347.396474766312, -17843.57641262727, -24365.077837118846, -14530.35498027265, -9273.60466404017, -13646.187024854067, -9092.8461066301, -11064.940519921842, 0.016, -0.03, 0.992, 192.0, 0.0, 0.0, 0.0, 0.0, 0.0, 0.0, 0.0, 0.0, 0.0, 1.6444981202162333E9, 0.0, 2022-02-11 00:02:00.216
106.0, -11649.349230450302, -13786.757145733494, -9923.034599189115, -16703.324520984235, -2881.1175085446253, -3072.627255037696, -4567.6013311864535, -6153.748172968409, -20353.476149258157, -17840.983610270454, -24376.991316913525, -14544.034247879297, -9274.141105907096, -13645.963507409515, -9094.388376997516, -11069.656738001911, 0.012, -0.026000000000000002, 0.988, 192.0, 0.0, 48.0, 127.5, 24.0, 15.0, 112.0, 0.0, 0.0, 0.0, 1.6444981202162402E9, 0.0, 2022-02-11 00:02:00.216
108.0, -11629.3444191628, -13779.023442151958, -9917.96075319776, -16694.517933668845, -2871.126278773103, -3064.848847967249, -4552.312737979024, -6155.6927747360205, -20354.571384736468, -17849.231403974463, -24377.25953784699, -14537.284021053794, -9287.88742874711, -13652.736085979474, -9099.909257877976, -11070.506104291213, 0.012, -0.026000000000000002, 0.988, 192.0, 0.0, 0.0, 0.0, 0.0, 0.0, 0.0, 0.0, 0.0, 0.0, 1.644498120216247E9, 0.0, 2022-02-11 00:02:00.216
110.0, -11643.247204214002, -13772.809657193382, -9920.464148576755, -16697.66952963704, -2870.4333746949883, -3073.4542695825426, -4557.900674092851, -6169.304987109303, -20353.56555623598, -17849.58903188575, -24366.173072597157, -14533.417169263026, -9274.40932684056, -13653.943080180059, -9092.443775229905, -11071.489581047248, 0.012, -0.026000000000000002, 0.988, 192.0, 0.0, 0.0, 0.0, 0.0, 0.0, 0.0, 0.0, 0.0, 0.0, 1.644498120216261E9, 0.0, 2022-02-11 00:02:00.216
112.0, -11639.290945445413, -13781.01274740848, -9914.540936296098, -16697.803640103775, -2860.0174617788152, -3072.9625312045255, -4547.976499554694, -6170.400222587612, -20351.151567834804, -17855.19931974403, -24376.49957853551, -14541.262631566839, -9277.851495486677, -13662.727315750995, -9098.389339255016, -11079.312691606605, 0.012, -0.026000000000000002, 0.988, 192.0, 0.0, 0.0, 0.0, 0.0, 0.0, 0.0, 0.0, 0.0, 0.0, 1.644498120216268E9, 0.0, 2022-02-11 00:02:00.216
114.0, -11630.640820341208, -13785.930131188648, -9910.361160082955, -16695.523762169334, -2858.5645983892205, -3067.46400206852, -4558.99590957116, -6155.022222402361, -20343.753140420096, -17846.6609533621, -24361.702723706094, -14526.063445337231, -9272.777649495321, -13651.886719690172, -9090.7450426513, -11072.964796181297, 0.012, -0.026000000000000002, 0.988, 192.0, 0.0, 0.0, 0.0, 0.0, 0.0, 0.0, 0.0, 0.0, 0.0, 1.6444981202162747E9, 0.0, 2022-02-11 00:02:00.216
116.0, -11648.030477527438, -13779.358718318786, -9923.414578844855, -16708.241904764403, -2871.439203195477, -3074.683615527584, -4564.740307896174, -6161.750097483408, -20351.822120168465, -17850.10312200822, -24372.029229644446, -14540.59207923318, -9276.398632097082, -13654.680687747084, -9100.75862416728, -11080.43027882937, 0.008, -0.03, 0.988, 192.0, 0.0, 32.0, 127.5, 8.0, 15.0, 112.0, 0.0, 0.0, 0.0, 1.6444981202162814E9, 0.0, 2022-02-11 00:02:00.216
118.0, -11626.796320294896, -13783.471439298564, -9919.033636931616, -16707.571352430743, -2861.5150286573207, -3070.4144323366204, -4538.856987816928, -6157.235045103436, -20353.11852134687, -17833.607534600204, -24376.790151213427, -14550.382143304605, -9271.414193083549, -13653.831321457783, -9095.975350853843, -11081.681976518867, 0.008, -0.03, 0.988, 192.0, 0.0, 0.0, 0.0, 0.0, 0.0, 0.0, 0.0, 0.0, 0.0, 1.6444981202162883E9, 0.0, 2022-02-11 00:02:00.216
120.0, -11646.555262393387, -13785.416041066175, -9923.124006166936, -16701.871657594642, -2869.539304916776, -3073.946007960559, -4555.352575224945, -6164.208789373492, -20356.761855693087, -17845.29749695033, -24370.174034854655, -14539.54154724378, -9286.881600246621, -13673.098525178257, -9094.768356653256, -11075.37878458247, 0.008, -0.03, 0.988, 192.0, 0.0, 0.0, 0.0, 0.0, 0.0, 0.0, 0.0, 0.0, 0.0, 1.644498120695184E9, 0.0, 2022-02-11 00:02:00.695
122.0, -11641.369657679756, -13784.276102098955, -9923.079302678027, -16700.485849438413, -2866.410060693033, -3068.3804235911875, -4557.3865839703785, -6159.894902693618, -20351.64330621282, -17868.766828628402, -24375.851377946303, -14540.860300166643, -9272.59883553968, -13658.480484304488, -9101.8985631345, -11078.083345661564, 0.008, -0.03, 0.988, 192.0, 0.0, 0.0, 0.0, 0.0, 0.0, 0.0, 0.0, 0.0, 0.0, 1.644498120695356E9, 0.0, 2022-02-11 00:02:00.695
124.0, -11642.420189669156, -13782.331500331344, -9924.286296878612, -16705.31382624076, -2858.743412344863, -3064.982958433981, -4564.606197429443, -6164.298196351314, -20350.25749805659, -17863.380058214672, -24368.564709253875, -14540.055637366253, -9281.718347277445, -13650.187987111567, -9101.47387998985, -11076.295206105138, 0.008, -0.03, 0.988, 192.0, 0.0, 0.0, 0.0, 0.0, 0.0, 0.0, 0.0, 0.0, 0.0, 1.6444981206953645E9, 0.0, 2022-02-11 00:02:00.695
126.0, -11656.501788676, -13796.21193363809, -9930.835358004017, -16705.336177985213, -2872.3779764626, -3074.3259876162992, -4579.112479580936, -6170.467277820979, -20361.612184239886, -17860.273165735383, -24380.522892537465, -14540.368561788628, -9278.544399564791, -13665.565987296819, -9105.005455613787, -11084.520648064692, 0.006, -0.022, 0.992, 192.0, 0.0, 24.0, 127.5, 40.0, 15.5, 0.0, 0.0, 0.0, 0.0, 1.6444981206953723E9, 0.0, 2022-02-11 00:02:00.695
128.0, -11637.771026822451, -13789.998148679513, -9922.67697127783, -16700.441145949502, -2857.6258251220975, -3055.371708318199, -4559.130020037892, -6161.146600383116, -20360.51694876158, -17856.607479644714, -24378.91356693668, -14540.145044344074, -9270.095440160685, -13664.113123907224, -9106.391263770016, -11083.224246886284, 0.006, -0.022, 0.992, 192.0, 0.0, 0.0, 0.0, 0.0, 0.0, 0.0, 0.0, 0.0, 0.0, 1.6444981206953795E9, 0.0, 2022-02-11 00:02:00.695
130.0, -11637.815730311362, -13782.86794219827, -9928.331962625023, -16702.609265161667, -2865.5830461481864, -3065.6758625120956, -4576.966712113227, -6172.098955166216, -20354.951364392207, -17858.19445350104, -24369.123502865255, -14535.652343708558, -9264.999242424876, -13649.048048144346, -9102.36794976806, -11083.514819564203, 0.006, -0.022, 0.992, 192.0, 0.0, 0.0, 0.0, 0.0, 0.0, 0.0, 0.0, 0.0, 0.0, 1.6444981206953862E9, 0.0, 2022-02-11 00:02:00.695
132.0, -11634.440616898612, -13786.645387011218, -9929.941288225806, -16701.044643049794, -2860.9785867903934, -3058.6350630086736, -4552.066868790015, -6164.655824262599, -20350.59277422342, -17855.601651144225, -24379.315898336878, -14540.659134466547, -9261.311204589749, -13642.901318419137, -9109.028769615743, -11086.442898087847, 0.006, -0.022, 0.992, 192.0, 0.0, 0.0, 0.0, 0.0, 0.0, 0.0, 0.0, 0.0, 0.0, 1.644498120695393E9, 0.0, 2022-02-11 00:02:00.695
134.0, -11631.378427908234, -13777.794096206915, -9926.63323004642, -16699.189448260004, -2858.3634326891224, -3062.5466182883524, -4567.489572464177, -6162.420649817068, -20350.615125967877, -17830.701807821013, -24371.828063944347, -14524.007084847342, -9270.609530283158, -13664.716621007517, -9108.268810304262, -11079.379746839972, 0.006, -0.022, 0.992, 192.0, 0.0, 0.0, 0.0, 0.0, 0.0, 0.0, 0.0, 0.0, 0.0, 1.6444981206954072E9, 0.0, 2022-02-11 00:02:00.695
136.0, -11647.717553105063, -13790.82516322436, -9936.423294117843, -16703.92801808453, -2859.346909445156, -3067.173429390601, -4553.787953113074, -6159.26905384887, -20359.153492349804, -17862.329526225272, -24384.456799561598, -14536.613468720136, -9271.145972150085, -13670.617481543719, -9107.464147503872, -11077.077517161075, 0.008, -0.024, 0.99, 192.0, 0.0, 32.0, 127.5, 32.0, 15.0, 120.0, 0.0, 0.0, 0.0, 1.644498120695414E9, 0.0, 2022-02-11 00:02:00.695
138.0, -11640.296773945902, -13780.833933452837, -9928.175500413836, -16701.625788405632, -2849.668604096008, -3059.8420572092605, -4547.596519898953, -6156.877417192151, -20356.27011731507, -17864.967032071, -24380.858168704293, -14542.514329256337, -9261.557073778758, -13652.646679001651, -9105.407787013983, -11075.311729349105, 0.008, -0.024, 0.99, 192.0, 0.0, 0.0, 0.0, 0.0, 0.0, 0.0, 0.0, 0.0, 0.0, 1.6444981206954207E9, 0.0, 2022-02-11 00:02:00.695
140.0, -11649.393933939211, -13776.475343284053, -9928.935459725317, -16710.678244910032, -2857.245845466357, -3065.9887869344698, -4566.6625579193305, -6174.7141092674865, -20355.688971959233, -17856.16044475561, -24365.189595841122, -14543.028419378808, -9258.897216188576, -13648.489254532964, -9102.61381895707, -11079.424450328881, 0.008, -0.024, 0.99, 192.0, 0.0, 0.0, 0.0, 0.0, 0.0, 0.0, 0.0, 0.0, 0.0, 1.6444981206954284E9, 0.0, 2022-02-11 00:02:00.695
142.0, -11647.292869960413, -13783.985529421036, -9934.00930571667, -16705.604398918676, -2862.4314501799886, -3065.4299933230873, -4562.080450305993, -6161.191303872026, -20360.36048655039, -17854.77463659938, -24386.848436218315, -14559.032268408808, -9264.440448813493, -13648.153978366136, -9111.487461505827, -11088.454555088825, 0.008, -0.024, 0.99, 192.0, 0.0, 0.0, 0.0, 0.0, 0.0, 0.0, 0.0, 0.0, 0.0, 1.6444981206954353E9, 0.0, 2022-02-11 00:02:00.695
144.0, -11641.213195468568, -13782.197389864612, -9929.650715547887, -16703.07865179523, -2852.1272959860917, -3053.6729757395956, -4549.831694344484, -6155.558664269289, -20357.544166749023, -17844.023447516378, -24369.190558098624, -14527.315143026728, -9260.037155155796, -13643.79538819735, -9107.955885881887, -11079.267988117694, 0.008, -0.024, 0.99, 192.0, 0.0, 0.0, 0.0, 0.0, 0.0, 0.0, 0.0, 0.0, 0.0, 1.6444981206954424E9, 0.0, 2022-02-11 00:02:00.695
146.0, -11644.700067603597, -13787.092421900323, -9936.132721439924, -16708.510125697867, -2866.4994676708543, -3065.3629380897214, -4561.409897972333, -6161.07954514975, -20358.46058827169, -17862.73185762547, -24377.147779124713, -14534.333590785694, -9267.592044781692, -13658.61459477122, -9103.172612568453, -11081.793735241145, 0.01, -0.022, 1.0, 192.0, 0.0, 40.0, 127.5, 40.0, 15.5, 32.0, 0.0, 0.0, 0.0, 1.644498120695449E9, 0.0, 2022-02-11 00:02:00.695
148.0, -11620.403721380679, -13776.810619450882, -9932.243517904702, -16705.336177985213, -2858.452839666944, -3049.60495824873, -4564.270921262613, -6154.396373557613, -20350.12338758986, -17856.249851733428, -24376.790151213427, -14535.831157664199, -9260.953576678465, -13653.518397035408, -9108.089996348619, -11080.989072440752, 0.01, -0.022, 1.0, 192.0, 0.0, 0.0, 0.0, 0.0, 0.0, 0.0, 0.0, 0.0, 0.0, 1.644498120695456E9, 0.0, 2022-02-11 00:02:00.695
150.0, -11651.15972175118, -13794.423794081664, -9937.317363896056, -16711.05822456577, -2866.253598481846, -3055.2599495959225, -4566.416688730323, -6171.204885388003, -20352.716189946677, -17857.38979070065, -24366.57540399735, -14531.651381451056, -9268.59787328218, -13645.069437631302, -9105.117214336064, -11078.888008461954, 0.01, -0.022, 1.0, 192.0, 0.0, 0.0, 0.0, 0.0, 0.0, 0.0, 0.0, 0.0, 0.0, 1.644498120695463E9, 0.0, 2022-02-11 00:02:00.695
152.0, -11657.552320665398, -13791.629826024751, -9941.743009298207, -16711.952294343984, -2860.3303862011894, -3051.0578216383246, -4554.346746724456, -6160.431344560546, -20363.825006940962, -17870.420857718094, -24386.602567029306, -14543.58721299019, -9267.189713381495, -13648.802178955339, -9103.820813157656, -11085.638235287457, 0.01, -0.022, 1.0, 192.0, 0.0, 0.0, 0.0, 0.0, 0.0, 0.0, 0.0, 0.0, 0.0, 1.64449812069547E9, 0.0, 2022-02-11 00:02:00.695
154.0, -11634.150044220693, -13777.883503184737, -9930.120102181447, -16712.376977488635, -2847.9698715174045, -3046.073382624791, -4552.46920019021, -6167.3156818527805, -20359.06408537198, -17852.87473832068, -24372.565671511373, -14538.043980365275, -9256.93026267651, -13643.191891097056, -9101.56328696767, -11087.806354499622, 0.009000000000000001, -0.022, 0.996, 192.0, 0.0, 32.0, 127.5, 40.0, 15.5, 0.0, 0.0, 0.0, 0.0, 1.644498120695477E9, 0.0, 2022-02-11 00:02:00.695
156.0, -11645.460026915078, -13774.44133453862, -9935.126892939435, -16716.065015323762, -2856.1059064991364, -3056.913978685615, -4560.068793305015, -6155.893940436118, -20359.712285961188, -17854.327601710273, -24379.450008803607, -14540.21209957744, -9263.434620313004, -13645.181196353578, -9101.093900334108, -11092.231999901773, 0.009000000000000001, -0.022, 0.996, 192.0, 0.0, 0.0, 0.0, 0.0, 0.0, 0.0, 0.0, 0.0, 0.0, 1.6444981206954837E9, 0.0, 2022-02-11 00:02:00.695
158.0, -11630.238488941013, -13779.448125296609, -9928.823701003039, -16711.326445499235, -2845.80175230524, -3044.5534640018304, -4559.130020037892, -6157.950300926006, -20353.766721936074, -17847.890299307146, -24373.906776178694, -14542.559032745246, -9252.169341107528, -13650.076228389291, -9103.262019546273, -11091.382633612471, 0.009000000000000001, -0.022, 0.996, 192.0, 0.0, 0.0, 0.0, 0.0, 0.0, 0.0, 0.0, 0.0, 0.0, 1.6444981206954904E9, 0.0, 2022-02-11 00:02:00.695
160.0, -11641.30260244639, -13790.936921946637, -9934.679858050331, -16712.242867021905, -2855.9494442879495, -3052.89066468366, -4559.375889226901, -6148.808437443786, -20358.12531210486, -17860.384924457663, -24368.944688909614, -14537.552241987258, -9256.818503954233, -13651.75260922344, -9101.697397434402, -11084.811220742611, 0.009000000000000001, -0.022, 0.996, 192.0, 0.0, 0.0, 0.0, 0.0, 0.0, 0.0, 0.0, 0.0, 0.0, 1.6444981206954973E9, 0.0, 2022-02-11 00:02:00.695
162.0, -11625.745788305496, -13777.682337484639, -9939.485483108221, -16706.990207074905, -2857.871694311106, -3046.028679135881, -4563.1980375287585, -6155.759829969386, -20359.06408537198, -17855.691058122047, -24383.58508152784, -14540.480320510904, -9256.572634765225, -13649.2715655889, -9106.726539936846, -11085.660587031913, 0.009000000000000001, -0.022, 0.996, 192.0, 0.0, 0.0, 0.0, 0.0, 0.0, 0.0, 0.0, 0.0, 0.0, 1.644498120695504E9, 0.0, 2022-02-11 00:02:00.695
164.0, -11637.59221286681, -13781.258616597488, -9936.535052840121, -16709.426547220533, -2853.7142698424186, -3044.821684935294, -4557.431287459289, -6147.623794987655, -20354.83960566993, -17851.555985397816, -24372.29745057791, -14529.729131427901, -9255.723268475922, -13644.13066436418, -9105.608952714081, -11080.877313718476, 0.0085, -0.020999999999999998, 0.993, 192.0, 0.0, 32.0, 127.5, 48.0, 15.0, 120.0, 0.0, 0.0, 0.0, 1.6444981206955109E9, 0.0, 2022-02-11 00:02:00.695
166.0, -11652.25495722949, -13790.623997524262, -9946.146302955902, -16715.372111245648, -2866.052432781748, -3053.9635484175146, -4583.806345916551, -6164.566417284777, -20361.723942962166, -17863.000078558933, -24374.107941878792, -14541.128521100107, -9246.737867204889, -13653.22782435749, -9108.626438215548, -11090.734433023266, 0.0085, -0.020999999999999998, 0.993, 192.0, 0.0, 0.0, 0.0, 0.0, 0.0, 0.0, 0.0, 0.0, 0.0, 1.6444981206955197E9, 0.0, 2022-02-11 00:02:00.695
168.0, -11634.172395965148, -13773.435506038131, -9943.106465709981, -16709.135974542616, -2860.2409792233684, -3036.6409464646517, -4574.373909756411, -6152.272957834359, -20359.734637705642, -17854.68522962156, -24375.58315701284, -14543.095474612175, -9258.852512699666, -13645.002382397937, -9113.812042929178, -11087.694595777344, 0.0085, -0.020999999999999998, 0.993, 192.0, 0.0, 0.0, 0.0, 0.0, 0.0, 0.0, 0.0, 0.0, 0.0, 1.6444981206955261E9, 0.0, 2022-02-11 00:02:00.695
170.0, -11641.749637335497, -13773.144933360212, -9949.096733224003, -16718.434300236022, -2861.8726565686056, -3046.8333419362716, -4554.190284513269, -6156.922120681063, -20364.294393574524, -17855.78046509987, -24377.036020402436, -14535.87586115311, -9260.64065225609, -13630.429045013076, -9106.525374236748, -11084.520648064692, 0.0085, -0.020999999999999998, 0.993, 192.0, 0.0, 0.0, 0.0, 0.0, 0.0, 0.0, 0.0, 0.0, 0.0, 1.644498120695533E9, 0.0, 2022-02-11 00:02:00.695
172.0, -11645.571785637354, -13787.24888411151, -9948.135608212426, -16721.78706190432, -2863.2361129803794, -3051.4378012940647, -4557.2748252481015, -6156.229216602947, -20368.92120467677, -17866.77752337188, -24390.670584520172, -14545.755332202356, -9269.78251573831, -13643.862443430717, -9113.163842339975, -11093.506049335725, 0.0085, -0.020999999999999998, 0.993, 192.0, 0.0, 0.0, 0.0, 0.0, 0.0, 0.0, 0.0, 0.0, 0.0, 1.6444981206955397E9, 0.0, 2022-02-11 00:02:00.695
174.0, -11626.014009238961, -13773.614319993774, -9937.58558482952, -16714.79096588981, -2854.965967531916, -3036.7527051869283, -4556.291348492068, -6138.839559416719, -20361.388666795334, -17855.042857532844, -24371.24691858851, -14537.619297220625, -9249.442428283981, -13633.334771792266, -9107.575906226148, -11083.157191652917, 0.00725, -0.0235, 0.9915, 192.0, 0.0, 24.0, 127.5, 24.0, 15.0, 120.0, 0.0, 0.0, 0.0, 1.6444981206955464E9, 0.0, 2022-02-11 00:02:00.695
176.0, -11635.468797143556, -13776.385936306231, -9946.123951211448, -16714.142765300603, -2866.5888746486753, -3044.3522983017324, -4566.506095708143, -6161.995966672417, -20357.119483604372, -17848.404389429616, -24372.364505811278, -14541.977887389408, -9248.011916638841, -13644.801216697839, -9108.268810304262, -11087.851057988531, 0.00725, -0.0235, 0.9915, 192.0, 0.0, 0.0, 0.0, 0.0, 0.0, 0.0, 0.0, 0.0, 0.0, 1.6444981206955535E9, 0.0, 2022-02-11 00:02:00.695
178.0, -11626.930430761628, -13769.881578669738, -9937.876157507439, -16704.240942506905, -2859.838647823173, -3023.945155614037, -4550.189322255769, -6138.593690227711, -20355.197233581213, -17849.76784584139, -24371.671601733164, -14529.863241894633, -9254.471570786425, -13632.217184569501, -9106.503022492292, -11084.878275975976, 0.00725, -0.0235, 0.9915, 192.0, 0.0, 0.0, 0.0, 0.0, 0.0, 0.0, 0.0, 0.0, 0.0, 1.6444981206955605E9, 0.0, 2022-02-11 00:02:00.695
180.0, -11631.244317441502, -13763.310165799878, -9942.055933720581, -16712.35462574418, -2868.0864415271813, -3033.7799231743725, -4568.405993986845, -6153.792876457319, -20356.493634759623, -17849.991363285942, -24361.72507545055, -14523.180070302496, -9254.225701597417, -13619.767262907895, -9102.949095123899, -11080.184409640362, 0.00725, -0.0235, 0.9915, 192.0, 0.0, 0.0, 0.0, 0.0, 0.0, 0.0, 0.0, 0.0, 0.0, 1.6444981206955671E9, 0.0, 2022-02-11 00:02:00.695
182.0, -11631.91486977516, -13772.29556707091, -9940.088980208515, -16709.40419547608, -2864.152534503047, -3031.9694318734923, -4578.173706313813, -6151.825922945252, -20360.293431317026, -17849.58903188575, -24385.06029666189, -14546.247070580373, -9248.436599783492, -13636.553422993831, -9108.693493448913, -11089.080403933574, 0.00725, -0.0235, 0.9915, 192.0, 0.0, 0.0, 0.0, 0.0, 0.0, 0.0, 0.0, 0.0, 0.0, 1.6444981206955738E9, 0.0, 2022-02-11 00:02:00.695
184.0, -11624.851718527285, -13753.006011605981, -9931.103578937482, -16700.619959905143, -2854.51893264281, -3035.1210278416906, -4560.962863083228, -6160.297234093814, -20351.50919574609, -17844.023447516378, -24354.30429629139, -14514.01585507582, -9244.010954381341, -13635.257021815423, -9106.860650403578, -11083.67128177539, 0.008625, -0.02475, 0.98975, 192.0, 0.0, 40.0, 127.5, 24.0, 15.0, 112.0, 0.0, 0.0, 0.0, 1.6444981206955805E9, 0.0, 2022-02-11 00:02:00.695
186.0, -11634.932355276627, -13761.030287865435, -9943.262927921169, -16714.36628274516, -2872.1097555291362, -3034.7857516748613, -4565.4779154632, -6153.88228343514, -20355.152530092302, -17845.47631090597, -24360.42867427214, -14522.48716622438, -9238.713590945434, -13642.677800974585, -9109.498156249305, -11091.069709190097, 0.008625, -0.02475, 0.98975, 192.0, 0.0, 0.0, 0.0, 0.0, 0.0, 0.0, 0.0, 0.0, 0.0, 1.6444981206955872E9, 0.0, 2022-02-11 00:02:00.695
188.0, -11618.973209735539, -13763.041944866412, -9938.569061585553, -16709.985340831918, -2862.2749879688013, -3019.8324346342606, -4570.819982388018, -6142.102914107194, -20352.850300413407, -17835.57448811227, -24367.558880753386, -14532.791320418279, -9248.995393394875, -13623.701169932028, -9115.644885974514, -11089.52743882268, 0.008625, -0.02475, 0.98975, 192.0, 0.0, 0.0, 0.0, 0.0, 0.0, 0.0, 0.0, 0.0, 0.0, 1.644498120695594E9, 0.0, 2022-02-11 00:02:00.695
190.0, -11631.534890119421, -13774.10605837179, -9941.251270920191, -16708.711291397965, -2857.737583844374, -3037.825588920783, -4549.8763978333955, -6155.335146824736, -20353.274983558058, -17846.92917429557, -24358.998162627002, -14525.102320325652, -9238.959460134443, -13630.920783391093, -9111.465109761371, -11088.946293466843, 0.008625, -0.02475, 0.98975, 192.0, 0.0, 0.0, 0.0, 0.0, 0.0, 0.0, 0.0, 0.0, 0.0, 1.6444981206956007E9, 0.0, 2022-02-11 00:02:00.695
192.0, -11633.010105253472, -13776.140067117223, -9944.782846544129, -16708.800698375788, -2863.727851358396, -3040.217225577501, -4550.99398505616, -6134.391562270112, -20362.59566099592, -17857.948584312035, -24373.683258734138, -14539.362733288139, -9253.35398356366, -13636.553422993831, -9111.867441161567, -11090.555619067623, 0.008625, -0.02475, 0.98975, 192.0, 0.0, 0.0, 0.0, 0.0, 0.0, 0.0, 0.0, 0.0, 0.0, 1.6444981206956077E9, 0.0, 2022-02-11 00:02:00.695
194.0, -11629.277363929436, -13772.608491493285, -9943.508797110177, -16713.561619944765, -2860.9338833014826, -3033.534053985364, -4556.760735125629, -6140.381829784135, -20362.260384829093, -17852.315944709295, -24365.14489235221, -14532.053712851253, -9239.272384556816, -13629.31145779031, -9113.141490595519, -11087.135802165962, 0.0083125, -0.023375, 0.988875, 192.0, 0.0, 32.0, 127.5, 40.0, 15.0, 112.0, 0.0, 0.0, 0.0, 1.644498120695614E9, 0.0, 2022-02-11 00:02:00.695
196.0, -11639.559166378876, -13776.385936306231, -9949.901396024394, -16715.863849623664, -2873.2943979852676, -3039.0549348658246, -4572.518714966621, -6152.652937490098, -20361.031038884048, -17854.81934008829, -24371.515139521976, -14545.822387435723, -9252.236396340895, -13640.688495718063, -9113.029731873243, -11093.014310957707, 0.0083125, -0.023375, 0.988875, 192.0, 0.0, 0.0, 0.0, 0.0, 0.0, 0.0, 0.0, 0.0, 0.0, 1.6444981206956208E9, 0.0, 2022-02-11 00:02:00.695
198.0, -11629.97026800755, -13766.10413385679, -9945.20752968878, -16711.30409375478, -2863.1467060025584, -3031.9247283845816, -4568.003662586649, -6153.390545057124, -20355.97954463715, -17853.545290654336, -24372.498616278008, -14535.898212897566, -9252.772838207822, -13637.64865847214, -9117.745949953312, -11095.24948540324, 0.0083125, -0.023375, 0.988875, 192.0, 0.0, 0.0, 0.0, 0.0, 0.0, 0.0, 0.0, 0.0, 0.0, 1.6444981206956294E9, 0.0, 2022-02-11 00:02:00.695
200.0, -11636.005239010483, -13761.879654154738, -9948.739105312718, -16714.16511704506, -2873.741432874374, -3038.4290860210763, -4567.646034675364, -6155.513960780378, -20361.612184239886, -17854.77463659938, -24363.602621984795, -14536.613468720136, -9247.319012560727, -13627.880946145171, -9115.890755163522, -11096.568238326101, 0.0083125, -0.023375, 0.988875, 192.0, 0.0, 0.0, 0.0, 0.0, 0.0, 0.0, 0.0, 0.0, 0.0, 1.6444981206956363E9, 0.0, 2022-02-11 00:02:00.695
202.0, -11634.708837832075, -13781.437430553131, -9950.907224524883, -16706.92315184154, -2869.6734153835077, -3031.1647690731015, -4552.916235079317, -6149.389582799624, -20365.680201730753, -17845.610421372705, -24379.49471229252, -14545.68827696899, -9253.97983240841, -13649.919766178104, -9119.087054620632, -11100.837421517066, 0.0083125, -0.023375, 0.988875, 192.0, 0.0, 0.0, 0.0, 0.0, 0.0, 0.0, 0.0, 0.0, 0.0, 1.6444981206956427E9, 0.0, 2022-02-11 00:02:00.695
204.0, -11630.417302896656, -13777.570578762363, -9946.861558778472, -16706.610227419165, -2858.475191411399, -3028.50491148292, -4552.759772868129, -6146.841483931718, -20360.002858639105, -17846.973877784476, -24367.44712203111, -14532.16547157353, -9238.043038611775, -13639.325039306288, -9112.582696984136, -11094.601284814034, 0.00715625, -0.0246875, 0.9864375, 192.0, 0.0, 24.0, 127.5, 24.0, 15.0, 96.0, 0.0, 0.0, 0.0, 1.6444981206956496E9, 0.0, 2022-02-11 00:02:00.695
206.0, -11623.622372582242, -13767.177017590646, -9946.570986100554, -16709.627712920632, -2865.2030664924464, -3030.9636033730035, -4571.021148088115, -6159.537274782333, -20360.829873183953, -17860.451979691028, -24368.229433087046, -14536.300544297761, -9234.846739154666, -13631.859556658215, -9113.968505140365, -11097.864639504509, 0.00715625, -0.0246875, 0.9864375, 192.0, 0.0, 0.0, 0.0, 0.0, 0.0, 0.0, 0.0, 0.0, 0.0, 1.6444981206956563E9, 0.0, 2022-02-11 00:02:00.695
208.0, -11609.473718342033, -13737.62801142073, -9938.837282519018, -16715.84149787921, -2849.892121540561, -3031.142417328646, -4548.624700143898, -6146.5509112538, -20345.228355554147, -17839.30722943631, -24367.111845864278, -14542.044942622775, -9232.410399009037, -13633.915917148104, -9109.47580450485, -11098.95987498282, 0.00715625, -0.0246875, 0.9864375, 192.0, 0.0, 0.0, 0.0, 0.0, 0.0, 0.0, 0.0, 0.0, 0.0, 1.644498120695663E9, 0.0, 2022-02-11 00:02:00.695
210.0, -11636.92166053315, -13776.765915961972, -9947.934442512327, -16714.433337978524, -2861.537380401776, -3034.986917374959, -4550.3457844669565, -6150.306004322291, -20349.341076533925, -17843.107025993708, -24356.15949108118, -14531.293753539772, -9240.345268290672, -13620.437815241554, -9105.832470158633, -11093.19312491335, 0.00715625, -0.0246875, 0.9864375, 192.0, 0.0, 0.0, 0.0, 0.0, 0.0, 0.0, 0.0, 0.0, 0.0, 1.6444981206956697E9, 0.0, 2022-02-11 00:02:00.695
212.0, -11649.59509963931, -13780.096325885812, -9952.270680936657, -16707.996035575394, -2866.544171159765, -3035.009269119414, -4554.682022891286, -6148.562568254777, -20361.32161156197, -17857.903880823123, -24368.83293018734, -14537.976925131909, -9247.274309071816, -13654.211301113522, -9117.410673786482, -11099.429261616382, 0.00715625, -0.0246875, 0.9864375, 192.0, 0.0, 0.0, 0.0, 0.0, 0.0, 0.0, 0.0, 0.0, 0.0, 1.6444981206956763E9, 0.0, 2022-02-11 00:02:00.695
214.0, -11631.73605581952, -13770.663889725673, -9947.643869834408, -16707.414890219556, -2854.9436157874607, -3027.78965566035, -4554.99494731366, -6145.343917053213, -20363.3556203074, -17843.107025993708, -24362.86501441777, -14524.498823225358, -9239.987640379386, -13638.967411395004, -9112.269772561762, -11091.896723734942, 0.008578125, -0.02634375, 0.9882187499999999, 192.0, 0.0, 40.0, 127.5, 16.0, 15.0, 120.0, 0.0, 0.0, 0.0, 1.6444981206956832E9, 0.0, 2022-02-11 00:02:00.695
216.0, -11635.133520976726, -13760.62795646524, -9949.946099513305, -16710.857058865673, -2856.3964791770554, -3027.163806815601, -4572.541066711076, -6156.139809625127, -20362.327440062458, -17850.594860386238, -24366.06131387488, -14536.054675108753, -9240.814654924234, -13631.390170024655, -9116.270734819262, -11097.28349414867, 0.008578125, -0.02634375, 0.9882187499999999, 192.0, 0.0, 0.0, 0.0, 0.0, 0.0, 0.0, 0.0, 0.0, 0.0, 1.64449812069569E9, 0.0, 2022-02-11 00:02:00.695
218.0, -11626.05871272787, -13764.271290811455, -9943.017058732159, -16705.962026829962, -2839.185635946469, -3015.3844374876544, -4540.04163027306, -6128.624812200644, -20354.72784694765, -17837.764959068892, -24366.3518865528, -14532.50074774036, -9235.092608343675, -13621.018960597392, -9115.443720274416, -11094.355415625027, 0.008578125, -0.02634375, 0.9882187499999999, 192.0, 0.0, 0.0, 0.0, 0.0, 0.0, 0.0, 0.0, 0.0, 0.0, 1.6444981206956966E9, 0.0, 2022-02-11 00:02:00.695
220.0, -11632.45131164209, -13761.991412877014, -9945.431047133332, -16708.510125697867, -2843.834798793173, -3014.5127194538977, -4550.99398505616, -6128.714219178465, -20358.102960360404, -17838.077883491263, -24365.189595841122, -14518.620314433612, -9240.032343868297, -13623.567059465297, -9107.821775415156, -11089.214514400306, 0.008578125, -0.02634375, 0.9882187499999999, 192.0, 0.0, 0.0, 0.0, 0.0, 0.0, 0.0, 0.0, 0.0, 0.0, 1.6444981206957035E9, 0.0, 2022-02-11 00:02:00.695
222.0, -11620.716645803053, -13757.722229686051, -9942.547672098599, -16709.58300943172, -2845.2429586938574, -3009.3494664847217, -4552.670365890309, -6138.057248360783, -20353.610259724886, -17840.71538933699, -24372.655078489195, -14528.8797651386, -9236.478416499904, -13618.828489640771, -9113.119138851063, -11092.43316560187, 0.008578125, -0.02634375, 0.9882187499999999, 192.0, 0.0, 0.0, 0.0, 0.0, 0.0, 0.0, 0.0, 0.0, 0.0, 1.6444981206957102E9, 0.0, 2022-02-11 00:02:00.695
224.0, -11623.220041182047, -13764.919491400658, -9939.284317408123, -16704.82208786274, -2841.6443278365527, -3007.02488506137, -4549.496418177655, -6135.4420942595125, -20352.44796901321, -17838.457863147007, -24362.77560743995, -14528.231564549395, -9222.642686682068, -13602.958751077504, -9111.018074872265, -11091.784965012666, 0.0112890625, -0.028171875, 0.988109375, 192.0, 0.0, 56.0, 127.5, 8.0, 15.0, 112.0, 0.0, 0.0, 0.0, 1.644498120695717E9, 0.0, 2022-02-11 00:02:00.695
226.0, -11630.082026729826, -13760.829122165338, -9940.334849397523, -16699.36826221565, -2850.2721011963013, -3017.5749084442746, -4569.456525976244, -6159.023184659861, -20352.31385854648, -17850.326639452775, -24355.801863169894, -14521.928372612998, -9234.310297287739, -13628.17151882309, -9114.236726073828, -11095.76357552571, 0.0112890625, -0.028171875, 0.988109375, 192.0, 0.0, 0.0, 0.0, 0.0, 0.0, 0.0, 0.0, 0.0, 0.0, 1.6444981206957235E9, 0.0, 2022-02-11 00:02:00.695
228.0, -11615.352227133779, -13756.87286339675, -9934.3445818835, -16700.798773860788, -2844.9523860159384, -3015.429140976565, -4555.33022348049, -6135.6209082151545, -20350.21279456768, -17838.547270124825, -24357.053560859393, -14526.82340464871, -9232.566861220224, -13624.55053622133, -9119.42233078746, -11095.42829935888, 0.0112890625, -0.028171875, 0.988109375, 192.0, 0.0, 0.0, 0.0, 0.0, 0.0, 0.0, 0.0, 0.0, 0.0, 1.6444981206957304E9, 0.0, 2022-02-11 00:02:00.695
230.0, -11615.039302711404, -13754.503578484486, -9941.273622664647, -16704.26329425136, -2846.964043016916, -3019.2959927673332, -4558.615929915421, -6147.512036265378, -20350.27984980105, -17834.43454914505, -24354.125482335745, -14520.319047012217, -9232.92448913151, -13621.354236764222, -9112.627400473048, -11094.109546436019, 0.0112890625, -0.028171875, 0.988109375, 192.0, 0.0, 0.0, 0.0, 0.0, 0.0, 0.0, 0.0, 0.0, 0.0, 1.6444981206957388E9, 0.0, 2022-02-11 00:02:00.695
232.0, -11623.957648749072, -13742.344229500799, -9941.139512197913, -16705.93967508551, -2847.098153483648, -3002.7780536148616, -4566.28257826359, -6145.45567577549, -20349.564593978477, -17840.71538933699, -24367.089494119824, -14537.239317564883, -9238.601832223158, -13609.016073824892, -9123.177423855952, -11097.417604615404, 0.0112890625, -0.028171875, 0.988109375, 192.0, 0.0, 0.0, 0.0, 0.0, 0.0, 0.0, 0.0, 0.0, 0.0, 1.644498120695746E9, 0.0, 2022-02-11 00:02:00.695
234.0, -11621.834233025818, -13746.233433036023, -9931.237689404214, -16702.519858183845, -2832.725981798885, -3000.721693124973, -4551.865703089918, -6132.446960502501, -20344.44604449821, -17832.847575288724, -24349.632781700227, -14516.072215565708, -9224.140253560574, -13611.877097115172, -9118.61766798707, -11091.00265395673, 0.012, -0.024, 0.992, 192.0, 0.0, 48.0, 127.5, 32.0, 15.5, 0.0, 0.0, 0.0, 0.0, 1.6444981206957526E9, 0.0, 2022-02-11 00:02:00.695
236.0, -11619.86727951375, -13749.67560168214, -9935.931555739828, -16709.091271053705, -2846.2711389388014, -3002.5768879147636, -4552.759772868129, -6133.385733769624, -20344.423692753757, -17843.464653904994, -24358.886403904726, -14518.39679698906, -9215.601887178647, -13606.3115127458, -9115.622534230059, -11091.606151057023, 0.012, -0.024, 0.992, 192.0, 0.0, 0.0, 0.0, 0.0, 0.0, 0.0, 0.0, 0.0, 0.0, 1.6444981206957593E9, 0.0, 2022-02-11 00:02:00.695
238.0, -11615.553392833877, -13753.296584283898, -9928.86840449195, -16708.800698375788, -2839.23033943538, -3000.7440448694283, -4538.879339561384, -6133.765713425364, -20344.468396242668, -17836.401502657118, -24357.925278893148, -14530.10911108364, -9228.230622795894, -13597.88490508615, -9116.807176686189, -11094.355415625027, 0.012, -0.024, 0.992, 192.0, 0.0, 0.0, 0.0, 0.0, 0.0, 0.0, 0.0, 0.0, 0.0, 1.6444981206957664E9, 0.0, 2022-02-11 00:02:00.695
240.0, -11626.863375528263, -13771.513256014974, -9937.362067384967, -16712.01934957735, -2848.573368617698, -3015.2503270209227, -4553.51973217961, -6148.428457788045, -20351.240974812627, -17836.848537546222, -24347.129386321234, -14522.643628435568, -9227.761236162334, -13630.898431646638, -9118.438854031427, -11098.870468004998, 0.012, -0.024, 0.992, 192.0, 0.0, 0.0, 0.0, 0.0, 0.0, 0.0, 0.0, 0.0, 0.0, 1.6444981211745791E9, 0.0, 2022-02-11 00:02:01.174
242.0, -11629.88086102973, -13770.865055425771, -9941.653602320386, -16713.606323433676, -2848.4839616398767, -3009.9976670739256, -4553.653842646342, -6147.243815331914, -20357.722980704664, -17854.238194732454, -24367.894156920214, -14536.389951275582, -9232.432750753493, -13615.855707628216, -9128.720656480868, -11102.133822695474, 0.012, -0.024, 0.992, 192.0, 0.0, 0.0, 0.0, 0.0, 0.0, 0.0, 0.0, 0.0, 0.0, 1.6444981211748314E9, 0.0, 2022-02-11 00:02:01.174
244.0, -11626.237526683513, -13766.640575723717, -9939.664297063864, -16716.087367068216, -2842.471342381399, -3011.249364763423, -4548.155313510337, -6140.471236761956, -20352.157396335293, -17852.762979598403, -24357.701761448596, -14520.453157478949, -9225.146082061063, -13622.65063794263, -9127.111330880087, -11099.76453778321, 0.008, -0.028, 0.988, 192.0, 0.0, 32.0, 127.5, 16.0, 15.0, 112.0, 0.0, 0.0, 0.0, 1.6444981211748497E9, 0.0, 2022-02-11 00:02:01.174
246.0, -11637.525157633443, -13767.44523852411, -9943.419390132356, -16722.41291074907, -2850.4285634074886, -3021.955850357515, -4559.934682838283, -6152.5858822567325, -20358.25942257159, -17853.791159843346, -24360.741598694516, -14537.440483264982, -9222.955611104442, -13631.300763046833, -9130.218223359374, -11108.168793698405, 0.008, -0.028, 0.988, 192.0, 0.0, 0.0, 0.0, 0.0, 0.0, 0.0, 0.0, 0.0, 0.0, 1.6444981211748571E9, 0.0, 2022-02-11 00:02:01.174
248.0, -11629.232660440524, -13766.282947812433, -9935.953907484283, -16719.68599792552, -2835.7211155558966, -3010.1317775406574, -4551.016336800616, -6147.377925798646, -20357.23124232665, -17855.28872672185, -24361.43450277263, -14535.294715797272, -9229.527023974302, -13620.79544315284, -9133.056894905198, -11107.364130898015, 0.008, -0.028, 0.988, 192.0, 0.0, 0.0, 0.0, 0.0, 0.0, 0.0, 0.0, 0.0, 0.0, 1.6444981211748643E9, 0.0, 2022-02-11 00:02:01.174
250.0, -11621.655419070175, -13755.1964825626, -9941.20656743128, -16719.88716362562, -2838.2692144238013, -3007.851899606216, -4562.125153794904, -6142.639355974121, -20356.940669648728, -17841.452996904016, -24356.383008525732, -14536.59111697568, -9226.040151839275, -13619.677855930073, -9121.791615699723, -11101.575029084092, 0.008, -0.028, 0.988, 192.0, 0.0, 0.0, 0.0, 0.0, 0.0, 0.0, 0.0, 0.0, 0.0, 1.6444981211748712E9, 0.0, 2022-02-11 00:02:01.174
252.0, -11619.621410324742, -13767.556997246385, -9943.44174187681, -16716.17677404604, -2841.0631824807147, -3006.8460711057273, -4573.882171378395, -6151.892978178618, -20357.633573726842, -17847.935002796057, -24371.29162207742, -14530.64555295057, -9227.895346629066, -13629.713789190506, -9128.631249503047, -11103.787851785166, 0.008, -0.028, 0.988, 192.0, 0.0, 0.0, 0.0, 0.0, 0.0, 0.0, 0.0, 0.0, 0.0, 1.644498121174878E9, 0.0, 2022-02-11 00:02:01.174
254.0, -11615.329875389323, -13761.007936120981, -9934.881023750428, -16716.98143684643, -2829.887310253061, -3005.281448993856, -4534.632508114875, -6149.255472332892, -20354.571384736468, -17851.01954353089, -24353.81255791337, -14517.189802788473, -9221.346285503661, -13601.21531500999, -9128.51949078077, -11101.53032559518, 0.012, -0.026000000000000002, 0.99, 192.0, 0.0, 48.0, 127.5, 24.0, 15.0, 120.0, 0.0, 0.0, 0.0, 1.6444981211748855E9, 0.0, 2022-02-11 00:02:01.174
0.0, -11640.721457090553, -13766.886444912727, -9939.150206941391, -16726.771500917854, -2836.7492958008406, -3014.3115537537997, -4528.821054556496, -6135.933832637529, -20356.15835859279, -17849.320810952286, -24362.52973825094, -14533.953611129953, -9229.549375718758, -13615.3639692502, -9120.47286277686, -11103.363168640515, 0.012, -0.026000000000000002, 0.99, 192.0, 0.0, 0.0, 0.0, 0.0, 0.0, 0.0, 0.0, 0.0, 0.0, 1.644498121174893E9, 0.0, 2022-02-11 00:02:01.174
2.0, -11633.97123026505, -13766.752334445995, -9935.909203995372, -16723.374035760648, -2831.2954701537456, -3002.3310187257553, -4539.080505261481, -6130.92704187954, -20358.41588478278, -17839.10606373621, -24358.081741104335, -14534.64651520807, -9224.631991938591, -13616.660370428608, -9127.156034368996, -11107.05120647564, 0.012, -0.026000000000000002, 0.99, 192.0, 0.0, 0.0, 0.0, 0.0, 0.0, 0.0, 0.0, 0.0, 0.0, 1.6444981211749003E9, 0.0, 2022-02-11 00:02:01.174
4.0, -11632.92069827565, -13759.711534942573, -9940.82658777554, -16722.5470212158, -2842.471342381399, -3009.3941699736324, -4554.413801957822, -6137.006716371384, -20360.807521439496, -17848.136168496152, -24349.252802044488, -14517.949762099954, -9223.983791349387, -13605.88682960115, -9130.151168126007, -11103.005540729231, 0.012, -0.026000000000000002, 0.99, 192.0, 0.0, 0.0, 0.0, 0.0, 0.0, 0.0, 0.0, 0.0, 0.0, 1.6444981211749072E9, 0.0, 2022-02-11 00:02:01.174
6.0, -11631.311372674869, -13754.548281973397, -9943.017058732159, -16727.017370106863, -2841.219644691902, -3009.1035972957134, -4550.681060633786, -6144.829826930742, -20361.142797606328, -17849.834901074755, -24368.341191809322, -14532.92543088501, -9228.25297454035, -13618.135585562657, -9136.767284484778, -11112.840308289566, 0.012, -0.026000000000000002, 0.99, 192.0, 0.0, 0.0, 0.0, 0.0, 0.0, 0.0, 0.0, 0.0, 0.0, 1.644498121174922E9, 0.0, 2022-02-11 00:02:01.174
8.0, -11613.273514899436, -13752.894252883703, -9933.383456871923, -16722.569372960257, -2830.4908073533547, -3006.2202222609785, -4544.467275675211, -6144.695716464009, -20354.951364392207, -17847.53267139586, -24359.53460449393, -14529.103282583152, -9225.190785549974, -13616.593315195241, -9129.368857070072, -11110.493375121758, 0.014, -0.03, 0.992, 192.0, 0.0, 56.0, 127.5, 8.0, 15.5, 0.0, 0.0, 0.0, 0.0, 1.6444981211749291E9, 0.0, 2022-02-11 00:02:01.174
10.0, -11630.260840685469, -13758.415133764165, -9944.782846544129, -16728.98432361893, -2846.2040837054356, -3013.7751118868723, -4550.122267022403, -6149.948376411006, -20356.091303359426, -17839.195470714032, -24355.91362189217, -14533.30541054075, -9226.375428006104, -13613.620533182686, -9127.938345424933, -11114.695503079356, 0.014, -0.03, 0.992, 192.0, 0.0, 0.0, 0.0, 0.0, 0.0, 0.0, 0.0, 0.0, 0.0, 1.6444981211749363E9, 0.0, 2022-02-11 00:02:01.174
12.0, -11624.851718527285, -13769.211026336077, -9940.759532542173, -16720.177736303536, -2841.4655138809103, -3005.437911205043, -4547.685926876775, -6143.712239707976, -20362.439198784734, -17858.686191879056, -24364.67550571865, -14530.667904695023, -9235.338477532683, -13629.467920001498, -9135.38147632855, -11118.495299636757, 0.014, -0.03, 0.992, 192.0, 0.0, 0.0, 0.0, 0.0, 0.0, 0.0, 0.0, 0.0, 0.0, 1.6444981211749432E9, 0.0, 2022-02-11 00:02:01.174
14.0, -11634.910003532172, -13774.307224071888, -9945.900433766894, -16727.039721851317, -2846.449952894444, -3009.282411251356, -4564.80736312954, -6152.764696212375, -20364.85318718591, -17849.544328396838, -24357.277078303945, -14523.895326125066, -9228.364733262628, -13619.230821040968, -9131.492272793326, -11114.829613546088, 0.014, -0.03, 0.992, 192.0, 0.0, 0.0, 0.0, 0.0, 0.0, 0.0, 0.0, 0.0, 0.0, 1.6444981211749501E9, 0.0, 2022-02-11 00:02:01.174
16.0, -11642.241375713513, -13765.478285012041, -9944.11229421047, -16733.65583821009, -2845.9358627719716, -3011.115254296691, -4559.353537482445, -6148.495513021411, -20362.662716229286, -17857.278031978374, -24369.034095887437, -14546.090608369186, -9228.945878618464, -13625.645771699641, -9137.124912396064, -11123.323276439105, 0.014, -0.03, 0.992, 192.0, 0.0, 0.0, 0.0, 0.0, 0.0, 0.0, 0.0, 0.0, 0.0, 1.6444981211749568E9, 0.0, 2022-02-11 00:02:01.174
18.0, -11640.296773945902, -13770.708593214584, -9940.044276719604, -16729.341951530212, -2842.1137144701142, -3009.2600595069002, -4549.474066433199, -6144.4274955305455, -20368.31770757648, -17855.28872672185, -24365.748389452507, -14536.702875697956, -9226.040151839275, -13626.048103099836, -9129.033580903242, -11117.847099047554, 0.012, -0.026000000000000002, 0.992, 192.0, 0.0, 48.0, 127.5, 24.0, 15.5, 0.0, 0.0, 0.0, 0.0, 1.6444981211749637E9, 0.0, 2022-02-11 00:02:01.174
20.0, -11661.620338156265, -13798.201238894611, -9950.951928013794, -16738.617925479168, -2854.3624704316226, -3026.3367922707553, -4564.472086962711, -6160.811324216285, -20381.549940294022, -17877.215788032507, -24370.621069743764, -14537.909869898544, -9239.942936890477, -13627.120986833692, -9139.024810674764, -11124.329104939594, 0.012, -0.026000000000000002, 0.992, 192.0, 0.0, 0.0, 0.0, 0.0, 0.0, 0.0, 0.0, 0.0, 0.0, 1.6444981211749704E9, 0.0, 2022-02-11 00:02:01.174
22.0, -11655.719477620063, -13795.697843515616, -9945.498102366699, -16733.007637620885, -2838.51508361281, -3015.3844374876544, -4554.413801957822, -6157.525617781355, -20385.97558569617, -17884.34599451375, -24381.506369293496, -14544.995372890875, -9241.485207257892, -13625.623419955185, -9140.321211853172, -11128.173604985906, 0.012, -0.026000000000000002, 0.992, 192.0, 0.0, 0.0, 0.0, 0.0, 0.0, 0.0, 0.0, 0.0, 0.0, 1.6444981211749773E9, 0.0, 2022-02-11 00:02:01.174
24.0, -11687.749527424518, -13817.602553081817, -9949.856692535484, -16736.963896389472, -2847.098153483648, -3013.3057252533113, -4567.646034675364, -6149.300175821802, -20384.54507405103, -17874.980613586977, -24366.754217952996, -14536.658172209047, -9228.543547218269, -13627.3668560227, -9133.973316427866, -11120.082273493084, 0.012, -0.026000000000000002, 0.992, 192.0, 0.0, 0.0, 0.0, 0.0, 0.0, 0.0, 0.0, 0.0, 0.0, 1.6444981211749837E9, 0.0, 2022-02-11 00:02:01.174
26.0, -11720.293667351445, -13842.703562105127, -9957.568044372565, -16741.188376091526, -2853.7142698424186, -3019.4971584674313, -4560.247607260658, -6152.272957834359, -20403.365242882403, -17890.224503305497, -24391.743468254026, -14554.092532884186, -9230.912832130532, -13629.780844423873, -9137.728409496356, -11124.932602039886, 0.012, -0.026000000000000002, 0.992, 192.0, 0.0, 0.0, 0.0, 0.0, 0.0, 0.0, 0.0, 0.0, 0.0, 1.6444981211749904E9, 0.0, 2022-02-11 00:02:01.174
28.0, -11736.141054170259, -13869.369193240309, -9953.991765259716, -16741.41189353608, -2843.700688326441, -3013.3951322311323, -4557.967729326217, -6147.847312432207, -20411.74714705314, -17901.087451110776, -24393.77747699946, -14559.993393420387, -9234.82438741021, -13628.417388012098, -9138.801293230212, -11121.043398504664, 0.016, -0.026000000000000002, 0.99, 192.0, 0.0, 64.0, 127.5, 24.0, 15.0, 120.0, 0.0, 0.0, 0.0, 1.644498121174997E9, 0.0, 2022-02-11 00:02:01.174
30.0, -11780.017528536026, -13912.597467016873, -9965.435858420833, -16750.196129107015, -2854.630691365086, -3017.4184462330877, -4563.980348584694, -6154.821056702263, -20431.99782752965, -17917.292465840874, -24410.653044063216, -14570.811637736755, -9244.949727648465, -13628.663257201108, -9137.23667111834, -11126.072541007106, 0.016, -0.026000000000000002, 0.99, 192.0, 0.0, 0.0, 0.0, 0.0, 0.0, 0.0, 0.0, 0.0, 0.0, 1.644498121175004E9, 0.0, 2022-02-11 00:02:01.175
32.0, -11802.592790435887, -13929.718903269639, -9955.087000738025, -16750.196129107015, -2839.185635946469, -3001.079321036258, -4551.776296112096, -6133.698658191998, -20436.110548509427, -17922.388663576683, -24421.583047101863, -14586.055527455275, -9236.92545138901, -13609.88779185865, -9135.739104239834, -11119.970514770808, 0.016, -0.026000000000000002, 0.99, 192.0, 0.0, 0.0, 0.0, 0.0, 0.0, 0.0, 0.0, 0.0, 0.0, 1.6444981211750107E9, 0.0, 2022-02-11 00:02:01.175
34.0, -11836.656848985775, -13970.264967711564, -9967.894550310917, -16761.84138796823, -2853.4907523978654, -3015.093864809736, -4561.298139250057, -6137.207882071481, -20451.108569038937, -17936.35850386125, -24427.305093682422, -14598.214876438962, -9239.764122934834, -13626.070454844292, -9132.699266993914, -11119.29996243715, 0.016, -0.026000000000000002, 0.99, 192.0, 0.0, 0.0, 0.0, 0.0, 0.0, 0.0, 0.0, 0.0, 0.0, 1.6444981211750174E9, 0.0, 2022-02-11 00:02:01.175
36.0, -11831.20302333868, -13973.215397979666, -9975.471791681266, -16757.46044605499, -2846.2487871943463, -3013.015152575392, -4553.072697290504, -6136.962012882473, -20459.24460402067, -17946.46149235505, -24455.40123646274, -14624.74639710741, -9247.698992216468, -13656.088847647768, -9141.32704035366, -11128.01714277472, 0.016, -0.026000000000000002, 0.99, 192.0, 0.0, 0.0, 0.0, 0.0, 0.0, 0.0, 0.0, 0.0, 0.0, 1.644498121175024E9, 0.0, 2022-02-11 00:02:01.175
38.0, -11827.023247125537, -13986.33587197493, -9961.099619996503, -16748.87737618415, -2835.385839389067, -3010.3776467296657, -4541.181569240281, -6136.045591359805, -20446.81703410352, -17930.50234681396, -24433.094195496345, -14597.589027594213, -9241.708724702445, -13634.608821226218, -9130.598203015114, -11120.998695015753, 0.01, -0.024, 0.994, 192.0, 0.0, 40.0, 127.5, 32.0, 15.5, 8.0, 0.0, 0.0, 0.0, 1.6444981211750336E9, 0.0, 2022-02-11 00:02:01.175
40.0, -11826.084473858415, -13969.415601422263, -9965.16763748737, -16756.991059421427, -2845.779400560785, -3016.5467281993306, -4552.804476357041, -6141.879396662641, -20449.320429482512, -17945.16509117664, -24418.856134278314, -14591.442297869004, -9242.245166569373, -13638.140396850158, -9133.213357116385, -11127.435997418881, 0.01, -0.024, 0.994, 192.0, 0.0, 0.0, 0.0, 0.0, 0.0, 0.0, 0.0, 0.0, 0.0, 1.6444981211750405E9, 0.0, 2022-02-11 00:02:01.175
42.0, -11818.261363299056, -13945.365124388352, -9962.239558963724, -16753.325373330757, -2841.3314034141786, -3011.1599577856014, -4551.597482156454, -6137.990193127417, -20441.34085671197, -17935.665599783137, -24425.561657614908, -14589.69886180149, -9235.226718810407, -13612.927629104572, -9137.549595540715, -11128.039494519175, 0.01, -0.024, 0.994, 192.0, 0.0, 0.0, 0.0, 0.0, 0.0, 0.0, 0.0, 0.0, 0.0, 1.644498121175047E9, 0.0, 2022-02-11 00:02:01.175
44.0, -11805.118537559336, -13928.221336391132, -9967.73808809973, -16752.61011750819, -2847.9475197729494, -3008.0977687952245, -4565.299101507557, -6143.958108896984, -20447.599345159455, -17928.580096790804, -24418.54320985594, -14580.467591341448, -9238.802997923256, -13605.462146456499, -9139.941232197432, -11124.999657273253, 0.01, -0.024, 0.994, 192.0, 0.0, 0.0, 0.0, 0.0, 0.0, 0.0, 0.0, 0.0, 0.0, 1.6444981211750538E9, 0.0, 2022-02-11 00:02:01.175
46.0, -11791.796897863973, -13919.727673498115, -9968.743916600219, -16745.703428471497, -2842.605452848131, -3007.181347272557, -4560.337014238478, -6136.783198926831, -20438.725702610696, -17926.769605489924, -24427.953294271625, -14586.815486766754, -9235.45023625496, -13633.446530514542, -9142.958717698899, -11131.213442231829, 0.008, -0.026000000000000002, 0.992, 192.0, 0.0, 24.0, 127.5, 16.0, 15.0, 120.0, 0.0, 0.0, 0.0, 1.6444981211750605E9, 0.0, 2022-02-11 00:02:01.175
48.0, -11761.465580638122, -13893.889056907781, -9957.009250761183, -16742.21655633647, -2828.0097637188155, -2999.0676640352804, -4553.877360090895, -6124.087408076216, -20429.80735657303, -17907.390643047172, -24407.12146843928, -14573.873826727133, -9217.144157546063, -13623.477652487476, -9139.494197308326, -11126.273706707205, 0.008, -0.026000000000000002, 0.992, 192.0, 0.0, 0.0, 0.0, 0.0, 0.0, 0.0, 0.0, 0.0, 0.0, 1.6444981211750672E9, 0.0, 2022-02-11 00:02:01.175
50.0, -11760.70562132664, -13894.47020226362, -9963.200683975301, -16747.04453313882, -2837.352792901134, -3003.6497716486183, -4555.151409524848, -6136.805550671286, -20421.98424601367, -17909.178782603598, -24401.891160236737, -14570.83398948121, -9235.025553110308, -13627.568021722796, -9136.588470529136, -11130.229965475794, 0.008, -0.026000000000000002, 0.992, 192.0, 0.0, 0.0, 0.0, 0.0, 0.0, 0.0, 0.0, 0.0, 0.0, 1.6444981211750743E9, 0.0, 2022-02-11 00:02:01.175
52.0, -11738.4209321047, -13870.956167096636, -9957.344526928011, -16743.445902281514, -2833.754162043829, -3003.470957692976, -4555.263168247124, -6141.879396662641, -20419.413795401313, -17892.012642861922, -24409.1107736958, -14578.522989573836, -9232.25393679785, -13614.894582616638, -9139.449493819415, -11132.82276783261, 0.008, -0.026000000000000002, 0.992, 192.0, 0.0, 0.0, 0.0, 0.0, 0.0, 0.0, 0.0, 0.0, 0.0, 1.6444981211750815E9, 0.0, 2022-02-11 00:02:01.175
54.0, -11724.585202286864, -13873.526617708996, -9964.005346775693, -16741.791873191818, -2845.175903460491, -3001.504004180909, -4563.220389273213, -6123.97564935394, -20413.4682313762, -17904.417861034617, -24400.527703824962, -14565.35781208966, -9228.185919306985, -13612.927629104572, -9141.416447331483, -11126.854852063043, 0.008, -0.026000000000000002, 0.992, 192.0, 0.0, 0.0, 0.0, 0.0, 0.0, 0.0, 0.0, 0.0, 0.0, 1.644498121175088E9, 0.0, 2022-02-11 00:02:01.175
56.0, -11734.643487291753, -13874.1748182982, -9965.949948543304, -16744.094102870717, -2847.701650583941, -3009.4165217180876, -4560.851104360951, -6132.290498291314, -20409.199048185237, -17916.286637340385, -24404.4616108491, -14568.755277246866, -9235.49493974387, -13615.989818094948, -9141.796426987223, -11128.218308474816, 0.007, -0.027000000000000003, 0.99, 192.0, 0.0, 24.0, 127.5, 16.0, 15.0, 112.0, 0.0, 0.0, 0.0, 1.6444981211750948E9, 0.0, 2022-02-11 00:02:01.175
58.0, -11717.70086499463, -13855.60051865584, -9965.68172760984, -16748.050361639307, -2838.7833045462735, -3005.952001327515, -4535.32541219299, -6131.552890724289, -20415.055205232526, -17905.289579068372, -24397.487866579042, -14564.329631844716, -9223.559108204736, -13626.428082755576, -9135.202662372907, -11130.185261986884, 0.007, -0.027000000000000003, 0.99, 192.0, 0.0, 0.0, 0.0, 0.0, 0.0, 0.0, 0.0, 0.0, 0.0, 1.6444981211751015E9, 0.0, 2022-02-11 00:02:01.175
60.0, -11719.354894084323, -13847.039800529457, -9962.887759552928, -16748.542100017323, -2840.593795847153, -3008.053065306314, -4557.967729326217, -6142.460542018479, -20405.980396983672, -17898.718166198512, -24395.520913066975, -14570.7892859923, -9238.53477698979, -13630.809024668817, -9139.225976374863, -11135.10264576705, 0.007, -0.027000000000000003, 0.99, 192.0, 0.0, 0.0, 0.0, 0.0, 0.0, 0.0, 0.0, 0.0, 0.0, 1.6444981211751084E9, 0.0, 2022-02-11 00:02:01.175
62.0, -11700.802946186417, -13836.73564633556, -9951.823646047551, -16742.97651564795, -2829.5967375751425, -2994.1726319995682, -4557.475990948199, -6139.5995187282, -20400.258350403114, -17897.801744675846, -24394.425677588664, -14566.900082457076, -9231.002239108353, -13600.254189998412, -9142.086999665142, -11132.688657365878, 0.007, -0.027000000000000003, 0.99, 192.0, 0.0, 0.0, 0.0, 0.0, 0.0, 0.0, 0.0, 0.0, 0.0, 1.6444981211751156E9, 0.0, 2022-02-11 00:02:01.175
64.0, -11699.774765941474, -13820.508279861007, -9956.897492038905, -16744.78700694883, -2834.5588248442205, -3003.2027367595124, -4546.143656509359, -6132.089332591216, -20399.766612025098, -17884.54716021385, -24382.355735582798, -14556.730038729911, -9226.666000684023, -13602.019977810382, -9135.403828073006, -11131.280497465194, 0.007, -0.027000000000000003, 0.99, 192.0, 0.0, 0.0, 0.0, 0.0, 0.0, 0.0, 0.0, 0.0, 0.0, 1.6444981211751225E9, 0.0, 2022-02-11 00:02:01.175
66.0, -11697.31607405139, -13828.040817742447, -9961.077268252047, -16741.166024347072, -2841.867845281106, -2997.9947803014256, -4551.32926122299, -6119.997038840895, -20408.4167371293, -17885.39652650315, -24399.991261958035, -14570.901044714576, -9228.543547218269, -13621.041312341848, -9143.517511310281, -11135.661439378435, 0.0085, -0.027500000000000004, 0.99, 192.0, 0.0, 40.0, 127.5, 16.0, 15.0, 120.0, 0.0, 0.0, 0.0, 1.6444981211751294E9, 0.0, 2022-02-11 00:02:01.175
68.0, -11677.154800552702, -13815.881468758758, -9950.72841056924, -16737.254469067393, -2833.0389062212594, -2988.2717714633673, -4556.4478107032555, -6124.132111565127, -20391.18354215426, -17882.714317168513, -24377.572462269363, -14550.583309004702, -9210.81861386521, -13604.165745278091, -9146.37853460056, -11130.475834664803, 0.0085, -0.027500000000000004, 0.99, 192.0, 0.0, 0.0, 0.0, 0.0, 0.0, 0.0, 0.0, 0.0, 0.0, 1.6444981211751368E9, 0.0, 2022-02-11 00:02:01.175
70.0, -11687.54836172442, -13818.854250771315, -9961.54665488561, -16746.575146505256, -2839.7220778133965, -3001.7722251143728, -4547.752982110141, -6138.191358827515, -20390.33417586496, -17896.237122563973, -24375.49375003502, -14551.857358438654, -9228.767064662823, -13618.761434407406, -9148.747819512822, -11133.560375399635, 0.0085, -0.027500000000000004, 0.99, 192.0, 0.0, 0.0, 0.0, 0.0, 0.0, 0.0, 0.0, 0.0, 0.0, 1.6444981211751456E9, 0.0, 2022-02-11 00:02:01.175
72.0, -11665.844817858317, -13805.35379712031, -9956.182236216335, -16743.468254025967, -2832.390705632056, -2996.3854547006435, -4545.070772775504, -6134.257451803381, -20389.28364387556, -17897.511171997925, -24384.166226883677, -14563.949652188976, -9226.308372772739, -13616.705073917517, -9148.61370904609, -11138.969497557819, 0.0085, -0.027500000000000004, 0.99, 192.0, 0.0, 0.0, 0.0, 0.0, 0.0, 0.0, 0.0, 0.0, 0.0, 1.6444981211751525E9, 0.0, 2022-02-11 00:02:01.175
74.0, -11674.137315051237, -13789.238189368034, -9961.032564763138, -16745.725780215955, -2840.1691127025024, -3004.722655382473, -4559.71116539373, -6145.992117642417, -20388.367222352892, -17881.06028807882, -24372.54331976692, -14552.103227627664, -9212.673808655001, -13613.97816109397, -9148.256081134807, -11140.48941618078, 0.0085, -0.027500000000000004, 0.99, 192.0, 0.0, 0.0, 0.0, 0.0, 0.0, 0.0, 0.0, 0.0, 0.0, 1.644498121175161E9, 0.0, 2022-02-11 00:02:01.175
76.0, -11681.491038977032, -13802.470422085575, -9969.59328288952, -16758.443922811024, -2849.4674383959104, -3005.370855971677, -4567.489572464177, -6151.803571200797, -20392.636405543853, -17892.325567284297, -24388.59187228583, -14568.844684224689, -9226.218965794917, -13605.149222034124, -9158.046145206232, -11149.49716919627, 0.009250000000000001, -0.027750000000000004, 0.991, 192.0, 0.0, 40.0, 127.5, 16.0, 15.5, 0.0, 0.0, 0.0, 0.0, 1.6444981211751678E9, 0.0, 2022-02-11 00:02:01.175
78.0, -11665.889521347228, -13796.234285382545, -9962.619538619463, -16751.023143651862, -2848.5957203621533, -3011.472882207976, -4580.744156926174, -6158.039707903828, -20395.162152667304, -17885.195360803053, -24381.886348949236, -14564.284928355806, -9230.577555963702, -13622.672989687086, -9164.908130754011, -11152.805227375655, 0.009250000000000001, -0.027750000000000004, 0.991, 192.0, 0.0, 0.0, 0.0, 0.0, 0.0, 0.0, 0.0, 0.0, 0.0, 1.6444981211751745E9, 0.0, 2022-02-11 00:02:01.175
80.0, -11671.142181294224, -13794.893180715226, -9965.63702412093, -16752.74422797492, -2852.7531448308405, -3015.764417143395, -4573.1222120669145, -6167.3156818527805, -20390.46828633169, -17891.006814361433, -24377.01366865798, -14563.703782999968, -9232.991544364875, -13623.634114698663, -9169.780811045268, -11157.432038477902, 0.009250000000000001, -0.027750000000000004, 0.991, 192.0, 0.0, 0.0, 0.0, 0.0, 0.0, 0.0, 0.0, 0.0, 0.0, 1.6444981211751819E9, 0.0, 2022-02-11 00:02:01.175
82.0, -11651.07031477336, -13790.06520391288, -9960.563178129576, -16743.959992403983, -2846.695822083452, -3003.5603646707973, -4568.137773053381, -6152.652937490098, -20384.030983928562, -17876.209959532018, -24377.594814013817, -14557.378239319116, -9231.829253653199, -13610.558344192308, -9169.803162789722, -11153.654593664956, 0.009250000000000001, -0.027750000000000004, 0.991, 192.0, 0.0, 0.0, 0.0, 0.0, 0.0, 0.0, 0.0, 0.0, 0.0, 1.6444981211751888E9, 0.0, 2022-02-11 00:02:01.175
84.0, -11654.4007246972, -13773.122581615757, -9966.933425299338, -16750.352591318202, -2848.036926750771, -3003.78388211535, -4567.511924208632, -6160.341937582724, -20379.918262948784, -17876.88051186568, -24367.335363308834, -14550.113922371142, -9227.87299488461, -13612.324132004278, -9167.702098810923, -11151.262957008239, 0.009250000000000001, -0.027750000000000004, 0.991, 192.0, 0.0, 0.0, 0.0, 0.0, 0.0, 0.0, 0.0, 0.0, 0.0, 1.6444981211751957E9, 0.0, 2022-02-11 00:02:01.175
86.0, -11658.35698346579, -13769.635709480728, -9971.627291634954, -16752.96774541947, -2853.3566419311337, -3002.822757103772, -4571.691700421775, -6156.497437536412, -20385.774419996076, -17888.414012004618, -24379.181787870144, -14558.45112305297, -9222.508576215336, -13609.865440114194, -9171.993633746342, -11156.537968699691, 0.007625000000000001, -0.024875, 0.9904999999999999, 192.0, 0.0, 24.0, 127.5, 40.0, 15.0, 120.0, 0.0, 0.0, 0.0, 1.6444981211752024E9, 0.0, 2022-02-11 00:02:01.175
88.0, -11650.086838017325, -13780.364546819275, -9959.244425206713, -16744.429379037545, -2842.7172115704075, -2990.886925564638, -4587.00264537366, -6153.859931690685, -20378.197178625727, -17874.757096142424, -24358.77464518245, -14543.229585078907, -9214.752520889346, -13598.063719041791, -9173.044165735742, -11150.480645952302, 0.007625000000000001, -0.024875, 0.9904999999999999, 192.0, 0.0, 0.0, 0.0, 0.0, 0.0, 0.0, 0.0, 0.0, 0.0, 1.644498121175221E9, 0.0, 2022-02-11 00:02:01.175
90.0, -11652.92550956315, -13768.786343191427, -9964.49708515371, -16745.99400114942, -2849.2215692069017, -2992.920934310071, -4579.850087147962, -6145.165103097571, -20371.3575448224, -17863.469465192495, -24354.81838641386, -14539.765064688334, -9222.687390170979, -13594.241570739934, -9168.730279055868, -11150.145369785472, 0.007625000000000001, -0.024875, 0.9904999999999999, 192.0, 0.0, 0.0, 0.0, 0.0, 0.0, 0.0, 0.0, 0.0, 0.0, 1.6444981211752284E9, 0.0, 2022-02-11 00:02:01.175
92.0, -11641.883747802229, -13777.749392718006, -9966.665204365874, -16736.136881844628, -2842.9183772705055, -2990.283428464345, -4569.590636442976, -6141.9017484070955, -20371.737524478143, -17853.165310998596, -24370.017572643468, -14548.124617114618, -9219.334628502684, -13609.865440114194, -9170.697232567934, -11146.792608117177, 0.007625000000000001, -0.024875, 0.9904999999999999, 192.0, 0.0, 0.0, 0.0, 0.0, 0.0, 0.0, 0.0, 0.0, 0.0, 1.6444981211752353E9, 0.0, 2022-02-11 00:02:01.175
94.0, -11652.523178162954, -13777.704689229095, -9969.325061956057, -16742.238908080926, -2841.4208103919996, -2995.4243296890654, -4567.735441653185, -6143.823998430253, -20377.12429489187, -17875.04766882034, -24364.11671210727, -14549.68923922649, -9227.96240186243, -13600.902390587617, -9169.423183133982, -11147.530215684203, 0.007625000000000001, -0.024875, 0.9904999999999999, 192.0, 0.0, 0.0, 0.0, 0.0, 0.0, 0.0, 0.0, 0.0, 0.0, 1.644498121175242E9, 0.0, 2022-02-11 00:02:01.175
96.0, -11649.125713005747, -13769.948633903103, -9971.537884657131, -16746.664553483075, -2842.158417959025, -2996.340751211733, -4561.275787505601, -6147.556739754288, -20388.32251886398, -17875.718221154002, -24376.119598879766, -14547.632878736602, -9220.854547125644, -13601.461184198999, -9171.904226768522, -11152.82757912011, 0.008812500000000001, -0.0214375, 0.99125, 192.0, 0.0, 40.0, 127.5, 56.0, 15.5, 0.0, 0.0, 0.0, 0.0, 1.644498121175249E9, 0.0, 2022-02-11 00:02:01.175
98.0, -11626.461044128066, -13750.189691804611, -9955.534035627132, -16743.75882670389, -2823.98644971686, -2985.6789691065514, -4554.771429869107, -6133.966879125462, -20372.966870423184, -17856.62983138917, -24355.95832538108, -14539.943878643977, -9213.612581922125, -13587.424288681066, -9164.706965053912, -11149.005430818252, 0.008812500000000001, -0.0214375, 0.99125, 192.0, 0.0, 0.0, 0.0, 0.0, 0.0, 0.0, 0.0, 0.0, 0.0, 1.644498121175256E9, 0.0, 2022-02-11 00:02:01.175
100.0, -11648.097532760803, -13773.524913015952, -9963.692422353319, -16748.519748272865, -2840.794961547251, -3004.4544344490096, -4558.99590957116, -6125.8755476326405, -20371.938690178238, -17860.49668317994, -24354.617220713764, -14545.196538590973, -9219.334628502684, -13610.357178492211, -9158.627290562068, -11149.653631407456, 0.008812500000000001, -0.0214375, 0.99125, 192.0, 0.0, 0.0, 0.0, 0.0, 0.0, 0.0, 0.0, 0.0, 0.0, 1.6444981211752627E9, 0.0, 2022-02-11 00:02:01.175
102.0, -11652.299660718401, -13777.145895617712, -9963.513608397676, -16746.284573827335, -2837.3974963900446, -2986.505983651398, -4562.371022983912, -6123.685076676021, -20377.50427454761, -17878.19926478854, -24370.017572643468, -14548.035210136797, -9222.419169237515, -13609.038425569348, -9165.757497043312, -11153.520483198225, 0.008812500000000001, -0.0214375, 0.99125, 192.0, 0.0, 0.0, 0.0, 0.0, 0.0, 0.0, 0.0, 0.0, 0.0, 1.644498121175272E9, 0.0, 2022-02-11 00:02:01.175
104.0, -11655.004221797493, -13772.273215326455, -9968.989785789227, -16748.519748272865, -2843.1418947150582, -2992.987989543437, -4562.572188684009, -6143.220501329959, -20385.237978129146, -17865.21290126001, -24365.860148174783, -14532.098416340163, -9216.428901723493, -13590.397070693622, -9162.404735375016, -11150.525349441214, 0.008812500000000001, -0.0214375, 0.99125, 192.0, 0.0, 0.0, 0.0, 0.0, 0.0, 0.0, 0.0, 0.0, 0.0, 1.6444981216555383E9, 0.0, 2022-02-11 00:02:01.655
106.0, -11656.948823565106, -13771.848532181804, -9973.080155024547, -16747.35745756119, -2851.8814267970833, -2998.799443101817, -4570.61881668792, -6138.526634994345, -20387.964890952695, -17865.25760474892, -24376.320764579865, -14547.58817524769, -9223.8273291382, -13620.929553619571, -9166.942139499442, -11156.381506488504, 0.01040625, -0.023718750000000004, 0.991625, 192.0, 0.0, 48.0, 127.5, 24.0, 15.5, 0.0, 0.0, 0.0, 0.0, 1.644498121655723E9, 0.0, 2022-02-11 00:02:01.655
108.0, -11630.886689530218, -13755.420000007154, -9966.754611343697, -16743.535309259332, -2835.631708578075, -2985.0307685173475, -4563.600368928954, -6129.720047678954, -20379.40417282631, -17866.26343324941, -24367.782398197938, -14548.057561881253, -9214.417244722516, -13590.486477671442, -9165.24340692084, -11149.340706985082, 0.01040625, -0.023718750000000004, 0.991625, 192.0, 0.0, 0.0, 0.0, 0.0, 0.0, 0.0, 0.0, 0.0, 0.0, 1.6444981216557305E9, 0.0, 2022-02-11 00:02:01.655
110.0, -11645.460026915078, -13759.1974448201, -9973.661300380385, -16751.157254118592, -2844.482999382377, -2988.048254018814, -4573.703357422753, -6144.78512344183, -20376.07376290247, -17854.975802299476, -24369.771703454462, -14544.771855446323, -9220.429863980993, -13593.436907939544, -9165.109296454108, -11149.675983151912, 0.01040625, -0.023718750000000004, 0.991625, 192.0, 0.0, 0.0, 0.0, 0.0, 0.0, 0.0, 0.0, 0.0, 0.0, 1.6444981216557376E9, 0.0, 2022-02-11 00:02:01.655
112.0, -11642.509596646976, -13768.987508891525, -9965.704079354296, -16751.98426866344, -2834.111789955114, -2989.8810970641493, -4560.359365982934, -6138.481931505434, -20379.40417282631, -17862.642450647647, -24369.279965076443, -14556.707686985457, -9210.952724331943, -13600.187134765047, -9167.724450555379, -11156.940300099886, 0.01040625, -0.023718750000000004, 0.991625, 192.0, 0.0, 0.0, 0.0, 0.0, 0.0, 0.0, 0.0, 0.0, 0.0, 1.644498121655745E9, 0.0, 2022-02-11 00:02:01.655
114.0, -11653.506654918989, -13771.669718226161, -9964.094753753514, -16752.40895180809, -2830.781380031274, -2994.9996465444146, -4567.176648041803, -6131.463483746467, -20379.694745504232, -17866.64341290515, -24358.662886460173, -14541.01676237783, -9213.076140055196, -13597.303759730312, -9165.109296454108, -11152.201730275361, 0.01040625, -0.023718750000000004, 0.991625, 192.0, 0.0, 0.0, 0.0, 0.0, 0.0, 0.0, 0.0, 0.0, 0.0, 1.644498121655752E9, 0.0, 2022-02-11 00:02:01.655
116.0, -11657.105285776292, -13771.088572870323, -9977.192876004325, -16756.521672787865, -2843.700688326441, -2989.1658412415795, -4593.104671609959, -6147.892015921118, -20381.773457738575, -17877.707526410526, -24376.72309598006, -14551.700896227467, -9216.138329045574, -13599.203658009012, -9171.658357579512, -11159.309585012148, 0.01, -0.028, 0.99, 192.0, 0.0, 40.0, 127.5, 16.0, 15.0, 120.0, 0.0, 0.0, 0.0, 1.644498121655759E9, 0.0, 2022-02-11 00:02:01.655
118.0, -11645.907061804184, -13759.778590175938, -9974.68948062533, -16753.325373330757, -2839.7220778133965, -2994.1949837440234, -4561.3204909945125, -6134.0339343588275, -20379.203007126216, -17849.477273163473, -24368.698819720605, -14549.555128759757, -9225.011971594331, -13604.366910978188, -9171.457191879415, -11156.627375677512, 0.01, -0.028, 0.99, 192.0, 0.0, 0.0, 0.0, 0.0, 0.0, 0.0, 0.0, 0.0, 0.0, 1.6444981216557667E9, 0.0, 2022-02-11 00:02:01.655
120.0, -11654.959518308582, -13773.413154293676, -9979.53980917213, -16752.96774541947, -2849.020403506804, -3005.92964958306, -4587.539087240588, -6155.625719502655, -20387.719021763685, -17879.272148522396, -24367.760046453484, -14551.969117160932, -9225.861337883633, -13623.991742609947, -9170.71958431239, -11161.231835035305, 0.01, -0.028, 0.99, 192.0, 0.0, 0.0, 0.0, 0.0, 0.0, 0.0, 0.0, 0.0, 0.0, 1.6444981216557744E9, 0.0, 2022-02-11 00:02:01.655
122.0, -11643.940108292116, -13780.92334043066, -9978.533980671642, -16759.025068166862, -2841.510217369821, -2992.630361632152, -4560.158200282836, -6130.994097112906, -20390.3118241205, -17890.49272423896, -24378.91356693668, -14559.613413764646, -9229.079989085198, -13606.736195890451, -9174.34056691415, -11163.601119947567, 0.01, -0.028, 0.99, 192.0, 0.0, 0.0, 0.0, 0.0, 0.0, 0.0, 0.0, 0.0, 0.0, 1.6444981216557815E9, 0.0, 2022-02-11 00:02:01.655
124.0, -11650.466817673067, -13768.451067024598, -9980.925617328361, -16760.433228067544, -2842.4936941258543, -2994.5526116553083, -4560.672290405309, -6130.435303501524, -20387.115524663393, -17874.82415137579, -24373.39268605622, -14550.382143304605, -9225.280192527794, -13616.012169839403, -9166.875084266077, -11156.381506488504, 0.01, -0.028, 0.99, 192.0, 0.0, 0.0, 0.0, 0.0, 0.0, 0.0, 0.0, 0.0, 0.0, 1.6444981216557887E9, 0.0, 2022-02-11 00:02:01.655
126.0, -11677.154800552702, -13778.934035174136, -9984.099565041013, -16763.718934502474, -2848.3945546620557, -2999.849975091216, -4575.111517323437, -6133.139864580616, -20397.151457923825, -17888.279901537884, -24381.21579661558, -14559.009916664352, -9224.743750660868, -13614.022864582881, -9173.9158837695, -11164.562244959146, 0.012, -0.024, 0.99, 192.0, 0.0, 48.0, 127.5, 32.0, 15.0, 120.0, 0.0, 0.0, 0.0, 1.6444981216557956E9, 0.0, 2022-02-11 00:02:01.655
128.0, -11653.819579341362, -13768.96515714707, -9975.203570747803, -16760.679097256554, -2840.057353980226, -2984.9413615395265, -4573.725709167208, -6123.126283064638, -20392.859922988406, -17875.315889753805, -24371.001049399503, -14550.940936915988, -9219.401683736049, -13603.964579577992, -9173.513552369304, -11157.8343698781, 0.012, -0.024, 0.99, 192.0, 0.0, 0.0, 0.0, 0.0, 0.0, 0.0, 0.0, 0.0, 0.0, 1.6444981216558022E9, 0.0, 2022-02-11 00:02:01.655
