%OpenBCI Raw EEG Data
%Number of channels = 16
%Sample Rate = 125 Hz
%Board = OpenBCI_GUI$BoardCytonSerialDaisy
Sample Index, EXG Channel 0, EXG Channel 1, EXG Channel 2, EXG Channel 3, EXG Channel 4, EXG Channel 5, EXG Channel 6, EXG Channel 7, EXG Channel 8, EXG Channel 9, EXG Channel 10, EXG Channel 11, EXG Channel 12, EXG Channel 13, EXG Channel 14, EXG Channel 15, Accel Channel 0, Accel Channel 1, Accel Channel 2, Other, Other, Other, Other, Other, Other, Other, Analog Channel 0, Analog Channel 1, Analog Channel 2, Timestamp, Other, Timestamp (Formatted)
0.0, -9532.12494041025, -11317.135252611071, -10196.038805966236, -16232.97676241121, -2970.6138933436746, -3461.189980648754, -6297.24637237148, -7197.954618686988, 0.0, 0.0, 0.0, 0.0, 0.0, 0.0, 0.0, 0.0, 0.004, -0.012, 0.494, 192.0, 0.0, 32.0, 127.5, 32.0, 15.0, 112.0, 0.0, 0.0, 0.0, 1.644498338067628E9, 0.0, 2022-02-11 00:05:38.067
84.0, -9530.135635153727, -11306.585229228167, -10191.322587886167, -16234.183756611796, -2973.5419718673197, -3460.184152148265, -6321.721532550041, -7206.716502513469, -17704.70502432645, -15626.238659171899, -23168.49954944844, -12814.948000305654, -7723.287668620071, -12716.913249124676, -10515.51228946594, -11378.691956840988, 0.004, -0.012, 0.494, 192.0, 0.0, 0.0, 0.0, 0.0, 0.0, 0.0, 0.0, 0.0, 0.0, 1.6444983380676358E9, 0.0, 2022-02-11 00:05:38.067
86.0, -9545.088952194328, -11314.207174087427, -10196.39643387752, -16237.134186879897, -2978.1911347140235, -3468.5884080634605, -6329.187015198114, -7215.813662506779, -17707.521344127817, -15619.756653279861, -23179.183683298073, -12833.343485992371, -7734.374133869903, -12753.346592586828, -10520.809652901848, -11386.291549955791, 0.004, -0.012, 0.494, 192.0, 0.0, 0.0, 0.0, 0.0, 0.0, 0.0, 0.0, 0.0, 0.0, 1.6444983380676427E9, 0.0, 2022-02-11 00:05:38.067
88.0, -9528.347495597303, -11323.19257535846, -10191.791974519727, -16235.971896168221, -2969.1610299540794, -3456.965500946701, -6314.5913260687985, -7199.2957233543075, -17717.02083552132, -15634.441749386997, -23172.433456472572, -12822.882869587287, -7727.422741344302, -12739.309697068895, -10521.435501746595, -11384.548113888279, 0.004, -0.012, 0.494, 192.0, 0.0, 0.0, 0.0, 0.0, 0.0, 0.0, 0.0, 0.0, 0.0, 1.6444983380676491E9, 0.0, 2022-02-11 00:05:38.067
90.0, -9547.547644084412, -11319.303371823236, -10201.962018246892, -16238.40823631385, -2981.6109516156857, -3467.6272830518824, -6327.845910530796, -7213.466729338972, -17720.46300416744, -15643.561261124762, -23175.965032096512, -12827.375570222805, -7732.541290824568, -12739.153234857708, -10521.927240124613, -11387.230323222915, 0.004, -0.012, 0.494, 192.0, 0.0, 0.0, 0.0, 0.0, 0.0, 0.0, 0.0, 0.0, 0.0, 1.6444983380676568E9, 0.0, 2022-02-11 00:05:38.067
92.0, -9539.188091658127, -11325.539508526268, -10200.464451368387, -16236.195413612773, -2970.0774514767472, -3457.1666666467986, -6332.383314655222, -7206.560040302282, -17717.132594243598, -15641.393141912598, -23181.172988554597, -12826.34738997786, -7727.154520410839, -12731.508938253992, -10531.247917562476, -11391.320692458235, 0.007, -0.019000000000000003, 0.742, 192.0, 0.0, 40.0, 127.5, 24.0, 15.0, 120.0, 0.0, 0.0, 0.0, 1.6444983380676632E9, 0.0, 2022-02-11 00:05:38.067
94.0, -9531.208518887583, -11313.983656642873, -10199.279808912255, -16238.162367124842, -2972.11146022218, -3464.6768527837817, -6323.062637217359, -7220.418121864573, -17718.384291933096, -15631.066635974246, -23174.0204303289, -12816.892602073265, -7725.075808176495, -12723.886993394732, -10526.263478548943, -11387.5879511342, 0.007, -0.019000000000000003, 0.742, 192.0, 0.0, 0.0, 0.0, 0.0, 0.0, 0.0, 0.0, 0.0, 0.0, 1.64449833806767E9, 0.0, 2022-02-11 00:05:38.067
96.0, -9534.31541136687, -11294.537638966756, -10202.409053135998, -16235.390750812383, -2973.072585233758, -3462.553437060528, -6315.910078991661, -7207.252944380396, -17714.763309331334, -15628.362074895154, -23183.49756997795, -12840.652506429256, -7727.422741344302, -12736.76159820099, -10528.342190783285, -11394.896971571085, 0.007, -0.019000000000000003, 0.742, 192.0, 0.0, 0.0, 0.0, 0.0, 0.0, 0.0, 0.0, 0.0, 0.0, 1.6444983380676763E9, 0.0, 2022-02-11 00:05:38.067
98.0, -9529.398027586702, -11319.90686892353, -10196.68700655544, -16236.038951401586, -2970.9491695105044, -3449.477666554173, -6322.950878495083, -7203.654313523092, -17717.311408199243, -15628.987923739902, -23175.562700696315, -12827.464977200625, -7730.373171612403, -12740.069656380374, -10524.31887678133, -11386.448012166979, 0.007, -0.019000000000000003, 0.742, 192.0, 0.0, 0.0, 0.0, 0.0, 0.0, 0.0, 0.0, 0.0, 0.0, 1.644498338067683E9, 0.0, 2022-02-11 00:05:38.067
100.0, -9556.644804077721, -11326.09830213765, -10207.751120060817, -16244.398503827872, -2988.7411580969288, -3466.0403091955554, -6332.740942566507, -7213.779653761346, -17730.253068238864, -15642.555432624273, -23182.312927521816, -12827.107349289341, -7730.395523356859, -12734.146444099719, -10529.862109406247, -11392.281817469815, 0.007, -0.019000000000000003, 0.742, 192.0, 0.0, 0.0, 0.0, 0.0, 0.0, 0.0, 0.0, 0.0, 0.0, 1.6444983380676897E9, 0.0, 2022-02-11 00:05:38.067
102.0, -9538.919870724663, -11315.14594735455, -10204.621875837074, -16240.26343110364, -2981.5215446378643, -3450.058811910011, -6341.502826392988, -7209.063435681276, -17728.241411237886, -15640.588479112206, -23195.76867768391, -12830.34835223536, -7736.00581121514, -12732.380656287749, -10537.126426354222, -11395.232247737915, 0.0085, -0.022500000000000003, 0.867, 192.0, 0.0, 40.0, 127.5, 24.0, 15.5, 0.0, 0.0, 0.0, 0.0, 1.6444983380676963E9, 0.0, 2022-02-11 00:05:38.067
104.0, -9528.101626408295, -11312.486089764368, -10207.169974704979, -16244.711428250246, -2985.9918935289256, -3459.737117259159, -6327.488282619511, -7203.564906545271, -17724.151042002566, -15632.675961575027, -23186.40329675714, -12830.415407468727, -7729.9931919566625, -12734.705237711101, -10537.75227519897, -11392.460631425456, 0.0085, -0.022500000000000003, 0.867, 192.0, 0.0, 0.0, 0.0, 0.0, 0.0, 0.0, 0.0, 0.0, 0.0, 1.6444983380677032E9, 0.0, 2022-02-11 00:05:38.067
106.0, -9556.13071395525, -11324.466624792412, -10212.042654996236, -16239.704637492257, -2985.433099917543, -3453.9703671896896, -6328.941146009105, -7209.778691503846, -17728.50963217135, -15639.739112822905, -23194.651090461146, -12826.056817299941, -7740.945546739763, -12743.064790137387, -10539.56276649985, -11399.34496871769, 0.0085, -0.022500000000000003, 0.867, 192.0, 0.0, 0.0, 0.0, 0.0, 0.0, 0.0, 0.0, 0.0, 0.0, 1.6444983380677342E9, 0.0, 2022-02-11 00:05:38.067
108.0, -9541.289155636925, -11316.777624699787, -10203.884268270049, -16240.97868692621, -2971.217390443968, -3442.123942628377, -6310.746826022485, -7200.8826972106335, -17721.848812323668, -15636.274592432332, -23176.523825707893, -12825.96741032212, -7736.609308315434, -12726.010409117987, -10533.41603677464, -11391.25363722487, 0.0085, -0.022500000000000003, 0.867, 192.0, 0.0, 0.0, 0.0, 0.0, 0.0, 0.0, 0.0, 0.0, 0.0, 1.644498338067741E9, 0.0, 2022-02-11 00:05:38.067
110.0, -9563.260920436493, -11329.562822528223, -10213.964905019391, -16245.538442795092, -2992.943286054526, -3455.8702654683907, -6336.563090868365, -7212.662066538581, -17735.908059586058, -15632.094816219189, -23193.35468928274, -12826.235631255584, -7743.091314207472, -12737.342743556828, -10535.807673431358, -11396.729814616421, 0.0085, -0.022500000000000003, 0.867, 192.0, 0.0, 0.0, 0.0, 0.0, 0.0, 0.0, 0.0, 0.0, 0.0, 1.6444983380677476E9, 0.0, 2022-02-11 00:05:38.067
112.0, -9546.608870817288, -11319.169261356505, -10209.606314850607, -16245.493739306181, -2991.4904226649314, -3451.422268321785, -6356.8584748337835, -7213.042046194321, -17739.886670099102, -15637.012199999357, -23203.39062254317, -12829.029599312496, -7751.115590466928, -12749.367982073783, -10544.726019469026, -11400.149631518083, 0.01025, -0.02525, 0.9285, 192.0, 0.0, 48.0, 127.5, 16.0, 15.0, 120.0, 0.0, 0.0, 0.0, 1.6444983380677545E9, 0.0, 2022-02-11 00:05:38.067
114.0, -9547.637051062233, -11312.6202002311, -10211.796785807228, -16246.11958815093, -2987.8917918076268, -3456.9207974577903, -6352.678698620642, -7220.932211987044, -17735.952763074965, -15646.914022793058, -23192.281805548886, -12821.25119224205, -7739.068000205518, -12732.112435354285, -10542.803769445869, -11399.143803017594, 0.01025, -0.02525, 0.9285, 192.0, 0.0, 0.0, 0.0, 0.0, 0.0, 0.0, 0.0, 0.0, 0.0, 1.644498338067765E9, 0.0, 2022-02-11 00:05:38.067
116.0, -9554.297870909915, -11322.209098602427, -10216.64711435403, -16249.651163774868, -2981.834469060239, -3452.6516142668265, -6312.132634178714, -7206.314171113274, -17736.46685319744, -15651.943165295503, -23200.998985886454, -12840.6301546848, -7744.968860741718, -12746.037572149942, -10540.836815933802, -11406.318712987748, 0.01025, -0.02525, 0.9285, 192.0, 0.0, 0.0, 0.0, 0.0, 0.0, 0.0, 0.0, 0.0, 0.0, 1.644498338067784E9, 0.0, 2022-02-11 00:05:38.067
118.0, -9550.74394354152, -11332.267383607315, -10211.036826495747, -16249.69586726378, -2972.2902741778225, -3440.6263757498714, -6323.599079084287, -7205.554211801793, -17733.82934735171, -15639.873223289636, -23190.62777645919, -12836.15980579374, -7742.0854857069835, -12735.308734811395, -10533.930126897112, -11397.713291372454, 0.01025, -0.02525, 0.9285, 192.0, 0.0, 0.0, 0.0, 0.0, 0.0, 0.0, 0.0, 0.0, 0.0, 1.6444983380677907E9, 0.0, 2022-02-11 00:05:38.067
120.0, -9563.730307070055, -11340.470473822412, -10215.037788753247, -16248.220652129728, -2977.408823658088, -3450.3270328434746, -6336.987774013016, -7215.545441573316, -17739.61844916564, -15650.065618761257, -23194.60638697224, -12828.53786093448, -7733.882395491886, -12738.370923801771, -10534.019533874934, -11403.189468764003, 0.01025, -0.02525, 0.9285, 192.0, 0.0, 0.0, 0.0, 0.0, 0.0, 0.0, 0.0, 0.0, 0.0, 1.6444983380677977E9, 0.0, 2022-02-11 00:05:38.067
122.0, -9560.7575250575, -11335.53073829779, -10211.21564045139, -16249.07001841903, -2969.898637521105, -3450.6623090103044, -6321.319201149846, -7216.707732284991, -17737.673847398026, -15655.76531359736, -23197.936796896076, -12829.230765012595, -7738.285689149581, -12736.314563311884, -10534.265403063942, -11405.715215887454, 0.012, -0.03, 0.986, 192.0, 0.0, 48.0, 127.5, 8.0, 15.0, 104.0, 0.0, 0.0, 0.0, 1.644498338067804E9, 0.0, 2022-02-11 00:05:38.067
124.0, -9561.428077391158, -11335.508386553334, -10216.177727720467, -16255.909652222355, -2975.7771463128506, -3456.697280013237, -6321.877994761228, -7206.537688557826, -17736.80212936427, -15646.645801859595, -23191.857122404235, -12828.224936512106, -7727.154520410839, -12735.420493533671, -10534.89125190869, -11404.172945520038, 0.012, -0.03, 0.986, 192.0, 0.0, 0.0, 0.0, 0.0, 0.0, 0.0, 0.0, 0.0, 0.0, 1.6444983380678108E9, 0.0, 2022-02-11 00:05:38.067
126.0, -9583.332786957359, -11353.72505828441, -10220.312800444699, -16258.569509812536, -2984.203753972501, -3455.44558232374, -6337.323050179845, -7210.38218860414, -17750.03436208181, -15662.448485189498, -23210.16320111313, -12846.106332076351, -7747.338145653981, -12749.010354162498, -10546.089475880799, -11411.5937246792, 0.012, -0.03, 0.986, 192.0, 0.0, 0.0, 0.0, 0.0, 0.0, 0.0, 0.0, 0.0, 0.0, 1.6444983380678177E9, 0.0, 2022-02-11 00:05:38.067
128.0, -9578.370699688281, -11358.195407175472, -10209.047521239225, -16252.333373109506, -2968.7139950649735, -3440.15698911631, -6329.4999396204885, -7214.517261328371, -17747.97800159192, -15659.319240965753, -23202.78712544288, -12837.277393016506, -7741.794913029064, -12728.737321941535, -10543.18374910161, -11401.870715841142, 0.012, -0.03, 0.986, 192.0, 0.0, 0.0, 0.0, 0.0, 0.0, 0.0, 0.0, 0.0, 0.0, 1.644498338067824E9, 0.0, 2022-02-11 00:05:38.067
130.0, -9602.689397655655, -11375.719174828431, -10218.68112309946, -16259.150655168374, -2978.3028934363, -3444.7838002185586, -6337.278346690935, -7211.8574037381895, -17750.570803948736, -15660.682697377528, -23205.44698303306, -12837.433855227693, -7732.384828613381, -12726.077464351352, -10541.239147333998, -11403.390634464102, 0.012, -0.03, 0.986, 192.0, 0.0, 0.0, 0.0, 0.0, 0.0, 0.0, 0.0, 0.0, 0.0, 1.6444983380678308E9, 0.0, 2022-02-11 00:05:38.067
132.0, -9623.94590663265, -11396.953332060973, -10223.21852722389, -16264.068038948542, -2980.895695793116, -3443.5991577624272, -6339.938204281117, -7202.648485022603, -17768.13927509061, -15680.016956331368, -23224.468317564526, -12855.427009514215, -7741.459636862235, -12739.041476135431, -10548.078781137321, -11406.45282345448, 0.008, -0.024, 0.988, 192.0, 0.0, 32.0, 127.5, 32.0, 15.0, 112.0, 0.0, 0.0, 0.0, 1.6444983380678377E9, 0.0, 2022-02-11 00:05:38.067
134.0, -9648.71163948913, -11425.272992285847, -10228.091207515146, -16273.723992553234, -2984.203753972501, -3453.031593922567, -6335.244337945502, -7216.394807862617, -17782.690260731015, -15688.085936079735, -23232.02320719042, -12877.689346991701, -7746.53348285359, -12741.433112792149, -10549.75516197147, -11409.269143255848, 0.008, -0.024, 0.988, 192.0, 0.0, 0.0, 0.0, 0.0, 0.0, 0.0, 0.0, 0.0, 0.0, 1.6444983380678446E9, 0.0, 2022-02-11 00:05:38.067
136.0, -9690.44234638719, -11468.814190484785, -10235.601393652129, -16274.014565231153, -2987.2882947073335, -3456.049079424033, -6328.53881460891, -7221.088674198231, -17801.890409218122, -15704.693282210028, -23251.916259755642, -12874.582454512412, -7754.021317246118, -12750.61967976328, -10555.119580640743, -11419.349780005192, 0.008, -0.024, 0.988, 192.0, 0.0, 0.0, 0.0, 0.0, 0.0, 0.0, 0.0, 0.0, 0.0, 1.6444983380678513E9, 0.0, 2022-02-11 00:05:38.067
138.0, -9716.057445532972, -11488.886057005651, -10225.207832480412, -16273.433419875315, -2970.1668584545682, -3452.517503800095, -6298.319256105335, -7191.092633139209, -17805.19846739751, -15699.954712385503, -23247.088282953297, -12874.828323701422, -7748.679250321299, -12758.867473467288, -10544.65896423566, -11411.951352590484, 0.008, -0.024, 0.988, 192.0, 0.0, 0.0, 0.0, 0.0, 0.0, 0.0, 0.0, 0.0, 0.0, 1.644498338067858E9, 0.0, 2022-02-11 00:05:38.067
140.0, -9744.734733669131, -11518.435063175568, -10235.2661174853, -16279.088411222509, -2977.9005620361045, -3452.428096822274, -6315.977134225027, -7203.721368756458, -17816.48609834744, -15713.63397999215, -23259.06881798134, -12884.528980795025, -7740.587918828478, -12749.300926840417, -10545.173054358133, -11410.63259966762, 0.008, -0.024, 0.988, 192.0, 0.0, 0.0, 0.0, 0.0, 0.0, 0.0, 0.0, 0.0, 0.0, 1.644498338067865E9, 0.0, 2022-02-11 00:05:38.067
142.0, -9765.231283334648, -11512.71301659501, -10238.149492520035, -16275.556835598569, -2975.73244282394, -3447.7342304866593, -6318.413474370655, -7201.106214655187, -17827.214935685985, -15709.901238668113, -23270.579966375826, -12890.563951797958, -7746.712296809233, -12756.8111129774, -10551.65506025017, -11416.801681137285, 0.012, -0.03, 0.982, 192.0, 0.0, 48.0, 127.5, 8.0, 15.0, 88.0, 0.0, 0.0, 0.0, 1.6444983380678713E9, 0.0, 2022-02-11 00:05:38.067
144.0, -9764.985414145638, -11536.115293039715, -10241.234033254867, -16278.864893777954, -2980.8062888152945, -3452.9421869447456, -6332.807997799873, -7212.460900838483, -17839.48604339195, -15714.751567214915, -23272.055181509877, -12879.142210381295, -7757.195264958771, -12754.732400743056, -10552.482074795018, -11416.376997992635, 0.012, -0.03, 0.982, 192.0, 0.0, 0.0, 0.0, 0.0, 0.0, 0.0, 0.0, 0.0, 0.0, 1.644498338067878E9, 0.0, 2022-02-11 00:05:38.067
146.0, -9766.415925790778, -11529.789749358863, -10247.380762980076, -16286.93387352632, -2986.9977220294145, -3452.897483455835, -6350.197654986103, -7221.3121916427845, -17831.52882236586, -15722.485270796451, -23277.59841413479, -12890.809820986966, -7757.619948103422, -12735.912231911689, -10562.47330456654, -11427.396408009101, 0.012, -0.03, 0.982, 192.0, 0.0, 0.0, 0.0, 0.0, 0.0, 0.0, 0.0, 0.0, 0.0, 1.6444983380678866E9, 0.0, 2022-02-11 00:05:38.067
148.0, -9768.852265936406, -11535.958830828527, -10248.923033347492, -16285.860989792465, -2980.627474859652, -3453.6127392784047, -6321.945049994594, -7200.61447627717, -17839.843671303235, -15714.43864279254, -23278.067800768353, -12896.576571056436, -7758.178741714805, -12761.728496757567, -10558.338231842308, -11419.997980594395, 0.012, -0.03, 0.982, 192.0, 0.0, 0.0, 0.0, 0.0, 0.0, 0.0, 0.0, 0.0, 0.0, 1.6444983380678933E9, 0.0, 2022-02-11 00:05:38.067
150.0, -9764.180751345248, -11524.112406267215, -10253.50514096083, -16287.515018882159, -2993.345617454722, -3458.865399225402, -6359.630091146242, -7216.7300840294465, -17842.57058412678, -15732.387093590152, -23280.235919980518, -12891.569780298447, -7757.776410314609, -12760.230929879062, -10559.768743487448, -11424.490681229912, 0.012, -0.03, 0.982, 192.0, 0.0, 0.0, 0.0, 0.0, 0.0, 0.0, 0.0, 0.0, 0.0, 1.6444983380679E9, 0.0, 2022-02-11 00:05:38.067
152.0, -9751.417905261267, -11497.335016409757, -10245.994954823847, -16285.771582814645, -2983.4214429165654, -3449.3212043429858, -6337.524215879944, -7207.811737991779, -17838.390807913638, -15714.528049770362, -23279.9453473026, -12898.834097246421, -7753.529578868101, -12752.743095486534, -10566.653080779683, -11426.97172486445, 0.006, -0.028, 0.986, 192.0, 0.0, 24.0, 127.5, 16.0, 15.0, 104.0, 0.0, 0.0, 0.0, 1.6444983380679069E9, 0.0, 2022-02-11 00:05:38.067
154.0, -9733.156530041282, -11519.977333542984, -10241.010515810314, -16291.068946250552, -2984.0249400168586, -3458.373660847385, -6334.797303056396, -7213.220860149963, -17829.24894443142, -15718.39490156113, -23266.489597140506, -12883.277283105528, -7744.924157252808, -12750.664383252191, -10553.979641673523, -11425.02712309684, 0.006, -0.028, 0.986, 192.0, 0.0, 0.0, 0.0, 0.0, 0.0, 0.0, 0.0, 0.0, 0.0, 1.6444983380679133E9, 0.0, 2022-02-11 00:05:38.067
156.0, -9732.35186724089, -11508.935571782062, -10252.70047816044, -16298.825001576544, -2993.1891552435345, -3463.7827830055694, -6345.392029928212, -7223.7708835328685, -17829.450110131518, -15730.73306450046, -23273.8433210663, -12891.547428553991, -7765.063079007039, -12759.470970567581, -10559.478170809529, -11437.857024414185, 0.006, -0.028, 0.986, 192.0, 0.0, 0.0, 0.0, 0.0, 0.0, 0.0, 0.0, 0.0, 0.0, 1.64449833806792E9, 0.0, 2022-02-11 00:05:38.067
158.0, -9701.662922103755, -11481.912312735596, -10242.441027455454, -16292.566513129059, -2986.6847976070403, -3458.708937014215, -6337.613622857764, -7212.930287472044, -17820.352950138207, -15711.175288102066, -23262.868614538744, -12887.211190129661, -7763.230235961704, -12749.636203007247, -10559.634633020716, -11435.510091246379, 0.006, -0.028, 0.986, 192.0, 0.0, 0.0, 0.0, 0.0, 0.0, 0.0, 0.0, 0.0, 0.0, 1.6444983380679407E9, 0.0, 2022-02-11 00:05:38.067
160.0, -9707.966114040151, -11476.257321388402, -10251.158207793023, -16297.975635287243, -3001.727521625462, -3472.611722065416, -6356.389088200222, -7224.217918421975, -17824.175098440064, -15718.417253305586, -23261.8404342938, -12889.424012830737, -7765.040727262584, -12767.718764271589, -10562.518008055451, -11436.806492424786, 0.006, -0.028, 0.986, 192.0, 0.0, 0.0, 0.0, 0.0, 0.0, 0.0, 0.0, 0.0, 0.0, 1.6444983380679479E9, 0.0, 2022-02-11 00:05:38.067
162.0, -9713.06231177596, -11471.161123652593, -10240.965812321403, -16296.813344575567, -2990.8645738201826, -3463.0004719496337, -6331.668058832653, -7210.873926982156, -17827.81843278628, -15721.725311484972, -23271.429332665128, -12891.748594254088, -7756.971747514218, -12764.164836903195, -10566.38485984622, -11439.801626181797, 0.014, -0.026000000000000002, 0.988, 192.0, 0.0, 56.0, 127.5, 24.0, 15.0, 112.0, 0.0, 0.0, 0.0, 1.6444983380679545E9, 0.0, 2022-02-11 00:05:38.067
164.0, -9699.740672080598, -11485.08626044825, -10242.373972222087, -16301.350748699993, -2991.7362918539397, -3465.6156260509047, -6344.073277005348, -7224.642601566626, -17825.29268566283, -15715.1091951262, -23253.816158034344, -12882.874951705331, -7768.929930797807, -12760.655613023713, -10560.193426632099, -11439.131073848137, 0.014, -0.026000000000000002, 0.988, 192.0, 0.0, 0.0, 0.0, 0.0, 0.0, 0.0, 0.0, 0.0, 0.0, 1.6444983380679612E9, 0.0, 2022-02-11 00:05:38.067
166.0, -9688.989482997595, -11465.081449160749, -10250.755876392828, -16307.542181914114, -3006.8684228501825, -3466.3308818734745, -6382.45122223511, -7231.705752814502, -17820.598819327213, -15723.356988830208, -23266.064913995855, -12890.899227964786, -7765.353651684958, -12758.7110112561, -10569.13412441422, -11450.195187353514, 0.014, -0.026000000000000002, 0.988, 192.0, 0.0, 0.0, 0.0, 0.0, 0.0, 0.0, 0.0, 0.0, 0.0, 1.644498338067968E9, 0.0, 2022-02-11 00:05:38.067
168.0, -9667.330642620402, -11440.874509915651, -10248.364239736109, -16299.070870765552, -2998.240649490434, -3469.2142569082093, -6340.228776959036, -7222.787406776835, -17814.452089602004, -15708.046043878323, -23252.028018477922, -12892.285036121017, -7769.511076153645, -12753.167778631185, -10573.358604116274, -11447.043591385316, 0.014, -0.026000000000000002, 0.988, 192.0, 0.0, 0.0, 0.0, 0.0, 0.0, 0.0, 0.0, 0.0, 0.0, 1.6444983380679748E9, 0.0, 2022-02-11 00:05:38.067
170.0, -9673.38796536779, -11434.347800534702, -10255.78501889527, -16297.618007375957, -3013.3057252533113, -3473.1258121878877, -6356.344384711312, -7231.549290603315, -17823.593953084226, -15707.621360733672, -23264.299126183883, -12882.763192983055, -7776.596579145978, -12790.58459884937, -10573.626825049738, -11446.84242568522, 0.014, -0.026000000000000002, 0.988, 192.0, 0.0, 0.0, 0.0, 0.0, 0.0, 0.0, 0.0, 0.0, 0.0, 1.6444983380679815E9, 0.0, 2022-02-11 00:05:38.067
172.0, -9658.792276238475, -11427.64227719811, -10242.865710600105, -16290.308986939071, -2995.960771555993, -3461.63701553786, -6338.530044380432, -7216.037179951332, -17816.66491230308, -15695.506715238897, -23259.69466682609, -12882.807896471966, -7757.061154492039, -12765.28242412596, -10571.61516804876, -11442.50618726089, 0.018000000000000002, -0.024, 0.988, 192.0, 0.0, 72.0, 127.5, 32.0, 15.0, 112.0, 0.0, 0.0, 0.0, 1.644498338067989E9, 0.0, 2022-02-11 00:05:38.067
174.0, -9636.038200382973, -11413.314809002259, -10231.511024416808, -16288.342033427005, -2987.690626107529, -3458.328957358475, -6346.554320639887, -7225.067284711276, -17798.470592316462, -15691.841029148225, -23232.246724634973, -12852.320117034928, -7750.556796855545, -12748.742133229034, -10557.399458575184, -11439.22048082596, 0.018000000000000002, -0.024, 0.988, 192.0, 0.0, 0.0, 0.0, 0.0, 0.0, 0.0, 0.0, 0.0, 0.0, 1.6444983380679965E9, 0.0, 2022-02-11 00:05:38.067
176.0, -9629.6232497243, -11409.73852988941, -10235.064951785202, -16297.260379464673, -2993.077396521258, -3458.35130910293, -6347.381335184734, -7219.926383486555, -17788.34525207821, -15699.619436218672, -23231.442061834583, -12867.87693117582, -7751.473218378213, -12744.584708760347, -10561.065144665856, -11447.065943129772, 0.018000000000000002, -0.024, 0.988, 192.0, 0.0, 0.0, 0.0, 0.0, 0.0, 0.0, 0.0, 0.0, 0.0, 1.6444983380680032E9, 0.0, 2022-02-11 00:05:38.068
178.0, -9619.833185652875, -11405.804622865275, -10231.488672672353, -16287.582074115524, -2987.1318324961467, -3450.9752334326786, -6348.118942751759, -7214.584316561737, -17784.724269476446, -15693.20448556, -23229.251590877964, -12870.626195743824, -7741.392581628869, -12744.450598293615, -10561.087496410311, -11441.5003587604, 0.018000000000000002, -0.024, 0.988, 192.0, 0.0, 0.0, 0.0, 0.0, 0.0, 0.0, 0.0, 0.0, 0.0, 1.6444983380680125E9, 0.0, 2022-02-11 00:05:38.068
180.0, -9643.503683031046, -11399.300265228781, -10245.436161212465, -16289.258454949673, -3002.4204257035767, -3466.7555650181253, -6379.590198944831, -7224.843767266723, -17798.314130105275, -15698.770069929371, -23230.033901933897, -12856.499893248068, -7743.851273518953, -12750.798493718923, -10571.414002348662, -11440.539233748823, 0.018000000000000002, -0.024, 0.988, 192.0, 0.0, 0.0, 0.0, 0.0, 0.0, 0.0, 0.0, 0.0, 0.0, 1.644498338068019E9, 0.0, 2022-02-11 00:05:38.068
182.0, -9629.869118913308, -11401.580143163223, -10244.542091434252, -16291.895960795398, -2993.4797279214536, -3461.905236471324, -6335.4902071345105, -7223.592069577226, -17796.52599054885, -15699.552380985306, -23241.612105561748, -12863.473637518126, -7742.309003151537, -12761.52733105747, -10578.723022785547, -11448.921137919562, 0.012, -0.022, 0.99, 192.0, 0.0, 48.0, 127.5, 40.0, 15.0, 120.0, 0.0, 0.0, 0.0, 1.6444983380680258E9, 0.0, 2022-02-11 00:05:38.068
184.0, -9624.012961866018, -11393.265294225848, -10241.010515810314, -16305.776394102144, -2993.6808936215516, -3466.822620251491, -6343.8274078163395, -7230.118778958175, -17790.602778268192, -15685.739002911927, -23229.94449495608, -12865.552349752468, -7755.764753313631, -12750.463217552093, -10569.491752325506, -11449.546986764311, 0.012, -0.022, 0.99, 192.0, 0.0, 0.0, 0.0, 0.0, 0.0, 0.0, 0.0, 0.0, 0.0, 1.6444983380680325E9, 0.0, 2022-02-11 00:05:38.068
186.0, -9629.086807857371, -11406.095195543194, -10246.531396690774, -16303.004777789687, -3011.830510119261, -3478.7808035350804, -6381.825373390362, -7236.913709272589, -17795.117830648163, -15705.63205547715, -23246.149509686176, -12877.287015591504, -7758.066982992528, -12775.72068878659, -10578.454801852084, -11463.963861937984, 0.012, -0.022, 0.99, 192.0, 0.0, 0.0, 0.0, 0.0, 0.0, 0.0, 0.0, 0.0, 0.0, 1.6444983380680404E9, 0.0, 2022-02-11 00:05:38.068
188.0, -9630.070284613406, -11405.78227112082, -10244.542091434252, -16300.546085899603, -3008.4777484509646, -3468.119021429899, -6365.262730748979, -7238.8583110402005, -17800.48224931744, -15708.224857833966, -23230.436233334094, -12865.150018352273, -7759.8104190600425, -12773.932549230165, -10587.596665334304, -11463.203902626503, 0.012, -0.022, 0.99, 192.0, 0.0, 0.0, 0.0, 0.0, 0.0, 0.0, 0.0, 0.0, 0.0, 1.6444983380680475E9, 0.0, 2022-02-11 00:05:38.068
190.0, -9635.501758516046, -11397.445070438991, -10256.634385184572, -16306.51400166917, -3017.820777633283, -3488.7943850510583, -6366.290910993924, -7253.9457385475325, -17812.23926690093, -15714.0586631368, -23234.571306058326, -12862.35605029536, -7758.15638997035, -12761.639089779746, -10590.927075258145, -11467.428382328557, 0.014, -0.022, 0.99, 192.0, 0.0, 64.0, 127.5, 40.0, 15.0, 120.0, 0.0, 0.0, 0.0, 1.644498338068055E9, 0.0, 2022-02-11 00:05:38.068
192.0, -9606.578601190879, -11380.077764997217, -10255.092114817156, -16306.178725502341, -3012.7692833863834, -3476.3668151339075, -6356.813771344873, -7231.482235369949, -17807.076013931754, -15710.795308446326, -23254.240841178995, -12884.12664939483, -7758.826942304009, -12768.992813705543, -10593.542229359417, -11469.194170140527, 0.014, -0.022, 0.99, 192.0, 0.0, 0.0, 0.0, 0.0, 0.0, 0.0, 0.0, 0.0, 0.0, 1.6444983380680616E9, 0.0, 2022-02-11 00:05:38.068
194.0, -9635.300592815947, -11399.993169306896, -10258.400172996542, -16309.7997081041, -3018.960716600504, -3473.908123243824, -6380.126640811759, -7237.964241261989, -17801.868057473668, -15697.808944917793, -23241.232125906008, -12861.30551830596, -7763.006718517151, -12766.24354913754, -10594.838630537824, -11465.707298005498, 0.014, -0.022, 0.99, 192.0, 0.0, 0.0, 0.0, 0.0, 0.0, 0.0, 0.0, 0.0, 0.0, 1.6444983380680685E9, 0.0, 2022-02-11 00:05:38.068
196.0, -9636.596993994355, -11409.537364189311, -10264.926882377493, -16315.164126773374, -3031.8129696623055, -3483.318207659508, -6394.677626452163, -7259.600729894725, -17807.835973243236, -15710.705901468506, -23244.31666664084, -12864.188893340695, -7766.739459841187, -12768.076392182875, -10609.568430133872, -11475.251492887914, 0.014, -0.022, 0.99, 192.0, 0.0, 0.0, 0.0, 0.0, 0.0, 0.0, 0.0, 0.0, 0.0, 1.6444983380680754E9, 0.0, 2022-02-11 00:05:38.068
198.0, -9625.085845599871, -11397.355663461169, -10255.762667150817, -16311.36433021597, -3023.989859102948, -3480.0101494801224, -6385.379300758756, -7247.687250100047, -17807.835973243236, -15719.288971339343, -23231.64322753468, -12872.25787308906, -7763.856084806453, -12769.484552083559, -10613.52468890246, -11477.240798144436, 0.014, -0.022, 0.99, 192.0, 0.0, 0.0, 0.0, 0.0, 0.0, 0.0, 0.0, 0.0, 0.0, 1.6444983380680823E9, 0.0, 2022-02-11 00:05:38.068
200.0, -9632.976011392595, -11390.650140124577, -10266.066821344713, -16316.32641748505, -3028.370801016188, -3485.1957541937536, -6387.83799264884, -7252.068192013287, -17811.635769800636, -15717.925514927569, -23235.532431069903, -12865.64175673029, -7758.379907414903, -12769.10457242782, -10609.903706300702, -11473.798629498318, 0.013000000000000001, -0.023, 0.991, 192.0, 0.0, 48.0, 127.5, 32.0, 15.5, 0.0, 0.0, 0.0, 0.0, 1.6444983380680895E9, 0.0, 2022-02-11 00:05:38.068
202.0, -9615.385188506269, -11381.687090598, -10262.758763165328, -16317.823984363555, -3015.138568298646, -3475.7409662891587, -6375.946864598616, -7251.464694912994, -17806.98660695393, -15707.531953755852, -23254.486710368004, -12872.727259722622, -7742.8454450184645, -12765.416534592692, -10611.133052245743, -11478.22427490047, 0.013000000000000001, -0.023, 0.991, 192.0, 0.0, 0.0, 0.0, 0.0, 0.0, 0.0, 0.0, 0.0, 0.0, 1.6444983380680964E9, 0.0, 2022-02-11 00:05:38.068
204.0, -3392.6818838932377, -4844.830017665627, -5080.462107713474, -7635.467664655169, -1625.664725978938, -1912.0799794292427, -3380.2766657205425, -3515.258850486142, -17802.359795851684, -15704.045081620823, -23244.651942807668, -12868.413373042747, -7755.273014935615, -12760.8120752349, -10599.398386406707, -11473.284539375847, 0.013000000000000001, -0.023, 0.991, 192.0, 0.0, 0.0, 0.0, 0.0, 0.0, 0.0, 0.0, 0.0, 0.0, 1.644498338632259E9, 0.0, 2022-02-11 00:05:38.632
2.0, -6810.308314598598, -9702.556991881966, -10166.91448294097, -15270.868274076973, -3267.5344666879737, -3841.7060782559015, -6788.269494565666, -7026.181462547954, -14404.447603755905, -9904.72852048022, -23441.45905273665, -12372.606977535126, -6599.8666405518825, -11222.833242754132, -10782.593283962404, -10911.361683769428, 0.013000000000000001, -0.023, 0.991, 192.0, 0.0, 0.0, 0.0, 0.0, 0.0, 0.0, 0.0, 0.0, 0.0, 1.6444983386323855E9, 0.0, 2022-02-11 00:05:38.632
4.0, -6830.760160775204, -9708.54725939599, -10168.210884119379, -15271.78469559964, -3271.803649878937, -3850.5797208046583, -6789.476488766252, -7027.410808492996, -14405.006397367288, -9909.288276349102, -23446.30938128345, -12369.723602500391, -6597.87733529536, -11233.69619055941, -10791.355167788885, -10915.384997771383, 0.013000000000000001, -0.023, 0.991, 192.0, 0.0, 0.0, 0.0, 0.0, 0.0, 0.0, 0.0, 0.0, 0.0, 1.6444983386323924E9, 0.0, 2022-02-11 00:05:38.632
6.0, -6823.719361271783, -9713.486994920611, -10160.387773560022, -15277.216169502279, -3265.500457942541, -3856.0558981962085, -6760.1957035298, -7019.766511889281, -14416.785766695235, -9917.021979930638, -23435.893468367278, -12370.081230411677, -6596.647989350318, -11245.296745931715, -10785.543714230504, -10917.396654772361, 0.013000000000000001, -0.023, 0.991, 192.0, 0.0, 0.0, 0.0, 0.0, 0.0, 0.0, 0.0, 0.0, 0.0, 1.6444983386324067E9, 0.0, 2022-02-11 00:05:38.632
8.0, -6820.433654836853, -9700.165355225248, -10170.021375420258, -15279.004309058704, -3276.296350514454, -3866.7623837903006, -6784.402642774898, -7041.15713133301, -14412.404824781994, -9897.285389576602, -23443.87304113782, -12387.940274231467, -6610.394312190332, -11251.868158801575, -10787.063632853466, -10923.006942630642, 0.006, -0.024, 0.992, 192.0, 0.0, 24.0, 127.5, 32.0, 15.5, 0.0, 0.0, 0.0, 0.0, 1.6444983386324134E9, 0.0, 2022-02-11 00:05:38.632
10.0, -6797.321951070065, -9687.424860885723, -10163.561721272674, -15266.532035652643, -3264.7628503755154, -3855.005366206809, -6777.272436293654, -7028.751913160314, -14397.116231574564, -9885.10368884846, -23438.843898635376, -12366.527303043284, -6613.612963391896, -11260.317118205681, -10790.192877077208, -10921.73289319669, 0.006, -0.024, 0.992, 192.0, 0.0, 0.0, 0.0, 0.0, 0.0, 0.0, 0.0, 0.0, 0.0, 1.64449833863242E9, 0.0, 2022-02-11 00:05:38.632
12.0, -6798.640703992928, -9687.335453907903, -10165.68513699593, -15271.561178155087, -3268.093260299356, -3866.1588866900074, -6770.164581556867, -7021.48759621234, -14400.290179287218, -9900.079357633515, -23427.042177562977, -12369.723602500391, -6614.2611639811, -11257.500798404313, -10781.118068828353, -10914.714445437723, 0.006, -0.024, 0.992, 192.0, 0.0, 0.0, 0.0, 0.0, 0.0, 0.0, 0.0, 0.0, 0.0, 1.6444983386324265E9, 0.0, 2022-02-11 00:05:38.632
14.0, -6796.852564436504, -9693.325721421925, -10166.467448051864, -15274.533960167642, -3271.2001527786438, -3870.0480902252307, -6772.489162980219, -7031.702343428415, -14393.271731528252, -9886.847124915974, -23437.72631141261, -12383.626387551592, -6599.240791707134, -11261.144132750527, -10785.521362486048, -10920.883526907388, 0.006, -0.024, 0.992, 192.0, 0.0, 0.0, 0.0, 0.0, 0.0, 0.0, 0.0, 0.0, 0.0, 1.6444983386324332E9, 0.0, 2022-02-11 00:05:38.632
16.0, -6781.429860762341, -9696.477317390123, -10158.15259911449, -15274.645718889918, -3266.6851003986717, -3868.014081479798, -6774.344357770009, -7029.802445149714, -14391.416536738461, -9871.156200308347, -23423.10827053884, -12378.552541560239, -6607.577992388963, -11269.011946798795, -10781.27453103954, -10917.240192561174, 0.007, -0.023, 0.992, 192.0, 0.0, 32.0, 127.5, 40.0, 15.5, 0.0, 0.0, 0.0, 0.0, 1.6444983386324396E9, 0.0, 2022-02-11 00:05:38.632
18.0, -6819.427826336364, -9704.143965738293, -10172.480067310342, -15277.327928224557, -3286.0193593525123, -3888.6223898675908, -6779.798183417104, -7037.2902795422415, -14395.484554229326, -9873.413726498333, -23430.55140144246, -12395.472812112906, -6616.8316145934605, -11281.350109738125, -10785.364900274863, -10919.520070495615, 0.007, -0.023, 0.992, 192.0, 0.0, 0.0, 0.0, 0.0, 0.0, 0.0, 0.0, 0.0, 0.0, 1.6444983386324472E9, 0.0, 2022-02-11 00:05:38.632
20.0, -6807.804919219604, -9706.87087856184, -10166.243930607312, -15265.816779830073, -3280.230257538588, -3882.1403839755517, -6786.593113731517, -7042.721753444881, -14397.384452508028, -9882.19796206927, -23440.229706791604, -12371.154114145531, -6620.653762895318, -11291.318987765193, -10795.154964346286, -10921.621134474413, 0.007, -0.023, 0.992, 192.0, 0.0, 0.0, 0.0, 0.0, 0.0, 0.0, 0.0, 0.0, 0.0, 1.644498338632454E9, 0.0, 2022-02-11 00:05:38.632
22.0, -6815.918602456881, -9708.34609369589, -10167.808552719183, -15271.02473628816, -3285.684083185683, -3891.617523624602, -6781.228695062244, -7039.033715609756, -14413.455356771394, -9899.654674488864, -23423.801174616954, -12368.516608299806, -6619.580879161463, -11278.064403303195, -10791.80220267799, -10917.910744894833, 0.007, -0.023, 0.992, 192.0, 0.0, 0.0, 0.0, 0.0, 0.0, 0.0, 0.0, 0.0, 0.0, 1.6444983386324604E9, 0.0, 2022-02-11 00:05:38.632
24.0, -6790.795241689115, -9688.967131253139, -10168.389698075021, -15271.382364199444, -3281.4148999947192, -3888.0188927672975, -6797.590172003529, -7046.25332906882, -14390.790687893712, -9873.503133476155, -23433.054796821452, -12372.674032768493, -6610.662533123796, -11278.399679470025, -10792.115127100364, -10919.564773984524, 0.007, -0.023, 0.992, 192.0, 0.0, 0.0, 0.0, 0.0, 0.0, 0.0, 0.0, 0.0, 0.0, 1.6444983386324668E9, 0.0, 2022-02-11 00:05:38.632
26.0, -6780.915770639869, -9674.639663057287, -10159.091372381614, -15269.773038598662, -3267.936798088169, -3895.260857970817, -6768.95758735628, -7052.981204149867, -14382.028804067231, -9863.444848471267, -23414.838125090377, -12369.410678078018, -6606.348646443921, -11284.255836517315, -10784.51553398556, -10916.569640227513, 0.0105, -0.0205, 0.992, 192.0, 0.0, 56.0, 127.5, 56.0, 15.5, 0.0, 0.0, 0.0, 0.0, 1.6444983386324735E9, 0.0, 2022-02-11 00:05:38.632
28.0, -6800.227677849255, -9690.040014986995, -10166.534503285231, -15276.232692746245, -3283.001873851046, -3902.2793057297836, -6775.685462437327, -7045.7392389463475, -14388.130830303531, -9856.940490834771, -23413.988758801075, -12380.54184681676, -6606.63921912184, -11307.747519939843, -10783.643815951804, -10922.671666463813, 0.0105, -0.0205, 0.992, 192.0, 0.0, 0.0, 0.0, 0.0, 0.0, 0.0, 0.0, 0.0, 0.0, 1.64449833863248E9, 0.0, 2022-02-11 00:05:38.632
30.0, -6784.380291030442, -9694.912695278252, -10154.57632000164, -15269.840093832028, -3269.1214405443, -3903.2180789969066, -6765.314253010065, -7039.838378410146, -14384.040461068209, -9856.024069312105, -23413.8770000788, -12371.489390312361, -6614.9540680592145, -11294.604694200123, -10783.375595018339, -10921.509375752137, 0.0105, -0.0205, 0.992, 192.0, 0.0, 0.0, 0.0, 0.0, 0.0, 0.0, 0.0, 0.0, 0.0, 1.6444983386324863E9, 0.0, 2022-02-11 00:05:38.632
32.0, -6790.683482966839, -9688.475392875123, -10160.119552626556, -15273.461076433789, -3281.258437783532, -3915.7350558918783, -6776.110145581979, -7049.606090737116, -14388.108478559076, -9856.739325134675, -23404.422212174202, -12367.086096654666, -6610.327256956966, -11298.918580879998, -10779.307577527474, -10919.49771875116, 0.0105, -0.0205, 0.992, 192.0, 0.0, 0.0, 0.0, 0.0, 0.0, 0.0, 0.0, 0.0, 0.0, 1.644498338632493E9, 0.0, 2022-02-11 00:05:38.632
34.0, -6784.447346263808, -9686.843715529885, -10159.761924715272, -15273.282262478146, -3281.9513418616466, -3909.9236023334984, -6764.420183231853, -7051.483637271362, -14382.520542445249, -9836.890976058361, -23418.39205245877, -12376.697346770448, -6617.524518671575, -11318.074025878195, -10785.789583419513, -10925.44328277627, 0.0105, -0.0205, 0.992, 192.0, 0.0, 0.0, 0.0, 0.0, 0.0, 0.0, 0.0, 0.0, 0.0, 1.6444983386324997E9, 0.0, 2022-02-11 00:05:38.632
36.0, -6771.975072857746, -9676.830134013908, -10148.317831554155, -15275.048050290115, -3269.83669636687, -3907.4649104434147, -6760.262758763166, -7052.914148916501, -14381.84999011159, -9849.810284353529, -23406.947959297653, -12374.126896158088, -6622.374847218376, -11299.544429724745, -10773.853751880379, -10916.480233249693, 0.00725, -0.027250000000000003, 0.992, 192.0, 0.0, 16.0, 127.0, 120.0, 15.5, 0.0, 0.0, 0.0, 0.0, 1.644498338632506E9, 0.0, 2022-02-11 00:05:38.632
38.0, -6784.112070096979, -9671.599825811367, -10152.162331600468, -15279.719564881274, -3275.7599086475266, -3914.4163029690153, -6764.464886720763, -7045.761590690803, -14375.435039452916, -9845.406990695834, -23406.88090406429, -12375.512704314317, -6604.605210376408, -11296.750461667832, -10769.741030900603, -10921.375265285405, 0.00725, -0.027250000000000003, 0.992, 192.0, 0.0, 0.0, 0.0, 0.0, 0.0, 0.0, 0.0, 0.0, 0.0, 1.6444983386325145E9, 0.0, 2022-02-11 00:05:38.632
40.0, -6775.998386859702, -9678.551218336966, -10142.931061140425, -15270.510646165687, -3265.5675131759067, -3903.9556865639315, -6755.904168594381, -7043.526416245272, -14370.204731250375, -9832.532385889577, -23399.326014438393, -12368.58366353317, -6609.857870323404, -11300.080871591672, -10769.450458222684, -10916.882564649888, 0.00725, -0.027250000000000003, 0.992, 192.0, 0.0, 0.0, 0.0, 0.0, 0.0, 0.0, 0.0, 0.0, 0.0, 1.644498338632521E9, 0.0, 2022-02-11 00:05:38.632
42.0, -6772.042128091112, -9679.95937823765, -10146.417933275454, -15270.153018254403, -3272.4742022125965, -3922.261765272828, -6764.57664544304, -7056.691593729448, -14371.74700161779, -9831.638316111364, -23384.10447646433, -12355.597300004638, -6607.9132685557925, -11317.492880522357, -10764.555426186971, -10914.110948337431, 0.00725, -0.027250000000000003, 0.992, 192.0, 0.0, 0.0, 0.0, 0.0, 0.0, 0.0, 0.0, 0.0, 0.0, 1.6444983386325276E9, 0.0, 2022-02-11 00:05:38.632
44.0, -6779.798183417104, -9675.824305513419, -10150.195378088401, -15274.846884590017, -3280.4761267275962, -3927.2462042863617, -6769.650491434395, -7055.931634417968, -14367.790742849202, -9826.810339309019, -23402.656424362234, -12363.599224519638, -6603.733492342651, -11322.589078258166, -10770.188065789707, -10920.30238155155, 0.00725, -0.027250000000000003, 0.992, 192.0, 0.0, 0.0, 0.0, 0.0, 0.0, 0.0, 0.0, 0.0, 0.0, 1.644498338632534E9, 0.0, 2022-02-11 00:05:38.632
46.0, -6774.813744403571, -9677.880666003308, -10147.893148409505, -15274.444553189822, -3275.8493156253476, -3927.1120938196295, -6762.117953552956, -7048.15322734752, -14373.579844663125, -9829.045513754549, -23393.402802157736, -12369.142457144555, -6618.195071005234, -11323.5725550142, -10768.802257633479, -10915.608515215936, 0.005625, -0.025625000000000002, 0.991, 192.0, 0.0, 16.0, 127.5, 32.0, 15.0, 120.0, 0.0, 0.0, 0.0, 1.6444983386325407E9, 0.0, 2022-02-11 00:05:38.632
48.0, -6776.646587448906, -9676.15958168025, -10157.77261945875, -15276.322099724068, -3286.421690752708, -3936.58923346868, -6768.667014678361, -7056.11044837361, -14370.830580095122, -9833.828787067985, -23403.885770307275, -12374.372765347096, -6616.1834140042565, -11328.869918450107, -10770.70215591218, -10916.189660571774, 0.005625, -0.025625000000000002, 0.991, 192.0, 0.0, 0.0, 0.0, 0.0, 0.0, 0.0, 0.0, 0.0, 0.0, 1.6444983386325471E9, 0.0, 2022-02-11 00:05:38.632
50.0, -6759.659261662872, -9677.05365145846, -10146.44028501991, -15274.288090978635, -3275.335225502876, -3927.2462042863617, -6761.939139597313, -7054.0764396281775, -14366.449638181883, -9817.17673744878, -23405.29393020796, -12372.942253701956, -6625.101760041924, -11322.298505580247, -10768.93636810021, -10915.139128582374, 0.005625, -0.025625000000000002, 0.991, 192.0, 0.0, 0.0, 0.0, 0.0, 0.0, 0.0, 0.0, 0.0, 0.0, 1.644498338632554E9, 0.0, 2022-02-11 00:05:38.632
52.0, -6773.047956591601, -9670.370479866324, -10150.329488555133, -15280.703041637307, -3287.002836108546, -3940.0537538592525, -6766.230674532732, -7062.838323454657, -14374.563321419158, -9825.715103830707, -23390.541778867457, -12365.83439896517, -6628.700390899228, -11318.252839833838, -10761.180312774219, -10914.937962882277, 0.005625, -0.025625000000000002, 0.991, 192.0, 0.0, 0.0, 0.0, 0.0, 0.0, 0.0, 0.0, 0.0, 0.0, 1.6444983386325607E9, 0.0, 2022-02-11 00:05:38.632
54.0, -6779.686424694828, -9678.081831703405, -10149.927157154938, -15271.538826410631, -3287.338112275376, -3943.2500533163616, -6767.325910011043, -7052.534169260761, -14362.26986196874, -9815.299190914535, -23397.895502793253, -12372.025832179288, -6623.537137930052, -11350.327593127204, -10768.958719844666, -10917.486061750182, 0.005625, -0.025625000000000002, 0.991, 192.0, 0.0, 0.0, 0.0, 0.0, 0.0, 0.0, 0.0, 0.0, 0.0, 1.6444983386325672E9, 0.0, 2022-02-11 00:05:38.632
56.0, -6773.360881013976, -9679.512343348544, -10138.214843060356, -15267.82843683105, -3270.5296004449847, -3937.952689880454, -6753.691345893306, -7060.11141063111, -14366.851969582078, -9814.852156025428, -23387.323127665895, -12353.92091917049, -6624.855890852916, -11357.077819952705, -10759.302766239973, -10910.244096546663, 0.008812500000000001, -0.0248125, 0.9884999999999999, 192.0, 0.0, 48.0, 127.5, 32.0, 15.0, 104.0, 0.0, 0.0, 0.0, 1.6444983386325738E9, 0.0, 2022-02-11 00:05:38.632
58.0, -6776.668939193361, -9686.217866685136, -10143.445151262898, -15276.12093402397, -3280.900809872247, -3949.843817930677, -6763.079078564535, -7068.82859096868, -14370.450600439382, -9830.677191099787, -23392.06169749042, -12365.230901864876, -6617.50216692712, -11349.455875093447, -10755.547673171483, -10914.401521015348, 0.008812500000000001, -0.0248125, 0.9884999999999999, 192.0, 0.0, 0.0, 0.0, 0.0, 0.0, 0.0, 0.0, 0.0, 0.0, 1.6444983386325805E9, 0.0, 2022-02-11 00:05:38.632
60.0, -6764.487238465219, -9675.176104924216, -10135.912613381459, -15278.289053236134, -3270.462545211619, -3947.16160859604, -6752.931386581825, -7059.530265275272, -14359.31943170064, -9811.65585656832, -23390.47472363409, -12371.087058912166, -6616.541041915541, -11344.382029102091, -10757.64873715028, -10913.842727403966, 0.008812500000000001, -0.0248125, 0.9884999999999999, 192.0, 0.0, 0.0, 0.0, 0.0, 0.0, 0.0, 0.0, 0.0, 0.0, 1.6444983386325867E9, 0.0, 2022-02-11 00:05:38.632
62.0, -6763.52611345364, -9671.979805467106, -10139.041857605203, -15282.893512593928, -3270.6413591672613, -3952.838951687688, -6754.026622060135, -7068.090983401655, -14367.790742849202, -9829.581955621476, -23383.165703197206, -12371.824666479191, -6631.36024848941, -11351.556939072245, -10751.434952191705, -10915.139128582374, 0.008812500000000001, -0.0248125, 0.9884999999999999, 192.0, 0.0, 0.0, 0.0, 0.0, 0.0, 0.0, 0.0, 0.0, 0.0, 1.6444983386325932E9, 0.0, 2022-02-11 00:05:38.632
64.0, -6763.392002986909, -9664.760192008041, -10136.717276181851, -15280.345413726023, -3269.3226062443982, -3942.4453905159703, -6754.116029037957, -7057.0715733851885, -14355.452579909872, -9814.89685951434, -23389.111267222317, -12367.108448399122, -6619.670286139284, -11332.602659774144, -10752.619594647836, -10913.328637281495, 0.008812500000000001, -0.0248125, 0.9884999999999999, 192.0, 0.0, 0.0, 0.0, 0.0, 0.0, 0.0, 0.0, 0.0, 0.0, 1.6444983386325998E9, 0.0, 2022-02-11 00:05:38.632
66.0, -6755.792409872104, -9670.325776377413, -10132.425741246432, -15275.338622968035, -3264.896960842247, -3948.9050446635542, -6755.881816849926, -7057.719773974392, -14353.485626397805, -9806.671417554786, -23372.86154900331, -12357.58660526116, -6616.250469237622, -11343.19738664596, -10747.545748656483, -10906.511355222627, 0.0074062500000000005, -0.02740625, 0.98825, 192.0, 0.0, 24.0, 127.5, 8.0, 15.0, 112.0, 0.0, 0.0, 0.0, 1.6444983386326065E9, 0.0, 2022-02-11 00:05:38.632
68.0, -6776.333663026531, -9684.407375384257, -10142.126398340035, -15276.344451468523, -3274.999949336046, -3961.69024249199, -6754.451305204786, -7064.604111266627, -14357.687754355402, -9810.717083301197, -23379.544720595448, -12357.944233172446, -6616.40693144881, -11370.466514881435, -10749.110370768354, -10909.64059944637, 0.0074062500000000005, -0.02740625, 0.98825, 192.0, 0.0, 0.0, 0.0, 0.0, 0.0, 0.0, 0.0, 0.0, 0.0, 1.6444983386326127E9, 0.0, 2022-02-11 00:05:38.632
70.0, -6758.094639551001, -9677.67950030321, -10130.995229601293, -15268.476637420254, -3259.0184520505018, -3948.7932859412776, -6748.170465012845, -7053.472942527884, -14347.540062372693, -9797.283684883558, -23382.58455784137, -12360.090000640155, -6618.97738206117, -11358.754200786854, -10750.160902757752, -10907.137204067374, 0.0074062500000000005, -0.02740625, 0.98825, 192.0, 0.0, 0.0, 0.0, 0.0, 0.0, 0.0, 0.0, 0.0, 0.0, 1.6444983386326213E9, 0.0, 2022-02-11 00:05:38.632
72.0, -6758.072287806545, -9677.165410180738, -10134.43739824741, -15272.298785722112, -3262.192399763155, -3964.0818791487077, -6747.030526045624, -7061.430163553973, -14353.910309542456, -9804.346836131435, -23369.53113907947, -12358.950061672935, -6620.899632084326, -11363.358660144648, -10746.070533522432, -10905.170250555308, 0.0074062500000000005, -0.02740625, 0.98825, 192.0, 0.0, 0.0, 0.0, 0.0, 0.0, 0.0, 0.0, 0.0, 0.0, 1.6444983386326275E9, 0.0, 2022-02-11 00:05:38.632
74.0, -6751.567930170051, -9666.10129667536, -10130.503491223275, -15278.423163702866, -3257.967920061102, -3962.137277381096, -6746.427028945331, -7059.373803064085, -14339.426379135417, -9789.929960957761, -23383.29981366394, -12374.171599646997, -6618.351533216422, -11374.199256205471, -10750.876158580322, -10910.758186669134, 0.0074062500000000005, -0.02740625, 0.98825, 192.0, 0.0, 0.0, 0.0, 0.0, 0.0, 0.0, 0.0, 0.0, 0.0, 1.6444983386326342E9, 0.0, 2022-02-11 00:05:38.632
76.0, -6728.992668270192, -9659.731049505597, -10122.345104497088, -15281.351242226512, -3248.0437455229458, -3954.6941464774786, -6743.342488210498, -7053.450590783428, -14335.134844199998, -9778.88819919684, -23367.072447189385, -12364.627404764582, -6617.658629138306, -11357.033116463796, -10741.242556720086, -10905.460823233227, 0.006703125000000001, -0.026703125, 0.9901249999999999, 192.0, 0.0, 24.0, 127.5, 24.0, 15.5, 0.0, 0.0, 0.0, 0.0, 1.6444983386326413E9, 0.0, 2022-02-11 00:05:38.632
78.0, -6760.642738418906, -9672.896226989775, -10132.381037757521, -15280.97126257077, -3261.030109051479, -3966.1829431275064, -6754.518360438152, -7072.2707596147975, -14335.671286066925, -9801.284647141058, -23367.00539195602, -12368.181332132976, -6614.484681425653, -11345.499616324856, -10743.589489887892, -10908.523012223604, 0.006703125000000001, -0.026703125, 0.9901249999999999, 192.0, 0.0, 0.0, 0.0, 0.0, 0.0, 0.0, 0.0, 0.0, 0.0, 1.6444983386326485E9, 0.0, 2022-02-11 00:05:38.632
80.0, -6755.904168594381, -9684.697948062176, -10126.860156877061, -15272.11997176647, -3250.88241706877, -3967.1217163946294, -6741.710810865261, -7050.880140171068, -14335.715989555836, -9796.210801149702, -23371.788665269454, -12350.523454013284, -6612.718893613684, -11371.29352942628, -10747.03165853401, -10907.003093600642, 0.006703125000000001, -0.026703125, 0.9901249999999999, 192.0, 0.0, 0.0, 0.0, 0.0, 0.0, 0.0, 0.0, 0.0, 0.0, 1.644498338632655E9, 0.0, 2022-02-11 00:05:38.632
82.0, -6758.921654095848, -9673.835000256897, -10129.609421445062, -15277.216169502279, -3259.2196177505994, -3979.8622107341544, -6756.597072672495, -7070.996710180844, -14346.802454805667, -9804.212725664704, -23366.781874511467, -12349.49527376834, -6625.012353064103, -11380.793020819787, -10738.761513085547, -10908.67947443479, 0.006703125000000001, -0.026703125, 0.9901249999999999, 192.0, 0.0, 0.0, 0.0, 0.0, 0.0, 0.0, 0.0, 0.0, 0.0, 1.6444983386326613E9, 0.0, 2022-02-11 00:05:38.632
84.0, -6762.207360530778, -9675.377270624313, -10130.034104589713, -15269.147189753914, -3264.516981186507, -3976.8670769771434, -6776.62423570445, -7071.264931114309, -14335.917155255933, -9789.03589117955, -23380.57290084039, -12370.192989133953, -6621.2349082511555, -11380.547151630779, -10749.467998679638, -10912.814547159023, 0.006703125000000001, -0.026703125, 0.9901249999999999, 192.0, 0.0, 0.0, 0.0, 0.0, 0.0, 0.0, 0.0, 0.0, 0.0, 1.644498338632668E9, 0.0, 2022-02-11 00:05:38.632
86.0, -6752.461999948264, -9677.187761925194, -10120.914592851948, -15271.49412292172, -3252.067059524901, -3971.16738214104, -6747.946947568292, -7060.916073431501, -14334.55369884416, -9786.823068478474, -23360.992772697544, -12359.039468650755, -6628.320411243488, -11374.668642839033, -10747.03165853401, -10903.180945298785, 0.01, -0.03, 0.988, 192.0, 0.0, 40.0, 127.5, 8.0, 15.0, 112.0, 0.0, 0.0, 0.0, 1.6444983386326745E9, 0.0, 2022-02-11 00:05:38.632
88.0, -6765.560122199074, -9688.944779508683, -10131.15169181248, -15275.718602623774, -3260.270149739999, -3989.0264259608302, -6749.846845846992, -7074.081250915677, -14340.365152402539, -9790.600513291422, -23364.34553436584, -12350.568157502194, -6614.3058674700105, -11381.195352219982, -10745.645850377781, -10909.282971535084, 0.01, -0.03, 0.988, 192.0, 0.0, 0.0, 0.0, 0.0, 0.0, 0.0, 0.0, 0.0, 0.0, 1.6444983386326811E9, 0.0, 2022-02-11 00:05:38.632
90.0, -6759.256930262677, -9689.324759164425, -10129.38590400051, -15277.97612881376, -3254.525751414985, -3989.1158329386517, -6733.820645072537, -7064.402945566529, -14335.336009900095, -9787.493620812133, -23370.53696757996, -12364.739163486858, -6624.274745497078, -11383.005843520861, -10746.070533522432, -10910.06528259102, 0.01, -0.03, 0.988, 192.0, 0.0, 0.0, 0.0, 0.0, 0.0, 0.0, 0.0, 0.0, 0.0, 1.6444983386326883E9, 0.0, 2022-02-11 00:05:38.632
92.0, -6775.2607792926765, -9706.200326228181, -10132.917479624448, -15278.221998002768, -3259.4654869396077, -3991.0827864507187, -6736.636964873906, -7063.3524135771295, -14350.423437407428, -9792.32159761448, -23367.698296034134, -12370.662375767515, -6631.3155450005, -11387.096212756183, -10741.108446253354, -10906.310189522528, 0.01, -0.03, 0.988, 192.0, 0.0, 0.0, 0.0, 0.0, 0.0, 0.0, 0.0, 0.0, 0.0, 1.6444983386326947E9, 0.0, 2022-02-11 00:05:38.632
94.0, -6802.284038339143, -9737.090437065415, -10137.656049448973, -15279.876027092461, -3256.805629349426, -3992.8038707737774, -6724.499967634674, -7054.925805917479, -14350.512844385248, -9799.876487240374, -23383.791552041956, -12365.454419309428, -6626.532271687063, -11395.478116926923, -10741.22020497563, -10907.20425930074, 0.01, -0.03, 0.988, 192.0, 0.0, 0.0, 0.0, 0.0, 0.0, 0.0, 0.0, 0.0, 0.0, 1.6444983386327019E9, 0.0, 2022-02-11 00:05:38.632
96.0, -6812.25291636621, -9757.184655330737, -10130.883470879016, -15280.948910826315, -3243.2157687205995, -3986.3665683706486, -6715.514566363641, -7043.235843567353, -14361.576957890626, -9808.616019322399, -23381.332860151873, -12370.371803089596, -6634.668306668796, -11397.802698350275, -10733.687667094191, -10905.885506377877, 0.016, -0.026000000000000002, 0.992, 192.0, 0.0, 64.0, 127.5, 24.0, 15.5, 0.0, 0.0, 0.0, 0.0, 1.6444983386327083E9, 0.0, 2022-02-11 00:05:38.632
98.0, -6852.173131963388, -9790.712272013698, -10139.108912838568, -15278.087887536036, -3250.837713579859, -3995.6648940640566, -6732.14426423839, -7055.708116973415, -14359.207672978364, -9812.862850768906, -23387.300775921438, -12380.586550305672, -6631.628469422873, -11395.768689604842, -10732.681838593702, -10906.734872667179, 0.016, -0.026000000000000002, 0.992, 192.0, 0.0, 0.0, 0.0, 0.0, 0.0, 0.0, 0.0, 0.0, 0.0, 1.6444983386327147E9, 0.0, 2022-02-11 00:05:38.632
100.0, -6887.287722502676, -9831.504205644633, -10134.683267436418, -15280.12189628147, -3238.6560128517167, -3984.489021836403, -6719.359066409954, -7043.72758194537, -14385.627434924536, -9810.784138534564, -23415.374566957304, -12389.9742829769, -6627.068713553991, -11385.576294133221, -10733.26298394954, -10904.186773799274, 0.016, -0.026000000000000002, 0.992, 192.0, 0.0, 0.0, 0.0, 0.0, 0.0, 0.0, 0.0, 0.0, 0.0, 1.6444983386327217E9, 0.0, 2022-02-11 00:05:38.632
102.0, -6911.919344892424, -9856.269938501113, -10136.113779081557, -15286.581550429053, -3243.2157687205995, -3987.6406178046013, -6742.984860299213, -7065.54288453375, -14394.791650151212, -9831.861833555917, -23408.847857576355, -12395.293998157264, -6639.764504404606, -11383.743451087887, -10729.664353092236, -10904.052663332543, 0.016, -0.026000000000000002, 0.992, 192.0, 0.0, 0.0, 0.0, 0.0, 0.0, 0.0, 0.0, 0.0, 0.0, 1.64449833863273E9, 0.0, 2022-02-11 00:05:38.632
104.0, -6945.581072042117, -9867.557569451043, -10143.556909985175, -15279.630157903453, -3241.494684397541, -3992.2450771623944, -6727.964488025247, -7055.6634134845035, -14389.874266371044, -9823.859909040917, -23427.511564196535, -12422.831347326202, -6625.906422842315, -11400.373148962635, -10729.97727751461, -10906.757224411635, 0.016, -0.026000000000000002, 0.992, 192.0, 0.0, 0.0, 0.0, 0.0, 0.0, 0.0, 0.0, 0.0, 0.0, 1.6444983386327367E9, 0.0, 2022-02-11 00:05:38.632
106.0, -6953.538293068206, -9898.112404121448, -10136.270241292745, -15274.243387489723, -3233.5374633714514, -3983.0585101912634, -6720.767226310638, -7040.598337721627, -14411.890734659522, -9815.209783936714, -23431.73604389859, -12405.039358739778, -6641.619699194396, -11413.650085169087, -10721.841242532879, -10895.469593461705, 0.01, -0.03, 0.99, 192.0, 0.0, 40.0, 127.5, 8.0, 15.0, 120.0, 0.0, 0.0, 0.0, 1.6444983386327431E9, 0.0, 2022-02-11 00:05:38.632
108.0, -6959.260339648765, -9894.96080815325, -10143.467503007354, -15276.433858446344, -3246.3450129443427, -4001.3198854112493, -6735.005287528669, -7068.090983401655, -14410.504926503292, -9815.455653125722, -23424.739947884078, -12396.411585380029, -6632.991925834647, -11390.20310523547, -10725.037541989988, -10900.275218519595, 0.01, -0.03, 0.99, 192.0, 0.0, 0.0, 0.0, 0.0, 0.0, 0.0, 0.0, 0.0, 0.0, 1.64449833863275E9, 0.0, 2022-02-11 00:05:38.632
110.0, -6954.7005837798815, -9892.233895329702, -10137.05255234868, -15279.965434070282, -3240.108876241312, -3997.7883097873105, -6715.156938452356, -7052.400058794029, -14398.926722875443, -9815.254487425624, -23425.58931417338, -12403.78766105028, -6634.467140968698, -11381.77649757582, -10728.07737923591, -10905.259657533128, 0.01, -0.03, 0.99, 192.0, 0.0, 0.0, 0.0, 0.0, 0.0, 0.0, 0.0, 0.0, 0.0, 1.6444983386327565E9, 0.0, 2022-02-11 00:05:38.632
112.0, -6928.951374167368, -9867.088182817482, -10133.833901147116, -15283.631120160953, -3241.2711669529876, -4002.772748800844, -6718.152072209367, -7063.866503699602, -14409.14147009152, -9818.450786882733, -23418.77203211451, -12398.087966214176, -6652.057963855024, -11402.764785619353, -10723.607030344849, -10903.806794143533, 0.01, -0.03, 0.99, 192.0, 0.0, 0.0, 0.0, 0.0, 0.0, 0.0, 0.0, 0.0, 0.0, 1.644498338632763E9, 0.0, 2022-02-11 00:05:38.632
114.0, -6907.426644256908, -9830.028990510582, -10133.431569746921, -15275.562140412587, -3239.5947861188397, -4003.867984279154, -6711.670066317328, -7064.626463011082, -14382.431135467426, -9784.69965275522, -23417.676796636202, -12418.383350179596, -6631.896690356338, -11411.034931067818, -10723.249402433563, -10905.438471488771, 0.01, -0.03, 0.99, 192.0, 0.0, 0.0, 0.0, 0.0, 0.0, 0.0, 0.0, 0.0, 0.0, 1.6444983386327693E9, 0.0, 2022-02-11 00:05:38.632
116.0, -6896.5860481960835, -9845.85402558494, -10125.899031865481, -15275.718602623774, -3234.0739052383788, -4000.291705166305, -6725.908127535359, -7047.259157569309, -14383.816943623657, -9796.501373827621, -23392.53108412398, -12387.0238527088, -6633.617774679396, -11414.387692736113, -10723.964658256133, -10900.319922008506, 0.006, -0.028, 0.992, 192.0, 0.0, 24.0, 127.5, 16.0, 15.5, 0.0, 0.0, 0.0, 0.0, 1.6444983386327763E9, 0.0, 2022-02-11 00:05:38.632
118.0, -6887.354777736042, -9833.560566134522, -10131.911651123959, -15278.870198591972, -3247.4178966781974, -4021.2352897209275, -6730.870214804437, -7068.11333514611, -14377.26788249825, -9801.351702374424, -23393.380450413282, -12379.31250087172, -6633.014277579103, -11412.867774113152, -10722.422387888717, -10903.359759254428, 0.006, -0.028, 0.992, 192.0, 0.0, 0.0, 0.0, 0.0, 0.0, 0.0, 0.0, 0.0, 0.0, 1.644498338632783E9, 0.0, 2022-02-11 00:05:38.632
120.0, -6859.705669844827, -9799.384748862356, -10121.071055063136, -15269.214244987279, -3233.7833325604597, -3999.487042365914, -6716.453339630764, -7059.262044341808, -14351.36221067455, -9776.295396840025, -23386.831389287876, -12382.061765439721, -6634.154216546323, -11415.25941076987, -10722.556498355449, -10903.091538320963, 0.006, -0.028, 0.992, 192.0, 0.0, 0.0, 0.0, 0.0, 0.0, 0.0, 0.0, 0.0, 0.0, 1.6444983391122315E9, 0.0, 2022-02-11 00:05:39.112
122.0, -6855.660004098417, -9804.70446404272, -10121.115758552047, -15271.941157810827, -3242.3216989423872, -4011.8252053052433, -6722.555365867062, -7057.138628618554, -14358.358306689062, -9769.03107989205, -23373.24152865905, -12361.788733218758, -6630.019143822092, -11391.20893373596, -10720.321323909919, -10895.648407417346, 0.006, -0.028, 0.992, 192.0, 0.0, 0.0, 0.0, 0.0, 0.0, 0.0, 0.0, 0.0, 0.0, 1.644498339112322E9, 0.0, 2022-02-11 00:05:39.112
124.0, -6834.761123032704, -9760.202140832203, -10121.00399982977, -15269.482465920742, -3235.4150099056974, -4008.1148157256625, -6729.149130481378, -7073.321291604197, -14343.404989648461, -9743.68420167973, -23376.259014160518, -12373.344585102152, -6623.4030274633205, -11404.485869942411, -10725.037541989988, -10901.415157486816, 0.006, -0.028, 0.992, 192.0, 0.0, 0.0, 0.0, 0.0, 0.0, 0.0, 0.0, 0.0, 0.0, 1.644498339112431E9, 0.0, 2022-02-11 00:05:39.112
126.0, -6814.577497789562, -9769.835742692441, -10110.319865980133, -15266.934367052838, -3216.7960067744266, -4008.6959610815006, -6703.019941213124, -7054.612881495104, -14333.346704643573, -9735.101131808893, -23363.29500237644, -12369.880064711579, -6627.962783332203, -11416.108777059171, -10712.878193006301, -10896.20720102873, 0.012, -0.03, 0.988, 192.0, 0.0, 48.0, 127.5, 8.0, 15.0, 112.0, 0.0, 0.0, 0.0, 1.6444983391124387E9, 0.0, 2022-02-11 00:05:39.112
128.0, -6825.887480483947, -9781.41394632029, -10121.495738207786, -15271.225901988257, -3227.368381901787, -4014.0156762618635, -6722.4883106336965, -7064.849980455635, -14340.096931469076, -9772.093268882427, -23363.33970586535, -12349.070590623689, -6618.083312282957, -11411.25844851237, -10706.306780136441, -10893.502639949636, 0.012, -0.03, 0.988, 192.0, 0.0, 0.0, 0.0, 0.0, 0.0, 0.0, 0.0, 0.0, 0.0, 1.6444983391124454E9, 0.0, 2022-02-11 00:05:39.112
130.0, -6790.571724244563, -9749.6521174493, -10111.99624681428, -15263.536901895632, -3222.585108588351, -4008.941830270509, -6718.576755354018, -7065.811105467214, -14327.915230740933, -9753.854245406896, -23364.59140355485, -12354.546768015238, -6615.445806437231, -11401.870715841142, -10709.12309993781, -10892.653273660335, 0.012, -0.03, 0.988, 192.0, 0.0, 0.0, 0.0, 0.0, 0.0, 0.0, 0.0, 0.0, 0.0, 1.6444983391124523E9, 0.0, 2022-02-11 00:05:39.112
132.0, -6771.237465290722, -9723.075893291938, -10115.550174182676, -15265.034468774138, -3235.3703064167867, -4022.12935949914, -6741.28612772061, -7066.526361289783, -14324.517765583727, -9741.046695834006, -23344.877164945265, -12346.92482315598, -6618.083312282957, -11400.551962918278, -10710.866536005324, -10897.34713999595, 0.012, -0.03, 0.988, 192.0, 0.0, 0.0, 0.0, 0.0, 0.0, 0.0, 0.0, 0.0, 0.0, 1.6444983391124592E9, 0.0, 2022-02-11 00:05:39.112
134.0, -6773.67380543635, -9725.445178204202, -10116.511299194253, -15272.812875844584, -3242.9028442982253, -4016.161443729573, -6729.2385374591995, -7074.483582315873, -14309.8773729655, -9729.40143697279, -23361.30569711992, -12355.038506393255, -6620.989039062148, -11401.82601235223, -10724.322286167418, -10902.800965643046, 0.012, -0.03, 0.988, 192.0, 0.0, 0.0, 0.0, 0.0, 0.0, 0.0, 0.0, 0.0, 0.0, 1.644498339112472E9, 0.0, 2022-02-11 00:05:39.112
136.0, -6780.446384006308, -9727.300372993992, -10105.916572322438, -15265.660317618886, -3230.8552540368146, -4021.41410367657, -6726.2434037021885, -7073.768326493303, -14312.894858466967, -9729.602602672889, -23331.689635716633, -12340.085189352654, -6626.576975175974, -11406.87750659913, -10715.605105829849, -10898.241209774162, 0.008, -0.026000000000000002, 0.986, 192.0, 0.0, 32.0, 127.5, 24.0, 15.0, 104.0, 0.0, 0.0, 0.0, 1.6444983391124787E9, 0.0, 2022-02-11 00:05:39.112
138.0, -6791.242276578221, -9745.762913914075, -10119.841709118095, -15272.4552479333, -3240.6229663637837, -4035.652164894601, -6722.555365867062, -7089.369844123107, -14324.920096983922, -9742.477207479145, -23345.167737623186, -12338.095884096132, -6630.510882200108, -11428.558698720777, -10714.040483717978, -10903.002131343143, 0.008, -0.026000000000000002, 0.986, 192.0, 0.0, 0.0, 0.0, 0.0, 0.0, 0.0, 0.0, 0.0, 0.0, 1.644498339112486E9, 0.0, 2022-02-11 00:05:39.112
140.0, -6764.263721020666, -9720.01370430156, -10110.409272957953, -15269.661279876385, -3222.4733498660744, -4025.258603722883, -6720.029618743613, -7081.233809141375, -14315.062977679132, -9741.046695834006, -23348.654609758214, -12349.58468074616, -6627.918079843293, -11431.732646433431, -10713.705207551147, -10903.96325635472, 0.008, -0.026000000000000002, 0.986, 192.0, 0.0, 0.0, 0.0, 0.0, 0.0, 0.0, 0.0, 0.0, 0.0, 1.6444983391124938E9, 0.0, 2022-02-11 00:05:39.112
142.0, -6761.179180285833, -9716.929163566729, -10112.24211600329, -15269.437762431833, -3227.524844112974, -4027.7619991018773, -6718.464996631742, -7076.025852683289, -14314.101852667554, -9728.216794516658, -23331.28730431644, -12336.710075939904, -6628.409818221309, -11422.367265506658, -10704.429233602195, -10898.196506285252, 0.008, -0.026000000000000002, 0.986, 192.0, 0.0, 0.0, 0.0, 0.0, 0.0, 0.0, 0.0, 0.0, 0.0, 1.6444983391125007E9, 0.0, 2022-02-11 00:05:39.112
144.0, -6748.237520246211, -9709.195459985192, -10113.203241014868, -15260.698230349808, -3238.521902384985, -4028.767827602366, -6739.319174208543, -7078.149268406542, -14303.417718817916, -9714.962210054662, -23340.51857477648, -12333.737293927348, -6614.842309336938, -11432.760826678375, -10709.905410993744, -10900.319922008506, 0.008, -0.026000000000000002, 0.986, 192.0, 0.0, 0.0, 0.0, 0.0, 0.0, 0.0, 0.0, 0.0, 0.0, 1.6444983391125076E9, 0.0, 2022-02-11 00:05:39.112
146.0, -6726.757493824661, -9686.955474252161, -10098.004054785259, -15256.183177969835, -3233.6715738381836, -4020.1400542426177, -6742.873101576937, -7083.692501031459, -14298.947369926855, -9715.386893199313, -23316.691615187123, -12320.10272980961, -6618.686809383251, -11406.721044387943, -10712.11823369482, -10894.77668938359, 0.01, -0.024, 0.982, 192.0, 0.0, 40.0, 127.5, 32.0, 15.0, 88.0, 0.0, 0.0, 0.0, 1.6444983391125145E9, 0.0, 2022-02-11 00:05:39.112
148.0, -6722.175386211323, -9670.4822385886, -10104.351950210566, -15257.501930892699, -3248.244911223044, -4035.741571872422, -6752.506703437174, -7095.360111637129, -14292.130087867987, -9702.668750604244, -23310.746051162012, -12332.329134026664, -6612.473024424676, -11414.5441549473, -10715.828623274401, -10903.203297043241, 0.01, -0.024, 0.982, 192.0, 0.0, 0.0, 0.0, 0.0, 0.0, 0.0, 0.0, 0.0, 0.0, 1.6444983391125224E9, 0.0, 2022-02-11 00:05:39.112
150.0, -6690.212391640233, -9657.518226804523, -10092.147897737968, -15254.663259346875, -3230.5646813588955, -4030.9135950700756, -6737.843959074493, -7104.010236741333, -14273.354622525529, -9704.456890160667, -23306.834495882333, -12314.894773351523, -6617.077483782468, -11424.937716119019, -10721.796539043968, -10910.735834924679, 0.01, -0.024, 0.982, 192.0, 0.0, 0.0, 0.0, 0.0, 0.0, 0.0, 0.0, 0.0, 0.0, 1.6444983391125293E9, 0.0, 2022-02-11 00:05:39.112
152.0, -6722.600069355974, -9694.756233067064, -10094.13720299449, -15261.748762339206, -3230.944661014636, -4042.447095209014, -6736.86048231846, -7109.128786221599, -14283.524666252693, -9704.278076205024, -23304.88989411472, -12308.010436059289, -6619.9385070727485, -11430.391541766114, -10715.761568041036, -10915.16148032683, 0.01, -0.024, 0.982, 192.0, 0.0, 0.0, 0.0, 0.0, 0.0, 0.0, 0.0, 0.0, 0.0, 1.644498339112536E9, 0.0, 2022-02-11 00:05:39.112
154.0, -6739.855616075471, -9702.020550015039, -10102.675569376419, -15259.78180882714, -3233.224538949077, -4034.087542782729, -6744.57183415554, -7091.2920941462635, -14294.834648947079, -9725.02049505955, -23315.775193664456, -12309.508002937795, -6622.374847218376, -11430.033913854828, -10716.476823863606, -10915.8767361494, 0.01, -0.023, 0.984, 192.0, 0.0, 40.0, 127.5, 40.0, 15.0, 104.0, 0.0, 0.0, 0.0, 1.644498339112543E9, 0.0, 2022-02-11 00:05:39.112
156.0, -6707.758511037649, -9682.351014894368, -10094.42777567241, -15257.300765192602, -3216.013695718491, -4021.5929176322124, -6739.229767230722, -7098.444652371962, -14291.481887278784, -9719.745483368097, -23307.23682728253, -12307.116366281078, -6622.039571051547, -11412.174870035038, -10707.759643526035, -10904.477346477193, 0.01, -0.023, 0.984, 192.0, 0.0, 0.0, 0.0, 0.0, 0.0, 0.0, 0.0, 0.0, 0.0, 1.6444983391125505E9, 0.0, 2022-02-11 00:05:39.112
158.0, -6717.660333831351, -9672.449192100668, -10100.775671097717, -15260.765285583173, -3229.290631924943, -4041.0389353083297, -6728.679743847817, -7090.599190068149, -14286.788020943168, -9710.514212908056, -23306.94625460461, -12319.610991431593, -6610.327256956966, -11449.5022832754, -10704.295123135464, -10903.471517976704, 0.01, -0.023, 0.984, 192.0, 0.0, 0.0, 0.0, 0.0, 0.0, 0.0, 0.0, 0.0, 0.0, 1.644498339112558E9, 0.0, 2022-02-11 00:05:39.112
160.0, -6700.047159200569, -9669.76698276603, -10089.666854103429, -15257.032544259137, -3224.9767452450687, -4024.968031044964, -6726.533976380108, -7089.056919700733, -14277.154419082932, -9708.100224506883, -23306.65568192669, -12321.086206565644, -6624.721780386184, -11440.539233748823, -10708.49725109306, -10903.717387165712, 0.01, -0.023, 0.984, 192.0, 0.0, 0.0, 0.0, 0.0, 0.0, 0.0, 0.0, 0.0, 0.0, 1.6444983391125653E9, 0.0, 2022-02-11 00:05:39.112
162.0, -6701.500022590163, -9664.402564096757, -10091.2314762153, -15258.127779737448, -3229.111817969301, -4031.807664848288, -6738.089828263501, -7092.901419747045, -14283.949349397344, -9706.513250650556, -23291.65766139718, -12316.504098952306, -6628.476873454675, -11425.161233563571, -10704.742158024568, -10898.44237547426, 0.01, -0.023, 0.984, 192.0, 0.0, 0.0, 0.0, 0.0, 0.0, 0.0, 0.0, 0.0, 0.0, 1.644498339112572E9, 0.0, 2022-02-11 00:05:39.112
164.0, -6703.377569124409, -9669.409354854746, -10094.13720299449, -15251.802236056596, -3229.380038902764, -4037.7308771289445, -6751.925558081336, -7104.725492563903, -14280.238959817763, -9703.138137237804, -23307.102716815796, -12296.029901031245, -6622.084274540458, -11440.293364559813, -10710.017169716022, -10905.661988933325, 0.011, -0.0265, 0.985, 192.0, 0.0, 48.0, 127.5, 8.0, 15.0, 104.0, 0.0, 0.0, 0.0, 1.6444983391125789E9, 0.0, 2022-02-11 00:05:39.112
166.0, -6678.544781034563, -9659.462828572134, -10083.430717400399, -15251.534015123132, -3203.340256612332, -4025.4374176785254, -6708.071435460024, -7086.330006877185, -14277.579102227583, -9695.762061567553, -23295.88214109923, -12291.805421329193, -6616.965725060192, -11417.427529982035, -10702.819908001413, -10901.750433653646, 0.011, -0.0265, 0.985, 192.0, 0.0, 0.0, 0.0, 0.0, 0.0, 0.0, 0.0, 0.0, 0.0, 1.6444983391125908E9, 0.0, 2022-02-11 00:05:39.112
168.0, -6690.771185251616, -9653.606671524843, -10089.28687444769, -15251.109331978481, -3212.6385823057394, -4034.355763716193, -6721.750703066672, -7108.88291703259, -14273.622843458992, -9702.333474437413, -23287.0979055283, -12307.76456687028, -6601.610076619396, -11447.691791974521, -10692.605160785337, -10899.112927807919, 0.011, -0.0265, 0.985, 192.0, 0.0, 0.0, 0.0, 0.0, 0.0, 0.0, 0.0, 0.0, 0.0, 1.6444983391125984E9, 0.0, 2022-02-11 00:05:39.112
170.0, -6687.485478816686, -9654.947776192163, -10088.57161862512, -15250.081151733537, -3211.9009747387145, -4022.062304265774, -6729.931441537314, -7081.904361475034, -14263.989241598754, -9685.30144516247, -23294.764553876466, -12304.411805201986, -6617.368056460387, -11439.108722103683, -10701.657617289737, -10902.711558665223, 0.011, -0.0265, 0.985, 192.0, 0.0, 0.0, 0.0, 0.0, 0.0, 0.0, 0.0, 0.0, 0.0, 1.644498339112605E9, 0.0, 2022-02-11 00:05:39.112
172.0, -6700.248324900666, -9669.565817065934, -10094.025444272214, -15254.596204113508, -3216.952468985614, -4026.867929323665, -6732.032505516113, -7093.124937191598, -14282.563541241116, -9709.150756496281, -23287.679050884137, -12285.904560792991, -6625.571146675486, -11436.605326724688, -10702.64109404577, -10898.82235513, 0.011, -0.0265, 0.985, 192.0, 0.0, 0.0, 0.0, 0.0, 0.0, 0.0, 0.0, 0.0, 0.0, 1.6444983391126125E9, 0.0, 2022-02-11 00:05:39.112
174.0, -6695.1968306537665, -9654.165465136226, -10096.886467562494, -15256.83137855904, -3216.952468985614, -4026.264432223372, -6713.815833785037, -7081.122050419099, -14272.862884147513, -9709.06134951846, -23301.447725468606, -12301.014340044778, -6620.854928595416, -11431.553832477788, -10703.669274290714, -10902.06335807602, 0.0115, -0.028249999999999997, 0.9884999999999999, 192.0, 0.0, 48.0, 127.5, 8.0, 15.5, 0.0, 0.0, 0.0, 0.0, 1.6444983391126192E9, 0.0, 2022-02-11 00:05:39.112
176.0, -6675.124964132901, -9642.6766684862, -10082.067260988624, -15250.461131389276, -3207.7882537589376, -4025.191548489517, -6729.417351414842, -7092.49908834685, -14268.25842478972, -9691.291712676491, -23282.51579791496, -12300.0532150332, -6617.680980882762, -11427.463463242468, -10696.628474787292, -10897.838878373967, 0.0115, -0.028249999999999997, 0.9884999999999999, 192.0, 0.0, 0.0, 0.0, 0.0, 0.0, 0.0, 0.0, 0.0, 0.0, 1.6444983391126263E9, 0.0, 2022-02-11 00:05:39.112
178.0, -6697.3649498659315, -9660.669822772721, -10090.739737837284, -15253.277451190646, -3221.176948687667, -4047.476237711458, -6720.990743755191, -7101.059806473232, -14277.869674905502, -9692.722224321631, -23288.28254798443, -12295.024072530756, -6612.808300591505, -11459.091181646727, -10693.20865788563, -10901.30339876454, 0.0115, -0.028249999999999997, 0.9884999999999999, 192.0, 0.0, 0.0, 0.0, 0.0, 0.0, 0.0, 0.0, 0.0, 0.0, 1.6444983391126332E9, 0.0, 2022-02-11 00:05:39.112
180.0, -6694.70509227575, -9662.972052451618, -10080.100307476558, -15253.143340723915, -3209.3081723818987, -4038.4237812070587, -6715.335752407998, -7099.718701805914, -14277.042660360654, -9708.614314629354, -23299.838399867822, -12301.371967956064, -6617.50216692712, -11449.83755944223, -10697.656655032237, -10904.499698221649, 0.0115, -0.028249999999999997, 0.9884999999999999, 192.0, 0.0, 0.0, 0.0, 0.0, 0.0, 0.0, 0.0, 0.0, 0.0, 1.64449833911264E9, 0.0, 2022-02-11 00:05:39.112
182.0, -6688.334845105987, -9659.865159972329, -10082.581351111097, -15256.786675070129, -3207.0729979363678, -4033.4393421935256, -6710.485423861197, -7080.205628896431, -14281.468305762804, -9708.97194254064, -23285.779152605435, -12293.414746929973, -6621.190204762245, -11442.416780283069, -10692.40399508524, -10896.363663239916, 0.0115, -0.028249999999999997, 0.9884999999999999, 192.0, 0.0, 0.0, 0.0, 0.0, 0.0, 0.0, 0.0, 0.0, 0.0, 1.6444983391126468E9, 0.0, 2022-02-11 00:05:39.112
184.0, -6668.710013474228, -9630.114988102316, -10084.101269734057, -15252.226919201246, -3202.1109106672898, -4024.7445136004108, -6734.625307872929, -7092.677902302493, -14264.123352065488, -9690.01766324254, -23293.825780609346, -12298.421537687962, -6607.667399366785, -11429.11749233216, -10694.21448638612, -10896.900105106844, 0.00975, -0.025124999999999998, 0.98925, 192.0, 0.0, 32.0, 127.5, 40.0, 15.0, 120.0, 0.0, 0.0, 0.0, 1.6444983391126535E9, 0.0, 2022-02-11 00:05:39.112
186.0, -6664.150257605345, -9639.189796351171, -10077.932188264393, -15248.49417787721, -3187.5599250268847, -4018.8883565531205, -6696.604990554451, -7077.255198628331, -14256.00966882821, -9679.400584626268, -23276.681992612124, -12284.38464217003, -6597.0503207505135, -11445.83659718473, -10685.944340937656, -10887.825296857989, 0.00975, -0.025124999999999998, 0.98925, 192.0, 0.0, 0.0, 0.0, 0.0, 0.0, 0.0, 0.0, 0.0, 0.0, 1.6444983391126614E9, 0.0, 2022-02-11 00:05:39.112
188.0, -6693.27458063061, -9666.146000164272, -10085.397670912465, -15255.736143080729, -3204.1449194127226, -4042.201226020006, -6710.463072116741, -7088.967512722911, -14266.671450933392, -9699.539506380499, -23285.37682120524, -12294.062947519178, -6611.511899413097, -11453.5032455329, -10687.01722467151, -10895.894276606356, 0.00975, -0.025124999999999998, 0.98925, 192.0, 0.0, 0.0, 0.0, 0.0, 0.0, 0.0, 0.0, 0.0, 0.0, 1.6444983391126685E9, 0.0, 2022-02-11 00:05:39.112
190.0, -6688.804231739549, -9659.306366360946, -10079.206237698345, -15252.025753501148, -3200.099253666312, -4028.544310157813, -6709.189022682789, -7086.240599899364, -14263.92218636539, -9698.377215668825, -23290.98710906352, -12298.62270338806, -6613.702370369718, -11451.178664109548, -10695.890867220267, -10901.258695275628, 0.00975, -0.025124999999999998, 0.98925, 192.0, 0.0, 0.0, 0.0, 0.0, 0.0, 0.0, 0.0, 0.0, 0.0, 1.6444983391126752E9, 0.0, 2022-02-11 00:05:39.112
192.0, -6671.928664675792, -9641.648488241255, -10080.100307476558, -15258.97714602675, -3199.004018188002, -4029.2148624914726, -6716.721560564228, -7094.220172669909, -14270.359488768518, -9694.197439455682, -23280.682954869626, -12310.692645393927, -6610.2602017236, -11436.381809280136, -10685.83258221538, -10897.078919062486, 0.00975, -0.025124999999999998, 0.98925, 192.0, 0.0, 0.0, 0.0, 0.0, 0.0, 0.0, 0.0, 0.0, 0.0, 1.644498339112682E9, 0.0, 2022-02-11 00:05:39.112
194.0, -6670.453449541742, -9647.079962143895, -10083.028386000204, -15249.92468952235, -3200.7698059999716, -4032.9476038155085, -6722.37655191142, -7102.69148381847, -14253.640383915948, -9694.398605155779, -23290.651832896692, -12292.297159707208, -6603.755844087106, -11435.443036013012, -10687.799535727447, -10901.102233064441, 0.009875, -0.0235625, 0.990625, 192.0, 0.0, 40.0, 127.5, 40.0, 15.5, 0.0, 0.0, 0.0, 0.0, 1.6444983391126888E9, 0.0, 2022-02-11 00:05:39.112
196.0, -6664.84316168346, -9639.592127751366, -10071.293720161168, -15248.807102299585, -3185.1906401146225, -4030.734781114433, -6701.9470574792695, -7089.615713312115, -14246.420770456883, -9676.003119469062, -23273.999783277486, -12277.165028710966, -6614.663495381295, -11443.713181461475, -10683.35153858084, -10896.028387073087, 0.009875, -0.0235625, 0.990625, 192.0, 0.0, 0.0, 0.0, 0.0, 0.0, 0.0, 0.0, 0.0, 0.0, 1.6444983391126957E9, 0.0, 2022-02-11 00:05:39.112
198.0, -6678.410670567831, -9643.10135163085, -10080.033252243193, -15249.410599399878, -3197.39469258722, -4048.5938249342234, -6712.720598306728, -7084.228942898387, -14262.983413098267, -9679.95937823765, -23273.46334141056, -12282.328281680142, -6606.750977844117, -11452.385658310135, -10681.54104727996, -10896.475421962194, 0.009875, -0.0235625, 0.990625, 192.0, 0.0, 0.0, 0.0, 0.0, 0.0, 0.0, 0.0, 0.0, 0.0, 1.6444983391127048E9, 0.0, 2022-02-11 00:05:39.112
200.0, -6661.356289548432, -9641.939060919174, -10073.417135884421, -15242.772131296651, -3190.398596572709, -4034.936909072031, -6714.75460705216, -7091.113280190621, -14252.29927924863, -9684.094450961882, -23278.581890890826, -12291.246627717808, -6601.833594063949, -11442.014448882872, -10686.011396171021, -10895.313131250517, 0.009875, -0.0235625, 0.990625, 192.0, 0.0, 0.0, 0.0, 0.0, 0.0, 0.0, 0.0, 0.0, 0.0, 1.6444983391127117E9, 0.0, 2022-02-11 00:05:39.112
202.0, -6655.187208078767, -9641.044991140961, -10074.400612640455, -15250.952869767294, -3193.617247774273, -4039.7648858743773, -6715.961601252748, -7092.655550558037, -14258.222491529286, -9687.626026585822, -23267.964812274553, -12281.23304620183, -6612.830652335961, -11442.729704705442, -10681.831619957879, -10893.904971349833, 0.009875, -0.0235625, 0.990625, 192.0, 0.0, 0.0, 0.0, 0.0, 0.0, 0.0, 0.0, 0.0, 0.0, 1.6444983391127188E9, 0.0, 2022-02-11 00:05:39.112
204.0, -6662.451525026742, -9634.786502693476, -10082.179019710902, -15248.49417787721, -3203.2508496345104, -4042.9164818425756, -6725.885775790904, -7097.304713404741, -14255.026192072177, -9686.128459707315, -23281.26410022546, -12289.458488161385, -6614.529384914564, -11449.256414086392, -10686.749003738047, -10901.191640042263, 0.008937500000000001, -0.02278125, 0.9903124999999999, 192.0, 0.0, 32.0, 127.5, 40.0, 15.0, 120.0, 0.0, 0.0, 0.0, 1.644498339112726E9, 0.0, 2022-02-11 00:05:39.112
206.0, -6645.397144007343, -9635.121778860304, -10074.981757996293, -15247.130721465437, -3188.342236082821, -4029.0807520247404, -6725.28227869061, -7092.856716258135, -14249.840587358545, -9672.426840356213, -23272.36810593225, -12281.85889504658, -6607.019198777581, -11441.030972126839, -10685.9219891932, -10896.944808595754, 0.008937500000000001, -0.02278125, 0.9903124999999999, 192.0, 0.0, 0.0, 0.0, 0.0, 0.0, 0.0, 0.0, 0.0, 0.0, 1.644498339112733E9, 0.0, 2022-02-11 00:05:39.112
208.0, -6655.231911567678, -9626.203432822638, -10076.211103941334, -15248.896509277405, -3194.533669296941, -4038.4461329515143, -6720.923688521825, -7109.017027499322, -14253.841549616045, -9684.161506195249, -23270.132931486718, -12279.131982223033, -6613.948239558726, -11432.35849527818, -10682.144544380253, -10901.839840631466, 0.008937500000000001, -0.02278125, 0.9903124999999999, 192.0, 0.0, 0.0, 0.0, 0.0, 0.0, 0.0, 0.0, 0.0, 0.0, 1.6444983391127424E9, 0.0, 2022-02-11 00:05:39.112
210.0, -6659.255225569633, -9631.456092769635, -10068.455048615342, -15248.471826132754, -3183.8271837028487, -4031.762961359377, -6706.953848237258, -7092.119108691109, -14242.643325643938, -9671.085735688894, -23265.103788984274, -12280.76365956827, -6602.057111508502, -11437.633506969632, -10679.708204234625, -10901.34810225345, 0.008937500000000001, -0.02278125, 0.9903124999999999, 192.0, 0.0, 0.0, 0.0, 0.0, 0.0, 0.0, 0.0, 0.0, 0.0, 1.6444983391127503E9, 0.0, 2022-02-11 00:05:39.112
212.0, -6659.501094758642, -9644.308345831436, -10064.85641775804, -15249.477654633243, -3182.910762180181, -4041.865949853176, -6712.988819240191, -7109.3746554106065, -14251.315802492596, -9667.844732742875, -23254.687876068103, -12280.182514212433, -6609.16496624529, -11455.134922878138, -10673.025032642488, -10897.950637096243, 0.008937500000000001, -0.02278125, 0.9903124999999999, 192.0, 0.0, 0.0, 0.0, 0.0, 0.0, 0.0, 0.0, 0.0, 0.0, 1.6444983391127572E9, 0.0, 2022-02-11 00:05:39.112
214.0, -6666.854818684437, -9644.218938853615, -10072.858342273039, -15248.784750555129, -3189.4821750500414, -4040.480141696947, -6720.722522821728, -7097.952913993945, -14249.572366425082, -9681.769869538532, -23274.223300722042, -12290.687834106426, -6607.801509833516, -11446.484797773934, -10676.623663499793, -10899.694073163757, 0.00846875, -0.022390624999999997, 0.98815625, 192.0, 0.0, 32.0, 127.5, 40.0, 15.0, 104.0, 0.0, 0.0, 0.0, 1.6444983391127644E9, 0.0, 2022-02-11 00:05:39.112
216.0, -6644.659536440317, -9622.023656609495, -10060.833103756084, -15240.447549873299, -3172.070166119357, -4025.929156056542, -6712.1841564398, -7094.220172669909, -14247.91833733539, -9665.162523408238, -23265.237899451007, -12282.104764235588, -6603.509974898097, -11457.280690345848, -10675.461372788117, -10893.524991694092, 0.00846875, -0.022390624999999997, 0.98815625, 192.0, 0.0, 0.0, 0.0, 0.0, 0.0, 0.0, 0.0, 0.0, 0.0, 1.6444983391127715E9, 0.0, 2022-02-11 00:05:39.112
218.0, -6642.469065483698, -9634.227709082093, -10071.584292839087, -15245.320230164556, -3187.135241882234, -4035.294536983316, -6727.942136280792, -7100.590419839671, -14247.113674534998, -9678.707680548154, -23262.80155930538, -12285.14460148151, -6604.381692931855, -11443.579070994743, -10673.650881487238, -10891.915666093311, 0.00846875, -0.022390624999999997, 0.98815625, 192.0, 0.0, 0.0, 0.0, 0.0, 0.0, 0.0, 0.0, 0.0, 0.0, 1.644498339112779E9, 0.0, 2022-02-11 00:05:39.112
220.0, -6640.323298015988, -9618.626191452287, -10065.482266602787, -15235.954849237783, -3179.91562842317, -4018.6648391085673, -6734.155921239367, -7095.4048151260395, -14232.540337150138, -9668.33647112089, -23269.37297217524, -12273.342880409107, -6609.746111601128, -11443.512015761378, -10677.271864088996, -10894.53082019458, 0.00846875, -0.022390624999999997, 0.98815625, 192.0, 0.0, 0.0, 0.0, 0.0, 0.0, 0.0, 0.0, 0.0, 0.0, 1.6444983391127865E9, 0.0, 2022-02-11 00:05:39.112
222.0, -6643.02785909508, -9619.922592630695, -10062.285967145679, -15244.001477241693, -3174.618264987262, -4021.7493798433998, -6706.842089514982, -7091.605018568638, -14245.996087312233, -9660.982747195096, -23242.70734104006, -12262.792857026203, -6608.919097056281, -11422.993114351406, -10668.577035495882, -10887.378261968883, 0.00846875, -0.022390624999999997, 0.98815625, 192.0, 0.0, 0.0, 0.0, 0.0, 0.0, 0.0, 0.0, 0.0, 0.0, 1.644498339112794E9, 0.0, 2022-02-11 00:05:39.112
224.0, -6648.191112064256, -9623.320057787903, -10068.835028271084, -15244.895547019905, -3178.7756894559493, -4033.8416735937208, -6711.290086661588, -7101.864469273623, -14244.900851833923, -9647.616404010821, -23260.968716260042, -12286.19513347091, -6595.105718982902, -11438.415818025567, -10669.560512251915, -10896.654235917835, 0.008234375, -0.022195312499999998, 0.987078125, 192.0, 0.0, 32.0, 127.5, 40.0, 15.0, 104.0, 0.0, 0.0, 0.0, 1.644498339112802E9, 0.0, 2022-02-11 00:05:39.112
226.0, -6632.6790014122735, -9632.618383481311, -10058.642632799463, -15233.876137003439, -3168.6727009621504, -4023.068132766263, -6719.828453043516, -7098.377597138596, -14241.212813998798, -9667.352994364857, -23258.621783092236, -12264.312775649165, -6594.412814904787, -11459.247643857914, -10668.0182418845, -10892.474459704694, 0.008234375, -0.022195312499999998, 0.987078125, 192.0, 0.0, 0.0, 0.0, 0.0, 0.0, 0.0, 0.0, 0.0, 0.0, 1.644498339112811E9, 0.0, 2022-02-11 00:05:39.112
228.0, -6647.341745774955, -9631.321982302903, -10064.454086357842, -15240.335791151023, -3180.519125523463, -4031.517092170369, -6723.784711812104, -7099.316370405719, -14242.509215177204, -9670.459886844146, -23258.353562158773, -12260.736496536316, -6608.986152289647, -11452.497417032411, -10666.9677098951, -10892.049776560043, 0.008234375, -0.022195312499999998, 0.987078125, 192.0, 0.0, 0.0, 0.0, 0.0, 0.0, 0.0, 0.0, 0.0, 0.0, 1.6444983391128187E9, 0.0, 2022-02-11 00:05:39.112
230.0, -6636.1435218028455, -9609.216107036604, -10061.99539446776, -15240.447549873299, -3165.230532316033, -4019.5589088867796, -6689.586542795485, -7085.5923993101605, -14236.943630807833, -9653.405505824747, -23263.65092559468, -12271.264168174765, -6599.754881829605, -11446.93183266304, -10665.514846505504, -10892.563866682514, 0.008234375, -0.022195312499999998, 0.987078125, 192.0, 0.0, 0.0, 0.0, 0.0, 0.0, 0.0, 0.0, 0.0, 0.0, 1.6444983391128294E9, 0.0, 2022-02-11 00:05:39.112
232.0, -6632.611946178908, -9613.32882801638, -10059.290833388666, -15244.090884219515, -3161.296625291899, -4025.1021415116957, -6700.762415023139, -7090.934466234979, -14243.000953555222, -9647.772866222009, -23248.22822192052, -12270.638319330015, -6597.922038784271, -11439.488701759423, -10655.38950626725, -10889.456974203227, 0.008234375, -0.022195312499999998, 0.987078125, 192.0, 0.0, 0.0, 0.0, 0.0, 0.0, 0.0, 0.0, 0.0, 0.0, 1.6444983391128361E9, 0.0, 2022-02-11 00:05:39.112
234.0, -6647.408801008321, -9623.029485109984, -10061.794228767661, -15236.737160293718, -3170.5725992408516, -4031.5617956592796, -6720.297839677077, -7102.2668006738195, -14236.63070638546, -9652.757305235542, -23256.7889400469, -12267.889054762014, -6584.578047344452, -11446.395390796113, -10661.53623599246, -10893.569695183003, 0.01, -0.026000000000000002, 0.986, 192.0, 0.0, 40.0, 127.5, 24.0, 15.0, 104.0, 0.0, 0.0, 0.0, 1.644498339112844E9, 0.0, 2022-02-11 00:05:39.112
236.0, -6635.763542147106, -9620.727255431088, -10056.742734520762, -15235.77603528214, -3162.4812677480304, -4019.6259641201455, -6710.351313394465, -7095.315408148219, -14235.714284862792, -9654.925424447707, -23249.88225101021, -12263.776333782236, -6581.471154865165, -11442.975573894451, -10662.363250537306, -10889.032291058576, 0.01, -0.026000000000000002, 0.986, 192.0, 0.0, 0.0, 0.0, 0.0, 0.0, 0.0, 0.0, 0.0, 0.0, 1.6444983391128516E9, 0.0, 2022-02-11 00:05:39.112
238.0, -6628.387466476855, -9602.443528466645, -10063.761182279728, -15235.06077945957, -3171.489020763519, -4023.895147311109, -6716.006304741658, -7101.775062295803, -14239.022343042177, -9649.24808135606, -23249.6363818212, -12265.542121594206, -6601.252448708111, -11441.388600038124, -10663.838465671357, -10890.641616659357, 0.01, -0.026000000000000002, 0.986, 192.0, 0.0, 0.0, 0.0, 0.0, 0.0, 0.0, 0.0, 0.0, 0.0, 1.644498339112859E9, 0.0, 2022-02-11 00:05:39.112
240.0, -6623.917117585793, -9597.839069108853, -10054.485208330776, -15239.374666139445, -3156.401593256187, -4019.8718333091538, -6694.101595175457, -7088.945160978456, -14214.010740996688, -9616.189851306659, -23246.954172486567, -12257.026106956733, -6584.466288622176, -11418.992152093906, -10661.983270881567, -10887.691186391257, 0.01, -0.026000000000000002, 0.986, 192.0, 0.0, 0.0, 0.0, 0.0, 0.0, 0.0, 0.0, 0.0, 0.0, 1.644498339592718E9, 0.0, 2022-02-11 00:05:39.592
242.0, -6647.185283563767, -9621.487214742567, -10059.626109555496, -15248.561233110577, -3159.5531892243853, -4030.198339247506, -6703.243458657677, -7099.517536105816, -14246.130197778964, -9659.261662872037, -23248.36233238725, -12275.153371709988, -6595.105718982902, -11459.202940369003, -10651.701468432126, -10887.020634057599, 0.01, -0.026000000000000002, 0.986, 192.0, 0.0, 0.0, 0.0, 0.0, 0.0, 0.0, 0.0, 0.0, 0.0, 1.6444983395929067E9, 0.0, 2022-02-11 00:05:39.592
244.0, -6642.826693394983, -9617.620362951799, -10063.89529274646, -15245.387285397923, -3159.8661136467595, -4030.488911925425, -6711.312438406043, -7104.680789074992, -14241.458683187806, -9663.463790829634, -23260.879309282223, -12281.255397946286, -6586.388538645332, -11449.725800719954, -10656.082410345365, -10893.189715527264, 0.006, -0.024, 0.99, 192.0, 0.0, 24.0, 127.5, 32.0, 15.0, 120.0, 0.0, 0.0, 0.0, 1.6444983395929136E9, 0.0, 2022-02-11 00:05:39.592
246.0, -6628.409818221309, -9612.434758238169, -10054.976946708794, -15237.385360882923, -3146.9021018626813, -4020.296516453805, -6698.415481855332, -7094.063710458721, -14235.781340096157, -9648.421066811212, -23252.385646389204, -12267.442019872908, -6577.671358307763, -11443.489664016923, -10655.68007894517, -10889.076994547486, 0.006, -0.024, 0.99, 192.0, 0.0, 0.0, 0.0, 0.0, 0.0, 0.0, 0.0, 0.0, 0.0, 1.6444983395929217E9, 0.0, 2022-02-11 00:05:39.592
248.0, -6639.496283471141, -9598.353159231325, -10058.41911535491, -15231.171575924347, -3156.401593256187, -4028.879586324643, -6704.338694135988, -7099.048149472255, -14240.251688987219, -9644.353049320347, -23248.965829487544, -12252.868682488046, -6584.108660710891, -11451.31277457628, -10652.372020765784, -10885.523067179092, 0.006, -0.024, 0.99, 192.0, 0.0, 0.0, 0.0, 0.0, 0.0, 0.0, 0.0, 0.0, 0.0, 1.6444983395929291E9, 0.0, 2022-02-11 00:05:39.592
250.0, -6624.610021663907, -9597.079109797372, -10051.914757718416, -15228.578773567531, -3150.657194931173, -4011.22170820495, -6723.605897856462, -7080.406794596529, -14222.01266551169, -9630.494967758057, -23250.93278299961, -12264.245720415798, -6584.935675255737, -11442.796759938808, -10654.16016032221, -10883.846686344945, 0.006, -0.024, 0.99, 192.0, 0.0, 0.0, 0.0, 0.0, 0.0, 0.0, 0.0, 0.0, 0.0, 1.644498339592936E9, 0.0, 2022-02-11 00:05:39.592
252.0, -6621.190204762245, -9606.243325024048, -10052.875882729993, -15241.4980818627, -3149.0255175859356, -4013.456882650481, -6686.591409038474, -7088.028739455788, -14231.892136560935, -9640.28503182948, -23241.27682939492, -12261.71997329235, -6589.361320657888, -11420.243849783403, -10644.437151484151, -10879.644558387346, 0.006, -0.024, 0.99, 192.0, 0.0, 0.0, 0.0, 0.0, 0.0, 0.0, 0.0, 0.0, 0.0, 1.6444983395929558E9, 0.0, 2022-02-11 00:05:39.592
254.0, -6641.17266430529, -9583.936284057652, -10059.536702577676, -15237.608878327475, -3149.651366430684, -4020.7882548318216, -6691.665255029829, -7096.231829670886, -14231.646267371925, -9633.691267215165, -23245.389550374693, -12264.625700071538, -6580.845306020416, -11432.202033066993, -10645.465331729094, -10882.460878188716, 0.008, -0.024, 0.992, 192.0, 0.0, 32.0, 127.5, 32.0, 15.5, 0.0, 0.0, 0.0, 0.0, 1.6444983395929768E9, 0.0, 2022-02-11 00:05:39.592
0.0, -6640.703277671729, -9602.108252299817, -10054.41815309741, -15236.021904471148, -3138.8331221143153, -4011.959315771975, -6691.79936549656, -7090.30861739023, -14235.289601718141, -9642.251985341547, -23240.7850910169, -12258.747191279792, -6577.045509463014, -11443.64612622811, -10645.621793940281, -10879.82337234299, 0.008, -0.024, 0.992, 192.0, 0.0, 0.0, 0.0, 0.0, 0.0, 0.0, 0.0, 0.0, 0.0, 1.6444983395929835E9, 0.0, 2022-02-11 00:05:39.592
2.0, -6653.913158644815, -9611.205412293126, -10062.934167734882, -15236.535994593622, -3153.7417356660053, -4017.9495832859975, -6719.895508276882, -7107.161832709531, -14247.001915812722, -9643.838959197874, -23247.490614353494, -12255.059153444667, -6585.136840955835, -11443.824940183753, -10647.789913152446, -10886.037157301565, 0.008, -0.024, 0.992, 192.0, 0.0, 0.0, 0.0, 0.0, 0.0, 0.0, 0.0, 0.0, 0.0, 1.6444983395929909E9, 0.0, 2022-02-11 00:05:39.592
4.0, -6624.386504219354, -9595.290970240947, -10056.005126953736, -15232.266811402656, -3146.4997704624857, -4003.108024967674, -6734.468845661741, -7101.842117529169, -14232.38387493895, -9633.825377681896, -23249.03288472091, -12257.0931621901, -6585.226247933656, -11431.956163877985, -10655.657727200714, -10885.478363690181, 0.008, -0.024, 0.992, 192.0, 0.0, 0.0, 0.0, 0.0, 0.0, 0.0, 0.0, 0.0, 0.0, 1.6444983395929985E9, 0.0, 2022-02-11 00:05:39.592
6.0, -6630.197957777734, -9585.94794105863, -10056.362754865022, -15240.536956851121, -3142.2752907604327, -4018.709542597478, -6687.887810216882, -7107.40770189854, -14234.909622062401, -9634.786502693476, -23233.319608368827, -12255.528540078229, -6583.3039979105, -11427.64227719811, -10647.67815443017, -10882.572636910993, 0.008, -0.024, 0.992, 192.0, 0.0, 0.0, 0.0, 0.0, 0.0, 0.0, 0.0, 0.0, 0.0, 1.644498339593025E9, 0.0, 2022-02-11 00:05:39.593
8.0, -6642.089085827957, -9586.685548625654, -10064.31997589111, -15241.721599307251, -3153.9652531105585, -4017.5696036302575, -6705.478633103208, -7101.462137873428, -14240.765779109692, -9639.726238218098, -23247.915297498144, -12273.298176920198, -6577.045509463014, -11438.415818025567, -10652.461427743607, -10890.194581770253, 0.01, -0.026000000000000002, 0.992, 192.0, 0.0, 40.0, 127.5, 24.0, 15.5, 0.0, 0.0, 0.0, 0.0, 1.6444983395930324E9, 0.0, 2022-02-11 00:05:39.593
10.0, -6624.967649575192, -9588.80896434891, -10051.758295507228, -15234.658448059376, -3129.8700725877375, -4009.008885503875, -6690.100632917957, -7094.778966281291, -14236.250726729719, -9625.063493855418, -23243.333189884805, -12252.75692376577, -6573.826858261449, -11423.037817840317, -10652.327317276873, -10884.696052634246, 0.01, -0.026000000000000002, 0.992, 192.0, 0.0, 0.0, 0.0, 0.0, 0.0, 0.0, 0.0, 0.0, 0.0, 1.6444983395930388E9, 0.0, 2022-02-11 00:05:39.593
12.0, -6633.55071944603, -9587.110231770306, -10061.57071132311, -15236.603049826987, -3141.0235930709355, -4014.708580339978, -6697.476708588209, -7104.569030352715, -14236.943630807833, -9644.19658710916, -23240.27100089443, -12249.247699886288, -6561.533398811031, -11426.055303341784, -10641.218500282586, -10885.947750323743, 0.01, -0.026000000000000002, 0.992, 192.0, 0.0, 0.0, 0.0, 0.0, 0.0, 0.0, 0.0, 0.0, 0.0, 1.6444983395930457E9, 0.0, 2022-02-11 00:05:39.593
14.0, -6631.248489767134, -9582.282254967959, -10053.077048430092, -15234.30082014809, -3131.658212144162, -4004.784405801822, -6699.689531289284, -7084.608922554126, -14229.232278970752, -9632.23840382557, -23242.55087882887, -12258.076638946133, -6564.3497186124, -11433.78900692332, -10646.493511974038, -10886.975930568688, 0.01, -0.026000000000000002, 0.992, 192.0, 0.0, 0.0, 0.0, 0.0, 0.0, 0.0, 0.0, 0.0, 0.0, 1.6444983395930521E9, 0.0, 2022-02-11 00:05:39.593
16.0, -6625.906422842315, -9586.283217225458, -10054.395801352955, -15235.150186437391, -3129.6689068876394, -4001.6998650669893, -6702.036464457091, -7082.105527175132, -14232.696799361325, -9626.650467711743, -23230.190364145084, -12242.698638760881, -6575.078555950947, -11425.138881819115, -10640.078561315366, -10881.58916015496, 0.01, -0.026000000000000002, 0.992, 192.0, 0.0, 0.0, 0.0, 0.0, 0.0, 0.0, 0.0, 0.0, 0.0, 1.6444983395930593E9, 0.0, 2022-02-11 00:05:39.593
18.0, -6639.563338704507, -9588.496039926535, -10056.854493243038, -15232.669142802853, -3136.3520784797765, -4011.3781704161374, -6702.617609812929, -7092.074405202199, -14232.406226683406, -9627.008095623029, -23238.996951460478, -12251.169949909443, -6571.725794282651, -11426.569393464255, -10644.168930550686, -10886.685357890769, 0.01, -0.024, 0.988, 192.0, 0.0, 40.0, 127.5, 32.0, 15.0, 112.0, 0.0, 0.0, 0.0, 1.644498339593066E9, 0.0, 2022-02-11 00:05:39.593
20.0, -6624.654725152818, -9574.727365342065, -10045.008068681725, -15235.3960556264, -3125.690296374595, -3997.900068509587, -6699.577772567007, -7086.262951643819, -14240.050523287122, -9629.824415424397, -23237.32057062633, -12247.101932418578, -6570.96583497117, -11431.822053411253, -10646.717029418593, -10888.853477102934, 0.01, -0.024, 0.988, 192.0, 0.0, 0.0, 0.0, 0.0, 0.0, 0.0, 0.0, 0.0, 0.0, 1.6444983395930727E9, 0.0, 2022-02-11 00:05:39.593
22.0, -6627.426341465276, -9562.746830314021, -10055.379278108989, -15243.375628396945, -3136.3520784797765, -4010.1264727266403, -6724.969354268236, -7104.054940230244, -14240.430502942861, -9611.987723349062, -23231.576172301313, -12242.720990505337, -6563.455648834187, -11407.324541488237, -10649.600404453327, -10892.429756215783, 0.01, -0.024, 0.988, 192.0, 0.0, 0.0, 0.0, 0.0, 0.0, 0.0, 0.0, 0.0, 0.0, 1.644498339593079E9, 0.0, 2022-02-11 00:05:39.593
24.0, -6624.744132130639, -9567.03836524944, -10052.719420518806, -15237.318305649556, -3132.4852266890084, -4002.6162865896567, -6705.970371481225, -7106.781853053792, -14230.975715038267, -9611.786557648964, -23250.21752717704, -12254.969746466846, -6553.82204697395, -11429.45276849899, -10656.529445234471, -10896.989512084665, 0.01, -0.024, 0.988, 192.0, 0.0, 0.0, 0.0, 0.0, 0.0, 0.0, 0.0, 0.0, 0.0, 1.6444983395930858E9, 0.0, 2022-02-11 00:05:39.593
26.0, -6633.193091534745, -9584.115098013293, -10054.060525186125, -15236.15601493788, -3133.267537744944, -4002.3480656561933, -6704.271638902622, -7099.897515761557, -14238.888232575446, -9635.971145149606, -23237.342922370783, -12242.966859694347, -6579.571256586463, -11422.434320740023, -10646.314698018396, -10888.115869535908, 0.01, -0.024, 0.988, 192.0, 0.0, 0.0, 0.0, 0.0, 0.0, 0.0, 0.0, 0.0, 0.0, 1.6444983395930927E9, 0.0, 2022-02-11 00:05:39.593
28.0, -6644.033687595569, -9592.98874056205, -10062.509484590231, -15236.759512038174, -3137.4026104691757, -4001.1187197111512, -6707.490290104186, -7103.607905341138, -14245.951383823322, -9642.00611615254, -23247.825890520322, -12239.167063136943, -6577.403137374299, -11416.824032881741, -10653.042573099443, -10892.67562540479, 0.014, -0.026000000000000002, 0.986, 192.0, 0.0, 56.0, 127.5, 24.0, 15.0, 104.0, 0.0, 0.0, 0.0, 1.644498339593099E9, 0.0, 2022-02-11 00:05:39.593
30.0, -6638.848082881937, -9585.500906169524, -10052.495903074254, -15234.72550329274, -3118.023648026425, -3995.284914408316, -6705.791557525583, -7099.048149472255, -14246.934860579357, -9630.629078224789, -23236.02416944792, -12239.301173603675, -6570.898779737804, -11418.858041627174, -10650.226253298075, -10889.456974203227, 0.014, -0.026000000000000002, 0.986, 192.0, 0.0, 0.0, 0.0, 0.0, 0.0, 0.0, 0.0, 0.0, 0.0, 1.6444983395931056E9, 0.0, 2022-02-11 00:05:39.593
32.0, -6651.566225477008, -9585.858534080808, -10064.029403213191, -15247.287183676623, -3125.0867992743015, -3999.5988010881906, -6708.920801749326, -7099.495184361361, -14248.879462346968, -9641.089694629873, -23234.0348641914, -12250.655859786972, -6564.39442210131, -11416.30994275927, -10646.314698018396, -10887.490020691159, 0.014, -0.026000000000000002, 0.986, 192.0, 0.0, 0.0, 0.0, 0.0, 0.0, 0.0, 0.0, 0.0, 0.0, 1.6444983395931122E9, 0.0, 2022-02-11 00:05:39.593
34.0, -6632.477835712175, -9564.93730127064, -10061.905987489938, -15245.052009231093, -3122.538700406397, -3989.6969782944893, -6723.471787389731, -7096.209477926431, -14241.72690412127, -9621.844842653853, -23248.02705622042, -12265.653880316482, -6568.82006750346, -11393.198238992481, -10649.131017819765, -10889.72519513669, 0.014, -0.026000000000000002, 0.986, 192.0, 0.0, 0.0, 0.0, 0.0, 0.0, 0.0, 0.0, 0.0, 0.0, 1.644498339593119E9, 0.0, 2022-02-11 00:05:39.593
36.0, -6640.993850349647, -9578.348347943826, -10059.067315944114, -15239.039389972615, -3119.7000288605727, -3986.545382326291, -6694.347464364465, -7094.041358714267, -14247.270136746185, -9620.727255431088, -23233.8336984913, -12244.911461461958, -6570.027061704048, -11406.899858343586, -10645.554738706916, -10887.53472418007, 0.014, -0.026000000000000002, 0.986, 192.0, 0.0, 0.0, 0.0, 0.0, 0.0, 0.0, 0.0, 0.0, 0.0, 1.6444983395931256E9, 0.0, 2022-02-11 00:05:39.593
38.0, -6658.316452302511, -9589.65833063821, -10068.924435248904, -15240.49225336221, -3127.9925260534915, -3999.3305801547267, -6701.0082842121465, -7106.4912803758725, -14255.875558361478, -9643.794255708965, -23253.99497198999, -12245.47025507334, -6573.49158209462, -11418.299248015792, -10649.220424797586, -10892.25094226014, 0.012, -0.026000000000000002, 0.988, 192.0, 0.0, 48.0, 127.5, 24.0, 15.0, 112.0, 0.0, 0.0, 0.0, 1.6444983395931344E9, 0.0, 2022-02-11 00:05:39.593
40.0, -6638.0210683370915, -9567.306586182904, -10054.3734496085, -15238.97233473925, -3111.47458690102, -3988.0429492047965, -6699.577772567007, -7095.427166870495, -14248.231261757765, -9639.815645195918, -23250.530451599414, -12241.581051538116, -6570.0494134485025, -11417.718102659954, -10646.515863718494, -10889.881657347878, 0.012, -0.026000000000000002, 0.988, 192.0, 0.0, 0.0, 0.0, 0.0, 0.0, 0.0, 0.0, 0.0, 0.0, 1.6444983395931408E9, 0.0, 2022-02-11 00:05:39.593
42.0, -6644.9501091182365, -9577.856609565808, -10061.078972945092, -15246.840148787518, -3126.9643458085475, -3998.481213865425, -6719.2026041987665, -7113.509728134839, -14253.640383915948, -9636.485235272079, -23244.182556174106, -12250.834673742615, -6567.881294236337, -11427.821091153752, -10645.465331729094, -10895.357834739427, 0.012, -0.026000000000000002, 0.988, 192.0, 0.0, 0.0, 0.0, 0.0, 0.0, 0.0, 0.0, 0.0, 0.0, 1.6444983395931475E9, 0.0, 2022-02-11 00:05:39.593
44.0, -6644.972460862692, -9576.001414776018, -10059.961385722327, -15242.883890018928, -3123.432770184609, -3984.936056725509, -6709.412540127342, -7104.300809419252, -14245.839625101045, -9629.265621813014, -23245.344846885782, -12244.978516695324, -6568.417736103265, -11400.641369896099, -10652.327317276873, -10897.548305696047, 0.012, -0.026000000000000002, 0.988, 192.0, 0.0, 0.0, 0.0, 0.0, 0.0, 0.0, 0.0, 0.0, 0.0, 1.644498339593154E9, 0.0, 2022-02-11 00:05:39.593
46.0, -6641.2173677942, -9572.961577530095, -10056.407458353933, -15245.409637142378, -3117.2860404593994, -3981.1809636570174, -6700.89652548987, -7095.181297681487, -14262.849302631534, -9616.882755384775, -23235.286561880897, -12232.103911889066, -6574.184486172734, -11402.854192597175, -10646.62762244077, -10893.323825993995, 0.011, -0.024, 0.988, 192.0, 0.0, 40.0, 127.5, 40.0, 15.0, 112.0, 0.0, 0.0, 0.0, 1.6444983395931604E9, 0.0, 2022-02-11 00:05:39.593
48.0, -6652.728516188684, -9569.18413271715, -10055.871016487004, -15238.234727172225, -3122.136369006201, -3992.066263206752, -6711.670066317328, -7110.64870484456, -14250.57819492557, -9624.705865944132, -23249.055236465363, -12250.678211531427, -6570.407041359787, -11417.695750915498, -10646.895843374234, -10897.63771267387, 0.011, -0.024, 0.988, 192.0, 0.0, 0.0, 0.0, 0.0, 0.0, 0.0, 0.0, 0.0, 0.0, 1.6444983395931673E9, 0.0, 2022-02-11 00:05:39.593
50.0, -6648.168760319801, -9564.713783826088, -10048.98667919477, -15238.368837638956, -3108.0771217438128, -3967.948730939476, -6706.976199981714, -7086.352358621641, -14252.500444948728, -9627.05279911194, -23246.708303297557, -12253.114551677056, -6570.183523915234, -11400.619018151643, -10645.510035218005, -10891.334520737473, 0.011, -0.024, 0.988, 192.0, 0.0, 0.0, 0.0, 0.0, 0.0, 0.0, 0.0, 0.0, 0.0, 1.644498339593174E9, 0.0, 2022-02-11 00:05:39.593
52.0, -6657.176513335289, -9571.08403099585, -10057.3238798766, -15236.737160293718, -3116.168453236634, -3976.2188763879394, -6714.106406462956, -7092.364977880118, -14263.29633752064, -9637.938098661674, -23238.54991657137, -12237.46833055834, -6567.903645980793, -11400.842535596197, -10641.464369471594, -10888.67466314729, 0.011, -0.024, 0.988, 192.0, 0.0, 0.0, 0.0, 0.0, 0.0, 0.0, 0.0, 0.0, 0.0, 1.644498339593181E9, 0.0, 2022-02-11 00:05:39.593
54.0, -6639.451579982231, -9570.391126917735, -10049.65723152843, -15225.762453766163, -3103.025627496914, -3967.7922687282885, -6696.806156254549, -7096.097719204155, -14249.482959447261, -9619.207336808126, -23244.07079745183, -12241.0893131601, -6554.291433607511, -11399.188506506503, -10641.933756105156, -10888.518200936103, 0.011, -0.024, 0.988, 192.0, 0.0, 0.0, 0.0, 0.0, 0.0, 0.0, 0.0, 0.0, 0.0, 1.644498339593187E9, 0.0, 2022-02-11 00:05:39.593
56.0, -6635.852949124926, -9563.08210648085, -10045.768027993206, -15231.43979685781, -3096.3201041603215, -3963.4783820484145, -6687.261961372133, -7095.673036059504, -14254.646212416437, -9617.28508678497, -23222.32255009682, -12220.168080349933, -6557.554788297986, -11391.857134325164, -10632.568375178382, -10883.891389833856, 0.0115, -0.023, 0.988, 192.0, 0.0, 48.0, 127.5, 40.0, 15.0, 112.0, 0.0, 0.0, 0.0, 1.6444983395931938E9, 0.0, 2022-02-11 00:05:39.593
58.0, -6642.670231183795, -9561.137504713239, -10055.51338857572, -15229.070511945549, -3108.6806188441064, -3965.3112250937493, -6706.1715371813225, -7094.667207559015, -14250.891119347945, -9620.995476364551, -23242.103843939763, -12230.204013610366, -6558.493561565109, -11391.745375602886, -10638.066904314388, -10887.087689290964, 0.0115, -0.023, 0.988, 192.0, 0.0, 0.0, 0.0, 0.0, 0.0, 0.0, 0.0, 0.0, 0.0, 1.6444983395932004E9, 0.0, 2022-02-11 00:05:39.593
60.0, -6638.4904549706525, -9561.159856457694, -10046.818559982607, -15229.405788112377, -3093.9284675036038, -3954.7164982219338, -6694.66038878684, -7084.273646387297, -14250.824064114579, -9613.597048949845, -23237.87936423771, -12222.246792584276, -6558.96294819867, -11392.125355258628, -10637.731628147558, -10882.72909912218, 0.0115, -0.023, 0.988, 192.0, 0.0, 0.0, 0.0, 0.0, 0.0, 0.0, 0.0, 0.0, 0.0, 1.644498339593207E9, 0.0, 2022-02-11 00:05:39.593
62.0, -6640.166835804801, -9555.996603488518, -10054.79813275315, -15234.345523637001, -3104.679656586606, -3958.2480738458726, -6707.2220691707225, -7089.4145476120175, -14263.318689265096, -9621.017828109007, -23240.516870083437, -12233.80264446767, -6560.818142988461, -11387.5879511342, -10633.641258912237, -10882.72909912218, 0.0115, -0.023, 0.988, 192.0, 0.0, 0.0, 0.0, 0.0, 0.0, 0.0, 0.0, 0.0, 0.0, 1.6444983395932136E9, 0.0, 2022-02-11 00:05:39.593
64.0, -6648.615795208907, -9532.303754365892, -10054.105228675036, -15229.58460206802, -3094.174336692612, -3947.8321609296995, -6677.293083345066, -7071.421393325495, -14249.214738513798, -9604.94692384564, -23245.724826541526, -12238.138882891999, -6551.430410317232, -11391.141878502594, -10635.384694979752, -10882.416174699805, 0.0115, -0.023, 0.988, 192.0, 0.0, 0.0, 0.0, 0.0, 0.0, 0.0, 0.0, 0.0, 0.0, 1.6444983395932202E9, 0.0, 2022-02-11 00:05:39.593
66.0, -6643.452542239731, -9547.055905706395, -10049.768990250706, -15228.556421823076, -3092.296790158366, -3944.546454494769, -6695.3085893760435, -7079.557428307227, -14258.088381062555, -9610.71367391511, -23229.49746006697, -12224.146690862977, -6551.25159636159, -11384.34694818818, -10629.036799554444, -10875.978872296677, 0.01075, -0.0225, 0.985, 192.0, 0.0, 40.0, 127.5, 40.0, 15.0, 88.0, 0.0, 0.0, 0.0, 1.644498339593227E9, 0.0, 2022-02-11 00:05:39.593
68.0, -6653.51082724462, -9553.537911598434, -10057.122714176503, -15232.289163147112, -3100.7010460735614, -3957.2422453453837, -6702.9975894686695, -7087.581704566683, -14253.327459493574, -9618.223860052092, -23241.947381728576, -12235.546080535183, -6553.710288251673, -11370.242997436882, -10634.021238567977, -10881.745622366147, 0.01075, -0.0225, 0.985, 192.0, 0.0, 0.0, 0.0, 0.0, 0.0, 0.0, 0.0, 0.0, 0.0, 1.644498339593233E9, 0.0, 2022-02-11 00:05:39.593
70.0, -6639.943318360248, -9559.885807023742, -10052.115923418514, -15234.032599214626, -3092.7438250474725, -3942.3336317936937, -6677.985987423181, -7078.2610271288195, -14254.512101949706, -9594.195734762638, -23249.681085310112, -12227.298286831176, -6554.090267907413, -11394.628750637621, -10631.29432574443, -10880.605683398924, 0.01075, -0.0225, 0.985, 192.0, 0.0, 0.0, 0.0, 0.0, 0.0, 0.0, 0.0, 0.0, 0.0, 1.6444983395932417E9, 0.0, 2022-02-11 00:05:39.593
72.0, -6647.7664289196055, -9566.591330360334, -10056.854493243038, -15234.613744570464, -3097.0577117273465, -3951.8554749316545, -6681.875190958404, -7079.222152140397, -14261.016459586199, -9620.615496708811, -23245.031922463408, -12232.595650267083, -6565.199084901701, -11386.000977277872, -10625.952258819612, -10876.694128119247, 0.01075, -0.0225, 0.985, 192.0, 0.0, 0.0, 0.0, 0.0, 0.0, 0.0, 0.0, 0.0, 0.0, 1.644498339593248E9, 0.0, 2022-02-11 00:05:39.593
74.0, -6641.329126516477, -9550.229853419049, -10051.288908873667, -15228.332904378523, -3081.6126563087296, -3948.1450853520737, -6681.271693858111, -7085.7712132658025, -14249.393552469439, -9622.828319409886, -23247.669428309135, -12233.869699701036, -6546.401267814787, -11393.689977370499, -10630.489662944039, -10876.470610674693, 0.01075, -0.0225, 0.985, 192.0, 0.0, 0.0, 0.0, 0.0, 0.0, 0.0, 0.0, 0.0, 0.0, 1.6444983395932548E9, 0.0, 2022-02-11 00:05:39.593
76.0, -6647.788780664061, -9543.479626593546, -10048.18201639438, -15234.412578870366, -3081.7467667754613, -3937.103323591152, -6688.446603828264, -7083.021948697799, -14259.407133985416, -9620.280220541981, -23236.962942715043, -12233.556775278661, -6544.166093369257, -11369.393631147579, -10628.410950709695, -10877.05175603053, 0.010374999999999999, -0.02525, 0.9844999999999999, 192.0, 0.0, 40.0, 127.5, 16.0, 15.0, 96.0, 0.0, 0.0, 0.0, 1.6444983395932615E9, 0.0, 2022-02-11 00:05:39.593
78.0, -6666.787763451071, -9551.928585997652, -10054.79813275315, -15231.842128258006, -3091.2239064245114, -3950.0226318863192, -6695.219182398222, -7084.050128942744, -14262.40226774243, -9622.113063587316, -23244.830756763313, -12228.572336265128, -6545.730715481129, -11385.822163322231, -10629.595593165826, -10879.555151409526, 0.010374999999999999, -0.02525, 0.9844999999999999, 192.0, 0.0, 0.0, 0.0, 0.0, 0.0, 0.0, 0.0, 0.0, 0.0, 1.644498339593268E9, 0.0, 2022-02-11 00:05:39.593
80.0, -6647.498207986142, -9552.710897053588, -10043.242280869757, -15231.797424769096, -3074.8624294832266, -3932.811788655733, -6687.3290166054985, -7080.451498085439, -14262.648136931437, -9613.708807672121, -23241.567402072837, -12220.011618138746, -6549.217587616156, -11392.080651769716, -10629.617944910282, -10878.839895586956, 0.010374999999999999, -0.02525, 0.9844999999999999, 192.0, 0.0, 0.0, 0.0, 0.0, 0.0, 0.0, 0.0, 0.0, 0.0, 1.6444983395932744E9, 0.0, 2022-02-11 00:05:39.593
82.0, -6657.467086013208, -9568.871208294775, -10051.46772282931, -15235.887794004417, -3085.6806737995953, -3941.037230615286, -6704.338694135988, -7087.604056311137, -14269.018384101199, -9610.624266937288, -23242.975561973522, -12227.208879853355, -6548.614090515864, -11390.49367791339, -10625.952258819612, -10882.304415977529, 0.010374999999999999, -0.02525, 0.9844999999999999, 192.0, 0.0, 0.0, 0.0, 0.0, 0.0, 0.0, 0.0, 0.0, 0.0, 1.6444983395932813E9, 0.0, 2022-02-11 00:05:39.593
84.0, -6651.722687688195, -9547.860568506787, -10049.3219553616, -15230.456320101777, -3083.758423776439, -3928.7661229093223, -6727.316287436043, -7087.693463288959, -14262.134046808964, -9631.389037536268, -23251.98331498901, -12232.41683631144, -6540.254538089578, -11377.01557600684, -10636.926965347167, -10883.176134011286, 0.010374999999999999, -0.02525, 0.9844999999999999, 192.0, 0.0, 0.0, 0.0, 0.0, 0.0, 0.0, 0.0, 0.0, 0.0, 1.644498339593288E9, 0.0, 2022-02-11 00:05:39.593
86.0, -6650.716859187706, -9548.59817607381, -10049.925452461894, -15233.429102114333, -3077.969321962514, -3931.2471665438616, -6680.578789779996, -7069.990881680355, -14267.610224200514, -9627.94686889015, -23238.706378782557, -12221.308019317154, -6539.807503200473, -11371.271177681825, -10630.28849724394, -10878.258750231118, 0.010187499999999999, -0.025625000000000002, 0.98525, 192.0, 0.0, 40.0, 127.5, 24.0, 15.0, 104.0, 0.0, 0.0, 0.0, 1.644498339593309E9, 0.0, 2022-02-11 00:05:39.593
88.0, -6662.6750424712955, -9559.505827368, -10053.70289727484, -15235.329000393034, -3080.8079935083383, -3935.2257770569063, -6671.548685020052, -7073.768326493303, -14268.951328867834, -9627.879813656786, -23248.898774254176, -12228.818205454136, -6542.780285213028, -11370.086535225695, -10624.67820938566, -10879.219875242696, 0.010187499999999999, -0.025625000000000002, 0.98525, 192.0, 0.0, 0.0, 0.0, 0.0, 0.0, 0.0, 0.0, 0.0, 0.0, 1.6444983395933158E9, 0.0, 2022-02-11 00:05:39.593
90.0, -6651.789742921561, -9549.112266196284, -10044.717496003806, -15231.864480002461, -3073.342510860266, -3922.5970414396575, -6681.271693858111, -7068.605073524127, -14266.604395700026, -9617.799176907442, -23247.870594009233, -12228.818205454136, -6546.356564325877, -11376.210913206449, -10625.169947763676, -10876.403555441328, 0.010187499999999999, -0.025625000000000002, 0.98525, 192.0, 0.0, 0.0, 0.0, 0.0, 0.0, 0.0, 0.0, 0.0, 0.0, 1.6444983395933225E9, 0.0, 2022-02-11 00:05:39.593
92.0, -6662.250359326645, -9550.69924005261, -10053.904062974938, -15228.981104967726, -3085.5912668217743, -3926.977983352898, -6695.174478909312, -7078.976282951389, -14279.188427828363, -9628.930345646184, -23244.36137012975, -12219.028141382712, -6547.049468403991, -11374.512180627846, -10626.645162897727, -10878.214046742207, 0.010187499999999999, -0.025625000000000002, 0.98525, 192.0, 0.0, 0.0, 0.0, 0.0, 0.0, 0.0, 0.0, 0.0, 0.0, 1.6444983395933292E9, 0.0, 2022-02-11 00:05:39.593
94.0, -6653.644937711351, -9541.065638192373, -10054.105228675036, -15228.265849145157, -3076.1811824060896, -3916.807939625733, -6688.9159904618255, -7072.717794503903, -14268.191369556353, -9616.815700151408, -23255.89487026869, -12225.197222852377, -6536.790017699006, -11363.179846189005, -10632.702485645115, -10878.77284035359, 0.010187499999999999, -0.025625000000000002, 0.98525, 192.0, 0.0, 0.0, 0.0, 0.0, 0.0, 0.0, 0.0, 0.0, 0.0, 1.644498339593336E9, 0.0, 2022-02-11 00:05:39.593
96.0, -6649.018126609102, -9553.157931942695, -10047.243243127257, -15234.904317248383, -3068.112202657724, -3915.176262280496, -6689.27361837311, -7076.651701528037, -14278.607282472525, -9614.4687669836, -23249.21169867655, -12219.743397205282, -6543.763761969061, -11364.364488645137, -10623.96295356309, -10877.431735686272, 0.00809375, -0.026812500000000003, 0.986625, 192.0, 0.0, 24.0, 127.5, 16.0, 15.0, 112.0, 0.0, 0.0, 0.0, 1.6444983395933428E9, 0.0, 2022-02-11 00:05:39.593
98.0, -6666.921873917803, -9552.330917397847, -10053.009993196725, -15240.15697719538, -3076.985845206481, -3923.200538539951, -6692.045234685569, -7084.988902209867, -14274.248692303741, -9631.992534636562, -23255.64900107968, -12220.503356516761, -6534.733657209117, -11365.571482845722, -10627.069846042377, -10883.667872389302, 0.00809375, -0.026812500000000003, 0.986625, 192.0, 0.0, 0.0, 0.0, 0.0, 0.0, 0.0, 0.0, 0.0, 0.0, 1.6444983395933495E9, 0.0, 2022-02-11 00:05:39.593
100.0, -6659.903426158837, -9542.227928904049, -10047.958498949827, -15236.200718426791, -3067.8663334687158, -3905.587363909169, -6690.502964318152, -7070.013233424811, -14273.555788225627, -9624.884679899775, -23249.65873356566, -12228.505281031763, -6541.170959612246, -11364.878578767608, -10626.82397685337, -10885.008977056621, 0.00809375, -0.026812500000000003, 0.986625, 192.0, 0.0, 0.0, 0.0, 0.0, 0.0, 0.0, 0.0, 0.0, 0.0, 1.6444983395933566E9, 0.0, 2022-02-11 00:05:39.593
102.0, -6665.580769250485, -9548.687583051633, -10055.781609509184, -15232.311514891568, -3075.08594692778, -3916.226794269895, -6695.4874033316855, -7079.579780051682, -14284.597549986549, -9626.784578178474, -23242.26030615095, -12213.149632590967, -6540.254538089578, -11355.133218185094, -10623.605325651804, -10881.499753177137, 0.00809375, -0.026812500000000003, 0.986625, 192.0, 0.0, 0.0, 0.0, 0.0, 0.0, 0.0, 0.0, 0.0, 0.0, 1.644498339593377E9, 0.0, 2022-02-11 00:05:39.593
104.0, -6656.774181935094, -9530.381504342737, -10051.624185040497, -15223.214354898259, -3069.6991765140506, -3912.1140732901185, -6698.996627211169, -7074.818858482702, -14276.975605127289, -9611.205412293126, -23253.235012678506, -12211.160327334444, -6537.035886888014, -11365.146799701071, -10633.283631000952, -10886.05950904602, 0.00809375, -0.026812500000000003, 0.986625, 192.0, 0.0, 0.0, 0.0, 0.0, 0.0, 0.0, 0.0, 0.0, 0.0, 1.644498340072046E9, 0.0, 2022-02-11 00:05:40.072
106.0, -6650.135713831868, -9534.784798000432, -10054.909891475427, -15233.227936414236, -3063.038356666369, -3908.2472214993504, -6684.736214248684, -7063.710041488414, -14280.73069819578, -9613.395883249746, -23242.12619568422, -12206.041777854178, -6539.718096222651, -11358.910662998042, -10626.19812800862, -10878.974006053688, 0.011046875000000001, -0.025406250000000002, 0.9883124999999999, 192.0, 0.0, 56.0, 127.5, 32.0, 15.0, 120.0, 0.0, 0.0, 0.0, 1.644498340072146E9, 0.0, 2022-02-11 00:05:40.072
108.0, -6674.253246099144, -9542.496149837512, -10061.637766556474, -15241.229860929236, -3071.040281181369, -3915.8244628697, -6695.688569031784, -7084.340701620663, -14284.530494753182, -9621.28604904247, -23265.394361662195, -12218.022312882224, -6540.3439450673995, -11362.084610710694, -10624.991133808033, -10884.785459612067, 0.011046875000000001, -0.025406250000000002, 0.9883124999999999, 192.0, 0.0, 0.0, 0.0, 0.0, 0.0, 0.0, 0.0, 0.0, 0.0, 1.6444983400722413E9, 0.0, 2022-02-11 00:05:40.072
110.0, -6667.972405907203, -9552.286213908937, -10047.399705338443, -15239.68759056182, -3056.779868218883, -3904.737997619867, -6687.284313116588, -7063.888855444057, -14288.464401777317, -9618.737950174565, -23258.55472785887, -12222.045626884179, -6529.659811217763, -11353.032154206296, -10625.48287218605, -10884.047852045042, 0.011046875000000001, -0.025406250000000002, 0.9883124999999999, 192.0, 0.0, 0.0, 0.0, 0.0, 0.0, 0.0, 0.0, 0.0, 0.0, 1.6444983400722487E9, 0.0, 2022-02-11 00:05:40.072
112.0, -6670.229932097189, -9550.27455690796, -10058.285004888177, -15242.414503385366, -3065.4523450675424, -3906.414378454015, -6681.964597936225, -7066.839285712157, -14297.0251199037, -9629.444435768657, -23255.04550397939, -12220.883336172503, -6545.395439314299, -11349.76879951582, -10619.045569782922, -10883.645520644846, 0.011046875000000001, -0.025406250000000002, 0.9883124999999999, 192.0, 0.0, 0.0, 0.0, 0.0, 0.0, 0.0, 0.0, 0.0, 0.0, 1.6444983400722556E9, 0.0, 2022-02-11 00:05:40.072
114.0, -6670.855780941937, -9541.691487037122, -10057.614452554519, -15239.77699753964, -3063.5077432999306, -3902.3463609631494, -6683.551571792552, -7075.757631749825, -14286.720965709803, -9626.136377589271, -23265.863748295757, -12221.598591995073, -6537.81819794395, -11353.658003051043, -10628.366247220785, -10887.132392779875, 0.011046875000000001, -0.025406250000000002, 0.9883124999999999, 192.0, 0.0, 0.0, 0.0, 0.0, 0.0, 0.0, 0.0, 0.0, 0.0, 1.6444983400722623E9, 0.0, 2022-02-11 00:05:40.072
116.0, -6665.558417506029, -9539.903347480697, -10053.211158896824, -15242.369799896456, -3059.2162083645117, -3901.0052562958313, -6688.9159904618255, -7065.16290487801, -14298.9250181824, -9630.114988102316, -23252.095073711287, -12220.212783838842, -6541.327421823433, -11354.552072829256, -10623.180642507154, -10884.33842472296, 0.016, -0.032, 0.992, 192.0, 0.0, 64.0, 127.5, 0.0, 15.5, 0.0, 0.0, 0.0, 0.0, 1.644498340072269E9, 0.0, 2022-02-11 00:05:40.072
118.0, -6666.787763451071, -9532.817844488365, -10061.950690978849, -15244.202642941791, -3067.307539857333, -3901.0946632736523, -6699.667179544828, -7082.954893464434, -14296.198105358853, -9632.797197436952, -23267.13779772971, -12225.733664719304, -6535.426561287232, -11347.175997159005, -10624.499395430017, -10886.461840446216, 0.016, -0.032, 0.992, 192.0, 0.0, 0.0, 0.0, 0.0, 0.0, 0.0, 0.0, 0.0, 0.0, 1.644498340072276E9, 0.0, 2022-02-11 00:05:40.072
120.0, -6655.701298201239, -9534.270707877959, -10055.535740320176, -15243.196814441302, -3052.1530571166345, -3893.383311436571, -6686.367891593921, -7059.753782719825, -14288.933788410877, -9619.85553739733, -23264.947326773086, -12215.809490181147, -6538.131122366324, -11357.949537986462, -10627.069846042377, -10885.903046834832, 0.016, -0.032, 0.992, 192.0, 0.0, 0.0, 0.0, 0.0, 0.0, 0.0, 0.0, 0.0, 0.0, 1.6444983400722828E9, 0.0, 2022-02-11 00:05:40.072
122.0, -6672.532161776086, -9564.5573216149, -10062.241263656768, -15244.448512130799, -3059.9314641870815, -3899.932372561976, -6678.097746145457, -7071.086117158666, -14304.535306040681, -9632.819549181408, -23263.40505640567, -12221.687998972893, -6542.1097328793685, -11353.568596073223, -10620.096101772322, -10884.696052634246, 0.016, -0.032, 0.992, 192.0, 0.0, 0.0, 0.0, 0.0, 0.0, 0.0, 0.0, 0.0, 0.0, 1.6444983400722897E9, 0.0, 2022-02-11 00:05:40.072
124.0, -6670.095821630457, -9544.351344627303, -10057.145065920957, -15238.704113805785, -3058.120972886202, -3894.9032300595322, -6687.708996261239, -7071.2202276253975, -14296.242808847763, -9634.495930015557, -23263.02507674993, -12226.672437986426, -6538.712267722162, -11344.605546546645, -10625.460520441595, -10890.932189337276, 0.016, -0.032, 0.992, 192.0, 0.0, 0.0, 0.0, 0.0, 0.0, 0.0, 0.0, 0.0, 0.0, 1.6444983400722964E9, 0.0, 2022-02-11 00:05:40.072
126.0, -6655.053097612035, -9529.666248520167, -10052.60766179653, -15238.01120972767, -3055.170542618101, -3888.3318171896717, -6688.938342206281, -7070.5720270361935, -14302.411890317428, -9617.754473418532, -23245.613067819246, -12217.12824310401, -6541.997974157092, -11344.806712246742, -10618.754997105003, -10884.651349145335, 0.014, -0.032, 0.994, 192.0, 0.0, 56.0, 127.5, 0.0, 15.5, 8.0, 0.0, 0.0, 0.0, 1.644498340072303E9, 0.0, 2022-02-11 00:05:40.072
