%OpenBCI Raw EEG Data
%Number of channels = 16
%Sample Rate = 125 Hz
%Board = OpenBCI_GUI$BoardCytonSerialDaisy
Sample Index, EXG Channel 0, EXG Channel 1, EXG Channel 2, EXG Channel 3, EXG Channel 4, EXG Channel 5, EXG Channel 6, EXG Channel 7, EXG Channel 8, EXG Channel 9, EXG Channel 10, EXG Channel 11, EXG Channel 12, EXG Channel 13, EXG Channel 14, EXG Channel 15, Accel Channel 0, Accel Channel 1, Accel Channel 2, Other, Other, Other, Other, Other, Other, Other, Analog Channel 0, Analog Channel 1, Analog Channel 2, Timestamp, Other, Timestamp (Formatted)
2.0, -7963.4348110478895, -11125.334933440083, -5973.995444058829, -11712.247039347534, -1686.4167674084626, -2316.98183023713, -1413.8595955204482, -2494.678198656821, -15865.111752165765, -13065.175779482815, -20564.141340749426, -11465.707298005498, -7571.809896446454, -11639.335648934324, -4684.1209750319695, -5466.230865267618, 0.0, 0.0, 0.0, 192.0, 0.0, 0.0, 0.0, 0.0, 0.0, 0.0, 0.0, 0.0, 0.0, 1.6444978815760555E9, 0.0, 2022-02-10 23:58:01.576
4.0, -7926.353266996535, -11101.239752917261, -5949.050897246707, -11693.829201916362, -1660.9804822183232, -2290.0926816573956, -1404.4271593603087, -2471.9911780346847, -15841.664772232149, -13019.712331260722, -20526.501003086687, -11432.470254000456, -7540.942137353675, -11621.074273714337, -4662.640948610419, -5451.009327293555, 0.0, 0.0, 0.0, 192.0, 0.0, 0.0, 0.0, 0.0, 0.0, 0.0, 0.0, 0.0, 0.0, 1.6444978815760636E9, 0.0, 2022-02-10 23:58:01.576
6.0, -7937.685601435376, -11082.106659663517, -5946.41339140098, -11688.88946639174, -1657.4936100832952, -2286.02466416653, -1374.5652287680184, -2459.2506836951598, -15829.438368015095, -13005.787194465065, -20507.770241233142, -11429.609230710177, -7511.303724205938, -11589.49125879899, -4640.244500666202, -5432.658545095747, 0.0, 0.0, 0.0, 192.0, 0.0, 0.0, 0.0, 0.0, 0.0, 0.0, 0.0, 0.0, 0.0, 1.6444978815760703E9, 0.0, 2022-02-10 23:58:01.576
8.0, -7896.536039893155, -11055.798656439621, -5925.0674754461625, -11670.918663849672, -1626.8493684350692, -2271.339568059393, -1366.742118208661, -2439.9387764857743, -15800.626969412206, -12987.6152262229, -20498.181342861815, -11416.846384626197, -7492.505907119025, -11567.854770166252, -4623.681858024819, -5414.9783152315995, 0.004, -0.016, 0.992, 192.0, 0.0, 16.0, 127.5, 64.0, 15.5, 0.0, 0.0, 0.0, 0.0, 1.6444978815760767E9, 0.0, 2022-02-10 23:58:01.576
10.0, -7877.2688361726805, -11018.672408899356, -5914.428045085436, -11652.433771185133, -1615.2041095738543, -2259.403736520259, -1363.0764321179906, -2435.557834572534, -15768.015774251911, -12952.99237406163, -20460.697467410264, -11388.929055801518, -7468.09780217383, -11548.118179812214, -4600.05606413556, -5398.281562123485, 0.004, -0.016, 0.992, 192.0, 0.0, 0.0, 0.0, 0.0, 0.0, 0.0, 0.0, 0.0, 0.0, 1.6444978815760834E9, 0.0, 2022-02-10 23:58:01.576
12.0, -7864.46128659979, -11007.809461094077, -5912.3269811066375, -11634.842948298807, -1602.9106501234353, -2241.1647130447286, -1333.0133358256026, -2418.7716744865984, -15753.889471756158, -12908.93708574022, -20455.46715920772, -11369.080706725206, -7444.740229218034, -11526.884022579674, -4592.679988465308, -5385.965750928611, 0.004, -0.016, 0.992, 192.0, 0.0, 0.0, 0.0, 0.0, 0.0, 0.0, 0.0, 0.0, 0.0, 1.64449788157609E9, 0.0, 2022-02-10 23:58:01.576
14.0, -7832.140664117416, -10985.88239978342, -5891.852783185575, -11616.313352145356, -1568.8465915735474, -2225.0714570369073, -1313.5896698939407, -2394.363569541403, -15733.77290174638, -12886.317120351448, -20415.479888377176, -11338.5258720548, -7411.167909046163, -11503.168821712592, -4571.646996932865, -5361.0882593498545, 0.004, -0.016, 0.992, 192.0, 0.0, 0.0, 0.0, 0.0, 0.0, 0.0, 0.0, 0.0, 0.0, 1.6444978815760965E9, 0.0, 2022-02-10 23:58:01.576
16.0, -7829.994896649707, -10955.685193024301, -5892.322169819137, -11616.91684924565, -1578.279027733687, -2226.926651826698, -1319.2670129855887, -2397.5151655096015, -15716.472651537973, -12851.247233301072, -20403.85698126042, -11329.875746950596, -7401.467251952559, -11484.616873814688, -4559.6217584159085, -5346.269052775986, 0.004, -0.016, 0.993, 192.0, 0.0, 16.0, 127.5, 64.0, 15.5, 8.0, 0.0, 0.0, 0.0, 1.6444978815761032E9, 0.0, 2022-02-10 23:58:01.576
18.0, -7800.602352690978, -10942.363553328938, -5881.056890613662, -11593.939255945596, -1556.2625594452095, -2215.706076110134, -1305.6995041012174, -2381.2430955461377, -15702.234590319944, -12831.734160391588, -20398.55961782451, -11324.936011425974, -7388.391481446205, -11486.807344771309, -4556.850142103451, -5334.556738681405, 0.004, -0.016, 0.993, 192.0, 0.0, 0.0, 0.0, 0.0, 0.0, 0.0, 0.0, 0.0, 0.0, 1.64449788157611E9, 0.0, 2022-02-10 23:58:01.576
20.0, -7783.413861204846, -10910.199393057752, -5868.562265463146, -11579.880008683207, -1537.6435563139387, -2205.6254393607906, -1298.837518553438, -2372.7047291642107, -15686.208389545489, -12815.573849150402, -20364.27204183007, -11297.845697146142, -7365.816219546345, -11451.916271676573, -4539.840464572962, -5310.998000025511, 0.004, -0.016, 0.993, 192.0, 0.0, 0.0, 0.0, 0.0, 0.0, 0.0, 0.0, 0.0, 0.0, 1.6444978815761173E9, 0.0, 2022-02-10 23:58:01.576
22.0, -7768.4381924197905, -10911.629904702892, -5866.125925317518, -11570.872255667718, -1528.6581550429053, -2201.5350701254692, -1279.0115212215808, -2364.523990693568, -15666.605909658183, -12785.130773202274, -20362.014515640083, -11285.149906295528, -7338.971774455521, -11421.763768406365, -4523.456635887223, -5294.725930062048, 0.004, -0.016, 0.993, 192.0, 0.0, 0.0, 0.0, 0.0, 0.0, 0.0, 0.0, 0.0, 0.0, 1.644497881576124E9, 0.0, 2022-02-10 23:58:01.576
24.0, -7749.416857888325, -10877.856418830923, -5839.080314526595, -11557.483560738989, -1500.8525849405034, -2180.0103402150085, -1254.8269337209385, -2341.993432282619, -15638.062731988757, -12747.33397332835, -20334.320704259957, -11255.84676931462, -7318.341114323272, -11407.68216939952, -4504.2117839112025, -5272.038909439911, 0.004, -0.016, 0.993, 192.0, 0.0, 0.0, 0.0, 0.0, 0.0, 0.0, 0.0, 0.0, 0.0, 1.6444978815761309E9, 0.0, 2022-02-10 23:58:01.576
26.0, -7754.53540736859, -10868.848665815434, -5843.260090739738, -11553.10261882575, -1509.6144687669837, -2186.447642618137, -1273.8929717413155, -2351.6493858873114, -15629.613772584651, -12743.62358374877, -20309.666730125755, -11239.820568540164, -7300.124442592197, -11398.83087859522, -4491.1807168937585, -5258.381993577718, 0.006, -0.018000000000000002, 0.9955, 192.0, 0.0, 32.0, 127.5, 48.0, 15.5, 24.0, 0.0, 0.0, 0.0, 1.6444978815761373E9, 0.0, 2022-02-10 23:58:01.576
28.0, -7709.653104502333, -10822.960534448688, -5827.882090554487, -11529.074493536293, -1486.122785344456, -2169.0356336874524, -1256.5480180439972, -2333.857397300887, -15611.486507831396, -12699.814164616368, -20306.87276206884, -11235.707847560388, -7278.15267779263, -11392.01359653635, -4494.019388439583, -5246.692031227592, 0.006, -0.018000000000000002, 0.9955, 192.0, 0.0, 0.0, 0.0, 0.0, 0.0, 0.0, 0.0, 0.0, 0.0, 1.6444978815761442E9, 0.0, 2022-02-10 23:58:01.576
30.0, -7706.389749811859, -10810.890592442822, -5815.0074857482305, -11520.469071921001, -1471.1918200483108, -2154.4622963025927, -1225.5908519733969, -2314.366676135859, -15585.245559840867, -12675.540170137903, -20266.81843600493, -11214.98778045032, -7250.548273390326, -11364.565654345233, -4470.88533292834, -5218.350019258263, 0.006, -0.018000000000000002, 0.9955, 192.0, 0.0, 0.0, 0.0, 0.0, 0.0, 0.0, 0.0, 0.0, 0.0, 1.644497881576151E9, 0.0, 2022-02-10 23:58:01.576
32.0, -7689.894162403842, -10800.653493482292, -5814.336933414571, -11502.65473159012, -1458.250160008688, -2150.3942788117265, -1215.487863479598, -2313.673772057745, -15571.543940489762, -12655.110675705753, -20261.476369080112, -11209.355140847581, -7233.5162441153825, -11337.520043554312, -4464.090402613927, -5204.380178973696, 0.006, -0.018000000000000002, 0.9955, 192.0, 0.0, 0.0, 0.0, 0.0, 0.0, 0.0, 0.0, 0.0, 0.0, 1.6444978815761576E9, 0.0, 2022-02-10 23:58:01.576
34.0, -7643.111961258885, -10766.969414588144, -5783.513877810702, -11476.905521977607, -1430.7798660731157, -2124.2650895434726, -1207.843566875883, -2296.440577082703, -15543.939536087459, -12612.865878685223, -20227.792290185964, -11161.790628646688, -7205.844784479712, -11314.05071187624, -4443.079762825938, -5182.497821151951, 0.006, -0.018000000000000002, 0.9955, 192.0, 0.0, 0.0, 0.0, 0.0, 0.0, 0.0, 0.0, 0.0, 0.0, 1.6444978815761683E9, 0.0, 2022-02-10 23:58:01.576
36.0, -7647.537606661035, -10747.523396912027, -5788.855944735521, -11469.976481196461, -1435.0490492640793, -2115.8608336282773, -1195.7065696366512, -2282.2248676091276, -15527.287486468254, -12601.622951224203, -20213.800098156942, -11135.81790158962, -7190.75735697238, -11307.367540284104, -4429.042867308005, -5164.057631976322, 0.007, -0.021, 0.99575, 192.0, 0.0, 32.0, 127.5, 32.0, 15.5, 16.0, 0.0, 0.0, 0.0, 1.6444978815761747E9, 0.0, 2022-02-10 23:58:01.576
38.0, -7623.487129627125, -10730.089036236886, -5778.127107396974, -11456.990117667929, -1410.7527030411607, -2103.835595111322, -1180.105052006847, -2267.8079924354547, -15510.680140337961, -12558.618194892191, -20216.325845280393, -11160.427172234915, -7176.631054476626, -11284.814630128698, -4417.3305532134245, -5146.869140490191, 0.007, -0.021, 0.99575, 192.0, 0.0, 0.0, 0.0, 0.0, 0.0, 0.0, 0.0, 0.0, 0.0, 1.6444978815761814E9, 0.0, 2022-02-10 23:58:01.576
40.0, -7619.150891202795, -10700.003588200045, -5766.817124702588, -11438.304059303291, -1398.7051127797502, -2097.9123828306656, -1168.9738832681041, -2272.278341326516, -15498.230218676355, -12557.277090224874, -20178.529045406467, -11130.185261986884, -7144.3551354831625, -11273.32583347867, -4399.9632477716505, -5128.272489103376, 0.007, -0.021, 0.99575, 192.0, 0.0, 0.0, 0.0, 0.0, 0.0, 0.0, 0.0, 0.0, 0.0, 1.644497881576188E9, 0.0, 2022-02-10 23:58:01.576
42.0, -7617.452158624192, -10709.614838315825, -5766.817124702588, -11430.190376066015, -1394.8606127334372, -2088.0105600369648, -1152.7018133046406, -2240.5165124555247, -15482.561645813186, -12538.278107437864, -20175.198635482626, -11114.047302490151, -7138.208405757953, -11252.583414624145, -4387.759195299053, -5116.850747686714, 0.007, -0.021, 0.99575, 192.0, 0.0, 0.0, 0.0, 0.0, 0.0, 0.0, 0.0, 0.0, 0.0, 1.6444978815761948E9, 0.0, 2022-02-10 23:58:01.576
44.0, -7569.842942934388, -10692.716919507613, -5745.985298870242, -11416.779329392832, -1365.356310052432, -2067.893990027188, -1134.7086590181184, -2231.6875733956786, -15465.797837471706, -12501.66595002007, -20148.331838647347, -11085.682938776366, -7117.130710736598, -11229.494062601812, -4373.007043958551, -5096.018921854368, 0.007, -0.021, 0.99575, 192.0, 0.0, 0.0, 0.0, 0.0, 0.0, 0.0, 0.0, 0.0, 0.0, 1.6444978815762014E9, 0.0, 2022-02-10 23:58:01.576
46.0, -7583.678672752223, -10650.092142831343, -5741.5149499791805, -11405.894029843097, -1357.0191093706023, -2060.8084870348557, -1131.6688217721967, -2223.1939105026618, -15443.2449273163, -12474.776801440335, -20123.27553311295, -11069.366165323992, -7086.844096999657, -11205.845916968097, -4363.306386864947, -5084.820697882259, 0.0045000000000000005, -0.0225, 0.992875, 192.0, 0.0, 8.0, 127.5, 32.0, 15.0, 120.0, 0.0, 0.0, 0.0, 1.644497881576208E9, 0.0, 2022-02-10 23:58:01.576
48.0, -7550.799256658466, -10620.72195061707, -5718.716170634767, -11380.480096397412, -1333.5721294369853, -2047.777420017412, -1113.2509843410235, -2208.464110906614, -15421.899011361482, -12434.834234098702, -20109.484506784025, -11067.62272925648, -7064.961739177912, -11191.965483661352, -4347.995441913062, -5065.866418584159, 0.0045000000000000005, -0.0225, 0.992875, 192.0, 0.0, 0.0, 0.0, 0.0, 0.0, 0.0, 0.0, 0.0, 0.0, 1.6444978815762143E9, 0.0, 2022-02-10 23:58:01.576
50.0, -7537.947003596664, -10597.185563705632, -5713.508214176681, -11371.5841021042, -1314.103760016413, -2037.7638385014343, -1089.7145974295852, -2187.1405466962515, -15403.056490785659, -12408.727396574903, -20072.939404599598, -11039.61599345398, -7041.15713133301, -11179.001471877275, -4322.76032242302, -5042.978232261924, 0.0045000000000000005, -0.0225, 0.992875, 192.0, 0.0, 0.0, 0.0, 0.0, 0.0, 0.0, 0.0, 0.0, 0.0, 1.6444978815762212E9, 0.0, 2022-02-10 23:58:01.576
52.0, -7525.698247635156, -10606.886220799235, -5710.401321697393, -11355.736715285388, -1306.034780268047, -2034.2099111330406, -1094.363760276289, -2190.8062327869216, -15390.472458657321, -12407.341588418674, -20070.21249177605, -11025.646153169413, -7021.711113656893, -11159.622509434523, -4316.61359269781, -5032.808188534759, 0.0045000000000000005, -0.0225, 0.992875, 192.0, 0.0, 0.0, 0.0, 0.0, 0.0, 0.0, 0.0, 0.0, 0.0, 1.6444978815762277E9, 0.0, 2022-02-10 23:58:01.576
54.0, -7496.8421455433545, -10577.538380329417, -5687.423728397337, -11336.223642375904, -1282.163117189779, -2008.8183294318117, -1077.175268790158, -2166.465183075092, -15374.982699749793, -12378.59724504915, -20044.10565425225, -10989.682196340824, -7004.366159959574, -11148.916023840431, -4306.778825137475, -5013.5409848142845, 0.0045000000000000005, -0.0225, 0.992875, 192.0, 0.0, 0.0, 0.0, 0.0, 0.0, 0.0, 0.0, 0.0, 0.0, 1.6444978815762343E9, 0.0, 2022-02-10 23:58:01.576
56.0, -7482.179401180673, -10539.093379866288, -5685.099146973986, -11330.09926439515, -1278.2739136545556, -1999.7658729274124, -1070.7826698759402, -2162.888903962243, -15353.815597750618, -12333.58083171616, -20024.704340065044, -10974.840638022499, -6989.345787685608, -11104.43605237437, -4293.345426719836, -4995.279609594299, 0.00525, -0.021249999999999998, 0.9884375, 192.0, 0.0, 24.0, 127.5, 48.0, 15.0, 96.0, 0.0, 0.0, 0.0, 1.6444978815762413E9, 0.0, 2022-02-10 23:58:01.576
58.0, -7471.0705841863855, -10519.267382534432, -5678.393623637393, -11305.534697238767, -1263.4770588251424, -1986.8018611433342, -1055.3152627128677, -2147.600310754813, -15339.733998743774, -12304.121232524067, -20011.606217814235, -10974.326547900027, -6965.451772862884, -11092.835497002066, -4290.864383085297, -4981.577990243196, 0.00525, -0.021249999999999998, 0.9884375, 192.0, 0.0, 0.0, 0.0, 0.0, 0.0, 0.0, 0.0, 0.0, 0.0, 1.6444978815762477E9, 0.0, 2022-02-10 23:58:01.576
60.0, -7444.628470495757, -10496.200382256555, -5667.888303743399, -11294.582342455667, -1258.425564578243, -1977.9282185945772, -1047.246282964502, -2140.2018833401066, -15322.523155513187, -12296.85691557609, -19985.253511101426, -10950.253719121662, -6949.671441277438, -11076.697537505333, -4266.635092095744, -4961.617882444606, 0.00525, -0.021249999999999998, 0.9884375, 192.0, 0.0, 0.0, 0.0, 0.0, 0.0, 0.0, 0.0, 0.0, 0.0, 1.6444978815762544E9, 0.0, 2022-02-10 23:58:01.576
62.0, -7425.495377242015, -10470.585283110773, -5666.524847331625, -11280.14311553754, -1245.6403667498073, -1969.2110382570074, -1039.3784689162337, -2134.0328018704417, -15306.608713461008, -12266.257377416776, -19978.547987764836, -10937.803797460056, -6929.063132889644, -11066.19221761134, -4263.930531016652, -4954.331213752176, 0.00525, -0.021249999999999998, 0.9884375, 192.0, 0.0, 0.0, 0.0, 0.0, 0.0, 0.0, 0.0, 0.0, 0.0, 1.6444978815762608E9, 0.0, 2022-02-10 23:58:01.576
64.0, -7410.564411945869, -10460.147018450143, -5643.301384842562, -11269.771906110276, -1221.9028141382712, -1956.2246747284742, -1012.1316924252144, -2125.7850081664337, -15274.668070634374, -12233.13209213401, -19940.773539635367, -10913.485099492682, -6901.816356398625, -11045.338040034538, -4248.060792453384, -4938.506178677819, 0.00525, -0.021249999999999998, 0.9884375, 192.0, 0.0, 0.0, 0.0, 0.0, 0.0, 0.0, 0.0, 0.0, 0.0, 1.6444978815762675E9, 0.0, 2022-02-10 23:58:01.576
66.0, -7402.763653130967, -10446.624213054683, -5648.732858745201, -11269.257815987805, -1230.396477031288, -1957.0740410177757, -1022.6817158081193, -2123.281612787439, -15282.871160849472, -12235.344914835086, -19937.934868089542, -10911.048759347053, -6895.155536550944, -11035.480920729748, -4232.995716690507, -4924.9610215379025, 0.004625000000000001, -0.019625, 0.9882187499999999, 192.0, 0.0, 16.0, 127.5, 56.0, 15.0, 112.0, 0.0, 0.0, 0.0, 1.6444978815762756E9, 0.0, 2022-02-10 23:58:01.576
68.0, -7393.152403015185, -10429.033390168357, -5640.596823763469, -11256.740839092832, -1207.5976976868747, -1937.7844855528458, -1007.6836952786083, -2099.968743320554, -15261.21232047228, -12202.823126652615, -19941.935830347044, -10904.67851217729, -6876.670643886405, -11008.36825470546, -4230.894652711708, -4917.361428423099, 0.004625000000000001, -0.019625, 0.9882187499999999, 192.0, 0.0, 0.0, 0.0, 0.0, 0.0, 0.0, 0.0, 0.0, 0.0, 1.6444978815762825E9, 0.0, 2022-02-10 23:58:01.576
70.0, -7394.717025127056, -10438.73404726196, -5629.219785835718, -11243.665068586477, -1189.7386538670844, -1931.0119069828877, -989.9811136700051, -2099.253487497984, -15254.484445391232, -12189.70265265735, -19910.285760198327, -10878.77284035359, -6858.588082622062, -10997.348844688993, -4210.4204547906465, -4900.329399148154, 0.004625000000000001, -0.019625, 0.9882187499999999, 192.0, 0.0, 0.0, 0.0, 0.0, 0.0, 0.0, 0.0, 0.0, 0.0, 1.6444978815763035E9, 0.0, 2022-02-10 23:58:01.576
72.0, -7408.128071800241, -10434.576622793273, -5626.828149179, -11234.07617021515, -1196.2206597591235, -1943.1712559665748, -991.9033636931615, -2106.7413218905117, -15246.080189476037, -12177.722117629304, -19903.893161284108, -10873.073145517486, -6851.59198660755, -11008.122385516452, -4210.30869606837, -4896.797823524216, 0.004625000000000001, -0.019625, 0.9882187499999999, 192.0, 0.0, 0.0, 0.0, 0.0, 0.0, 0.0, 0.0, 0.0, 0.0, 1.6444978815763102E9, 0.0, 2022-02-10 23:58:01.576
74.0, -7348.784190271401, -10381.982968089935, -5603.53763145657, -11223.637905554522, -1166.4481361446544, -1918.4502265990052, -979.4310902871002, -2096.101891529786, -15227.505889833677, -12149.648326593438, -19873.584195802712, -10859.550340122027, -6835.386971877453, -10994.823097565544, -4198.238754062504, -4886.113689674579, 0.004625000000000001, -0.019625, 0.9882187499999999, 192.0, 0.0, 0.0, 0.0, 0.0, 0.0, 0.0, 0.0, 0.0, 0.0, 1.644497881576317E9, 0.0, 2022-02-10 23:58:01.576
76.0, -7357.099039208775, -10350.33289794122, -5618.200375819251, -11218.6981700299, -1176.104089749347, -1914.9633544639773, -988.7964712138738, -2096.124243274241, -15211.032654170116, -12096.54058176763, -19864.17411138703, -10845.893424259833, -6812.699951255317, -10964.849408250977, -4179.887971864698, -4872.769698234761, 0.0043125, -0.017812500000000002, 0.990109375, 192.0, 0.0, 16.0, 127.5, 64.0, 15.5, 0.0, 0.0, 0.0, 0.0, 1.6444978815763237E9, 0.0, 2022-02-10 23:58:01.576
78.0, -7345.185559414096, -10371.969386573957, -5603.448224478749, -11203.36487333356, -1165.2858454329785, -1899.2500781118965, -975.0277966294046, -2078.287551198906, -15209.780956480618, -12112.49972730872, -19868.39859108908, -10851.503712118116, -6809.190727375833, -10933.311096824538, -4186.861716134753, -4863.896055686004, 0.0043125, -0.017812500000000002, 0.990109375, 192.0, 0.0, 0.0, 0.0, 0.0, 0.0, 0.0, 0.0, 0.0, 0.0, 1.644497881576331E9, 0.0, 2022-02-10 23:58:01.576
80.0, -7324.331381837294, -10354.825598576737, -5589.2548667496285, -11188.098631870584, -1154.4228976276993, -1895.0926536432094, -962.823744156807, -2078.60047562128, -15187.920950403328, -12079.82147691506, -19834.53569823929, -10800.497031271105, -6778.166506071867, -10941.469483550725, -4166.387518213692, -4847.266357811255, 0.0043125, -0.017812500000000002, 0.990109375, 192.0, 0.0, 0.0, 0.0, 0.0, 0.0, 0.0, 0.0, 0.0, 0.0, 1.6444978815763376E9, 0.0, 2022-02-10 23:58:01.576
82.0, -7317.402341056149, -10323.689618550494, -5581.655273634824, -11183.874152168532, -1152.6794615601852, -1886.4201767945501, -960.5215144779104, -2069.2350946945066, -15178.5332177321, -12065.404601741386, -19830.981770870898, -10801.23463883813, -6762.0508983195905, -10935.278050336607, -4163.034756545396, -4843.131285087024, 0.0043125, -0.017812500000000002, 0.990109375, 192.0, 0.0, 0.0, 0.0, 0.0, 0.0, 0.0, 0.0, 0.0, 0.0, 1.6444978815763445E9, 0.0, 2022-02-10 23:58:01.576
84.0, -7268.094392787742, -10294.252371102855, -5575.173267742785, -11169.300814783672, -1129.3889438377553, -1867.1529730740756, -948.2951102608574, -2051.64427180818, -15158.640165166875, -12026.04317975559, -19800.8739710896, -10791.154002088786, -6728.098598491979, -10904.745567410657, -4147.1426662376725, -4821.628906921018, 0.0043125, -0.017812500000000002, 0.990109375, 192.0, 0.0, 0.0, 0.0, 0.0, 0.0, 0.0, 0.0, 0.0, 0.0, 1.644497881576352E9, 0.0, 2022-02-10 23:58:01.576
86.0, -7265.8592183422115, -10275.678071460494, -5581.185887001263, -11164.897521125975, -1122.4375513121547, -1869.7234236864358, -951.4243544846005, -2059.065050967342, -15137.271897467603, -11994.348406117966, -19790.48040991788, -10773.294958268996, -6731.607822371462, -10877.789363597556, -4139.118389978217, -4807.2343834918, 0.006, -0.022, 0.99, 192.0, 0.0, 24.0, 127.5, 40.0, 15.0, 120.0, 0.0, 0.0, 0.0, 1.6444978815763586E9, 0.0, 2022-02-10 23:58:01.576
88.0, -7283.047709828343, -10287.546847766263, -5567.327805438973, -11149.228948262806, -1112.3569145628112, -1864.1131358281536, -939.5108746899218, -2048.224454906518, -15138.009505034626, -12000.361025376444, -19792.492066918858, -10771.79739139049, -6730.110255492957, -10874.213084484707, -4135.296241676359, -4801.355874700055, 0.006, -0.022, 0.99, 192.0, 0.0, 0.0, 0.0, 0.0, 0.0, 0.0, 0.0, 0.0, 0.0, 1.6444978815763655E9, 0.0, 2022-02-10 23:58:01.576
90.0, -7268.787296865857, -10273.755821437338, -5550.362831397394, -11140.332953969593, -1098.208260322602, -1860.2686357818409, -925.697496616542, -2043.0164984484315, -15132.913307298817, -11984.93832170228, -19759.67970605847, -10727.31741992443, -6700.449490600764, -10876.425907185783, -4115.380837366681, -4788.99536001627, 0.006, -0.022, 0.99, 192.0, 0.0, 0.0, 0.0, 0.0, 0.0, 0.0, 0.0, 0.0, 0.0, 1.6444978815763721E9, 0.0, 2022-02-10 23:58:01.576
92.0, -7249.00600302291, -10239.2670797428, -5552.843875031934, -11134.230927733295, -1089.6028387073086, -1851.0597170662545, -911.7723598208858, -2034.4781320665043, -15112.4167576333, -11962.832446435983, -19755.835206012154, -10726.512757124037, -6676.756641478139, -10856.711668576201, -4106.395436095648, -4785.173211714413, 0.006, -0.022, 0.99, 192.0, 0.0, 0.0, 0.0, 0.0, 0.0, 0.0, 0.0, 0.0, 0.0, 1.6444978815763793E9, 0.0, 2022-02-10 23:58:01.576
94.0, -7208.459938580983, -10205.337131659644, -5537.4211713577715, -11117.310657180627, -1070.8944285982168, -1828.1938824884753, -913.4263889105785, -2022.7881697163787, -15092.814277745996, -11931.651762920828, -19737.976162192364, -10716.812100030435, -6650.023955109591, -10832.035342697543, -4098.348808091737, -4771.829220274594, 0.006, -0.022, 0.99, 192.0, 0.0, 0.0, 0.0, 0.0, 0.0, 0.0, 0.0, 0.0, 0.0, 1.644497881576386E9, 0.0, 2022-02-10 23:58:01.576
96.0, -7209.778691503846, -10197.178744933457, -5535.722438779168, -11109.576953599091, -1067.273445996457, -1820.5942893736708, -902.0717027272824, -2013.869823678711, -15078.531513039055, -11890.815125800984, -19718.28427532724, -10700.517678322516, -6643.69841142874, -10800.049996381998, -4091.6209330106894, -4757.077068934092, 0.006, -0.02, 0.992, 192.0, 0.0, 24.0, 127.5, 48.0, 15.5, 0.0, 0.0, 0.0, 0.0, 1.644497881576393E9, 0.0, 2022-02-10 23:58:01.576
98.0, -7188.678644738036, -10185.82405875016, -5523.294868862017, -11100.211572672317, -1050.3084719548788, -1809.5301758682938, -872.6568070240984, -2004.4597392630267, -15063.153512853803, -11887.082384476947, -19705.47672575435, -10685.16202988172, -6629.058018810513, -10802.732205716635, -4083.28373232886, -4752.450257831843, 0.006, -0.02, 0.992, 192.0, 0.0, 0.0, 0.0, 0.0, 0.0, 0.0, 0.0, 0.0, 0.0, 1.644497881576402E9, 0.0, 2022-02-10 23:58:01.576
100.0, -7172.138353841109, -10173.217674877367, -5514.510633291082, -11091.494392334747, -1031.4435996345997, -1803.3163909097186, -873.4167663355788, -2003.6103729737251, -15040.645306187309, -11864.641233043818, -19671.725591626837, -10662.519712748493, -6604.471099909676, -10783.12972582933, -4062.407203007603, -4735.7758564681835, 0.006, -0.02, 0.992, 192.0, 0.0, 0.0, 0.0, 0.0, 0.0, 0.0, 0.0, 0.0, 0.0, 1.6444978815764136E9, 0.0, 2022-02-10 23:58:01.576
102.0, -7172.406574774573, -10146.797912931193, -5520.545604294015, -11084.185371897862, -1034.4163816471555, -1809.105492723643, -868.477030810956, -1993.8650123912112, -15033.69391366171, -11850.447875314698, -19678.028783563233, -10663.972576138089, -6588.042567735025, -10790.952836388688, -4063.055403596807, -4728.600946498031, 0.006, -0.02, 0.992, 192.0, 0.0, 0.0, 0.0, 0.0, 0.0, 0.0, 0.0, 0.0, 0.0, 1.6444978815764234E9, 0.0, 2022-02-10 23:58:01.576
104.0, -7145.249205261374, -10138.840691905105, -5500.585496495426, -11076.09404040504, -1008.3989511011781, -1787.334893624174, -848.02518463435, -1975.8942098491443, -15026.474300202644, -11813.52279347453, -19659.678001365424, -10648.460465486105, -6563.366241856366, -10766.880007610323, -4052.483028469447, -4712.328876534567, 0.006, -0.02, 0.992, 192.0, 0.0, 0.0, 0.0, 0.0, 0.0, 0.0, 0.0, 0.0, 0.0, 1.6444978815764303E9, 0.0, 2022-02-10 23:58:01.576
106.0, -7161.454219991472, -10135.57733721463, -5505.458176786683, -11074.641177015446, -1014.4786255930217, -1780.137631909565, -855.378908560146, -1980.9233523515884, -15018.427672198733, -11806.750214904574, -19645.238774447298, -10628.925040832168, -6547.0941718929025, -10736.235765962098, -4040.3013277413047, -4706.293905531634, 0.01, -0.02, 0.988, 192.0, 0.0, 40.0, 127.5, 48.0, 15.0, 112.0, 0.0, 0.0, 0.0, 1.6444978815764377E9, 0.0, 2022-02-10 23:58:01.576
108.0, -7136.442617945983, -10129.207090044867, -5500.496089517605, -11066.929825178364, -999.0335701744044, -1768.1347451370652, -858.9775394174504, -1977.458831961016, -15007.520020904545, -11808.71716841664, -19647.853928548568, -10632.590726922837, -6541.4615322901645, -10731.541899626482, -4035.294536983316, -4698.515498461187, 0.01, -0.02, 0.988, 192.0, 0.0, 0.0, 0.0, 0.0, 0.0, 0.0, 0.0, 0.0, 0.0, 1.6444978815764446E9, 0.0, 2022-02-10 23:58:01.576
110.0, -7135.012106300844, -10105.827165344615, -5489.633141712326, -11061.990089653742, -979.341683309279, -1758.791715954747, -837.7433821849087, -1965.9476835665328, -14996.657073099266, -11778.274092468511, -19622.77527126971, -10612.407101679695, -6524.9659448821485, -10720.276620421007, -4019.2459844644054, -4685.775004121662, 0.01, -0.02, 0.988, 192.0, 0.0, 0.0, 0.0, 0.0, 0.0, 0.0, 0.0, 0.0, 0.0, 1.6444978815764527E9, 0.0, 2022-02-10 23:58:01.576
112.0, -7116.258992702841, -10083.497772633764, -5488.493202745104, -11043.773417922666, -977.1065088637482, -1756.2212653423865, -847.2652253228695, -1965.5006486774266, -14982.843695025886, -11753.70952531213, -19611.666454275426, -10608.987284778033, -6508.872688874328, -10719.986047743088, -4014.3733041731484, -4673.123916759958, 0.01, -0.02, 0.988, 192.0, 0.0, 0.0, 0.0, 0.0, 0.0, 0.0, 0.0, 0.0, 0.0, 1.64449788157646E9, 0.0, 2022-02-10 23:58:01.576
114.0, -7097.617637827116, -10059.402592110944, -5469.494219958094, -11028.730693904245, -941.0531450573379, -1738.3622215225962, -826.411047746068, -1948.5356746358484, -14969.410296608246, -11734.844652991851, -19591.505180776738, -10587.730775801037, -6479.56955189342, -10685.944340937656, -4007.0866354807185, -4658.125896230447, 0.01, -0.02, 0.988, 192.0, 0.0, 0.0, 0.0, 0.0, 0.0, 0.0, 0.0, 0.0, 0.0, 1.6444978815764675E9, 0.0, 2022-02-10 23:58:01.576
116.0, -7092.096756946655, -10058.732039777284, -5472.042318825998, -11025.668504913869, -945.0988108037485, -1736.1941023104314, -826.7686756573529, -1954.458886916505, -14956.736857502086, -11700.378263041766, -19573.8696544015, -10563.345022600297, -6461.241121440068, -10675.327262321385, -3999.6658563215565, -4648.671108325852, 0.01, -0.022, 0.986, 192.0, 0.0, 40.0, 127.5, 40.0, 15.0, 104.0, 0.0, 0.0, 0.0, 1.644497881576475E9, 0.0, 2022-02-10 23:58:01.576
118.0, -7058.7703059637915, -10049.74663850625, -5464.5768361779255, -11014.000894308198, -932.4253716975894, -1727.499273717317, -810.027219060328, -1949.0721165027758, -14936.843804936863, -11683.592102955832, -19573.981413123776, -10556.684202752615, -6460.995252251059, -10658.183474324165, -3997.3412748982046, -4640.266852410657, 0.01, -0.022, 0.986, 192.0, 0.0, 0.0, 0.0, 0.0, 0.0, 0.0, 0.0, 0.0, 0.0, 1.6444978815764816E9, 0.0, 2022-02-10 23:58:01.576
120.0, -7066.839285712157, -10021.806957937117, -5453.356260461362, -11011.430443695837, -922.054162270327, -1721.5537096922053, -812.1729865280374, -1951.7319740929574, -14931.47938626759, -11676.3054342634, -19554.468340214295, -10540.725057211526, -6442.46565609761, -10648.214596297097, -3982.1197369241404, -4631.281451139624, 0.01, -0.022, 0.986, 192.0, 0.0, 0.0, 0.0, 0.0, 0.0, 0.0, 0.0, 0.0, 0.0, 1.6444978815764885E9, 0.0, 2022-02-10 23:58:01.576
122.0, -7067.666300257004, -10021.89636491494, -5458.7653826195465, -11003.540277903114, -918.9696215354945, -1723.6994771599147, -810.4966056938894, -1944.8252850562676, -14928.126624599294, -11664.101381790804, -19553.95425009182, -10555.074877151834, -6429.747513502541, -10643.453674728116, -3982.320902624238, -4630.834416250517, 0.01, -0.022, 0.986, 192.0, 0.0, 0.0, 0.0, 0.0, 0.0, 0.0, 0.0, 0.0, 0.0, 1.6444978815764952E9, 0.0, 2022-02-10 23:58:01.576
0.0, -6010.831118921175, -7144.623356416626, -4775.740775554273, -8243.3457068617, -1500.5173087736737, -1563.4598211598184, -2459.0718697395173, -3057.9645106750145, -7451.624566510269, -5816.214479948817, -9759.352774542902, -5259.767801733948, -3200.948619955614, -5310.439206414128, -1983.650265175136, -2303.3919696083035, 0.012, -0.022, 0.984, 192.0, 0.0, 48.0, 127.5, 40.0, 15.0, 96.0, 0.0, 0.0, 0.0, 1.644497881674152E9, 0.0, 2022-02-10 23:58:01.674
2.0, -12029.507700146163, -14297.494506537261, -9562.970347758574, -16494.64863474949, -3011.9646205859926, -3131.591156910796, -4928.000858783825, -6113.358570737669, -21283.666346510214, -19008.683444104605, -24467.381771490785, -14834.182242653638, -9488.11435557775, -14036.716703977192, -8367.889626966671, -10614.530517402949, 0.012, -0.022, 0.984, 192.0, 0.0, 0.0, 0.0, 0.0, 0.0, 0.0, 0.0, 0.0, 0.0, 1.6444978821523967E9, 0.0, 2022-02-10 23:58:02.152
4.0, -12022.198679709278, -14286.095116865054, -9560.13167621275, -16494.805096960677, -3001.7722251143728, -3127.5678429088407, -4915.662695844495, -6107.7929863682975, -21284.471009310604, -19001.530885878907, -24486.358402533344, -14855.774027797464, -9486.370919510236, -14044.91979419229, -8374.03635669188, -10614.888145314235, 0.012, -0.022, 0.984, 192.0, 0.0, 0.0, 0.0, 0.0, 0.0, 0.0, 0.0, 0.0, 0.0, 1.6444978821524065E9, 0.0, 2022-02-10 23:58:02.152
6.0, -12016.700150573273, -14286.899779665446, -9554.99077498803, -16500.616550519055, -3000.9452105695264, -3126.562014408352, -4900.217640425878, -6100.5733729092335, -21285.856817466836, -19016.975941297525, -24471.874472126303, -14844.307582891892, -9486.6391404437, -14040.985887168157, -8366.74968799945, -10610.015465022978, 0.011, -0.022, 0.985, 192.0, 0.0, 40.0, 127.5, 40.0, 15.0, 104.0, 0.0, 0.0, 0.0, 1.6444978821524212E9, 0.0, 2022-02-10 23:58:02.152
8.0, -12032.502833903174, -14303.060090906632, -9569.206484461605, -16507.143259900007, -3019.2959927673332, -3145.136314050712, -4912.444044642931, -6134.279803547836, -21292.8752652258, -19023.033264044912, -24481.306908286442, -14849.56024283889, -9489.477811989524, -14051.558262295517, -8374.706909025539, -10622.420683195673, 0.011, -0.022, 0.985, 192.0, 0.0, 0.0, 0.0, 0.0, 0.0, 0.0, 0.0, 0.0, 0.0, 1.6444978821524284E9, 0.0, 2022-02-10 23:58:02.152
10.0, -12029.842976312993, -14313.990093945276, -9559.259958178993, -16506.830335477633, -3003.985047815448, -3133.982793567514, -4904.822099783672, -6120.756998152376, -21294.73046001559, -19023.592057656297, -24480.390486763776, -14856.086952219839, -9487.667320688644, -14045.21036687021, -8373.835190991782, -10622.19716575112, 0.011, -0.022, 0.985, 192.0, 0.0, 0.0, 0.0, 0.0, 0.0, 0.0, 0.0, 0.0, 0.0, 1.6444978821524353E9, 0.0, 2022-02-10 23:58:02.152
12.0, -12034.447435670787, -14314.727701512302, -9564.669080337177, -16500.661254007966, -3006.041408305336, -3135.681526146117, -4916.534413878252, -6120.980515596929, -21301.346576374362, -19038.67948516363, -24483.51973098752, -14847.481530604546, -9489.097832333784, -14056.945032709245, -8368.359013600233, -10619.179680249654, 0.011, -0.022, 0.985, 192.0, 0.0, 0.0, 0.0, 0.0, 0.0, 0.0, 0.0, 0.0, 0.0, 1.644497882152442E9, 0.0, 2022-02-10 23:58:02.152
14.0, -12027.607801867462, -14299.707329238336, -9557.963557000585, -16495.22978010533, -2998.508870423898, -3125.8691103302376, -4910.968829508881, -6116.644277172599, -21290.684794269182, -19032.398644971687, -24489.577053734905, -14850.610774828288, -9479.77715489592, -14048.45136981623, -8366.861446721727, -10615.961029048089, 0.011, -0.022, 0.985, 192.0, 0.0, 0.0, 0.0, 0.0, 0.0, 0.0, 0.0, 0.0, 0.0, 1.6444978821524487E9, 0.0, 2022-02-10 23:58:02.152
16.0, -12015.38139765041, -14287.838552932568, -9549.380487129747, -16501.532972041725, -2992.250381976412, -3119.632973627207, -4901.916373004481, -6115.526689949834, -21288.53902680147, -19025.380197212722, -24467.98526859108, -14847.7050480491, -9475.217399027038, -14033.654514986816, -8359.217150118011, -10614.709331358592, 0.0095, -0.022, 0.9884999999999999, 192.0, 0.0, 32.0, 127.5, 40.0, 15.5, 0.0, 0.0, 0.0, 0.0, 1.6444978821524556E9, 0.0, 2022-02-10 23:58:02.152
18.0, -12025.283220444111, -14287.324462810097, -9553.515559853979, -16497.50965803977, -3001.8616320921938, -3132.8652063447485, -4908.73365506335, -6118.4771202179345, -21287.73436400108, -19015.836002330303, -24475.94248961717, -14860.981984255552, -9469.338890235293, -14044.651573258827, -8362.927539697594, -10615.782215092448, 0.0095, -0.022, 0.9884999999999999, 192.0, 0.0, 0.0, 0.0, 0.0, 0.0, 0.0, 0.0, 0.0, 0.0, 1.644497882152462E9, 0.0, 2022-02-10 23:58:02.152
20.0, -12021.170499464333, -14293.44884079085, -9548.866397007276, -16493.084012637617, -2992.7868238433393, -3119.297697460377, -4904.978561994858, -6122.902765620085, -21287.667308767715, -19026.184860013112, -24473.014411093525, -14842.921774735663, -9464.220340755028, -14045.188015125754, -8367.733164755484, -10613.748206347014, 0.0095, -0.022, 0.9884999999999999, 192.0, 0.0, 0.0, 0.0, 0.0, 0.0, 0.0, 0.0, 0.0, 0.0, 1.6444978821524687E9, 0.0, 2022-02-10 23:58:02.152
22.0, -12034.916822304347, -14299.237942604774, -9557.717687811577, -16500.571847030147, -3006.019056560881, -3138.162569780656, -4922.412922669998, -6130.59176571271, -21291.087125669375, -19028.084758291814, -24472.679134926693, -14846.073370703862, -9465.628500655712, -14039.39891331183, -8369.409545589631, -10618.732645360547, 0.0095, -0.022, 0.9884999999999999, 192.0, 0.0, 0.0, 0.0, 0.0, 0.0, 0.0, 0.0, 0.0, 0.0, 1.6444978821524756E9, 0.0, 2022-02-10 23:58:02.152
24.0, -12033.151034492379, -14302.478945550794, -9554.409629632191, -16498.26961735125, -3004.409730960099, -3129.5571481653633, -4912.064064987191, -6114.453806215979, -21296.36213736083, -19024.799051856884, -24488.37005953432, -14860.914929022185, -9469.428297213113, -14046.707933748716, -8376.98678695998, -10622.420683195673, 0.0095, -0.022, 0.9884999999999999, 192.0, 0.0, 0.0, 0.0, 0.0, 0.0, 0.0, 0.0, 0.0, 0.0, 1.6444978821524916E9, 0.0, 2022-02-10 23:58:02.152
26.0, -12024.791482066094, -14305.317617096618, -9550.02868771895, -16502.181172630928, -2996.3631029561884, -3124.885633574204, -4894.316779889677, -6118.410064984569, -21294.864570482325, -19024.508479178963, -24473.237928538078, -14847.839158515832, -9470.478829202513, -14044.226890114176, -8368.761345000428, -10618.129148260254, 0.00775, -0.02, 0.99125, 192.0, 0.0, 24.0, 127.5, 56.0, 15.5, 8.0, 0.0, 0.0, 0.0, 1.6444978821524982E9, 0.0, 2022-02-10 23:58:02.152
28.0, -12035.743836849195, -14311.263181121729, -9563.238568692037, -16504.25988486527, -3010.020018818381, -3136.2179680130444, -4921.362390680599, -6130.167082568059, -21302.151239174753, -19038.791243885906, -24484.816132165925, -14861.473722633567, -9472.736355392499, -14035.017971398589, -8376.94208347107, -10623.672380885171, 0.00775, -0.02, 0.99125, 192.0, 0.0, 0.0, 0.0, 0.0, 0.0, 0.0, 0.0, 0.0, 0.0, 1.6444978821525047E9, 0.0, 2022-02-10 23:58:02.152
30.0, -12023.137452976402, -14289.067898877609, -9547.435885362136, -16497.08497489512, -2988.338826696733, -3119.632973627207, -4900.552916592707, -6121.40519874158, -21297.524428072506, -19033.89621185019, -24475.718972172617, -14849.403780627703, -9467.573102423323, -14029.966477151691, -8381.345377128766, -10619.269087227474, 0.00775, -0.02, 0.99125, 192.0, 0.0, 0.0, 0.0, 0.0, 0.0, 0.0, 0.0, 0.0, 0.0, 1.6444978821525111E9, 0.0, 2022-02-10 23:58:02.152
32.0, -12015.04612148358, -14269.130142823476, -9543.099646937806, -16494.067489393652, -2995.625495389163, -3123.5445289068853, -4909.001875996813, -6120.377018496635, -21286.661480267227, -19019.97107505454, -24465.593631934364, -14841.334800879336, -9455.078477272806, -14024.825575926969, -8373.723432269506, -10619.157328505198, 0.00775, -0.02, 0.99125, 192.0, 0.0, 0.0, 0.0, 0.0, 0.0, 0.0, 0.0, 0.0, 0.0, 1.644497882152518E9, 0.0, 2022-02-10 23:58:02.152
34.0, -12024.232688454711, -14286.005709887233, -9545.535987083435, -16497.599065017588, -2997.950076812515, -3121.935203306103, -4905.693817817428, -6115.951373094485, -21273.563358016418, -19007.588208626297, -24472.165044804224, -14846.632164315244, -9446.96479403553, -14023.752692193115, -8381.837115506783, -10621.280744228452, 0.00775, -0.02, 0.99125, 192.0, 0.0, 0.0, 0.0, 0.0, 0.0, 0.0, 0.0, 0.0, 0.0, 1.6444978821525247E9, 0.0, 2022-02-10 23:58:02.152
36.0, -12027.540746634097, -14285.223398831296, -9544.865434749774, -16507.880867467033, -2995.267867477878, -3124.7738748519273, -4893.959151978392, -6117.806567884275, -21303.224122908607, -19042.747502654496, -24477.9764983626, -14858.970327254574, -9466.947253578575, -14028.15598585081, -8375.869199737215, -10616.76569184848, 0.007875, -0.022, 0.990625, 192.0, 0.0, 32.0, 127.5, 32.0, 15.0, 120.0, 0.0, 0.0, 0.0, 1.6444978821525316E9, 0.0, 2022-02-10 23:58:02.152
38.0, -12031.47465365823, -14303.887105451478, -9550.766295285976, -16507.567943044658, -3006.622553661174, -3137.6484796581844, -4916.936745278447, -6146.506207764889, -21301.74890777456, -19046.167319556156, -24484.212635065633, -14858.679754576655, -9465.5837971668, -14041.432922057264, -8377.076193937803, -10626.131072775253, 0.007875, -0.022, 0.990625, 192.0, 0.0, 0.0, 0.0, 0.0, 0.0, 0.0, 0.0, 0.0, 0.0, 1.6444978821525404E9, 0.0, 2022-02-10 23:58:02.152
40.0, -12006.306589401554, -14290.744279711758, -9537.534062568435, -16502.382338331026, -2985.5895621287304, -3126.3608487082543, -4884.973750707359, -6115.414931227557, -21292.361175103328, -19038.545374696896, -24476.233062295087, -14851.169568439671, -9456.956023807052, -14041.187052868254, -8374.03635669188, -10623.404159951706, 0.007875, -0.022, 0.990625, 192.0, 0.0, 0.0, 0.0, 0.0, 0.0, 0.0, 0.0, 0.0, 0.0, 1.644497882152547E9, 0.0, 2022-02-10 23:58:02.152
42.0, -12012.073339471024, -14280.373070284495, -9539.858643991785, -16502.717614497855, -2990.3057802088, -3134.7651046234496, -4905.716169561883, -6137.11847509366, -21286.795590733956, -19029.895249592693, -24465.481873212084, -14842.117111935273, -9451.032811526396, -14037.25314584412, -8365.676804265595, -10623.091235529333, 0.007875, -0.022, 0.990625, 192.0, 0.0, 0.0, 0.0, 0.0, 0.0, 0.0, 0.0, 0.0, 0.0, 1.6444978821525533E9, 0.0, 2022-02-10 23:58:02.152
44.0, -11998.818755009026, -14269.621881201492, -9534.829501489343, -16497.353195828582, -2982.0132830158814, -3120.1694154941342, -4888.706492031395, -6115.727855649931, -21280.425343564195, -19014.874877318725, -24478.64705069626, -14847.615641071277, -9443.075590500306, -14031.978134152669, -8371.220036890512, -10621.48190992855, 0.007875, -0.022, 0.990625, 192.0, 0.0, 0.0, 0.0, 0.0, 0.0, 0.0, 0.0, 0.0, 0.0, 1.64449788215256E9, 0.0, 2022-02-10 23:58:02.152
46.0, -11999.936342231793, -14260.882349119467, -9530.02387643145, -16505.51158255477, -2976.8723817911605, -3122.225775984022, -4866.757078976283, -6118.0077335843725, -21277.720782485103, -19015.947761052583, -24460.966820832113, -14845.380466625747, -9443.924956789608, -14040.963535423702, -8361.541731541363, -10614.709331358592, 0.0049375, -0.032, 0.9933125, 192.0, 0.0, 8.0, 127.0, 88.0, 15.5, 16.0, 0.0, 0.0, 0.0, 1.6444978821525676E9, 0.0, 2022-02-10 23:58:02.152
48.0, -12014.397920894377, -14283.189390085863, -9542.31733588187, -16514.005245447785, -2990.2610767198894, -3134.6756976456286, -4891.075776943658, -6131.575242468744, -21286.393259333763, -19032.420996716144, -24468.56641394692, -14859.126789465761, -9444.81902656782, -14045.92562269278, -8367.956682200036, -10623.20299425161, 0.0049375, -0.032, 0.9933125, 192.0, 0.0, 0.0, 0.0, 0.0, 0.0, 0.0, 0.0, 0.0, 0.0, 1.6444978821525748E9, 0.0, 2022-02-10 23:58:02.152
50.0, -12006.775976035116, -14281.624767973992, -9537.355248612792, -16513.401748347493, -2973.20669570049, -3129.400685954176, -4886.381910608043, -6139.979498383939, -21290.573035546906, -19034.72322639504, -24467.225309279598, -14862.636013345244, -9448.037677769385, -14038.773064467081, -8367.75551649994, -10624.097064029822, 0.0049375, -0.032, 0.9933125, 192.0, 0.0, 0.0, 0.0, 0.0, 0.0, 0.0, 0.0, 0.0, 0.0, 1.6444978821525815E9, 0.0, 2022-02-10 23:58:02.152
52.0, -12029.261830957155, -14296.801602459145, -9546.675926050655, -16516.732158271334, -2979.8451638037163, -3140.7330203930164, -4895.6131810680845, -6134.525672736844, -21293.32230011491, -19037.316028751855, -24457.569355674907, -14851.594251584322, -9444.997840523463, -14038.0131051556, -8365.766211243417, -10628.835633854347, 0.0049375, -0.032, 0.9933125, 192.0, 0.0, 0.0, 0.0, 0.0, 0.0, 0.0, 0.0, 0.0, 0.0, 1.644497882152588E9, 0.0, 2022-02-10 23:58:02.152
54.0, -12016.342522661987, -14281.177733084885, -9542.630260304244, -16509.445489578902, -2986.8412598182276, -3134.3180697343437, -4910.9911812533355, -6148.428457788045, -21299.26786414002, -19051.732903925527, -24483.452675754153, -14859.842045288331, -9444.573157378813, -14039.577727267471, -8377.567932315818, -10631.942526333634, 0.0049375, -0.032, 0.9933125, 192.0, 0.0, 0.0, 0.0, 0.0, 0.0, 0.0, 0.0, 0.0, 0.0, 1.6444978821525946E9, 0.0, 2022-02-10 23:58:02.152
56.0, -12000.741005032183, -14273.958119625822, -9534.293059622414, -16507.79146048921, -2976.5818091132414, -3127.6796016311173, -4901.648152071018, -6139.443056517012, -21291.109477413833, -19037.651304918683, -24461.592669676862, -14846.31923989287, -9436.414770652626, -14026.993695139134, -8375.13159217019, -10630.869642599779, 0.00746875, -0.031, 0.99265625, 192.0, 0.0, 40.0, 127.5, 8.0, 15.5, 0.0, 0.0, 0.0, 0.0, 1.6444978821526012E9, 0.0, 2022-02-10 23:58:02.152
58.0, -12013.52620286062, -14283.59172148606, -9541.020934703462, -16509.646655279, -2981.2309719599452, -3144.5104652059636, -4906.990218995836, -6141.320603051258, -21290.282462868985, -19035.125557795236, -24469.907518614236, -14853.538853351934, -9431.944421761564, -14035.330895820964, -8374.997481703458, -10635.138825790742, 0.00746875, -0.031, 0.99265625, 192.0, 0.0, 0.0, 0.0, 0.0, 0.0, 0.0, 0.0, 0.0, 0.0, 1.6444978821526077E9, 0.0, 2022-02-10 23:58:02.152
60.0, -11996.315359630033, -14279.076669106087, -9530.537966553924, -16508.41730933396, -2966.1211927081577, -3136.1509127796785, -4896.5519543352075, -6139.130132094638, -21287.846122723357, -19038.500671207985, -24468.32054475791, -14856.109303964295, -9428.569308348813, -14029.810014940504, -8375.08688868128, -10634.647087412726, 0.00746875, -0.031, 0.99265625, 192.0, 0.0, 0.0, 0.0, 0.0, 0.0, 0.0, 0.0, 0.0, 0.0, 1.6444978821526144E9, 0.0, 2022-02-10 23:58:02.152
62.0, -12014.308513916554, -14282.362375541017, -9539.255146891493, -16514.385225103524, -2974.3242829232554, -3139.6154331702514, -4908.331323663155, -6141.231196073437, -21292.0258989365, -19042.792206143404, -24462.911422599725, -14856.869263275776, -9433.017305495418, -14026.971343394678, -8377.545580571363, -10638.1116078033, 0.00746875, -0.031, 0.99265625, 192.0, 0.0, 0.0, 0.0, 0.0, 0.0, 0.0, 0.0, 0.0, 0.0, 1.6444978821526208E9, 0.0, 2022-02-10 23:58:02.152
64.0, -12011.827470282016, -14274.807485915124, -9536.684696279133, -16508.17144014495, -2963.215465928968, -3128.5513196648744, -4887.834773997638, -6132.692829691509, -21292.361175103328, -19039.372389241744, -24469.1252075583, -14864.424152901669, -9426.982334492486, -14030.97230565218, -8378.685519538585, -10637.262241513998, 0.00746875, -0.031, 0.99265625, 192.0, 0.0, 0.0, 0.0, 0.0, 0.0, 0.0, 0.0, 0.0, 0.0, 1.6444978821526277E9, 0.0, 2022-02-10 23:58:02.152
66.0, -12008.586467335996, -14267.25259628923, -9533.108417166284, -16510.65248377949, -2954.2971198913006, -3117.241336970489, -4880.838677983127, -6131.843463402208, -21287.376736089795, -19030.744615881995, -24449.16509975971, -14846.833330015343, -9422.757854790432, -14029.29592481803, -8369.588359545274, -10629.908517588201, 0.010734375, -0.0265, 0.992328125, 192.0, 0.0, 56.0, 127.5, 40.0, 15.5, 0.0, 0.0, 0.0, 0.0, 1.644497882152634E9, 0.0, 2022-02-10 23:58:02.152
68.0, -12019.04708374108, -14264.704497421324, -9543.904309738196, -16514.295818125705, -2966.1435444526132, -3129.758313865461, -4882.224486139356, -6139.152483839093, -21289.36604134632, -19034.52206069494, -24463.671381911205, -14857.13748420924, -9422.132005945685, -14030.905250418813, -8366.593225788263, -10634.91530834619, 0.010734375, -0.0265, 0.992328125, 192.0, 0.0, 0.0, 0.0, 0.0, 0.0, 0.0, 0.0, 0.0, 0.0, 1.6444978821526408E9, 0.0, 2022-02-10 23:58:02.152
70.0, -11997.142374174879, -14272.795828914146, -9534.538928811424, -16506.383300588524, -2952.956015223982, -3116.6378398701954, -4881.263361127778, -6121.40519874158, -21287.019108178512, -19031.10224379328, -24466.46534996812, -14849.202614927604, -9423.562517590824, -14040.20357611222, -8368.850751978249, -10632.188395522642, 0.010734375, -0.0265, 0.992328125, 192.0, 0.0, 0.0, 0.0, 0.0, 0.0, 0.0, 0.0, 0.0, 0.0, 1.6444978821526494E9, 0.0, 2022-02-10 23:58:02.152
72.0, -12013.548554605075, -14279.836628417568, -9537.757580012987, -16514.452280336893, -2956.8675705036608, -3126.6961248750836, -4892.930971733448, -6132.40225701359, -21285.745058744556, -19048.357790512775, -24452.048474794447, -14851.773065539965, -9420.656790811634, -14034.570936509483, -8364.872141465205, -10630.668476899682, 0.010734375, -0.0265, 0.992328125, 192.0, 0.0, 0.0, 0.0, 0.0, 0.0, 0.0, 0.0, 0.0, 0.0, 1.6444978821526563E9, 0.0, 2022-02-10 23:58:02.152
74.0, -12018.220069196233, -14276.081535349076, -9537.668173035167, -16516.352178615594, -2953.984195468926, -3126.785531852905, -4866.891189443015, -6132.044629102305, -21288.628433779293, -19051.285869036423, -24467.76175114653, -14861.183149955648, -9425.90945075863, -14034.280363831564, -8365.118010654212, -10634.982363579556, 0.010734375, -0.0265, 0.992328125, 192.0, 0.0, 0.0, 0.0, 0.0, 0.0, 0.0, 0.0, 0.0, 0.0, 1.6444978821526628E9, 0.0, 2022-02-10 23:58:02.152
76.0, -11999.019920709125, -14272.237035302764, -9532.661382277178, -16515.41340534847, -2944.127076164136, -3121.1528922501675, -4874.066099413169, -6135.151521581593, -21287.06381166742, -19038.590078185807, -24454.864794595815, -14844.642859058722, -9421.729674545488, -14026.233735827655, -8360.580606529786, -10632.143692033731, 0.012, -0.014, 0.99, 192.0, 0.0, 48.0, 127.5, 72.0, 15.0, 120.0, 0.0, 0.0, 0.0, 1.6444978821526697E9, 0.0, 2022-02-10 23:58:02.152
78.0, -12028.14424373439, -14280.68599470687, -9545.84891150581, -16521.895411240508, -2959.7732972828508, -3137.626127913729, -4897.06604445768, -6144.874530419652, -21292.8752652258, -19043.373351499242, -24466.063018567922, -14854.567033596879, -9423.786035035377, -14029.58649749595, -8365.945025199058, -10633.685962401149, 0.012, -0.014, 0.99, 192.0, 0.0, 0.0, 0.0, 0.0, 0.0, 0.0, 0.0, 0.0, 0.0, 1.644497882152676E9, 0.0, 2022-02-10 23:58:02.152
80.0, -12016.27546742862, -14269.711288179315, -9535.45535033409, -16519.660236794978, -2954.0065472133815, -3127.210214997556, -4875.8318872251375, -6124.109759820672, -21296.07156468291, -19036.556069440376, -24469.281669769487, -14857.338649909336, -9430.513910116424, -14047.244375615643, -8370.795353745862, -10635.362343235296, 0.012, -0.014, 0.99, 192.0, 0.0, 0.0, 0.0, 0.0, 0.0, 0.0, 0.0, 0.0, 0.0, 1.644497882152683E9, 0.0, 2022-02-10 23:58:02.152
82.0, -12019.136490718902, -14271.410020757918, -9537.802283501898, -16524.42115836396, -2955.593521069708, -3135.949747079581, -4880.548105305208, -6141.141789095615, -21299.849009495858, -19047.039037589915, -24460.49743419855, -14860.713763322088, -9430.670372327611, -14046.551471537528, -8366.213246132524, -10633.9094798457, 0.012, -0.014, 0.99, 192.0, 0.0, 0.0, 0.0, 0.0, 0.0, 0.0, 0.0, 0.0, 0.0, 1.6444978821526935E9, 0.0, 2022-02-10 23:58:02.152
84.0, -12002.551496333062, -14246.688991390347, -9534.695391022611, -16522.677722296445, -2951.5255035788423, -3125.7126481190503, -4893.422710111465, -6131.284669790825, -21291.869436725312, -19045.519118966953, -24472.45561748214, -14871.643766360732, -9420.656790811634, -14030.033532385056, -8373.410507847131, -10637.709276403104, 0.012, -0.014, 0.99, 192.0, 0.0, 0.0, 0.0, 0.0, 0.0, 0.0, 0.0, 0.0, 0.0, 1.6444978821527E9, 0.0, 2022-02-10 23:58:02.152
86.0, -12015.627266839418, -14268.034907345165, -9529.21921363106, -16522.230687407337, -2943.6353377861187, -3125.846758585782, -4877.351805848099, -6128.133073822627, -21288.941358201668, -19029.96230482606, -24457.681114397183, -14844.352286380803, -9421.48380535648, -14027.261916072597, -8373.589321802774, -10632.836596111847, 0.014, -0.024, 0.994, 192.0, 0.0, 56.0, 127.5, 32.0, 15.5, 8.0, 0.0, 0.0, 0.0, 1.6444978821527069E9, 0.0, 2022-02-10 23:58:02.152
88.0, -12028.591278623495, -14287.726794210292, -9537.802283501898, -16524.935248486432, -2954.565340824764, -3122.4716451730305, -4871.58505577863, -6136.067943104261, -21299.60314030685, -19040.132348553223, -24471.36038200383, -14852.644783573722, -9427.25055542595, -14026.703122461215, -8373.768135758417, -10636.189357780142, 0.014, -0.024, 0.994, 192.0, 0.0, 0.0, 0.0, 0.0, 0.0, 0.0, 0.0, 0.0, 0.0, 1.6444978821527133E9, 0.0, 2022-02-10 23:58:02.152
90.0, -12005.94896149027, -14273.131105080976, -9528.392199086215, -16517.290951882715, -2935.7675237378508, -3110.401703167165, -4883.565590806674, -6126.881376133129, -21291.511808814026, -19045.2956015224, -24468.36524824682, -14860.51259762199, -9419.785072777877, -14027.999523639623, -8374.215170647523, -10631.182567022153, 0.014, -0.024, 0.994, 192.0, 0.0, 0.0, 0.0, 0.0, 0.0, 0.0, 0.0, 0.0, 0.0, 1.64449788215272E9, 0.0, 2022-02-10 23:58:02.152
92.0, -12014.643790083384, -14283.547017997149, -9536.371771856759, -16522.856536252086, -2946.8986924765936, -3129.110113276257, -4903.257477671799, -6146.21563508697, -21291.735326258582, -19043.01572358796, -24458.93281208668, -14855.818731286376, -9419.785072777877, -14026.971343394678, -8378.1267259272, -10636.189357780142, 0.014, -0.024, 0.994, 192.0, 0.0, 0.0, 0.0, 0.0, 0.0, 0.0, 0.0, 0.0, 0.0, 1.6444978821527264E9, 0.0, 2022-02-10 23:58:02.152
94.0, -12037.57667989453, -14290.118430867009, -9540.037457947428, -16525.22582116435, -2944.5741110532417, -3140.464799459553, -4883.364425106576, -6143.376963541146, -21303.98408222009, -19050.3470957693, -24475.11547507232, -14857.293946420426, -9420.075645455796, -14033.453349286718, -8384.832249263794, -10644.928889862167, 0.014, -0.024, 0.994, 192.0, 0.0, 0.0, 0.0, 0.0, 0.0, 0.0, 0.0, 0.0, 0.0, 1.644497882152733E9, 0.0, 2022-02-10 23:58:02.152
96.0, -12028.43481641231, -14287.145648854454, -9534.896556722708, -16526.32105664266, -2936.4604278159654, -3123.276307973422, -4882.224486139356, -6131.552890724289, -21312.723614302115, -19047.374313756744, -24473.66261168273, -14854.499978363512, -9425.90945075863, -14043.511634291606, -8382.172391673612, -10641.710238660604, 0.012, -0.024, 0.99, 192.0, 0.0, 48.0, 127.5, 32.0, 15.0, 120.0, 0.0, 0.0, 0.0, 1.6444978821527395E9, 0.0, 2022-02-10 23:58:02.152
98.0, -12038.269583972644, -14277.78026792768, -9542.853777748798, -16530.254963666794, -2943.769448252851, -3131.14412202169, -4901.938724748937, -6143.533425752334, -21310.868419512324, -19062.953479642092, -24488.258300812042, -14867.553397125412, -9423.271944912905, -14040.449445301228, -8384.809897519339, -10640.257375271009, 0.012, -0.024, 0.99, 192.0, 0.0, 0.0, 0.0, 0.0, 0.0, 0.0, 0.0, 0.0, 0.0, 1.6444978821527464E9, 0.0, 2022-02-10 23:58:02.152
100.0, -12018.354179662965, -14269.845398646046, -9527.676943263645, -16526.87985025404, -2925.597480010686, -3120.2141189830445, -4869.908674944481, -6130.904690135085, -21300.8771897408, -19052.179938814636, -24472.857948882338, -14881.031499031962, -9414.8229855088, -14030.547622507529, -8383.960531230037, -10641.352610749318, 0.012, -0.024, 0.99, 192.0, 0.0, 0.0, 0.0, 0.0, 0.0, 0.0, 0.0, 0.0, 0.0, 1.6444978821527529E9, 0.0, 2022-02-10 23:58:02.152
102.0, -12031.228784469222, -14297.628617003993, -9537.087027679328, -16523.41532986347, -2942.830674985728, -3136.396781968687, -4895.702588045906, -6144.807475186286, -21305.660463054235, -19050.77177891395, -24466.71121915713, -14857.450408631614, -9415.381779120182, -14047.602003526927, -8376.405641604142, -10642.403142738718, 0.012, -0.024, 0.99, 192.0, 0.0, 0.0, 0.0, 0.0, 0.0, 0.0, 0.0, 0.0, 0.0, 1.6444978821527638E9, 0.0, 2022-02-10 23:58:02.152
104.0, -12036.682610116317, -14301.629579261493, -9535.857681734286, -16519.481422839337, -2940.863721473661, -3130.8759010882263, -4879.8775529715485, -6135.553852981789, -21307.94034098868, -19055.175072571645, -24482.89388214277, -14861.920757522674, -9414.018322708407, -14040.672962745783, -8387.849734765261, -10646.58291895186, 0.012, -0.024, 0.99, 192.0, 0.0, 0.0, 0.0, 0.0, 0.0, 0.0, 0.0, 0.0, 0.0, 1.6444978821527703E9, 0.0, 2022-02-10 23:58:02.152
106.0, -12022.198679709278, -14284.888122664468, -9528.302792108392, -16521.001341462295, -2933.7782184813286, -3125.3550202077654, -4890.181707165445, -6134.391562270112, -21307.247436910562, -19053.766912670962, -24468.56641394692, -14855.952841753107, -9412.967790719007, -14029.407683540307, -8380.339548628277, -10638.983325837056, 0.01, -0.026000000000000002, 0.99, 192.0, 0.0, 40.0, 127.5, 24.0, 15.0, 120.0, 0.0, 0.0, 0.0, 1.6444978821527767E9, 0.0, 2022-02-10 23:58:02.152
108.0, -12036.90612756087, -14287.838552932568, -9537.31054512388, -16529.56205958868, -2942.808323241273, -3136.6426511576956, -4890.137003676535, -6144.047515874805, -21312.678910813203, -19055.95738362758, -24477.61887045132, -14867.665155847688, -9411.581982562779, -14029.83236668496, -8380.652473050652, -10644.101875317321, 0.01, -0.026000000000000002, 0.99, 192.0, 0.0, 0.0, 0.0, 0.0, 0.0, 0.0, 0.0, 0.0, 0.0, 1.6444978821527834E9, 0.0, 2022-02-10 23:58:02.152
110.0, -12026.199641966778, -14278.987262128267, -9522.40193157219, -16526.388111876026, -2920.657744486063, -3123.6115841402516, -4859.537465517219, -6142.639355974121, -21307.31449214393, -19057.074970850346, -24473.014411093525, -14866.547568624923, -9408.855069739231, -14030.189994596243, -8375.824496248306, -10643.654840428215, 0.01, -0.026000000000000002, 0.99, 192.0, 0.0, 0.0, 0.0, 0.0, 0.0, 0.0, 0.0, 0.0, 0.0, 1.64449788215279E9, 0.0, 2022-02-10 23:58:02.152
112.0, -12038.694267117295, -14287.950311654844, -9529.554489797889, -16532.22191717886, -2927.0503434002812, -3125.779703352416, -4855.20122709289, -6120.913460363563, -21309.147335189264, -19040.512328208963, -24466.21948077911, -14865.117056979783, -9403.91533421461, -14025.764349194093, -8367.04026067737, -10640.659706671204, 0.01, -0.026000000000000002, 0.99, 192.0, 0.0, 0.0, 0.0, 0.0, 0.0, 0.0, 0.0, 0.0, 0.0, 1.6444978821527965E9, 0.0, 2022-02-10 23:58:02.152
114.0, -12032.100502502979, -14297.494506537261, -9529.845062475808, -16531.08197821164, -2923.7422852208956, -3126.8972905751816, -4857.034070138225, -6125.6967336769985, -21313.01418698003, -19057.365543528264, -24483.832655409893, -14877.008185030007, -9402.86480222521, -14025.29496256053, -8379.221961405512, -10642.134921805255, 0.01, -0.026000000000000002, 0.99, 192.0, 0.0, 0.0, 0.0, 0.0, 0.0, 0.0, 0.0, 0.0, 0.0, 1.6444978821528032E9, 0.0, 2022-02-10 23:58:02.152
116.0, -12024.679723343817, -14285.245750575752, -9522.983076928029, -16526.432815364937, -2918.8025496962728, -3120.4152846831425, -4866.354747576088, -6127.037838344317, -21303.917026986725, -19042.836909632315, -24461.16798653221, -14860.22202494407, -9402.66363652511, -14043.712799991705, -8377.500877082453, -10640.659706671204, 0.01, -0.028, 0.99, 192.0, 0.0, 40.0, 127.5, 16.0, 15.0, 120.0, 0.0, 0.0, 0.0, 1.64449788215281E9, 0.0, 2022-02-10 23:58:02.152
118.0, -12037.487272916707, -14303.21655311782, -9532.303754365892, -16532.110158456584, -2931.6100992691636, -3131.5017499329747, -4879.698739015906, -6140.560643739777, -21312.45539336865, -19050.794130658403, -24475.31664077242, -14871.599062871823, -9402.015435935908, -14051.044172173044, -8381.434784106586, -10645.040648584443, 0.01, -0.028, 0.99, 192.0, 0.0, 0.0, 0.0, 0.0, 0.0, 0.0, 0.0, 0.0, 0.0, 1.6444978821528163E9, 0.0, 2022-02-10 23:58:02.152
120.0, -12032.726351347728, -14289.581989000082, -9522.446635061102, -16529.293838655216, -2915.4274362835213, -3121.0187817834358, -4867.829962710138, -6143.376963541146, -21313.125945702308, -19063.66873546466, -24479.250547796553, -14868.916853537185, -9395.824002721787, -14028.625372484372, -8376.51740032642, -10643.006639839012, 0.01, -0.028, 0.99, 192.0, 0.0, 0.0, 0.0, 0.0, 0.0, 0.0, 0.0, 0.0, 0.0, 1.6444978821528227E9, 0.0, 2022-02-10 23:58:02.152
122.0, -12037.979011294725, -14292.845343690557, -9530.247393876005, -16536.13347245854, -2921.86473868665, -3124.4162469406424, -4878.178820392945, -6133.519844236355, -21309.348500889362, -19064.428694776143, -24466.957088346135, -14862.881882534253, -9396.829831222276, -14029.027703884567, -8371.667071779619, -10646.828788140869, 0.01, -0.028, 0.99, 192.0, 0.0, 0.0, 0.0, 0.0, 0.0, 0.0, 0.0, 0.0, 0.0, 1.64449788263222E9, 0.0, 2022-02-10 23:58:02.632
124.0, -12029.2394792127, -14288.509105266226, -9530.31444910937, -16530.724350300356, -2918.2661078293454, -3123.790398095894, -4867.293520843211, -6137.587861727222, -21311.762489290537, -19064.62986047624, -24489.26412931253, -14880.539760653945, -9400.473165568492, -14029.944125407235, -8377.411470104631, -10646.15823580721, 0.01, -0.028, 0.99, 192.0, 0.0, 0.0, 0.0, 0.0, 0.0, 0.0, 0.0, 0.0, 0.0, 1.6444978826322289E9, 0.0, 2022-02-10 23:58:02.632
126.0, -12009.681702814307, -14281.06597436261, -9519.675018748643, -16522.633018807534, -2904.475081500421, -3112.4133601681424, -4870.132192389035, -6134.7938936703085, -21304.297006642464, -19038.835947374817, -24466.375942990297, -14858.590347598834, -9390.057252652317, -14016.53307873405, -8371.912940968627, -10639.63152642626, 0.01, -0.024, 0.99, 192.0, 0.0, 40.0, 127.5, 32.0, 15.0, 120.0, 0.0, 0.0, 0.0, 1.6444978826322372E9, 0.0, 2022-02-10 23:58:02.632
128.0, -12045.042162542602, -14294.029986146688, -9528.816882230865, -16531.193736933918, -2917.796721195784, -3127.165511508645, -4860.096259128602, -6131.374076768646, -21305.63811130978, -19057.030267361435, -24472.388562248776, -14866.949900025118, -9383.083508382262, -14019.327046790964, -8371.421202590609, -10641.598479938326, 0.01, -0.024, 0.99, 192.0, 0.0, 0.0, 0.0, 0.0, 0.0, 0.0, 0.0, 0.0, 0.0, 1.6444978826322443E9, 0.0, 2022-02-10 23:58:02.632
130.0, -12036.928479305325, -14293.873523935501, -9520.434978060124, -16533.339504401625, -2909.638334469597, -3124.8632818297488, -4858.419878294454, -6131.7987599132975, -21312.030710224, -19051.643496947705, -24481.396315264265, -14878.885731564253, -9389.051424151829, -14023.35036079292, -8375.310406125833, -10641.933756105156, 0.01, -0.024, 0.99, 192.0, 0.0, 0.0, 0.0, 0.0, 0.0, 0.0, 0.0, 0.0, 0.0, 1.6444978826322508E9, 0.0, 2022-02-10 23:58:02.632
132.0, -12039.208357239766, -14294.946407669355, -9523.519518794958, -16536.26758292527, -2913.14755834908, -3127.500787675475, -4866.757078976283, -6139.241890816915, -21313.39416663577, -19059.01957261796, -24465.03483832298, -14866.055830246905, -9382.43530779306, -14019.43880551324, -8372.695252024561, -10645.577090451372, 0.01, -0.024, 0.99, 192.0, 0.0, 0.0, 0.0, 0.0, 0.0, 0.0, 0.0, 0.0, 0.0, 1.6444978826322577E9, 0.0, 2022-02-10 23:58:02.632
134.0, -12036.213223482755, -14296.488678036772, -9528.056922919384, -16536.915783514476, -2912.566412993242, -3131.077066788324, -4871.987387178825, -6147.579091498744, -21312.030710224, -19072.005936146492, -24484.145579832268, -14873.767182083988, -9378.456697280013, -14018.969418879678, -8375.288054381377, -10648.706334675115, 0.01, -0.024, 0.99, 192.0, 0.0, 0.0, 0.0, 0.0, 0.0, 0.0, 0.0, 0.0, 0.0, 1.6444978826322737E9, 0.0, 2022-02-10 23:58:02.632
136.0, -12034.738008348706, -14298.433279804383, -9523.988905428518, -16543.88952778453, -2900.9882093653932, -3125.3103167188547, -4853.368384047554, -6131.7987599132975, -21317.462184126638, -19066.61916573276, -24476.031896594992, -14870.749696582521, -9381.42947929257, -14026.34549454993, -8368.850751978249, -10646.135884062754, 0.008, -0.022, 0.998, 192.0, 0.0, 32.0, 127.5, 40.0, 15.5, 24.0, 0.0, 0.0, 0.0, 1.6444978826322803E9, 0.0, 2022-02-10 23:58:02.632
138.0, -12055.167502780856, -14305.45172756335, -9537.467007335068, -16551.37736217706, -2919.8083781967616, -3136.843816857793, -4855.804724193183, -6141.07473386225, -21319.78676554999, -19061.85824416378, -24490.3817165353, -14877.70108910812, -9384.938703172053, -14021.271648558575, -8372.024699690903, -10648.125189319277, 0.008, -0.022, 0.998, 192.0, 0.0, 0.0, 0.0, 0.0, 0.0, 0.0, 0.0, 0.0, 0.0, 1.6444978826322868E9, 0.0, 2022-02-10 23:58:02.632
140.0, -12039.253060728677, -14292.040680890166, -9526.380542085237, -16539.37447540456, -2902.061093099248, -3125.8691103302376, -4838.459770495864, -6125.763788910364, -21318.64682658277, -19068.42965703364, -24486.26899555552, -14874.28127220646, -9377.629682735167, -14031.419340541284, -8372.80701074684, -10646.717029418593, 0.008, -0.022, 0.998, 192.0, 0.0, 0.0, 0.0, 0.0, 0.0, 0.0, 0.0, 0.0, 0.0, 1.644497882632294E9, 0.0, 2022-02-10 23:58:02.632
142.0, -12040.840034585004, -14304.334140340585, -9529.442731075613, -16541.587298105635, -2904.072750100225, -3131.9934883109913, -4861.169142862456, -6139.510111750378, -21320.099689972365, -19071.82712219085, -24477.08242858439, -14873.297795450426, -9371.706470454512, -14027.127805605865, -8366.03443217688, -10644.414799739696, 0.008, -0.022, 0.998, 192.0, 0.0, 0.0, 0.0, 0.0, 0.0, 0.0, 0.0, 0.0, 0.0, 1.6444978826323004E9, 0.0, 2022-02-10 23:58:02.632
144.0, -12045.466845687253, -14302.993035673266, -9531.856719476786, -16541.02850449425, -2905.056226856259, -3129.758313865461, -4855.20122709289, -6142.21467282947, -21313.572980591416, -19070.083686123337, -24492.572187491918, -14883.333728710859, -9366.18558957405, -14023.10449160391, -8371.957644457538, -10645.800607895924, 0.008, -0.020999999999999998, 0.997, 192.0, 0.0, 32.0, 127.5, 48.0, 15.5, 16.0, 0.0, 0.0, 0.0, 1.644497882632307E9, 0.0, 2022-02-10 23:58:02.632
146.0, -12031.51935714714, -14289.49258202226, -9527.520481052457, -16537.98866724833, -2893.321561017223, -3118.4930346599863, -4853.904825914482, -6140.068905361761, -21311.60602707935, -19062.215872075067, -24468.78993139147, -14883.087859521851, -9366.118534340685, -14015.81782291148, -8365.743859498962, -10644.191282295142, 0.008, -0.020999999999999998, 0.997, 192.0, 0.0, 0.0, 0.0, 0.0, 0.0, 0.0, 0.0, 0.0, 0.0, 1.6444978826323135E9, 0.0, 2022-02-10 23:58:02.632
148.0, -12043.81281659756, -14283.435259274873, -9535.947088712108, -16535.999361991806, -2911.962915892949, -3127.9478225645807, -4878.782317493238, -6142.438190274023, -21307.761527033035, -19051.95642137008, -24481.351611775353, -14875.197693729127, -9361.022336604874, -14011.682750187249, -8371.152981657146, -10641.330259004862, 0.008, -0.020999999999999998, 0.997, 192.0, 0.0, 0.0, 0.0, 0.0, 0.0, 0.0, 0.0, 0.0, 0.0, 1.644497882632321E9, 0.0, 2022-02-10 23:58:02.632
150.0, -12035.52031940464, -14282.809410430124, -9526.40289382969, -16536.69226606992, -2902.150500077069, -3126.6067178972626, -4833.2741657822335, -6134.324507036747, -21304.78874502048, -19057.991392373013, -24478.98232686309, -14873.521312894978, -9361.37996451616, -14015.326084533464, -8370.348318856755, -10638.804511881413, 0.008, -0.020999999999999998, 0.997, 192.0, 0.0, 0.0, 0.0, 0.0, 0.0, 0.0, 0.0, 0.0, 0.0, 1.6444978826323273E9, 0.0, 2022-02-10 23:58:02.632
152.0, -12032.94986879228, -14291.750108212247, -9534.203652644594, -16540.46971088287, -2913.438131026999, -3116.7943020813827, -4875.027224424747, -6147.288518820825, -21304.900503742756, -19067.06620062187, -24465.90655635674, -14866.458161647102, -9362.296386038826, -14010.900439131314, -8366.816743232815, -10644.571261950883, 0.008, -0.020999999999999998, 0.997, 192.0, 0.0, 0.0, 0.0, 0.0, 0.0, 0.0, 0.0, 0.0, 0.0, 1.6444978826323342E9, 0.0, 2022-02-10 23:58:02.632
154.0, -12046.942060821302, -14288.374994799495, -9533.846024733308, -16532.98187649034, -2903.737473933396, -3118.7612555934497, -4828.557947702164, -6131.64229770211, -21310.7790125345, -19056.560880727873, -24482.111571086833, -14878.237530975048, -9364.196284317528, -14019.528212491061, -8369.342490356266, -10642.447846227627, 0.007, -0.020499999999999997, 0.9944999999999999, 192.0, 0.0, 24.0, 127.5, 48.0, 15.5, 0.0, 0.0, 0.0, 0.0, 1.644497882632341E9, 0.0, 2022-02-10 23:58:02.632
156.0, -12031.675819358328, -14282.898817407944, -9525.486472307024, -16529.22678342185, -2887.1971830364687, -3104.366732164232, -4823.037066821703, -6120.68994291901, -21304.565227575928, -19054.81744466036, -24471.919175615214, -14866.569920369378, -9356.75315341391, -14009.1570030638, -8355.529112282886, -10630.377904221763, 0.007, -0.020499999999999997, 0.9944999999999999, 192.0, 0.0, 0.0, 0.0, 0.0, 0.0, 0.0, 0.0, 0.0, 0.0, 1.644497882632347E9, 0.0, 2022-02-10 23:58:02.632
158.0, -12033.2404414702, -14278.003785372233, -9531.275574120948, -16529.11502469957, -2896.0931773296807, -3105.1713949646232, -4838.348011773588, -6130.256489545881, -21297.97146296161, -19054.549223726895, -24473.66261168273, -14859.037382487939, -9352.41691498958, -13999.970436092668, -8353.98684191547, -10629.506186188006, 0.007, -0.020499999999999997, 0.9944999999999999, 192.0, 0.0, 0.0, 0.0, 0.0, 0.0, 0.0, 0.0, 0.0, 0.0, 1.6444978826323538E9, 0.0, 2022-02-10 23:58:02.632
160.0, -12022.2880866871, -14280.77540168469, -9513.88591693472, -16525.40463511999, -2879.977569577404, -3089.882801757193, -4825.004020333769, -6116.420759728046, -21292.942320459166, -19049.453025991086, -24469.92987035869, -14869.6097576153, -9344.593804430224, -13985.598264407905, -8350.567025013808, -10624.991133808033, 0.007, -0.020499999999999997, 0.9944999999999999, 192.0, 0.0, 0.0, 0.0, 0.0, 0.0, 0.0, 0.0, 0.0, 0.0, 1.6444978826323605E9, 0.0, 2022-02-10 23:58:02.632
162.0, -12023.673894843329, -14276.617977216003, -9517.126919880739, -16519.70494028389, -2891.2204970384237, -3096.7447873049723, -4847.601633978085, -6122.969820853451, -21290.41657333572, -19049.207156802076, -24452.786082361472, -14855.662269075188, -9339.028220060853, -13999.679863414749, -8346.253138333934, -10627.315715231385, 0.007, -0.020499999999999997, 0.9944999999999999, 192.0, 0.0, 0.0, 0.0, 0.0, 0.0, 0.0, 0.0, 0.0, 0.0, 1.6444978826323678E9, 0.0, 2022-02-10 23:58:02.632
164.0, -12033.106331003468, -14275.142762081954, -9525.799396729399, -16520.50960308428, -2895.3332180182006, -3100.2987146733662, -4846.618157222051, -6112.956239337474, -21292.383526847785, -19045.80969164487, -24464.40898947823, -14857.450408631614, -9338.782350871845, -13996.170639535267, -8355.596167516253, -10631.875471100268, 0.006500000000000001, -0.02225, 0.99325, 192.0, 0.0, 24.0, 127.5, 32.0, 15.5, 0.0, 0.0, 0.0, 0.0, 1.6444978826323743E9, 0.0, 2022-02-10 23:58:02.632
166.0, -12022.802176809571, -14269.554825968127, -9520.45732980458, -16526.254001409292, -2884.514973701832, -3102.9362205190923, -4829.854348880572, -6116.711332405965, -21294.998680949055, -19049.229508546534, -24460.56448943192, -14857.22689118706, -9346.158426542095, -13996.461212213186, -8350.723487224996, -10631.406084466707, 0.006500000000000001, -0.02225, 0.99325, 192.0, 0.0, 0.0, 0.0, 0.0, 0.0, 0.0, 0.0, 0.0, 0.0, 1.6444978826323829E9, 0.0, 2022-02-10 23:58:02.632
168.0, -12032.033447269612, -14288.374994799495, -9528.593364786311, -16533.786539290733, -2890.3264272602114, -3110.0664270003354, -4842.14780833099, -6133.765713425364, -21300.541913573972, -19046.927278867635, -24473.93083261619, -14873.096629750327, -9348.639470176635, -14002.227962282654, -8352.668088992606, -10640.302078759918, 0.006500000000000001, -0.02225, 0.99325, 192.0, 0.0, 0.0, 0.0, 0.0, 0.0, 0.0, 0.0, 0.0, 0.0, 1.6444978826323895E9, 0.0, 2022-02-10 23:58:02.632
170.0, -12018.734159318705, -14280.417773773406, -9522.558393783378, -16528.220954921362, -2877.5188776873206, -3101.013970495936, -4842.237215308812, -6135.799722170797, -21291.712974514125, -19042.658095676674, -24478.13296057379, -14870.481475649058, -9339.475254949959, -14012.1074333319, -8354.545635526852, -10640.413837482196, 0.006500000000000001, -0.02225, 0.99325, 192.0, 0.0, 0.0, 0.0, 0.0, 0.0, 0.0, 0.0, 0.0, 0.0, 1.644497882632396E9, 0.0, 2022-02-10 23:58:02.632
172.0, -12037.66608687235, -14288.73262271078, -9526.916983952164, -16534.390036391025, -2886.057244069248, -3108.8370810552933, -4828.602651191074, -6119.929983607529, -21305.146372931766, -19059.131331340235, -24461.3244487434, -14865.18411221315, -9348.728877154455, -14001.915037860279, -8354.277414593389, -10639.050381070421, 0.006500000000000001, -0.02225, 0.99325, 192.0, 0.0, 0.0, 0.0, 0.0, 0.0, 0.0, 0.0, 0.0, 0.0, 1.6444978826324024E9, 0.0, 2022-02-10 23:58:02.632
174.0, -12037.95665955027, -14284.329329053084, -9530.94029795412, -16532.6018968346, -2882.4586132119434, -3107.6747903436176, -4832.044819837191, -6115.504338205378, -21304.632282809293, -19061.277098807943, -24479.764637919026, -14883.04315603294, -9344.012659074386, -14006.38538675134, -8357.630176261686, -10639.765636892991, 0.00625, -0.024125, 0.991625, 192.0, 0.0, 24.0, 127.5, 24.0, 15.0, 120.0, 0.0, 0.0, 0.0, 1.644497882632409E9, 0.0, 2022-02-10 23:58:02.632
176.0, -12015.739025561694, -14273.578139970083, -9522.983076928029, -16529.763225288778, -2876.3789387201, -3098.7340925614944, -4846.528750244231, -6123.394503998102, -21298.64201529527, -19054.325706282343, -24462.41968422171, -14862.591309856334, -9341.822188117765, -14003.770232650071, -8354.232711104478, -10638.424532225674, 0.00625, -0.024125, 0.991625, 192.0, 0.0, 0.0, 0.0, 0.0, 0.0, 0.0, 0.0, 0.0, 0.0, 1.6444978826324155E9, 0.0, 2022-02-10 23:58:02.632
178.0, -12030.222955968733, -14272.68407019187, -9529.710952009076, -16528.355065388092, -2884.9396568464826, -3103.986752508492, -4825.294593011688, -6121.40519874158, -21296.339785616376, -19049.788302157915, -24467.381771490785, -14866.32405118037, -9340.659897406089, -13998.316407002976, -8352.601033759242, -10639.899747359723, 0.00625, -0.024125, 0.991625, 192.0, 0.0, 0.0, 0.0, 0.0, 0.0, 0.0, 0.0, 0.0, 0.0, 1.6444978826324227E9, 0.0, 2022-02-10 23:58:02.632
180.0, -12008.340598146988, -14259.653003174426, -9515.472890791047, -16523.705902541387, -2865.963025803927, -3091.4250721246094, -4821.38303773201, -6125.026181343339, -21287.30968085643, -19043.283944521423, -24468.633469180284, -14867.173417469672, -9340.436379961537, -13996.48356395764, -8353.025716903892, -10636.234061269053, 0.00625, -0.024125, 0.991625, 192.0, 0.0, 0.0, 0.0, 0.0, 0.0, 0.0, 0.0, 0.0, 0.0, 1.6444978826324291E9, 0.0, 2022-02-10 23:58:02.632
182.0, -12023.09274948749, -14263.072820076088, -9519.965591426562, -16530.18790843343, -2870.7462991173625, -3098.7117408170393, -4831.709543670362, -6110.7881201253085, -21285.990927933566, -19032.53275543842, -24447.891050325758, -14854.924661508163, -9332.61326940218, -13982.737241117626, -8347.482484278975, -10632.300154244918, 0.00625, -0.024125, 0.991625, 192.0, 0.0, 0.0, 0.0, 0.0, 0.0, 0.0, 0.0, 0.0, 0.0, 1.644497882632436E9, 0.0, 2022-02-10 23:58:02.632
184.0, -12016.208412195256, -14264.391572998951, -9522.558393783378, -16520.196678661905, -2873.9202468300164, -3103.986752508492, -4837.342183273099, -6123.103931320183, -21289.097820412855, -19028.934124581116, -24471.293326770465, -14853.717667307577, -9331.406275201593, -13993.890761600824, -8356.289071594367, -10633.596555423326, 0.006125, -0.0240625, 0.9898125, 192.0, 0.0, 24.0, 127.5, 32.0, 15.0, 112.0, 0.0, 0.0, 0.0, 1.6444978826324425E9, 0.0, 2022-02-10 23:58:02.632
186.0, -12006.463051612742, -14258.848340374034, -9515.785815213421, -16522.387149618524, -2870.701595628452, -3097.4153396386314, -4833.475331482331, -6122.902765620085, -21286.54972154495, -19037.517194451953, -24456.161195774224, -14850.119036450273, -9333.060304291284, -14005.312503017487, -8354.255062848933, -10633.350686234318, 0.006125, -0.0240625, 0.9898125, 192.0, 0.0, 0.0, 0.0, 0.0, 0.0, 0.0, 0.0, 0.0, 0.0, 1.6444978826324492E9, 0.0, 2022-02-10 23:58:02.632
188.0, -12018.33182791851, -14271.745296924746, -9525.68763800712, -16528.645638066013, -2887.9347906034936, -3111.0052002674583, -4848.67451771194, -6142.818169929764, -21291.735326258582, -19045.38500850022, -24460.095102798357, -14862.568958111879, -9335.518996181368, -13997.712909902682, -8356.087905894268, -10638.62569792577, 0.006125, -0.0240625, 0.9898125, 192.0, 0.0, 0.0, 0.0, 0.0, 0.0, 0.0, 0.0, 0.0, 0.0, 1.6444978826324556E9, 0.0, 2022-02-10 23:58:02.632
190.0, -11994.549571818063, -14257.171959539886, -9512.365998311758, -16526.32105664266, -2872.9367700739826, -3094.464909370531, -4844.070058354147, -6125.160291810071, -21284.225140121598, -19036.95840084057, -24464.297230755954, -14864.804132557409, -9330.46750193447, -13982.983110306635, -8358.993632673459, -10637.0610758139, 0.006125, -0.0240625, 0.9898125, 192.0, 0.0, 0.0, 0.0, 0.0, 0.0, 0.0, 0.0, 0.0, 0.0, 1.644497882632462E9, 0.0, 2022-02-10 23:58:02.632
192.0, -12007.915915002337, -14249.795883869636, -9515.36113206877, -16527.170422931962, -2877.2953602427674, -3106.9595345210478, -4839.5550059741745, -6137.520806493856, -21287.06381166742, -19031.951610082582, -24448.02516079249, -14855.550510352912, -9331.965068812975, -13988.43693595373, -8352.958661670526, -10635.161177535198, 0.006125, -0.0240625, 0.9898125, 192.0, 0.0, 0.0, 0.0, 0.0, 0.0, 0.0, 0.0, 0.0, 0.0, 1.6444978826324687E9, 0.0, 2022-02-10 23:58:02.632
194.0, -12012.699188315772, -14259.898872363434, -9520.12205363775, -16523.5494403302, -2888.7171016594293, -3106.624258354218, -4861.347956818099, -6141.208844328981, -21288.427268079195, -19034.253839761477, -24460.855062109837, -14855.774027797464, -9336.725990381956, -13991.67793889975, -8362.07817340829, -10637.642221169737, 0.0060625, -0.02603125, 0.98890625, 192.0, 0.0, 24.0, 127.5, 16.0, 15.0, 112.0, 0.0, 0.0, 0.0, 1.6444978826324751E9, 0.0, 2022-02-10 23:58:02.632
196.0, -11991.599141549963, -14247.58306116856, -9506.845117431298, -16523.862364752575, -2872.8473630961616, -3100.1869559510897, -4852.921349158448, -6127.26135578887, -21280.201826119643, -19040.132348553223, -24448.136919514767, -14855.17053069717, -9332.166234513074, -13989.219247009665, -8356.534940783375, -10638.335125247851, 0.0060625, -0.02603125, 0.98890625, 192.0, 0.0, 0.0, 0.0, 0.0, 0.0, 0.0, 0.0, 0.0, 0.0, 1.6444978826324816E9, 0.0, 2022-02-10 23:58:02.632
198.0, -12006.597162079473, -14250.354677481018, -9518.982114670529, -16529.763225288778, -2878.7482236323626, -3116.8390055702935, -4830.390790747499, -6136.8502541601965, -21275.463256295116, -19025.737825124004, -24449.23215499308, -14849.828463772354, -9325.952449554497, -13989.353357476397, -8350.678783736084, -10640.257375271009, 0.0060625, -0.02603125, 0.98890625, 192.0, 0.0, 0.0, 0.0, 0.0, 0.0, 0.0, 0.0, 0.0, 0.0, 1.6444978826324897E9, 0.0, 2022-02-10 23:58:02.632
200.0, -11993.923722973315, -14255.607337428015, -9510.868431433253, -16525.4493386089, -2866.2088949929353, -3113.463892157542, -4831.754247159272, -6124.400332498591, -21275.932642928678, -19038.321857252344, -24451.713198627618, -14857.65157433171, -9327.606478644191, -14001.847982626914, -8353.115123881713, -10643.431322983663, 0.0060625, -0.02603125, 0.98890625, 192.0, 0.0, 0.0, 0.0, 0.0, 0.0, 0.0, 0.0, 0.0, 0.0, 1.6444978826324964E9, 0.0, 2022-02-10 23:58:02.632
202.0, -11999.221086409223, -14265.77738115518, -9511.538983766912, -16533.160690445984, -2865.9406740594713, -3109.7982060668714, -4825.942793600892, -6125.227347043437, -21285.655651766738, -19047.217851545556, -24446.99698054755, -14859.730286566055, -9326.690057121523, -13999.255180270098, -8346.610766245218, -10640.816168882391, 0.0060625, -0.02603125, 0.98890625, 192.0, 0.0, 0.0, 0.0, 0.0, 0.0, 0.0, 0.0, 0.0, 0.0, 1.6444978826325028E9, 0.0, 2022-02-10 23:58:02.632
204.0, -12016.633095339907, -14270.20302655733, -9513.729454723532, -16529.427949121946, -2875.1942962639687, -3113.173319479623, -4841.76782867525, -6124.355629009679, -21290.483628569084, -19055.018610360457, -24463.380809233287, -14871.75552508301, -9330.400446701104, -13986.268816741565, -8350.70113548054, -10641.620831682781, 0.00503125, -0.027015625, 0.987453125, 192.0, 0.0, 16.0, 127.5, 16.0, 15.0, 104.0, 0.0, 0.0, 0.0, 1.6444978826325097E9, 0.0, 2022-02-10 23:58:02.632
206.0, -11997.723519530717, -14252.701610648824, -9503.604114485279, -16532.691303812422, -2866.1194880151143, -3092.0956244582685, -4844.785314176716, -6114.699675404987, -21284.62747152179, -19033.203307772077, -24451.333218971875, -14852.756542295998, -9326.84651933271, -13971.874293312347, -8343.123894110191, -10638.737456648047, 0.00503125, -0.027015625, 0.987453125, 192.0, 0.0, 0.0, 0.0, 0.0, 0.0, 0.0, 0.0, 0.0, 0.0, 1.644497882632516E9, 0.0, 2022-02-10 23:58:02.632
208.0, -12016.163708706345, -14261.172921797386, -9517.953934425585, -16538.145129459517, -2883.933828345994, -3112.0333805124023, -4837.923328628937, -6134.92800413704, -21287.376736089795, -19030.789319370906, -24453.344875972853, -14863.552434867912, -9325.661876876578, -13983.899531829302, -8344.062667377313, -10643.923061361678, 0.00503125, -0.027015625, 0.987453125, 192.0, 0.0, 0.0, 0.0, 0.0, 0.0, 0.0, 0.0, 0.0, 0.0, 1.6444978826325223E9, 0.0, 2022-02-10 23:58:02.632
210.0, -12000.539839332085, -14236.138968007443, -9508.074463376339, -16525.94107698692, -2870.90276132855, -3098.2870576723885, -4830.301383769677, -6120.0640940742605, -21280.44769530865, -19039.90883110867, -24458.396370219754, -14861.808998800398, -9326.868871077166, -13999.858677370392, -8350.231748846978, -10646.940546863145, 0.00503125, -0.027015625, 0.987453125, 192.0, 0.0, 0.0, 0.0, 0.0, 0.0, 0.0, 0.0, 0.0, 0.0, 1.6444978826325293E9, 0.0, 2022-02-10 23:58:02.632
212.0, -12018.220069196233, -14259.54124445215, -9518.155100125683, -16533.384207890536, -2876.4906974423766, -3104.925525775615, -4835.889319883504, -6131.843463402208, -21283.331070343385, -19025.067272790347, -24444.292419468453, -14843.860548002785, -9332.523862424358, -13985.575912663451, -8347.32602206779, -10641.844349127336, 0.00503125, -0.027015625, 0.987453125, 192.0, 0.0, 0.0, 0.0, 0.0, 0.0, 0.0, 0.0, 0.0, 0.0, 1.6444978826325357E9, 0.0, 2022-02-10 23:58:02.632
214.0, -12026.981953022714, -14272.147628324943, -9524.36888508426, -16535.999361991806, -2886.1690027915247, -3107.630086854707, -4847.556930489174, -6129.898861634596, -21299.424326351207, -19044.37917999973, -24476.41187625073, -14865.720554080077, -9337.32948748225, -13996.885895357836, -8355.640871005162, -10647.074657329877, 0.006515625000000001, -0.0275078125, 0.9897265625, 192.0, 0.0, 32.0, 127.5, 16.0, 15.5, 0.0, 0.0, 0.0, 0.0, 1.6444978826325421E9, 0.0, 2022-02-10 23:58:02.632
216.0, -12015.113176716946, -14267.9678521118, -9516.813995458364, -16536.69226606992, -2878.032967809793, -3099.7399210619833, -4836.917500128448, -6123.372152253646, -21296.630358294293, -19051.308220780877, -24463.85019586685, -14866.07818199136, -9336.189548515029, -13984.05599404049, -8350.589376758264, -10639.989154337545, 0.006515625000000001, -0.0275078125, 0.9897265625, 192.0, 0.0, 0.0, 0.0, 0.0, 0.0, 0.0, 0.0, 0.0, 0.0, 1.6444978826325488E9, 0.0, 2022-02-10 23:58:02.632
218.0, -12029.95473503527, -14289.604340744538, -9522.066655405362, -16535.9546585029, -2883.956180090449, -3115.944935792081, -4847.467523511354, -6139.934794895029, -21299.536085073483, -19054.281002793432, -24458.28461149748, -14862.881882534253, -9335.966031070475, -13989.576874920951, -8355.84203670526, -10643.118398561288, 0.006515625000000001, -0.0275078125, 0.9897265625, 192.0, 0.0, 0.0, 0.0, 0.0, 0.0, 0.0, 0.0, 0.0, 0.0, 1.6444978826325552E9, 0.0, 2022-02-10 23:58:02.632
220.0, -12007.960618491248, -14258.40130548493, -9511.896611678198, -16531.88664101203, -2867.28177872679, -3094.263743670433, -4827.2391947793, -6129.384771512124, -21283.912215699223, -19045.027380588937, -24459.044570808957, -14861.138446466739, -9324.924269309553, -13989.420412709764, -8354.188007615568, -10642.269032271986, 0.006515625000000001, -0.0275078125, 0.9897265625, 192.0, 0.0, 0.0, 0.0, 0.0, 0.0, 0.0, 0.0, 0.0, 0.0, 1.6444978826325617E9, 0.0, 2022-02-10 23:58:02.632
222.0, -12009.145260947378, -14250.086456547555, -9515.249373346493, -16545.40944640749, -2867.28177872679, -3094.3755023927097, -4833.207110548868, -6130.636469201621, -21285.63330002228, -19033.695046150096, -24447.064035780913, -14852.242452173527, -9323.270240219861, -13969.594415377906, -8347.79540870135, -10639.00567758151, 0.006515625000000001, -0.0275078125, 0.9897265625, 192.0, 0.0, 0.0, 0.0, 0.0, 0.0, 0.0, 0.0, 0.0, 0.0, 1.6444978826325684E9, 0.0, 2022-02-10 23:58:02.632
224.0, -12020.52229887513, -14253.886253104956, -9522.871318205753, -16535.37351314706, -2869.6734153835077, -3108.859432799749, -4836.693982683895, -6141.365306540169, -21283.420477321208, -19032.443348460598, -24463.514919700017, -14870.883807049253, -9313.301362192793, -13992.996691822613, -8350.991708158459, -10642.492549716539, 0.006, -0.024, 0.988, 192.0, 0.0, 24.0, 127.5, 32.0, 15.0, 112.0, 0.0, 0.0, 0.0, 1.6444978826325753E9, 0.0, 2022-02-10 23:58:02.632
226.0, -12015.202583694767, -14277.176770827386, -9516.501071035991, -16536.669914325466, -2868.891104327572, -3097.504746616453, -4822.925308099426, -6112.39744572609, -21292.763506503525, -19040.91465960916, -24459.31279174242, -14859.260899932493, -9321.303286707795, -14002.540886705028, -8347.929519168081, -10636.457578713605, 0.006, -0.024, 0.988, 192.0, 0.0, 0.0, 0.0, 0.0, 0.0, 0.0, 0.0, 0.0, 0.0, 1.6444978826325817E9, 0.0, 2022-02-10 23:58:02.632
228.0, -12031.00526702467, -14285.625730231492, -9523.050132161396, -16547.71167608639, -2878.4352992099884, -3113.486243901997, -4824.087598811102, -6133.0951610917045, -21293.724631515102, -19056.382066772232, -24458.50812894203, -14866.905196536209, -9322.912612308575, -14000.797450637514, -8348.488312779464, -10640.704410160115, 0.006, -0.024, 0.988, 192.0, 0.0, 0.0, 0.0, 0.0, 0.0, 0.0, 0.0, 0.0, 0.0, 1.644497882632588E9, 0.0, 2022-02-10 23:58:02.632
230.0, -12016.431929639808, -14269.130142823476, -9511.114300622261, -16544.671838840466, -2863.951368802949, -3097.0577117273465, -4826.47923546782, -6122.388675497613, -21288.203750634642, -19039.707665408572, -24463.917251100214, -14873.811885572897, -9311.982609269931, -13989.331005731941, -8350.209397102522, -10638.58099443686, 0.006, -0.024, 0.988, 192.0, 0.0, 0.0, 0.0, 0.0, 0.0, 0.0, 0.0, 0.0, 0.0, 1.644497882632596E9, 0.0, 2022-02-10 23:58:02.632
232.0, -12019.739987819194, -14265.933843366367, -9516.45636754708, -16545.632963852044, -2866.052432781748, -3098.5999820947627, -4829.586127947107, -6126.613155199666, -21289.50015181305, -19048.11192132377, -24450.372093960297, -14867.732211081055, -9306.931115023031, -13984.301863229497, -8340.039353375358, -10637.48575895855, 0.006, -0.024, 0.988, 192.0, 0.0, 0.0, 0.0, 0.0, 0.0, 0.0, 0.0, 0.0, 0.0, 1.6444978826326027E9, 0.0, 2022-02-10 23:58:02.632
234.0, -12027.09371174499, -14263.29633752064, -9523.921850195153, -16542.861347539587, -2872.4226799515104, -3098.8011477948608, -4830.48019772532, -6135.375039026147, -21298.127925172797, -19055.890328394216, -24474.71314367213, -14879.600987386822, -9313.346065681704, -13986.067651041467, -8350.164693613613, -10642.000811338523, 0.01, -0.026000000000000002, 0.986, 192.0, 0.0, 40.0, 127.5, 24.0, 15.0, 104.0, 0.0, 0.0, 0.0, 1.6444978826326091E9, 0.0, 2022-02-10 23:58:02.632
236.0, -12010.732234803705, -14257.44018047335, -9510.622562244245, -16536.580507347644, -2861.5150286573207, -3090.3521883907547, -4834.168235560445, -6137.364344282669, -21289.36604134632, -19050.637668447216, -24457.971687075104, -14853.896481263218, -9314.486004648925, -13983.228979495643, -8349.091809879757, -10641.263203771498, 0.01, -0.026000000000000002, 0.986, 192.0, 0.0, 0.0, 0.0, 0.0, 0.0, 0.0, 0.0, 0.0, 0.0, 1.6444978826326156E9, 0.0, 2022-02-10 23:58:02.632
238.0, -12027.138415233901, -14267.677279433881, -9522.670152505654, -16544.38126616255, -2877.3624154761333, -3103.5844211082963, -4833.2741657822335, -6143.041687374317, -21292.718803014614, -19052.135235325724, -24457.435245208177, -14862.27838543396, -9311.826147058744, -13986.559389419484, -8351.058763391824, -10644.124227061777, 0.01, -0.026000000000000002, 0.986, 192.0, 0.0, 0.0, 0.0, 0.0, 0.0, 0.0, 0.0, 0.0, 0.0, 1.6444978826326222E9, 0.0, 2022-02-10 23:58:02.632
240.0, -12013.19092669379, -14262.983413098267, -9514.020027401451, -16544.023638251263, -2864.0407757807707, -3092.430900625098, -4831.821302392638, -6141.253547817892, -21289.20957913513, -19052.91754638166, -24461.16798653221, -14873.811885572897, -9307.154632467584, -13993.376671478352, -8359.485371051476, -10648.371058508284, 0.01, -0.026000000000000002, 0.986, 192.0, 0.0, 0.0, 0.0, 0.0, 0.0, 0.0, 0.0, 0.0, 0.0, 1.644497882632629E9, 0.0, 2022-02-10 23:58:02.632
242.0, -12034.693304859795, -14294.387614057972, -9518.289210592415, -16549.410408664993, -2864.934845558983, -3099.6728658286174, -4824.109950555558, -6139.64422221711, -21296.45154433865, -19048.58130795733, -24458.619887664307, -14861.026687744463, -9311.334408680726, -13985.1512295188, -8353.070420392802, -10648.013430597, 0.01, -0.026000000000000002, 0.986, 192.0, 0.0, 0.0, 0.0, 0.0, 0.0, 0.0, 0.0, 0.0, 0.0, 1.6444978831127982E9, 0.0, 2022-02-10 23:58:03.112
244.0, -12050.317174234055, -14305.205858374342, -9519.384446070724, -16549.09748424262, -2863.8396100806726, -3104.724360075517, -4832.156578559468, -6159.358460826691, -21300.40780310724, -19068.653174478197, -24479.027030352, -14875.80119082942, -9308.719254579455, -13988.995729565113, -8353.226882603989, -10654.87541614478, 0.01, -0.022, 0.988, 192.0, 0.0, 40.0, 127.5, 40.0, 15.0, 112.0, 0.0, 0.0, 0.0, 1.6444978831128097E9, 0.0, 2022-02-10 23:58:03.112
246.0, -12055.502778947686, -14318.125166669508, -9513.081254134328, -16548.426931908958, -2859.3245577007006, -3090.7098163020396, -4860.163314361967, -6138.347821038702, -21300.765431018524, -19066.283889565933, -24468.99109709157, -14874.236568717548, -9303.17602195454, -13983.899531829302, -8351.461094792021, -10653.53431147746, 0.01, -0.022, 0.988, 192.0, 0.0, 0.0, 0.0, 0.0, 0.0, 0.0, 0.0, 0.0, 0.0, 1.6444978831128163E9, 0.0, 2022-02-10 23:58:03.112
248.0, -12114.399625587419, -14355.541986887692, -9534.248356133505, -16558.88754831404, -2874.0096538078374, -3105.2831536869, -4812.755264372261, -6141.767637940364, -21321.97723650661, -19084.522913041463, -24487.498341500563, -14891.670929392689, -9308.428681901536, -13996.170639535267, -8353.584510515275, -10654.58484346686, 0.01, -0.022, 0.988, 192.0, 0.0, 0.0, 0.0, 0.0, 0.0, 0.0, 0.0, 0.0, 0.0, 1.6444978831128356E9, 0.0, 2022-02-10 23:58:03.112
250.0, -12144.753294557726, -14391.46124022737, -9529.487434564524, -16556.071228512672, -2855.0330227652817, -3090.2851331573884, -4793.309246696144, -6132.536367480322, -21347.011190296555, -19091.07197416687, -24512.12996389031, -14911.206354046626, -9314.776577326844, -13996.058880812989, -8353.56215877082, -10651.58970970985, 0.01, -0.022, 0.988, 192.0, 0.0, 0.0, 0.0, 0.0, 0.0, 0.0, 0.0, 0.0, 0.0, 1.644497883112842E9, 0.0, 2022-02-10 23:58:03.112
252.0, -12182.103059542545, -14435.516528548782, -9527.83340547483, -16561.122722759574, -2855.9717960324047, -3087.2676476559222, -4808.195508503379, -6138.9066146500845, -21355.41544621175, -19109.758032531507, -24510.677100500718, -14917.375435516291, -9306.975818511943, -13991.409717966286, -8353.472751792999, -10649.063962586399, 0.01, -0.022, 0.988, 192.0, 0.0, 0.0, 0.0, 0.0, 0.0, 0.0, 0.0, 0.0, 0.0, 1.6444978831128488E9, 0.0, 2022-02-10 23:58:03.112
254.0, -12198.620998695016, -14449.911051977999, -9531.677905521145, -16558.664030869488, -2858.6763571114966, -3087.7370342894837, -4807.010866047248, -6140.694754206509, -21357.762379379557, -19115.636541323252, -24533.677045545228, -14931.680551967687, -9297.722196307444, -13985.1512295188, -8354.165655871113, -10650.025087597978, 0.008, -0.024, 0.988, 192.0, 0.0, 32.0, 127.5, 32.0, 15.0, 112.0, 0.0, 0.0, 0.0, 1.6444978831128557E9, 0.0, 2022-02-10 23:58:03.112
0.0, -12195.111774815534, -14431.962601180388, -9524.055960661884, -16564.743705361332, -2845.08649648267, -3074.3259876162992, -4792.951618784859, -6120.466425474457, -21364.311440504964, -19096.77166900297, -24536.649827557783, -14935.43564503618, -9297.31986490725, -13973.036584024023, -8344.241481332956, -10642.559604949905, 0.008, -0.024, 0.988, 192.0, 0.0, 0.0, 0.0, 0.0, 0.0, 0.0, 0.0, 0.0, 0.0, 1.644497883112862E9, 0.0, 2022-02-10 23:58:03.112
2.0, -12219.408121038452, -14455.186063669451, -9535.276536378447, -16549.857443554098, -2860.9562350459382, -3085.412452866132, -4815.348066729077, -6129.362419767669, -21371.240481286106, -19098.470401581573, -24532.67121704474, -14932.865194423819, -9302.37135915415, -13992.504953444595, -8343.79444644385, -10640.279727015464, 0.008, -0.024, 0.988, 192.0, 0.0, 0.0, 0.0, 0.0, 0.0, 0.0, 0.0, 0.0, 0.0, 1.6444978831128685E9, 0.0, 2022-02-10 23:58:03.112
4.0, -12208.165193577433, -14457.063610203697, -9522.893669950208, -16541.408484149993, -2845.891159283061, -3076.024720194903, -4796.505546153253, -6123.3498005091915, -21359.572870680437, -19103.141916172735, -24519.75190874957, -14908.345330756347, -9296.090518962208, -13987.095831286411, -8346.387248800665, -10635.429398468661, 0.008, -0.024, 0.988, 192.0, 0.0, 0.0, 0.0, 0.0, 0.0, 0.0, 0.0, 0.0, 0.0, 1.6444978831128752E9, 0.0, 2022-02-10 23:58:03.112
6.0, -12185.142896788466, -14447.228842643362, -9509.907306421675, -16542.861347539587, -2839.6550225800306, -3075.957664961537, -4795.924400797415, -6118.968858595951, -21364.46790271615, -19120.4645181256, -24510.05125165597, -14905.037272576961, -9289.295588647794, -13984.726546374148, -8334.69728645054, -10631.316677488885, 0.008, -0.024, 0.988, 192.0, 0.0, 0.0, 0.0, 0.0, 0.0, 0.0, 0.0, 0.0, 0.0, 1.6444978831128888E9, 0.0, 2022-02-10 23:58:03.112
8.0, -12170.860132081525, -14414.528240505248, -9513.416530301158, -16535.84289978062, -2849.3333279291783, -3077.298769628855, -4811.592973660586, -6121.4722539749455, -21339.858632070856, -19104.147744673224, -24507.95018767717, -14902.086842308861, -9278.812620498255, -13973.52832240204, -8336.239556817956, -10629.237965254542, 0.012, -0.022, 0.988, 192.0, 0.0, 48.0, 127.5, 40.0, 15.0, 112.0, 0.0, 0.0, 0.0, 1.6444978831128953E9, 0.0, 2022-02-10 23:58:03.112
10.0, -12118.713512267293, -14364.147408502986, -9508.409739543169, -16539.687399826933, -2836.123446956092, -3062.926597944093, -4785.642598347974, -6118.141844051104, -21335.70120760217, -19087.138067142736, -24498.3836410503, -14892.207371259616, -9282.098326933185, -13959.647889095295, -8331.590393971252, -10628.0086193095, 0.012, -0.022, 0.988, 192.0, 0.0, 0.0, 0.0, 0.0, 0.0, 0.0, 0.0, 0.0, 0.0, 1.6444978831129017E9, 0.0, 2022-02-10 23:58:03.112
12.0, -12142.942803256847, -14372.775181862735, -9515.36113206877, -16536.73696955883, -2852.6190343641088, -3080.629179552696, -4819.125511542024, -6141.45471351799, -21329.0850912434, -19078.95732867209, -24494.494437515074, -14898.063528306906, -9282.344196122194, -13979.33977596042, -8335.099617850736, -10631.160215277698, 0.012, -0.022, 0.988, 192.0, 0.0, 0.0, 0.0, 0.0, 0.0, 0.0, 0.0, 0.0, 0.0, 1.6444978831129084E9, 0.0, 2022-02-10 23:58:03.112
14.0, -12121.999218702224, -14364.862664325556, -9506.59924824229, -16531.953696245397, -2841.197292947447, -3068.3804235911875, -4815.504528940264, -6124.9367743655175, -21318.579771349403, -19069.703706467593, -24489.80057117946, -14885.814772345397, -9270.676585516523, -13967.381592676831, -8342.766266198905, -10632.478968200561, 0.012, -0.022, 0.988, 192.0, 0.0, 0.0, 0.0, 0.0, 0.0, 0.0, 0.0, 0.0, 0.0, 1.644497883112915E9, 0.0, 2022-02-10 23:58:03.112
16.0, -12093.880724177448, -14342.086236725598, -9504.341722052302, -16538.36864690407, -2833.6871068104633, -3075.756499261439, -4785.173211714413, -6135.129169837138, -21310.667253812226, -19063.802845931394, -24474.824902394404, -14876.404687929713, -9268.150838393074, -13969.125028744344, -8333.736161438961, -10632.613078667293, 0.012, -0.022, 0.988, 192.0, 0.0, 0.0, 0.0, 0.0, 0.0, 0.0, 0.0, 0.0, 0.0, 1.6444978831129217E9, 0.0, 2022-02-10 23:58:03.112
18.0, -12104.654265004905, -14343.159120459453, -9512.164832611661, -16532.579545090146, -2838.604490590631, -3072.6496067821513, -4788.078938493602, -6121.248736530392, -21309.281445655997, -19079.896101939215, -24488.638280467785, -14889.145182269238, -9267.88261745961, -13960.318441428954, -8338.65354521913, -10630.19909026612, 0.008, -0.026000000000000002, 0.988, 192.0, 0.0, 32.0, 127.5, 24.0, 15.0, 112.0, 0.0, 0.0, 0.0, 1.6444978831129282E9, 0.0, 2022-02-10 23:58:03.112
20.0, -12082.861314160982, -14320.159175414941, -9500.810146428365, -16528.288010154727, -2820.8125020042066, -3064.1335921446794, -4779.920551767415, -6118.968858595951, -21305.079317698397, -19068.831988433838, -24474.601384949852, -14871.397897171724, -9269.06725991574, -13963.112409485866, -8327.611783458207, -10624.477043685562, 0.008, -0.026000000000000002, 0.988, 192.0, 0.0, 0.0, 0.0, 0.0, 0.0, 0.0, 0.0, 0.0, 0.0, 1.6444978831129348E9, 0.0, 2022-02-10 23:58:03.112
22.0, -12094.283055577644, -14318.16987015842, -9512.433053545124, -16537.452225381403, -2833.8212172771955, -3079.4221853521094, -4790.157650727946, -6124.199166798493, -21307.89563749977, -19064.361639542778, -24469.50518721404, -14867.128713980761, -9268.620225026634, -13968.074496754945, -8327.187100313557, -10628.410950709695, 0.008, -0.026000000000000002, 0.988, 192.0, 0.0, 0.0, 0.0, 0.0, 0.0, 0.0, 0.0, 0.0, 0.0, 1.6444978831129413E9, 0.0, 2022-02-10 23:58:03.112
24.0, -12059.637851671918, -14301.808393217134, -9498.574971982835, -16533.115986957073, -2823.1594351720137, -3074.102470171746, -4795.969104286326, -6134.346858781202, -21303.581750819892, -19058.10315109529, -24479.65287919675, -14884.5630746559, -9269.246073871383, -13970.443781667207, -8332.439760260553, -10628.701523387614, 0.008, -0.026000000000000002, 0.988, 192.0, 0.0, 0.0, 0.0, 0.0, 0.0, 0.0, 0.0, 0.0, 0.0, 1.6444978831129477E9, 0.0, 2022-02-10 23:58:03.112
26.0, -12054.38519172492, -14295.415794302917, -9497.904419649174, -16537.765149803778, -2823.94174622795, -3069.5427143028637, -4788.213048960334, -6130.792931412809, -21294.529294315493, -19049.2965637799, -24467.404123235243, -14866.882844791753, -9266.005070925365, -13962.330098429931, -8324.460187490009, -10632.702485645115, 0.008, -0.026000000000000002, 0.988, 192.0, 0.0, 0.0, 0.0, 0.0, 0.0, 0.0, 0.0, 0.0, 0.0, 1.6444978831129544E9, 0.0, 2022-02-10 23:58:03.112
28.0, -12072.311290778076, -14297.516858281715, -9501.63716097321, -16539.150957960006, -2826.89217649605, -3071.46496432602, -4787.497793137764, -6115.079655060727, -21297.099744927855, -19060.181863329635, -24482.33508853139, -14883.333728710859, -9266.854437214666, -13955.579871604428, -8326.136568324157, -10629.752055377014, 0.004, -0.022, 0.992, 192.0, 0.0, 16.0, 127.5, 40.0, 15.5, 0.0, 0.0, 0.0, 0.0, 1.644497883112961E9, 0.0, 2022-02-10 23:58:03.112
30.0, -12053.357011479977, -14300.221419360807, -9494.149326580684, -16537.31811491467, -2816.453911835422, -3061.9654729325143, -4790.80585131715, -6114.87848936063, -21294.35048035985, -19050.078874835835, -24464.83367262288, -14865.072353490872, -9259.232492355406, -13952.651793080782, -8323.499062478431, -10627.427473953661, 0.004, -0.022, 0.992, 192.0, 0.0, 0.0, 0.0, 0.0, 0.0, 0.0, 0.0, 0.0, 0.0, 1.6444978831129675E9, 0.0, 2022-02-10 23:58:03.112
32.0, -12058.117933048956, -14291.951273912344, -9504.900515663687, -16535.597030591613, -2829.4179236195, -3078.282246384889, -4805.3344852130995, -6133.430437258535, -21291.176532647198, -19047.083741078823, -24459.536309186973, -14867.173417469672, -9260.193617366984, -13971.539017145518, -8331.03160035987, -10634.043590312433, 0.004, -0.022, 0.992, 192.0, 0.0, 0.0, 0.0, 0.0, 0.0, 0.0, 0.0, 0.0, 0.0, 1.6444978831129742E9, 0.0, 2022-02-10 23:58:03.112
34.0, -12045.131569520423, -14285.804544187135, -9500.586628983812, -16531.573716589657, -2826.4004381180334, -3069.2297898804895, -4808.6201916480295, -6135.017411114862, -21288.091991912366, -19048.938935868613, -24469.639297680773, -14864.804132557409, -9255.8350271982, -13971.628424123339, -8340.151112097636, -10638.9609740926, 0.004, -0.022, 0.992, 192.0, 0.0, 0.0, 0.0, 0.0, 0.0, 0.0, 0.0, 0.0, 0.0, 1.644497883112981E9, 0.0, 2022-02-10 23:58:03.112
36.0, -12032.346371691987, -14276.662680704914, -9505.280495319426, -16535.5523271027, -2834.2235486773907, -3077.6116940512293, -4819.684305153407, -6141.11943735116, -21289.45544832414, -19036.19844152909, -24453.79191086196, -14848.88969050523, -9263.769896479833, -13962.687726341215, -8337.848882418739, -10635.63056416876, 0.005, -0.023, 0.992, 192.0, 0.0, 24.0, 127.5, 32.0, 15.5, 0.0, 0.0, 0.0, 0.0, 1.6444978831129875E9, 0.0, 2022-02-10 23:58:03.112
38.0, -12029.194775723789, -14279.88133190648, -9512.634219245223, -16541.922574272463, -2839.632670835575, -3080.0927376857685, -4806.921459069426, -6144.673364719554, -21288.337861101372, -19045.519118966953, -24469.773408147506, -14871.777876827466, -9263.747544735377, -13969.214435722166, -8346.499007522942, -10647.879320130269, 0.005, -0.023, 0.992, 192.0, 0.0, 0.0, 0.0, 0.0, 0.0, 0.0, 0.0, 0.0, 0.0, 1.6444978831129963E9, 0.0, 2022-02-10 23:58:03.112
40.0, -12024.880889043914, -14270.225378301786, -9501.88303016222, -16542.861347539587, -2819.2478798923353, -3070.6826532700843, -4785.329673925599, -6136.626736715643, -21287.577901789893, -19043.57451719934, -24460.542137687462, -14866.636975602743, -9264.038117413296, -13965.168769975755, -8342.587452243264, -10645.9123666182, 0.005, -0.023, 0.992, 192.0, 0.0, 0.0, 0.0, 0.0, 0.0, 0.0, 0.0, 0.0, 0.0, 1.644497883113003E9, 0.0, 2022-02-10 23:58:03.113
42.0, -12034.782711837615, -14280.976567384789, -9510.756672710977, -16544.73889407383, -2829.9096619975167, -3084.9207144881148, -4797.354912442554, -6140.4935885064115, -21288.717840757115, -19057.991392373013, -24455.334181229377, -14861.56312961139, -9255.432695798005, -13964.945252531203, -8336.306612051321, -10647.275823029975, 0.005, -0.023, 0.992, 192.0, 0.0, 0.0, 0.0, 0.0, 0.0, 0.0, 0.0, 0.0, 0.0, 1.6444978831130097E9, 0.0, 2022-02-10 23:58:03.113
44.0, -12012.922705760326, -14258.937747351856, -9504.699349963588, -16534.993533491317, -2819.113769425603, -3074.9965399499583, -4803.032255534203, -6145.679193220043, -21282.749924987547, -19039.707665408572, -24467.51588195752, -14865.027650001963, -9254.337460319693, -13960.743124573604, -8344.420295288599, -10651.813227154402, 0.005, -0.023, 0.992, 192.0, 0.0, 0.0, 0.0, 0.0, 0.0, 0.0, 0.0, 0.0, 0.0, 1.6444978831130161E9, 0.0, 2022-02-10 23:58:03.113
46.0, -12019.896450030381, -14257.015497328699, -9500.988960384007, -16537.27341142576, -2822.310068882712, -3081.0091592084364, -4806.317961969133, -6148.629623488143, -21278.01135516302, -19027.90594433617, -24445.834689835872, -14844.50874859199, -9253.01870739683, -13947.779112789525, -8340.978126642482, -10648.751038164024, 0.0075, -0.0235, 0.99, 192.0, 0.0, 40.0, 127.5, 32.0, 15.0, 112.0, 0.0, 0.0, 0.0, 1.644497883113023E9, 0.0, 2022-02-10 23:58:03.113
48.0, -12027.831319312016, -14262.379915997974, -9508.11916686525, -16536.446396880914, -2833.0165544768042, -3084.473679599009, -4803.613400890041, -6134.704486692487, -21282.146427887255, -19036.667828162652, -24462.1738150327, -14860.244376688526, -9255.902082431565, -13974.221226480155, -8344.442647033055, -10648.616927697292, 0.0075, -0.0235, 0.99, 192.0, 0.0, 0.0, 0.0, 0.0, 0.0, 0.0, 0.0, 0.0, 0.0, 1.6444978831130302E9, 0.0, 2022-02-10 23:58:03.113
50.0, -12001.500964343664, -14238.552956408616, -9495.602189970277, -16535.529975358248, -2808.6531530205198, -3069.162734647123, -4789.911781538937, -6141.052382117794, -21276.424381306697, -19035.930220595626, -24454.238945751065, -14857.98685049854, -9254.985660908898, -13966.800447320993, -8345.850806933739, -10647.141712563243, 0.0075, -0.0235, 0.99, 192.0, 0.0, 0.0, 0.0, 0.0, 0.0, 0.0, 0.0, 0.0, 0.0, 1.6444978831130517E9, 0.0, 2022-02-10 23:58:03.113
52.0, -12015.113176716946, -14257.976622340277, -9506.35337905328, -16535.284106169238, -2812.184728644458, -3075.2200573945115, -4781.060490734636, -6139.040725116816, -21271.529349270982, -19030.409339715166, -24458.50812894203, -14856.60104234231, -9251.074105629219, -13949.76841804605, -8339.771132441894, -10646.001773596023, 0.0075, -0.0235, 0.99, 192.0, 0.0, 0.0, 0.0, 0.0, 0.0, 0.0, 0.0, 0.0, 0.0, 1.6444978831130583E9, 0.0, 2022-02-10 23:58:03.113
54.0, -12010.531069103608, -14258.758933396213, -9498.731434194022, -16530.456129366892, -2799.3995308160224, -3067.218132879512, -4785.061452992136, -6126.568451710756, -21272.646936493747, -19030.521098437443, -24455.490643440564, -14843.949954980608, -9242.379277036105, -13962.777133319038, -8343.123894110191, -10641.464369471594, 0.0075, -0.0235, 0.99, 192.0, 0.0, 0.0, 0.0, 0.0, 0.0, 0.0, 0.0, 0.0, 0.0, 1.6444978831130652E9, 0.0, 2022-02-10 23:58:03.113
56.0, -12012.967409249237, -14252.455741459817, -9496.608018470766, -16538.972144004365, -2799.93597268295, -3069.6321212806847, -4783.4968308802645, -6129.496530234401, -21277.899596440744, -19040.512328208963, -24443.55481190143, -14840.440731101124, -9243.407457281048, -13949.455493623675, -8338.050048118836, -10636.792854880436, 0.00675, -0.02375, 0.988, 192.0, 0.0, 24.0, 127.5, 32.0, 15.0, 104.0, 0.0, 0.0, 0.0, 1.644497883113072E9, 0.0, 2022-02-10 23:58:03.113
58.0, -12007.781804535605, -14248.946517580334, -9503.447652274092, -16540.46971088287, -2811.804748988718, -3068.0004439354475, -4798.494851409776, -6136.202053570993, -21281.16295113122, -19039.931182853124, -24461.771483632503, -14859.439713888136, -9244.63680322609, -13956.250423938087, -8345.694344722551, -10640.883224115756, 0.00675, -0.02375, 0.988, 192.0, 0.0, 0.0, 0.0, 0.0, 0.0, 0.0, 0.0, 0.0, 0.0, 1.644497883113079E9, 0.0, 2022-02-10 23:58:03.113
60.0, -11994.527220073607, -14239.379970953461, -9499.871373161242, -16540.447359138412, -2807.692028008941, -3059.8644089537156, -4795.231496719301, -6132.893995391607, -21275.887939439766, -19027.257743746966, -24456.675285896694, -14853.360039396292, -9241.462855513437, -13957.368011160854, -8346.163731356113, -10637.284593258453, 0.00675, -0.02375, 0.988, 192.0, 0.0, 0.0, 0.0, 0.0, 0.0, 0.0, 0.0, 0.0, 0.0, 1.6444978831130855E9, 0.0, 2022-02-10 23:58:03.113
62.0, -12006.194830679278, -14261.754067153224, -9507.78389069842, -16548.985725520342, -2819.739618270352, -3077.1199556732126, -4809.156633514957, -6153.8152282017745, -21278.525445285493, -19036.53371769592, -24459.178681275687, -14857.763333053987, -9247.251957327362, -13949.85782502387, -8345.783751700372, -10643.721895661582, 0.00675, -0.02375, 0.988, 192.0, 0.0, 0.0, 0.0, 0.0, 0.0, 0.0, 0.0, 0.0, 0.0, 1.6444978831131048E9, 0.0, 2022-02-10 23:58:03.113
64.0, -12012.386263893399, -14242.330401221563, -9507.73918720951, -16541.922574272463, -2820.2760601372793, -3075.108298672235, -4797.153746742457, -6141.633527473632, -21281.386468575773, -19041.652267176185, -24469.773408147506, -14862.546606367423, -9246.648460227068, -13967.470999654652, -8353.18217911508, -10648.527520719472, 0.00675, -0.02375, 0.988, 192.0, 0.0, 0.0, 0.0, 0.0, 0.0, 0.0, 0.0, 0.0, 0.0, 1.6444978831131113E9, 0.0, 2022-02-10 23:58:03.113
66.0, -12004.741967289683, -14238.284735475152, -9504.45348077458, -16541.654353339, -2819.6278595480753, -3075.5776853057964, -4789.352987927555, -6148.361402554679, -21282.615814520814, -19034.96909558405, -24455.758864374027, -14843.994658469519, -9248.391896294583, -13967.694517099204, -8351.215225603011, -10645.711200918104, 0.0063750000000000005, -0.022875, 0.992, 192.0, 0.0, 24.0, 127.5, 40.0, 15.5, 16.0, 0.0, 0.0, 0.0, 1.644497883113118E9, 0.0, 2022-02-10 23:58:03.113
68.0, -12017.102481973468, -14249.795883869636, -9508.879126176731, -16544.56008011819, -2821.2148334044023, -3074.7953742498607, -4789.4870983942865, -6143.891053663619, -21280.872378453303, -19035.1926130286, -24464.744265645062, -14857.830388287353, -9246.089666615686, -13964.677031597737, -8353.696269237551, -10646.784084651958, 0.0063750000000000005, -0.022875, 0.992, 192.0, 0.0, 0.0, 0.0, 0.0, 0.0, 0.0, 0.0, 0.0, 0.0, 1.6444978831131246E9, 0.0, 2022-02-10 23:58:03.113
70.0, -11998.885810242393, -14240.251688987219, -9502.195954584593, -16548.47163539787, -2804.182804129458, -3059.9314641870815, -4789.084766994091, -6142.035858873828, -21279.50892204153, -19015.1878017411, -24456.809396363427, -14842.944126480119, -9242.178111336007, -13968.655642110783, -8347.951870912537, -10647.34287826334, 0.0063750000000000005, -0.022875, 0.992, 192.0, 0.0, 0.0, 0.0, 0.0, 0.0, 0.0, 0.0, 0.0, 0.0, 1.644497883113133E9, 0.0, 2022-02-10 23:58:03.113
72.0, -12003.713787044739, -14243.738561122247, -9512.813033200864, -16551.042086010228, -2809.3684088430896, -3069.073327669302, -4783.720348324818, -6141.991155384917, -21279.419515063706, -19034.745578139493, -24451.780253860983, -14854.768199296976, -9236.50076824436, -13963.470037397152, -8343.168597599102, -10646.985250352056, 0.0063750000000000005, -0.022875, 0.992, 192.0, 0.0, 0.0, 0.0, 0.0, 0.0, 0.0, 0.0, 0.0, 0.0, 1.6444978831131396E9, 0.0, 2022-02-10 23:58:03.113
74.0, -11991.129754916401, -14238.687066875347, -9502.732396451522, -16540.737931816333, -2799.3771790715673, -3056.9363304300705, -4783.56388611363, -6126.255527288381, -21271.43994229316, -19043.52981371043, -24460.98917257657, -14854.522330107968, -9236.143140333073, -13948.248499423087, -8343.548577254842, -10640.793817137936, 0.0063750000000000005, -0.022875, 0.992, 192.0, 0.0, 0.0, 0.0, 0.0, 0.0, 0.0, 0.0, 0.0, 0.0, 1.644497883113146E9, 0.0, 2022-02-10 23:58:03.113
76.0, -11988.022862437114, -14227.175918480865, -9498.88789640521, -16542.95075451741, -2793.342208068634, -3056.444592052054, -4779.160592455935, -6132.9163471360625, -21269.69650622565, -19032.800976371884, -24450.59561140485, -14837.065617688373, -9227.53771871778, -13947.28737441151, -8337.066571362802, -10636.591689180337, 0.0051875, -0.021437499999999998, 0.992, 192.0, 0.0, 16.0, 127.5, 48.0, 15.5, 0.0, 0.0, 0.0, 0.0, 1.6444978831131525E9, 0.0, 2022-02-10 23:58:03.113
78.0, -11990.816830494026, -14231.087473760543, -9506.576896497834, -16545.632963852044, -2801.210022116902, -3073.5436765603636, -4769.035252217681, -6142.080562362738, -21269.137712614265, -19034.030322316925, -24455.825919607392, -14861.786647055942, -9223.402645993549, -13949.030810479024, -8340.486388264464, -10642.313735760896, 0.0051875, -0.021437499999999998, 0.992, 192.0, 0.0, 0.0, 0.0, 0.0, 0.0, 0.0, 0.0, 0.0, 0.0, 1.6444978831131592E9, 0.0, 2022-02-10 23:58:03.113
80.0, -11973.673042496806, -14221.945610278322, -9494.708120192066, -16537.027542236752, -2785.183821342447, -3053.136533872668, -4757.524103823198, -6111.481024203423, -21265.53908175696, -19020.99925529948, -24451.847309094348, -14846.498053848512, -9220.474567469904, -13954.015249492557, -8336.306612051321, -10637.597517680826, 0.0051875, -0.021437499999999998, 0.992, 192.0, 0.0, 0.0, 0.0, 0.0, 0.0, 0.0, 0.0, 0.0, 0.0, 1.6444978831131659E9, 0.0, 2022-02-10 23:58:03.113
82.0, -11985.810039736038, -14224.024322512667, -9500.45251851708, -16537.27341142576, -2789.453004533411, -3062.077231654791, -4767.381223127988, -6130.100027334694, -21263.326259055884, -19021.178069255122, -24448.069864281402, -14837.289135132925, -9218.261744768828, -13950.886005268814, -8333.512643994409, -10631.987229822544, 0.0051875, -0.021437499999999998, 0.992, 192.0, 0.0, 0.0, 0.0, 0.0, 0.0, 0.0, 0.0, 0.0, 0.0, 1.6444978831131723E9, 0.0, 2022-02-10 23:58:03.113
84.0, -11974.231836108189, -14223.24201145673, -9502.218306329049, -16536.647562581013, -2785.876725420562, -3058.143324630657, -4774.176153442401, -6125.629678443633, -21263.326259055884, -19013.556124395862, -24458.08344579738, -14852.309507406891, -9212.986733077376, -13944.940441243702, -8338.161806841112, -10634.356514734807, 0.0051875, -0.021437499999999998, 0.992, 192.0, 0.0, 0.0, 0.0, 0.0, 0.0, 0.0, 0.0, 0.0, 0.0, 1.644497883113179E9, 0.0, 2022-02-10 23:58:03.113
86.0, -11986.592350791974, -14224.516060890683, -9496.876239404231, -16537.631039337044, -2785.809670187196, -3061.004347920936, -4775.13727845398, -6140.046553617305, -21269.741209714557, -19018.227638987024, -24445.633524135774, -14846.453350359601, -9221.569802948214, -13954.082304725922, -8336.284260306868, -10635.988192080045, 0.004593750000000001, -0.02071875, 0.993, 192.0, 0.0, 16.0, 127.5, 48.0, 15.5, 8.0, 0.0, 0.0, 0.0, 1.6444978831131997E9, 0.0, 2022-02-10 23:58:03.113
88.0, -11999.3328451315, -14242.352752966019, -9500.094890605795, -16535.731141058342, -2793.901001680017, -3065.005310178436, -4783.340368669077, -6132.201091313493, -21270.031782392478, -19032.71156939406, -24455.80356786294, -14850.610774828288, -9214.01491332232, -13957.077438482935, -8338.072399863291, -10643.96776485059, 0.004593750000000001, -0.02071875, 0.993, 192.0, 0.0, 0.0, 0.0, 0.0, 0.0, 0.0, 0.0, 0.0, 0.0, 1.6444978831132066E9, 0.0, 2022-02-10 23:58:03.113
90.0, -11976.534065787086, -14232.875613316968, -9492.852925402276, -16535.105292213597, -2787.0166643877824, -3049.7167169710065, -4784.145031469468, -6121.4722539749455, -21266.991945146554, -19023.212078000557, -24449.63448639327, -14844.50874859199, -9213.34436098866, -13947.197967433689, -8337.915937652104, -10638.156311292209, 0.004593750000000001, -0.02071875, 0.993, 192.0, 0.0, 0.0, 0.0, 0.0, 0.0, 0.0, 0.0, 0.0, 0.0, 1.6444978831132135E9, 0.0, 2022-02-10 23:58:03.113
92.0, -11993.499039828665, -14239.29056397564, -9506.97922789803, -16549.209242964895, -2799.7124552383966, -3067.262836368422, -4770.532819096186, -6141.030030373339, -21274.21155860562, -19027.682426891617, -24448.472195681596, -14847.503882349001, -9217.121805801607, -13938.592545818396, -8335.099617850736, -10640.592651437837, 0.004593750000000001, -0.02071875, 0.993, 192.0, 0.0, 0.0, 0.0, 0.0, 0.0, 0.0, 0.0, 0.0, 0.0, 1.6444978831132205E9, 0.0, 2022-02-10 23:58:03.113
94.0, -11980.602083277952, -14224.449005657318, -9506.465137775558, -16541.02850449425, -2797.0749493926705, -3061.697251999051, -4786.80488905965, -6141.789989684819, -21272.669288238205, -19004.458964402555, -24458.55283243094, -14860.22202494407, -9216.674770912501, -13966.778095576537, -8339.79348418635, -10642.24668052753, 0.004593750000000001, -0.02071875, 0.993, 192.0, 0.0, 0.0, 0.0, 0.0, 0.0, 0.0, 0.0, 0.0, 0.0, 1.6444978831132271E9, 0.0, 2022-02-10 23:58:03.113
96.0, -11979.015109421625, -14212.289656673629, -9500.743091195, -16542.771940561764, -2796.605562759109, -3066.212304379023, -4772.164496441424, -6137.990193127417, -21267.01429689101, -19030.342284481798, -24441.61021013382, -14844.84402475882, -9220.474567469904, -13948.360258145363, -8340.50874000892, -10642.112570060799, 0.004593750000000001, -0.02071875, 0.993, 192.0, 0.0, 0.0, 127.5, 24.0, 15.5, 8.0, 0.0, 0.0, 0.0, 1.644497883113234E9, 0.0, 2022-02-10 23:58:03.113
98.0, -11983.50781005714, -14232.473281916773, -9506.331027308826, -16541.69905682791, -2798.1478331265253, -3066.815801479316, -4771.918627252416, -6128.513053478367, -21267.461331780116, -19039.573554941842, -24462.151463288246, -14855.148178952717, -9216.518308701314, -13950.304859912976, -8335.814873673306, -10644.124227061777, 0.004593750000000001, -0.02071875, 0.993, 192.0, 0.0, 0.0, 0.0, 0.0, 0.0, 0.0, 0.0, 0.0, 0.0, 1.644497883113253E9, 0.0, 2022-02-10 23:58:03.113
100.0, -11978.813943721527, -14242.330401221563, -9493.232905058016, -16541.117911472073, -2783.574495741665, -3058.5233042863974, -4758.976967212792, -6133.497492491901, -21272.15519811573, -19033.270363005446, -24448.516899170507, -14840.485434590035, -9209.365750475616, -13946.460359866664, -8332.730332938472, -10641.598479938326, 0.004593750000000001, -0.02071875, 0.993, 192.0, 0.0, 0.0, 0.0, 0.0, 0.0, 0.0, 0.0, 0.0, 0.0, 1.6444978831132598E9, 0.0, 2022-02-10 23:58:03.113
102.0, -11989.453374082254, -14226.326552191562, -9503.492355763, -16548.69515284242, -2794.3927400580337, -3067.3745950906987, -4776.433679632388, -6138.414876272068, -21281.028840664487, -19040.73584565352, -24448.762768359516, -14848.822635271865, -9206.437671951971, -13950.796598290992, -8334.227899816979, -10642.827825883369, 0.004593750000000001, -0.02071875, 0.993, 192.0, 0.0, 0.0, 0.0, 0.0, 0.0, 0.0, 0.0, 0.0, 0.0, 1.6444978831132684E9, 0.0, 2022-02-10 23:58:03.113
104.0, -11982.747850745662, -14219.777491066157, -9502.128899351228, -16541.252021938806, -2787.5978097436205, -3060.311443842822, -4769.303473151144, -6135.486797748423, -21273.451599294138, -19025.04492104589, -24458.46342545312, -14858.210367943093, -9210.595096420659, -13955.490464626608, -8342.006306887426, -10640.726761904569, 0.004593750000000001, -0.02071875, 0.993, 192.0, 0.0, 0.0, 0.0, 0.0, 0.0, 0.0, 0.0, 0.0, 0.0, 1.6444978831132748E9, 0.0, 2022-02-10 23:58:03.113
106.0, -11972.019013407114, -14227.24297371423, -9499.78196618342, -16547.622269108568, -2782.6804259634528, -3058.210379864023, -4764.073164948602, -6129.004791856384, -21271.462294037618, -19016.506554663963, -24446.773463102993, -14841.871242746263, -9209.008122564332, -13939.33015338542, -8333.669106205596, -10637.955145592112, 0.002, -0.028, 0.994, 192.0, 0.0, 8.0, 127.5, 16.0, 15.5, 8.0, 0.0, 0.0, 0.0, 1.644497883593043E9, 0.0, 2022-02-10 23:58:03.593
108.0, -11988.067565926023, -14236.63070638546, -9507.918001165152, -16551.46676915488, -2798.3266470821677, -3066.4805253124864, -4777.193638943868, -6141.544120495811, -21274.9715179171, -19035.57259268434, -24457.010562063526, -14861.98781275604, -9209.745730131357, -13947.66735406725, -8335.189024828556, -10642.738418905546, 0.002, -0.028, 0.994, 192.0, 0.0, 0.0, 0.0, 0.0, 0.0, 0.0, 0.0, 0.0, 0.0, 1.6444978835932167E9, 0.0, 2022-02-10 23:58:03.593
110.0, -11978.99275767717, -14216.737653820235, -9498.485565005012, -16543.7554173178, -2790.3023708227124, -3062.0995833992465, -4776.344272654566, -6132.782236669331, -21277.11728538481, -19036.310200251366, -24450.148576515745, -14851.616603328777, -9212.96438133292, -13951.869482024847, -8336.351315540232, -10642.671363672182, 0.002, -0.028, 0.994, 192.0, 0.0, 0.0, 0.0, 0.0, 0.0, 0.0, 0.0, 0.0, 0.0, 1.644497883593224E9, 0.0, 2022-02-10 23:58:03.593
112.0, -11981.920836200814, -14229.567555137583, -9512.924791923142, -16544.85065279611, -2800.31595233869, -3064.8264962227936, -4790.314112939133, -6138.92896639454, -21278.950128430144, -19033.069197305347, -24449.58978290436, -14841.714780535076, -9213.143195288563, -13959.670240839749, -8340.419333031099, -10643.207805539108, 0.002, -0.028, 0.994, 192.0, 0.0, 0.0, 0.0, 0.0, 0.0, 0.0, 0.0, 0.0, 0.0, 1.6444978835932305E9, 0.0, 2022-02-10 23:58:03.593
114.0, -11982.2784641121, -14217.654075342904, -9509.54967851039, -16547.64462085302, -2792.1352138680477, -3057.8974554416486, -4776.388976143477, -6129.608288956677, -21279.01718366351, -19033.180956027623, -24464.632506922782, -14860.467894133079, -9213.25495401084, -13953.925842514736, -8346.543711011853, -10645.554738706916, 0.002, -0.028, 0.994, 192.0, 0.0, 0.0, 0.0, 0.0, 0.0, 0.0, 0.0, 0.0, 0.0, 1.6444978835932372E9, 0.0, 2022-02-10 23:58:03.593
116.0, -11981.831429222993, -14223.33141843455, -9504.341722052302, -16553.456074411402, -2792.068158634682, -3065.3182346008107, -4782.066319235125, -6142.035858873828, -21276.35732607333, -19020.485165177008, -24446.12526251379, -14852.354210895803, -9214.260782511328, -13951.735371558116, -8339.257042319423, -10647.67815443017, 0.002, -0.026000000000000002, 0.992, 192.0, 0.0, 8.0, 127.5, 24.0, 15.5, 0.0, 0.0, 0.0, 0.0, 1.6444978835932443E9, 0.0, 2022-02-10 23:58:03.593
118.0, -11983.820734479516, -14222.325589934062, -9518.065693147862, -16551.5561761327, -2805.099225652126, -3073.9013044716485, -4805.446243935376, -6145.187454842026, -21281.699392998147, -19021.401586699678, -24453.858966095326, -14862.904234278707, -9213.210250521928, -13955.490464626608, -8349.65060349114, -10654.294270788942, 0.002, -0.026000000000000002, 0.992, 192.0, 0.0, 0.0, 0.0, 0.0, 0.0, 0.0, 0.0, 0.0, 0.0, 1.6444978835932508E9, 0.0, 2022-02-10 23:58:03.593
120.0, -11984.670100768817, -14228.025284770167, -9508.92382966564, -16547.979897019854, -2786.413167287489, -3054.209417606523, -4777.551266855153, -6125.920251121552, -21277.564320273916, -19022.20624950007, -24454.641277151262, -14849.493187605523, -9213.67963715549, -13954.99872624859, -8353.472751792999, -10647.454636985616, 0.002, -0.026000000000000002, 0.992, 192.0, 0.0, 0.0, 0.0, 0.0, 0.0, 0.0, 0.0, 0.0, 0.0, 1.6444978835932574E9, 0.0, 2022-02-10 23:58:03.593
122.0, -11999.154031175856, -14245.258479745207, -9516.925754180642, -16552.472597655367, -2797.0749493926705, -3068.916865458115, -4774.243208675767, -6136.000887870895, -21291.19888439165, -19042.188709043112, -24457.971687075104, -14845.045190458917, -9217.837061624177, -13942.749970287083, -8349.874120935694, -10644.951241606623, 0.002, -0.026000000000000002, 0.992, 192.0, 0.0, 0.0, 0.0, 0.0, 0.0, 0.0, 0.0, 0.0, 0.0, 1.644497883593264E9, 0.0, 2022-02-10 23:58:03.593
124.0, -11983.060775168035, -14227.757063836701, -9513.036550645418, -16554.21603372288, -2789.5871150001426, -3063.1501153886456, -4766.442449860865, -6141.789989684819, -21289.12017215731, -19036.556069440376, -24469.661649425227, -14862.568958111879, -9214.506651700336, -13947.600298833884, -8352.377516314687, -10650.15919806471, 0.002, -0.026000000000000002, 0.992, 192.0, 0.0, 0.0, 0.0, 0.0, 0.0, 0.0, 0.0, 0.0, 0.0, 1.6444978835932703E9, 0.0, 2022-02-10 23:58:03.593
126.0, -11982.949016445758, -14224.359598679495, -9511.337818066815, -16560.78744659274, -2785.3626352980896, -3068.782754991383, -4777.595970344063, -6147.288518820825, -21286.773238989503, -19027.056578046868, -24457.65876265273, -14855.46110337509, -9212.271477254806, -13951.981240747124, -8346.163731356113, -10653.10962833281, 0.002, -0.028, 0.99, 192.0, 0.0, 8.0, 127.5, 16.0, 15.0, 120.0, 0.0, 0.0, 0.0, 1.6444978835932772E9, 0.0, 2022-02-10 23:58:03.593
128.0, -11998.103499186456, -14237.10009301902, -9516.724588480543, -16559.289879714237, -2790.190612100436, -3072.6719585266064, -4790.2470577057675, -6145.545082753311, -21286.393259333763, -19034.186784528112, -24465.951259845646, -14862.099571478317, -9208.762253375322, -13952.718848314149, -8352.735144225973, -10654.607195211316, 0.002, -0.028, 0.99, 192.0, 0.0, 0.0, 0.0, 0.0, 0.0, 0.0, 0.0, 0.0, 0.0, 1.644497883593284E9, 0.0, 2022-02-10 23:58:03.593
