%OpenBCI Raw EEG Data
%Number of channels = 16
%Sample Rate = 125 Hz
%Board = OpenBCI_GUI$BoardCytonSerialDaisy
Sample Index, EXG Channel 0, EXG Channel 1, EXG Channel 2, EXG Channel 3, EXG Channel 4, EXG Channel 5, EXG Channel 6, EXG Channel 7, EXG Channel 8, EXG Channel 9, EXG Channel 10, EXG Channel 11, EXG Channel 12, EXG Channel 13, EXG Channel 14, EXG Channel 15, Accel Channel 0, Accel Channel 1, Accel Channel 2, Other, Other, Other, Other, Other, Other, Other, Analog Channel 0, Analog Channel 1, Analog Channel 2, Timestamp, Other, Timestamp (Formatted)
0.0, -7096.611809326627, -9591.513525428001, -8677.304825461486, -14002.630293682849, -2723.001268267783, -2657.4436017803673, -4680.343530219023, -5156.078059205778, 0.0, 0.0, 0.0, 0.0, 0.0, 0.0, 0.0, 0.0, 0.0, 0.0, 0.0, 192.0, 0.0, 0.0, 0.0, 0.0, 0.0, 0.0, 0.0, 0.0, 0.0, 1.6444982104572933E9, 0.0, 2022-02-11 00:03:30.457
178.0, -7114.672018846514, -9605.215144779104, -8688.994787811613, -14005.379558250852, -2742.4472859439, -2674.140354888482, -4712.865318401494, -5174.160620470121, -14234.015552284189, -8103.356731338112, -21795.633053259022, -11444.875472173151, -6665.9607489062255, -10301.89666770657, -8395.404624391154, -8669.951101535691, 0.0, 0.0, 0.0, 192.0, 0.0, 0.0, 0.0, 0.0, 0.0, 0.0, 0.0, 0.0, 0.0, 1.6444982104573019E9, 0.0, 2022-02-11 00:03:30.457
180.0, -7108.905268777045, -9609.976066348085, -8685.843191843414, -14014.744939177626, -2734.8253410846405, -2671.6593112539426, -4696.88382111595, -5162.135381953166, -14241.72690412127, -8121.282830391268, -21802.45033531789, -11450.239890842426, -6679.41649906832, -10293.313597835731, -8407.42986290811, -8680.43406968523, 0.006, -0.024, 0.994, 192.0, 0.0, 24.0, 127.5, 32.0, 15.5, 8.0, 0.0, 0.0, 0.0, 1.6444982104573088E9, 0.0, 2022-02-11 00:03:30.457
182.0, -7120.483472404894, -9610.668970426199, -8694.918000092268, -14026.72547420567, -2746.9176348349615, -2679.996511935772, -4708.707893932807, -5168.438573889563, -14248.499482691228, -8124.948516481939, -21800.818657972653, -11463.27095785987, -6678.656539756839, -10297.22515311541, -8409.642685609184, -8686.223171499154, 0.006, -0.024, 0.994, 192.0, 0.0, 0.0, 0.0, 0.0, 0.0, 0.0, 0.0, 0.0, 0.0, 1.6444982104573157E9, 0.0, 2022-02-11 00:03:30.457
184.0, -7115.45432990245, -9602.689397655655, -8699.29894200551, -14028.82653818447, -2747.677594146442, -2675.459107811345, -4712.731207934762, -5182.5872281297725, -14254.57915718307, -8128.100112450137, -21827.774861785754, -11476.883170233152, -6675.773164722105, -10308.557487554252, -8419.94683980308, -8697.779023382547, 0.006, -0.024, 0.994, 192.0, 0.0, 0.0, 0.0, 0.0, 0.0, 0.0, 0.0, 0.0, 0.0, 1.6444982104573224E9, 0.0, 2022-02-11 00:03:30.457
186.0, -7115.163757224532, -9600.588333676855, -8695.342683236919, -14026.881936416858, -2740.25681498728, -2675.3026456001576, -4721.068408616592, -5186.945818298557, -14259.943575852345, -8116.790129755752, -21819.482364592837, -11469.372984096168, -6668.173571607301, -10303.237772373888, -8415.632953123208, -8699.231886772142, 0.006, -0.024, 0.994, 192.0, 0.0, 0.0, 0.0, 0.0, 0.0, 0.0, 0.0, 0.0, 0.0, 1.644498210457329E9, 0.0, 2022-02-11 00:03:30.457
188.0, -7130.519405665327, -9612.166537304705, -8704.395139741318, -14039.913003434302, -2756.797105884207, -2675.190886877881, -4720.241394071745, -5190.767966600414, -14266.671450933392, -8113.146795409536, -21825.22676291785, -11466.534312550344, -6680.332920590988, -10284.931693664992, -8421.936145059604, -8707.39027349833, 0.006, -0.024, 0.994, 192.0, 0.0, 0.0, 0.0, 0.0, 0.0, 0.0, 0.0, 0.0, 0.0, 1.6444982104573357E9, 0.0, 2022-02-11 00:03:30.457
190.0, -7113.554431623749, -9618.290915285459, -8700.550639695006, -14034.34741906493, -2749.801009869696, -2676.800212478663, -4722.118940605991, -5191.818498589814, -14268.01255560071, -8125.216737415402, -21831.66406532098, -11482.627568558166, -6690.6147230404285, -10304.623580530117, -8430.206290508067, -8713.29113403453, 0.014, -0.022, 0.99, 192.0, 0.0, 56.0, 127.5, 40.0, 15.0, 120.0, 0.0, 0.0, 0.0, 1.644498210457342E9, 0.0, 2022-02-11 00:03:30.457
192.0, -7126.36198119664, -9619.542612974956, -8706.67501767576, -14044.629221514371, -2750.8962453480062, -2693.362855120046, -4724.354115051522, -5205.140138285177, -14270.82887540208, -8131.207004929424, -21823.729196039345, -11478.403088856112, -6691.732310263194, -10316.000618457869, -8429.647496896685, -8714.319314279475, 0.014, -0.022, 0.99, 192.0, 0.0, 0.0, 0.0, 0.0, 0.0, 0.0, 0.0, 0.0, 0.0, 1.644498210457349E9, 0.0, 2022-02-11 00:03:30.457
194.0, -7134.945051067478, -9621.28604904247, -8709.223116543664, -14049.792474483547, -2750.583320925632, -2690.6359422964983, -4747.734039751773, -5204.760158629437, -14279.076669106087, -8142.002897501337, -21846.080940494652, -11497.759699554408, -6687.731348005695, -10330.529252353817, -8442.008011580469, -8729.943183653735, 0.014, -0.022, 0.99, 192.0, 0.0, 0.0, 0.0, 0.0, 0.0, 0.0, 0.0, 0.0, 0.0, 1.6444982104573555E9, 0.0, 2022-02-11 00:03:30.457
196.0, -7140.51063543685, -9625.041142110962, -8705.400968241807, -14054.575747796984, -2748.996347069305, -2689.0489684401714, -4730.36673431, -5200.245106249465, -14281.334195296073, -8138.247804432846, -21843.398731160014, -11493.646978574632, -6692.760490508139, -10334.507862866863, -8440.264575512956, -8727.238622574643, 0.014, -0.022, 0.99, 192.0, 0.0, 0.0, 0.0, 0.0, 0.0, 0.0, 0.0, 0.0, 0.0, 1.6444982104573624E9, 0.0, 2022-02-11 00:03:30.457
198.0, -7156.246263533386, -9635.322944560403, -8715.928639880258, -14063.292928134553, -2763.189704798425, -2702.907050002462, -4730.009106398715, -5210.392798232174, -14298.88031469349, -8155.3245371967005, -21862.956507558407, -11506.61099035871, -6694.615685297929, -10337.346534412687, -8443.796151136894, -8733.564166255495, 0.016, -0.023, 0.994, 192.0, 0.0, 72.0, 127.5, 32.0, 15.5, 24.0, 0.0, 0.0, 0.0, 1.644498210457369E9, 0.0, 2022-02-11 00:03:30.457
200.0, -7144.980984327911, -9634.630040482289, -8711.704160178204, -14058.017916443101, -2749.644547658509, -2694.8604219985514, -4736.088780890558, -5211.420978477118, -14290.63252098948, -8151.971775528405, -21856.340391199636, -11501.984179256462, -6694.749795764661, -10333.457330877463, -8445.852511626783, -8740.046172147533, 0.016, -0.023, 0.994, 192.0, 0.0, 0.0, 0.0, 0.0, 0.0, 0.0, 0.0, 0.0, 0.0, 1.6444982104573755E9, 0.0, 2022-02-11 00:03:30.457
202.0, -7165.589292715704, -9646.34235457687, -8726.0092766296, -14075.340518395964, -2762.9885390983272, -2708.718503560842, -4752.897292720949, -5222.6192024492275, -14305.898762452456, -8157.380897686589, -21859.827263334664, -11505.694568836043, -6696.202659154255, -10343.225043204433, -8451.731020418527, -8742.393105315341, 0.016, -0.023, 0.994, 192.0, 0.0, 0.0, 0.0, 0.0, 0.0, 0.0, 0.0, 0.0, 0.0, 1.644498210457382E9, 0.0, 2022-02-11 00:03:30.457
204.0, -7170.03728986231, -9661.362726850835, -8731.977192399168, -14084.392974900364, -2767.6600536894866, -2714.3958466524896, -4759.6028160575415, -5228.855339152257, -14315.510012568238, -8178.547999685765, -21884.43653397996, -11524.51473766741, -6696.359121365443, -10355.47379916594, -8461.811657167871, -8760.319204368498, 0.016, -0.023, 0.994, 192.0, 0.0, 0.0, 0.0, 0.0, 0.0, 0.0, 0.0, 0.0, 0.0, 1.6444982104573903E9, 0.0, 2022-02-11 00:03:30.457
206.0, -7162.37064151414, -9655.618328525821, -8728.177395841765, -14085.711727823225, -2762.5415042092213, -2715.4910821308, -4742.906062949427, -5224.563804216838, -14323.511937083238, -8178.279778752301, -21887.118743314593, -11522.167804499604, -6716.2074704417555, -10367.38727896062, -8462.348099034798, -8759.246320634642, 0.016, -0.023, 0.994, 192.0, 0.0, 0.0, 0.0, 0.0, 0.0, 0.0, 0.0, 0.0, 0.0, 1.6444982104573967E9, 0.0, 2022-02-11 00:03:30.457
208.0, -7170.104345095676, -9657.384116337791, -8737.386314557352, -14089.131544724887, -2774.030300859249, -2716.9215937759395, -4775.293740665167, -5240.925281158124, -14328.205803418852, -8186.304055011757, -21894.47246724039, -11535.33298198378, -6708.429063371309, -10350.444656663496, -8467.220779326055, -8769.438716106262, 0.015, -0.0245, 0.992, 192.0, 0.0, 56.0, 127.5, 24.0, 15.0, 120.0, 0.0, 0.0, 0.0, 1.6444982104574075E9, 0.0, 2022-02-11 00:03:30.457
210.0, -7170.663138707058, -9665.520151319522, -8734.368829055886, -14087.16459121282, -2766.989501355827, -2711.4677681288445, -4762.150914925446, -5232.878653154213, -14321.477928337805, -8178.3915374745775, -21897.109973086117, -11531.957868571028, -6717.593278597985, -10344.85672054967, -8468.807753182382, -8771.986814974167, 0.015, -0.0245, 0.992, 192.0, 0.0, 0.0, 0.0, 0.0, 0.0, 0.0, 0.0, 0.0, 0.0, 1.644498210457414E9, 0.0, 2022-02-11 00:03:30.457
212.0, -7194.311284340773, -9667.688270531688, -8743.086009393455, -14094.607722116438, -2770.4540217463996, -2722.1071984895707, -4752.383202598477, -5237.41605727864, -14337.884108768, -8185.991130589382, -21893.04195559525, -11524.470034178501, -6720.610764099451, -10353.640956120606, -8466.282006058933, -8773.394974874851, 0.015, -0.0245, 0.992, 192.0, 0.0, 0.0, 0.0, 0.0, 0.0, 0.0, 0.0, 0.0, 0.0, 1.6444982104574203E9, 0.0, 2022-02-11 00:03:30.457
214.0, -7197.5969907757035, -9683.826230028419, -8756.184131644266, -14096.999358773157, -2774.7232049373633, -2722.040143256205, -4762.732060281284, -5249.843627195791, -14343.047361737175, -8201.614999963642, -21918.05355764074, -11538.372819229702, -6714.441682629787, -10360.637052135116, -8472.20521833959, -8784.324977913497, 0.015, -0.0245, 0.992, 192.0, 0.0, 0.0, 0.0, 0.0, 0.0, 0.0, 0.0, 0.0, 0.0, 1.6444982104574273E9, 0.0, 2022-02-11 00:03:30.457
216.0, -7185.571752258748, -9689.704738820164, -8756.430000833274, -14105.35891119944, -2775.2149433153804, -2721.190776966903, -4783.697996580362, -5256.32563308783, -14355.966670032343, -8206.554735488264, -21925.317874588716, -11548.341697256768, -6729.99849677068, -10365.062697537267, -8479.424831798653, -8787.431870392784, 0.015, -0.0245, 0.992, 192.0, 0.0, 0.0, 0.0, 0.0, 0.0, 0.0, 0.0, 0.0, 0.0, 1.6444982104574337E9, 0.0, 2022-02-11 00:03:30.457
218.0, -7208.594049047715, -9694.376253411325, -8769.68458529527, -14114.858402592947, -2785.2061730869023, -2736.389963196512, -4781.015787245726, -5273.849400740791, -14364.303870714173, -8210.779215190318, -21925.787261222275, -11564.166732331125, -6738.492159663697, -10376.52914244284, -8487.739680736027, -8797.378396675396, 0.0135, -0.02425, 0.991, 192.0, 0.0, 48.0, 127.5, 32.0, 15.0, 120.0, 0.0, 0.0, 0.0, 1.6444982104574401E9, 0.0, 2022-02-11 00:03:30.457
220.0, -7204.011941434377, -9679.266474159536, -8768.321128883497, -14121.340408484986, -2779.260609061791, -2731.3161172051573, -4779.7417378117725, -5269.066127427355, -14364.393277691994, -8212.187375091002, -21932.001046180852, -11561.797447418863, -6737.016944529646, -10379.72544189995, -8492.254733116, -8806.006170035145, 0.0135, -0.02425, 0.991, 192.0, 0.0, 0.0, 0.0, 0.0, 0.0, 0.0, 0.0, 0.0, 0.0, 1.6444982104574468E9, 0.0, 2022-02-11 00:03:30.457
222.0, -7203.274333867352, -9694.689177833698, -8770.131620184377, -14128.850594621968, -2782.8145364301845, -2739.027469042238, -4772.5221243527085, -5266.607435537271, -14370.785876606213, -8216.255392581868, -21933.14098514807, -11567.497142254966, -6745.152979511378, -10380.083069811233, -8492.00886392699, -8805.156803745844, 0.0135, -0.02425, 0.991, 192.0, 0.0, 0.0, 0.0, 0.0, 0.0, 0.0, 0.0, 0.0, 0.0, 1.6444982104574535E9, 0.0, 2022-02-11 00:03:30.457
224.0, -7212.930287472044, -9716.482128677622, -8776.92655049879, -14131.264583023141, -2792.4704900348775, -2742.4249341994446, -4791.722272839817, -5273.737642018515, -14379.346594732595, -8233.846215468195, -21946.797901010264, -11574.157962102649, -6743.81187484406, -10391.907142628092, -8496.076881417857, -8816.422082951318, 0.0135, -0.02425, 0.991, 192.0, 0.0, 0.0, 0.0, 0.0, 0.0, 0.0, 0.0, 0.0, 0.0, 1.6444982104574604E9, 0.0, 2022-02-11 00:03:30.457
226.0, -7214.360799117184, -9704.25572446057, -8780.726347056192, -14135.645524936383, -2791.777585956763, -2739.7874283537185, -4812.040008549691, -5282.723043289548, -14386.365042491561, -8238.718895759452, -21948.518985333325, -11571.72162195702, -6745.734124867216, -10384.329901257743, -8502.000093698513, -8818.880774841402, 0.0135, -0.02425, 0.991, 192.0, 0.0, 0.0, 0.0, 0.0, 0.0, 0.0, 0.0, 0.0, 0.0, 1.6444982104574668E9, 0.0, 2022-02-11 00:03:30.457
228.0, -7246.81553206629, -9722.382989213824, -8782.425079634795, -14141.94871687278, -2799.3101238382014, -2756.6853471619306, -4824.534633700208, -5293.384825394729, -14395.328092018139, -8247.212558652469, -21955.11274994764, -11588.932465187605, -6751.1879505143115, -10402.837145666737, -8510.11377693579, -8834.012905837644, 0.01175, -0.026125000000000002, 0.9895, 192.0, 0.0, 40.0, 127.5, 16.0, 15.0, 112.0, 0.0, 0.0, 0.0, 1.644498210457474E9, 0.0, 2022-02-11 00:03:30.457
230.0, -7238.746552317924, -9725.31106773747, -8777.619454576905, -14144.876795396423, -2786.0331876317487, -2750.5609691811765, -4793.868040307527, -5287.729834047536, -14396.624493196547, -8254.968613978459, -21962.935860506997, -11597.984921692005, -6753.646642404395, -10402.904200900102, -8510.91843973618, -8838.013868095144, 0.01175, -0.026125000000000002, 0.9895, 192.0, 0.0, 0.0, 0.0, 0.0, 0.0, 0.0, 0.0, 0.0, 0.0, 1.644498210457481E9, 0.0, 2022-02-11 00:03:30.457
232.0, -7246.234386710452, -9733.916489352761, -8789.689396582771, -14153.415161778352, -2786.12259460957, -2746.4482482014, -4816.979744074314, -5298.86100278628, -14409.901429403, -8261.428268126043, -21969.77549431032, -11591.704081500064, -6751.679688892328, -10397.852706653202, -8514.20414617111, -8840.629022196415, 0.01175, -0.026125000000000002, 0.9895, 192.0, 0.0, 0.0, 0.0, 0.0, 0.0, 0.0, 0.0, 0.0, 0.0, 1.6444982104574873E9, 0.0, 2022-02-11 00:03:30.457
234.0, -7241.607575608204, -9732.910660852272, -8793.779765818092, -14160.902996170878, -2782.83688817464, -2751.1421145370145, -4796.930229297904, -5290.702616060093, -14410.795499181211, -8259.01427972487, -21989.333270708714, -11612.625314310231, -6757.222921517244, -10395.014035107379, -8517.288686905944, -8848.519187989139, 0.01175, -0.026125000000000002, 0.9895, 192.0, 0.0, 0.0, 0.0, 0.0, 0.0, 0.0, 0.0, 0.0, 0.0, 1.644498210457494E9, 0.0, 2022-02-11 00:03:30.457
236.0, -7243.038087253343, -9735.302297508992, -8787.029538992589, -14165.46275203976, -2776.153716582503, -2749.041050558216, -4791.811679817639, -5289.205049181587, -14412.203659081897, -8252.733439532929, -21975.855168802165, -11606.97032296304, -6761.737973897216, -10389.470802482463, -8512.371303125776, -8845.74757167668, 0.01175, -0.026125000000000002, 0.9895, 192.0, 0.0, 0.0, 0.0, 0.0, 0.0, 0.0, 0.0, 0.0, 0.0, 1.6444982104575007E9, 0.0, 2022-02-11 00:03:30.457
238.0, -7269.100221288231, -9734.676448664242, -8801.602876377448, -14173.911711443867, -2794.660960991497, -2768.867047890073, -4823.931136599915, -5305.767691822969, -14427.00051391131, -8276.11336423318, -21995.569407411745, -11618.637933568709, -6761.447401219297, -10402.68068345555, -8524.128320709267, -8857.079906115521, 0.012875000000000001, -0.0250625, 0.98975, 192.0, 0.0, 56.0, 127.5, 32.0, 15.0, 120.0, 0.0, 0.0, 0.0, 1.6444982104575074E9, 0.0, 2022-02-11 00:03:30.457
240.0, -7251.129418746164, -9737.850396376896, -8799.546515887561, -14175.275167855641, -2786.3461120541233, -2763.033242587238, -4813.3140579836445, -5308.293438946419, -14427.33579007814, -8275.73338457744, -22004.465401704958, -11630.149081963193, -6769.404622245386, -10415.309419072797, -8532.621983602285, -8864.411278296862, 0.012875000000000001, -0.0250625, 0.98975, 192.0, 0.0, 0.0, 0.0, 0.0, 0.0, 0.0, 0.0, 0.0, 0.0, 1.644498210457516E9, 0.0, 2022-02-11 00:03:30.457
242.0, -7253.677517614069, -9752.64725120631, -8800.664103110326, -14187.90390347289, -2791.866992934584, -2783.93212365295, -4818.432607463909, -5319.67047687417, -14434.600107026114, -8297.21341099899, -22002.5431516818, -11619.10732020227, -6772.3774042579425, -10418.528070274362, -8534.521881880984, -8873.553141779083, 0.012875000000000001, -0.0250625, 0.98975, 192.0, 0.0, 0.0, 0.0, 0.0, 0.0, 0.0, 0.0, 0.0, 0.0, 1.6444982104575226E9, 0.0, 2022-02-11 00:03:30.457
244.0, -7258.974881049977, -9733.849434119396, -8802.675760111304, -14191.457830841284, -2795.063292391693, -2779.417071272978, -4832.938889615404, -5305.901802289701, -14420.965542908376, -8292.296027218823, -22000.509142936367, -11630.104378474281, -6758.653433162383, -10432.184986136555, -8538.031105760469, -8883.298502361597, 0.012875000000000001, -0.0250625, 0.98975, 192.0, 0.0, 0.0, 0.0, 0.0, 0.0, 0.0, 0.0, 0.0, 0.0, 1.6444982104575455E9, 0.0, 2022-02-11 00:03:30.457
246.0, -7267.110916031709, -9749.920338382763, -8815.528013173105, -14196.777546021647, -2794.8397749471396, -2770.766946168774, -4826.836863379105, -5303.063130743877, -14450.514549078292, -8290.463184173488, -22012.4449744755, -11627.668038328653, -6771.7962589021045, -10424.116006388189, -8545.340126197354, -8882.650301772394, 0.012875000000000001, -0.0250625, 0.98975, 192.0, 0.0, 0.0, 0.0, 0.0, 0.0, 0.0, 0.0, 0.0, 0.0, 1.6444982104575524E9, 0.0, 2022-02-11 00:03:30.457
248.0, -7289.842640142756, -9751.864940150374, -8827.687362156792, -14201.538467590628, -2803.4899000513437, -2775.796088671218, -4820.511319698253, -5325.750151366014, -14459.18702592695, -8302.801347112816, -22032.293323551814, -11632.250145941991, -6771.282168779632, -10414.750625461415, -8549.206977988122, -8891.81451699907, 0.0144375, -0.021531250000000002, 0.9878750000000001, 192.0, 0.0, 64.0, 127.5, 56.0, 15.0, 104.0, 0.0, 0.0, 0.0, 1.644498210457698E9, 0.0, 2022-02-11 00:03:30.457
250.0, -7297.755157679935, -9774.373146816868, -8823.686399899292, -14210.38975839493, -2792.9175249239834, -2784.602675986609, -4821.874776110027, -5321.033933285944, -14470.497008621338, -8307.226992514967, -22041.904573667594, -11640.721457090553, -6783.575628230051, -10420.003285408413, -8549.87753032178, -8897.111880434977, 0.0144375, -0.021531250000000002, 0.9878750000000001, 192.0, 0.0, 0.0, 0.0, 0.0, 0.0, 0.0, 0.0, 0.0, 0.0, 1.6444982104577072E9, 0.0, 2022-02-11 00:03:30.457
252.0, -7302.717244949013, -9763.823123433964, -8829.65431566886, -14217.832889298546, -2801.9923331728382, -2794.549202269221, -4851.334375302122, -5336.210767771097, -14484.48920065036, -8315.430082730065, -22042.016332389874, -11659.586329410831, -6788.068328865568, -10435.82832048277, -8554.370230957298, -8904.823232272058, 0.0144375, -0.021531250000000002, 0.9878750000000001, 192.0, 0.0, 0.0, 0.0, 0.0, 0.0, 0.0, 0.0, 0.0, 0.0, 1.6444982104577143E9, 0.0, 2022-02-11 00:03:30.457
254.0, -7293.910657633622, -9771.847399693419, -8834.482292471206, -14223.510232390194, -2811.60358328862, -2793.8339464466508, -4864.320738830655, -5351.856988889813, -14486.411450673515, -8332.395056771644, -22064.613946034187, -11667.11886729227, -6781.943950884814, -10443.718486275493, -8562.081582794379, -8916.446139388818, 0.0144375, -0.021531250000000002, 0.9878750000000001, 192.0, 0.0, 0.0, 0.0, 0.0, 0.0, 0.0, 0.0, 0.0, 0.0, 1.6444982104577236E9, 0.0, 2022-02-11 00:03:30.457
0.0, -7308.506346762937, -9778.731736985652, -8835.80104539407, -14225.76775858018, -2812.0953216666367, -2791.93404816795, -4848.898035156493, -5335.562567181893, -14484.824476817188, -8334.630231217174, -22061.439998321533, -11665.062506802382, -6783.218000318766, -10440.723352518482, -8566.373117729798, -8917.0049330002, 0.0144375, -0.021531250000000002, 0.9878750000000001, 192.0, 0.0, 0.0, 0.0, 0.0, 0.0, 0.0, 0.0, 0.0, 0.0, 1.6444982104577303E9, 0.0, 2022-02-11 00:03:30.457
2.0, -7321.515062035926, -9767.689975224732, -8840.60667045196, -14232.607392383505, -2822.578289816176, -2803.9816384293604, -4858.665747483462, -5351.789933656447, -14501.00713980283, -8344.710867966518, -22071.006544948406, -11680.3063965209, -6782.994482874213, -10449.865216000702, -8566.708393896628, -8928.270212205674, 0.013218750000000001, -0.021765625, 0.9899375, 192.0, 0.0, 48.0, 127.5, 40.0, 15.5, 0.0, 0.0, 0.0, 0.0, 1.6444982104577377E9, 0.0, 2022-02-11 00:03:30.457
4.0, -7317.6929137340685, -9785.79488823353, -8835.55517620506, -14232.115654005487, -2804.7192459963853, -2796.516155781288, -4834.883491383015, -5346.269052775986, -14494.949817055443, -8338.944117897048, -22066.80441699081, -11671.79038188343, -6791.756366700693, -10434.375457093174, -8567.73657414157, -8931.600622129516, 0.013218750000000001, -0.021765625, 0.9899375, 192.0, 0.0, 0.0, 0.0, 0.0, 0.0, 0.0, 0.0, 0.0, 0.0, 1.6444982104577453E9, 0.0, 2022-02-11 00:03:30.457
6.0, -7314.317800321317, -9788.27593186807, -8838.773827406625, -14248.924165835879, -2810.3295338546677, -2805.2109843744024, -4853.234273580822, -5359.031898859966, -14503.197610759451, -8350.209397102522, -22067.94435595803, -11667.677660903653, -6792.806898690093, -10429.391018079641, -8563.623853161795, -8939.62489838897, 0.013218750000000001, -0.021765625, 0.9899375, 192.0, 0.0, 0.0, 0.0, 0.0, 0.0, 0.0, 0.0, 0.0, 0.0, 1.644498210457753E9, 0.0, 2022-02-11 00:03:30.457
8.0, -7325.493672548971, -9795.473193582679, -8849.36855427844, -14259.58594794106, -2818.2420513918464, -2820.991315959849, -4859.381003306032, -5366.922064652689, -14510.39487247406, -8352.735144225973, -22088.284443412358, -11689.112983836292, -6788.425956776853, -10455.654317814628, -8574.486800967074, -8956.72398289728, 0.013218750000000001, -0.021765625, 0.9899375, 192.0, 0.0, 0.0, 0.0, 0.0, 0.0, 0.0, 0.0, 0.0, 0.0, 1.64449821045776E9, 0.0, 2022-02-11 00:03:30.457
10.0, -7332.802692985856, -9791.941617958739, -8849.100333344977, -14262.759895653713, -2813.548185056232, -2823.1594351720137, -4871.115669145068, -5376.466259535106, -14515.11109055413, -8363.598092031252, -22091.100763213726, -11702.211106087101, -6798.841869693026, -10466.047878986345, -8576.677271923694, -8966.53639871316, 0.013218750000000001, -0.021765625, 0.9899375, 192.0, 0.0, 0.0, 0.0, 0.0, 0.0, 0.0, 0.0, 0.0, 0.0, 1.6444982104577668E9, 0.0, 2022-02-11 00:03:30.457
12.0, -7340.312879122839, -9795.070862182482, -8858.80099043858, -14261.172921797386, -2828.3450398856453, -2816.2974496242346, -4885.8678204855705, -5381.294236337452, -14521.011951090331, -8376.27153113741, -22091.74896380293, -11698.366606040789, -6786.749575942705, -10455.83313177027, -8581.214676048121, -8971.610244704514, 0.01, -0.022, 0.986, 192.0, 0.0, 40.0, 127.5, 40.0, 15.0, 104.0, 0.0, 0.0, 0.0, 1.6444982104577737E9, 0.0, 2022-02-11 00:03:30.457
14.0, -7333.40619008615, -9801.195240163237, -8853.637737469404, -14264.749200910235, -2824.053504950226, -2827.4062666185223, -4887.723015275361, -5384.468184050105, -14522.420110991015, -8369.99069094547, -22098.767411561897, -11696.846687417828, -6798.998331904213, -10486.164448996122, -8588.79191741847, -8977.39934651844, 0.01, -0.022, 0.986, 192.0, 0.0, 0.0, 0.0, 0.0, 0.0, 0.0, 0.0, 0.0, 0.0, 1.6444982104577816E9, 0.0, 2022-02-11 00:03:30.457
16.0, -7342.391591357183, -9810.381807134367, -8866.244121342197, -14276.573273727094, -2834.8046940332288, -2837.7774760457846, -4882.783279750738, -5391.821907975902, -14524.275305780806, -8383.334682385288, -22101.382565663167, -11707.061434633904, -6797.791337703627, -10473.245140700954, -8592.41290002023, -8979.992148875255, 0.01, -0.022, 0.986, 192.0, 0.0, 0.0, 0.0, 0.0, 0.0, 0.0, 0.0, 0.0, 0.0, 1.6444982104577963E9, 0.0, 2022-02-11 00:03:30.457
18.0, -7343.911509980144, -9818.115510715903, -8874.558970279571, -14281.937692396366, -2837.017516734304, -2841.934900514472, -4897.4907276023305, -5411.223222163108, -14542.961364145443, -8403.89828728417, -22120.56036240582, -11716.22564986058, -6800.361788315987, -10479.414222170619, -8601.979446647101, -8999.840497951567, 0.01, -0.022, 0.986, 192.0, 0.0, 0.0, 0.0, 0.0, 0.0, 0.0, 0.0, 0.0, 0.0, 1.644498210457805E9, 0.0, 2022-02-11 00:03:30.457
20.0, -7341.318707623328, -9804.74916753163, -8869.239255099208, -14285.49161976476, -2831.094304453648, -2832.2565951653237, -4892.886268244537, -5398.9744662016, -14540.726189699912, -8399.450290137565, -22115.37475769219, -11717.41029231671, -6802.708721483794, -10462.78452429587, -8605.153394359755, -8998.298227584151, 0.01, -0.022, 0.986, 192.0, 0.0, 0.0, 0.0, 0.0, 0.0, 0.0, 0.0, 0.0, 0.0, 1.644498210457812E9, 0.0, 2022-02-11 00:03:30.457
22.0, -7367.917283525144, -9810.627676323376, -8881.108031404976, -14299.550867027148, -2850.540322129765, -2852.0378890082707, -4903.503346860808, -5424.343696158373, -14556.104189885164, -8402.37836866121, -22115.307702458824, -11729.413179089212, -6820.008971692201, -10472.55223662284, -8612.775339219015, -9009.094120156065, 0.008, -0.028, 0.99, 192.0, 0.0, 32.0, 127.5, 16.0, 15.0, 120.0, 0.0, 0.0, 0.0, 1.6444982104578187E9, 0.0, 2022-02-11 00:03:30.457
24.0, -7367.604359102769, -9810.448862367733, -8878.291711603608, -14292.845343690557, -2843.2313016928797, -2836.950461500938, -4909.471262630375, -5411.3349808853845, -14559.255785853362, -8408.525098386419, -22130.395129966157, -11737.79508325995, -6817.416169335386, -10490.478335675996, -8617.826833465915, -9018.034817938187, 0.008, -0.028, 0.99, 192.0, 0.0, 0.0, 0.0, 0.0, 0.0, 0.0, 0.0, 0.0, 0.0, 1.6444982104578257E9, 0.0, 2022-02-11 00:03:30.457
26.0, -7367.000862002476, -9822.317638673501, -8883.834944228523, -14297.650968748447, -2841.286699925268, -2842.538397614765, -4912.756969065305, -5412.318457641418, -14564.620204522635, -8415.990581034492, -22124.04723454085, -11738.219766404602, -6816.611506534995, -10471.859332544725, -8613.870574697325, -9008.758843989235, 0.008, -0.028, 0.99, 192.0, 0.0, 0.0, 0.0, 0.0, 0.0, 0.0, 0.0, 0.0, 0.0, 1.6444982104578335E9, 0.0, 2022-02-11 00:03:30.457
28.0, -7374.153420228175, -9829.85017655494, -8890.719281520758, -14308.379806086996, -2834.402362633033, -2838.380973146078, -4889.578210065152, -5417.638172821781, -14568.464704568947, -8430.630973652718, -22150.24347904247, -11747.965126987116, -6812.789358233137, -10485.180972240089, -8615.546955531474, -9018.59361154957, 0.008, -0.028, 0.99, 192.0, 0.0, 0.0, 0.0, 0.0, 0.0, 0.0, 0.0, 0.0, 0.0, 1.6444982104578404E9, 0.0, 2022-02-11 00:03:30.457
30.0, -7366.21855094654, -9823.345818918446, -8885.243104129207, -14312.693692766868, -2835.475246366888, -2835.4975981113435, -4898.228335169356, -5410.619725062815, -14570.230492380917, -8424.394836949687, -22149.483519730988, -11744.366496129811, -6819.360771102998, -10482.342300694263, -8616.37397007632, -9020.02412319471, 0.008, -0.028, 0.99, 192.0, 0.0, 0.0, 0.0, 0.0, 0.0, 0.0, 0.0, 0.0, 0.0, 1.644498210457848E9, 0.0, 2022-02-11 00:03:30.457
32.0, -7381.551847642881, -9853.185397766281, -8894.452022844795, -14323.467233594327, -2849.4897901403656, -2846.2934906832566, -4915.6850475889505, -5427.763513060036, -14585.608492566169, -8436.844758611292, -22151.47282498751, -11748.859196765328, -6824.0993409275225, -10487.684367619082, -8622.096016656878, -9029.903594243955, 0.008, -0.026000000000000002, 0.99, 192.0, 0.0, 32.0, 127.5, 24.0, 15.0, 120.0, 0.0, 0.0, 0.0, 1.6444982104578547E9, 0.0, 2022-02-11 00:03:30.457
34.0, -7396.371054216749, -9849.698525631253, -8891.635703043426, -14325.635352806492, -2838.89506326855, -2838.380973146078, -4909.717131819383, -5433.843187551879, -14588.916550745555, -8449.182921550622, -22160.391171025178, -11753.642470078763, -6830.357829375009, -10488.421975186107, -8626.61106903685, -9034.9327367464, 0.008, -0.026000000000000002, 0.99, 192.0, 0.0, 0.0, 0.0, 0.0, 0.0, 0.0, 0.0, 0.0, 0.0, 1.6444982104578617E9, 0.0, 2022-02-11 00:03:30.457
36.0, -7398.047435050898, -9848.737400619675, -8896.62014205696, -14332.45263486536, -2840.1467609580473, -2847.724002328396, -4907.593716096129, -5428.590527604882, -14598.527800861337, -8455.217892553555, -22155.898470389664, -11752.100199711347, -6831.1401404309445, -10487.17027749661, -8628.265098126543, -9037.883167014501, 0.008, -0.026000000000000002, 0.99, 192.0, 0.0, 0.0, 0.0, 0.0, 0.0, 0.0, 0.0, 0.0, 0.0, 1.6444982104578686E9, 0.0, 2022-02-11 00:03:30.457
38.0, -7400.729644385535, -9847.217481996713, -8906.991351484223, -14335.157195944454, -2844.773572060296, -2862.4538019244437, -4913.181652209956, -5436.435989908694, -14606.015635253863, -8459.91175888917, -22180.686554990596, -11766.807647562939, -6816.2315268792545, -10511.220754530521, -8635.864691241348, -9045.21453919584, 0.008, -0.026000000000000002, 0.99, 192.0, 0.0, 0.0, 0.0, 0.0, 0.0, 0.0, 0.0, 0.0, 0.0, 1.6444982104578755E9, 0.0, 2022-02-11 00:03:30.457
40.0, -7390.872525080744, -9850.011450053627, -8905.806709028091, -14342.354457659061, -2841.0631824807147, -2863.1467060025584, -4925.273945960277, -5449.1988359926745, -14609.904838789087, -8456.603700709784, -22178.116104378238, -11778.832886079894, -6844.327669659576, -10522.284868035898, -8635.685877285705, -9054.758734078257, 0.008, -0.026000000000000002, 0.99, 192.0, 0.0, 0.0, 0.0, 0.0, 0.0, 0.0, 0.0, 0.0, 0.0, 1.6444982104578824E9, 0.0, 2022-02-11 00:03:30.457
0.0, -5292.37899689424, -6228.760627360419, -5447.075420269421, -8437.291793500399, -1855.2171415349414, -1921.9147469895777, -3217.6677248081837, -3618.836834292035, -7315.949477666554, -4247.256129652993, -11099.898648249942, -5890.31051281816, -3427.282384310053, -5260.103077900777, -4325.755456180031, -4540.4216099288005, 0.01, -0.02, 0.99, 192.0, 0.0, 40.0, 127.5, 48.0, 15.0, 120.0, 0.0, 0.0, 0.0, 1.6444982110177517E9, 0.0, 2022-02-11 00:03:31.017
2.0, -10578.47715359654, -12462.617452456649, -10892.67562540479, -16872.795447444376, -3702.566469021615, -3850.2891481267393, -6415.531804028965, -7230.454055125005, -18700.296425854736, -14544.59304149068, -25319.653787571646, -14454.962546224899, -9051.942414276888, -12758.867473467288, -10521.077873835311, -11963.234777836178, 0.01, -0.02, 0.99, 192.0, 0.0, 0.0, 0.0, 0.0, 0.0, 0.0, 0.0, 0.0, 0.0, 1.6444982110179064E9, 0.0, 2022-02-11 00:03:31.017
4.0, -10562.629766777727, -12462.572748967737, -10888.562904425014, -16865.732296196496, -3698.990189908766, -3843.8965492125217, -6416.470577296088, -7230.074075469265, -18699.357652587612, -14532.344285529172, -25308.723784533, -14451.207453156407, -9046.399181651972, -12775.05013645293, -10511.377216741708, -11957.244510322156, 0.01, -0.02, 0.99, 192.0, 0.0, 0.0, 0.0, 0.0, 0.0, 0.0, 0.0, 0.0, 0.0, 1.6444982110179133E9, 0.0, 2022-02-11 00:03:31.017
6.0, -10583.372185632252, -12459.778780910825, -10897.928285351789, -16866.089924107782, -3710.054303414143, -3851.943177216432, -6438.46469384011, -7241.741686074935, -18703.828001478672, -14549.30925957075, -25315.76458403642, -14442.266755374285, -9058.625585869026, -12768.299909627427, -10517.501594722462, -11962.050135380046, 0.01, -0.02, 0.99, 192.0, 0.0, 0.0, 0.0, 0.0, 0.0, 0.0, 0.0, 0.0, 0.0, 1.644498211017944E9, 0.0, 2022-02-11 00:03:31.017
8.0, -10581.494639098006, -12443.014972569345, -10891.602741670937, -16864.10061885126, -3702.2535445992407, -3846.399944591516, -6417.386998818755, -7231.102255714209, -18703.872704967584, -14544.056599623753, -25316.43513637008, -14447.340601365639, -9059.832580069611, -12765.774162503978, -10522.530737224906, -11961.670155724307, 0.01, -0.02, 0.988, 192.0, 0.0, 40.0, 127.5, 48.0, 15.0, 112.0, 0.0, 0.0, 0.0, 1.6444982110179508E9, 0.0, 2022-02-11 00:03:31.017
10.0, -10588.557790345883, -12462.572748967737, -10890.999244570643, -16871.4319910326, -3700.465405042816, -3851.1608661604964, -6417.476405796577, -7242.3228314307735, -18715.60737080662, -14538.938050143488, -25314.222313669005, -14449.53107232226, -9050.243681698284, -12768.121095671786, -10518.552126711862, -11961.156065601834, 0.01, -0.02, 0.988, 192.0, 0.0, 0.0, 0.0, 0.0, 0.0, 0.0, 0.0, 0.0, 0.0, 1.6444982110179577E9, 0.0, 2022-02-11 00:03:31.017
12.0, -10584.154496688187, -12467.08780134771, -10891.423927715294, -16870.649679976665, -3704.511070789227, -3852.52432257227, -6421.432664565166, -7231.169310947575, -18712.03109169377, -14553.399628806072, -25322.53716260638, -14451.743895023334, -9061.821885326133, -12770.132752672764, -10524.698856437071, -11965.894635426359, 0.01, -0.02, 0.988, 192.0, 0.0, 0.0, 0.0, 0.0, 0.0, 0.0, 0.0, 0.0, 0.0, 1.6444982110179644E9, 0.0, 2022-02-11 00:03:31.017
14.0, -10562.741525500003, -12461.23164430042, -10883.19848575574, -16865.464075263033, -3692.083500872076, -3835.201720619407, -6428.898147213238, -7219.188775919531, -18701.659882266507, -14554.181939862006, -25302.509999574424, -14441.663258273991, -9056.479818401316, -12765.662403781702, -10518.105091822756, -11952.818864920006, 0.01, -0.02, 0.988, 192.0, 0.0, 0.0, 0.0, 0.0, 0.0, 0.0, 0.0, 0.0, 0.0, 1.6444982110179715E9, 0.0, 2022-02-11 00:03:31.017
16.0, -10575.683185539627, -12447.619431927138, -10891.736852137668, -16866.402848530157, -3699.973666664799, -3843.3154038566836, -6427.579394290376, -7232.2868981703405, -18700.51994329929, -14551.522082271826, -25300.67715652909, -14440.724485006867, -9044.767504306736, -12753.324240842372, -10522.955420369557, -11956.149274843845, 0.008, -0.020999999999999998, 0.99, 192.0, 0.0, 24.0, 127.5, 40.0, 15.5, 0.0, 0.0, 0.0, 0.0, 1.6444982110179784E9, 0.0, 2022-02-11 00:03:31.017
18.0, -10572.106906426778, -12442.07619930222, -10883.667872389302, -16859.47380774901, -3689.8036229376344, -3833.145360129519, -6416.358818573812, -7228.263584168385, -18696.317815341692, -14524.454119736449, -25298.643147783656, -14446.7594560098, -9036.899690258466, -12774.133714930264, -10523.17893781411, -11956.216330077212, 0.008, -0.020999999999999998, 0.99, 192.0, 0.0, 0.0, 0.0, 0.0, 0.0, 0.0, 0.0, 0.0, 0.0, 1.644498211017985E9, 0.0, 2022-02-11 00:03:31.017
20.0, -10585.272083910953, -12467.199560069987, -10890.596913170448, -16863.921804895617, -3694.765710206713, -3850.8702934825774, -6420.471539553588, -7246.837883810746, -18705.996120690837, -14539.675657710512, -25298.844313483754, -14436.544708793726, -9046.935623518899, -12774.983081219565, -10522.396626758175, -11954.741114943161, 0.008, -0.020999999999999998, 0.99, 192.0, 0.0, 0.0, 0.0, 0.0, 0.0, 0.0, 0.0, 0.0, 0.0, 1.644498211017992E9, 0.0, 2022-02-11 00:03:31.017
22.0, -10584.176848432642, -12463.46681874595, -10893.30147424954, -16866.71577295253, -3697.2244020967964, -3850.9597004603984, -6419.1304348862695, -7228.844729524223, -18709.885324226063, -14558.942861430987, -25318.603255582246, -14448.771113010778, -9044.40987639545, -12772.770258518489, -10524.855318648259, -11963.324184813999, 0.008, -0.020999999999999998, 0.99, 192.0, 0.0, 0.0, 0.0, 0.0, 0.0, 0.0, 0.0, 0.0, 0.0, 1.6444982110179987E9, 0.0, 2022-02-11 00:03:31.017
24.0, -10557.108885897265, -12455.822522142234, -10885.433660201272, -16866.604014230255, -3687.4790415142825, -3841.3484503446166, -6406.658161480208, -7229.828206280256, -18701.525771799777, -14555.724210229422, -25311.830677012287, -14447.340601365639, -9050.847178798578, -12763.159008402707, -10520.22850754601, -11959.591443489962, 0.008, -0.020999999999999998, 0.99, 192.0, 0.0, 0.0, 0.0, 0.0, 0.0, 0.0, 0.0, 0.0, 0.0, 1.6444982110180054E9, 0.0, 2022-02-11 00:03:31.018
26.0, -10587.887238012223, -12453.833216885712, -10886.663006146313, -16865.91111015214, -3695.749186962746, -3846.6458137805243, -6417.7222749855855, -7239.417104651583, -18706.309045113212, -14554.15958811755, -25303.6722902861, -14445.463054831393, -9052.434152654905, -12759.582729289858, -10516.182841799598, -11961.13371385738, 0.008, -0.0235, 0.992, 192.0, 0.0, 32.0, 127.5, 24.0, 15.5, 8.0, 0.0, 0.0, 0.0, 1.644498211018012E9, 0.0, 2022-02-11 00:03:31.018
28.0, -10584.04273796591, -12448.826426127724, -10882.930264822277, -16858.557386226345, -3689.177774092886, -3836.0287351642532, -6410.547365015432, -7229.4705783689715, -18701.95045494443, -14543.386047290094, -25306.086278687275, -14434.264830859285, -9047.293251430185, -12753.659517009202, -10517.233373788999, -11960.1725888458, 0.008, -0.0235, 0.992, 192.0, 0.0, 0.0, 0.0, 0.0, 0.0, 0.0, 0.0, 0.0, 0.0, 1.6444982110180187E9, 0.0, 2022-02-11 00:03:31.018
30.0, -10572.620996549249, -12450.79337963979, -10884.15961076732, -16860.926671138604, -3693.4469572838498, -3843.8965492125217, -6427.110007656814, -7240.33352617425, -18707.158411402514, -14545.442407779981, -25299.671328028602, -14432.342580836128, -9045.639222340491, -12771.876188740276, -10512.025417330911, -11955.992812632658, 0.008, -0.0235, 0.992, 192.0, 0.0, 0.0, 0.0, 0.0, 0.0, 0.0, 0.0, 0.0, 0.0, 1.6444982110180256E9, 0.0, 2022-02-11 00:03:31.018
32.0, -10571.793982004403, -12443.774931880824, -10889.904009092334, -16862.178368828103, -3697.403216052439, -3850.043278937731, -6431.021562936493, -7256.7620583489015, -18705.817306735196, -14547.968154903432, -25313.708223546535, -14452.928537479465, -9046.17566420742, -12772.725555029578, -10518.194498800576, -11965.60406274844, 0.008, -0.0235, 0.992, 192.0, 0.0, 0.0, 0.0, 0.0, 0.0, 0.0, 0.0, 0.0, 0.0, 1.6444982110180323E9, 0.0, 2022-02-11 00:03:31.018
34.0, -10577.717194285058, -12451.821559884735, -10884.070203789497, -16860.90431939415, -3688.6413322259586, -3826.4845402818373, -6407.775748702973, -7219.233479408441, -18707.65014978053, -14547.051733380764, -25307.047403698853, -14449.62047930008, -9043.046419983677, -12753.592461775836, -10515.042902832378, -11955.41166727682, 0.008, -0.0235, 0.992, 192.0, 0.0, 0.0, 0.0, 0.0, 0.0, 0.0, 0.0, 0.0, 0.0, 1.6444982110180392E9, 0.0, 2022-02-11 00:03:31.018
36.0, -10585.964987989068, -12458.258862287863, -10888.24998000264, -16859.831435660297, -3695.3245038180953, -3839.4485520659155, -6407.88750742525, -7225.916651000578, -18712.791051005253, -14547.051733380764, -25309.68490954458, -14443.026714685764, -9054.401106166972, -12771.026822450975, -10511.868955119724, -11949.376696273888, 0.008, -0.0235, 0.992, 192.0, 0.0, 0.0, 127.5, 8.0, 15.0, 120.0, 0.0, 0.0, 0.0, 1.644498211018046E9, 0.0, 2022-02-11 00:03:31.018
38.0, -10573.336252371819, -12450.234586028408, -10880.33746246546, -16855.316383280326, -3682.673416456392, -3832.6312700070466, -6407.284010324956, -7229.671744069069, -18702.710414255907, -14556.998259663376, -25312.367118879214, -14440.769188495779, -9046.734457818802, -12759.828598478867, -10510.55020219686, -11949.868434651904, 0.008, -0.0235, 0.992, 192.0, 0.0, 0.0, 0.0, 0.0, 0.0, 0.0, 0.0, 0.0, 0.0, 1.6444982110180545E9, 0.0, 2022-02-11 00:03:31.018
40.0, -10571.659871537671, -12448.491149960893, -10881.186828754762, -16862.357182783744, -3690.0941956155534, -3844.7012120129125, -6408.759225459007, -7238.47833138446, -18702.263379366803, -14557.892329441587, -25295.20097913754, -14432.14141513603, -9030.663553555436, -12761.639089779746, -10507.845641117769, -11952.483588753175, 0.008, -0.0235, 0.992, 192.0, 0.0, 0.0, 0.0, 0.0, 0.0, 0.0, 0.0, 0.0, 0.0, 1.6444982110180626E9, 0.0, 2022-02-11 00:03:31.018
42.0, -10576.577255317838, -12459.644670444093, -10886.663006146313, -16861.306650794348, -3694.9445241623553, -3846.399944591516, -6416.180004618169, -7232.421008637072, -18702.79982123373, -14560.887463198598, -25308.120287432706, -14444.166653652985, -9041.481797871804, -12768.612834049802, -10508.449138218062, -11957.333917299977, 0.008, -0.0235, 0.992, 192.0, 0.0, 0.0, 0.0, 0.0, 0.0, 0.0, 0.0, 0.0, 0.0, 1.6444982110180693E9, 0.0, 2022-02-11 00:03:31.018
44.0, -10566.608377290771, -12441.115074290643, -10880.53862816556, -16858.691496693074, -3689.7812711931792, -3844.14241840153, -6426.618269278797, -7237.472502883971, -18708.655978281018, -14555.92537592952, -25307.673252543602, -14436.500005304815, -9039.7830652932, -12764.075429925375, -10506.862164361735, -11951.723629441694, 0.008, -0.0235, 0.992, 192.0, 0.0, 0.0, 0.0, 0.0, 0.0, 0.0, 0.0, 0.0, 0.0, 1.644498211018076E9, 0.0, 2022-02-11 00:03:31.018
46.0, -10584.75799378848, -12448.55820519426, -10883.53376192257, -16863.050086861862, -3698.1408236194643, -3858.2910726417394, -6426.12653090078, -7245.139151232142, -18712.299312627234, -14555.187768362495, -25306.71212753202, -14445.61951704258, -9059.989042280798, -12767.607005549313, -10506.660998661639, -11961.200769090745, 0.005, -0.02775, 0.99, 192.0, 0.0, 8.0, 127.5, 0.0, 15.0, 112.0, 0.0, 0.0, 0.0, 1.6444982110180829E9, 0.0, 2022-02-11 00:03:31.018
48.0, -10579.572389074849, -12467.400725770083, -10876.984700797166, -16855.539900724878, -3687.3896345364615, -3847.8975114700215, -6402.5230887559765, -7229.895261513622, -18706.599617791133, -14562.16151263255, -25303.471124586, -14435.449473315415, -9054.088181744597, -12790.651654082734, -10504.917562594124, -11958.518559756109, 0.005, -0.02775, 0.99, 192.0, 0.0, 0.0, 0.0, 0.0, 0.0, 0.0, 0.0, 0.0, 0.0, 1.6444982110180902E9, 0.0, 2022-02-11 00:03:31.018
50.0, -10579.684147797127, -12457.834179143212, -10882.684395633269, -16853.23767104598, -3693.5587160061264, -3840.297918355217, -6420.650353509231, -7232.979802248455, -18712.098146927136, -14565.111942900652, -25300.543046062357, -14427.693417989423, -9053.060001499654, -12772.09970618483, -10504.090548049278, -11951.65657420833, 0.005, -0.02775, 0.99, 192.0, 0.0, 0.0, 0.0, 0.0, 0.0, 0.0, 0.0, 0.0, 0.0, 1.6444982110181167E9, 0.0, 2022-02-11 00:03:31.018
52.0, -10589.80948803538, -12448.021763327333, -10890.48515444817, -16858.222110059512, -3694.5421927621596, -3844.0306596792534, -6424.494853555543, -7243.663936098092, -18711.27113238229, -14567.615338279646, -25315.295197402862, -14441.752665251812, -9040.230100182307, -12773.552569574425, -10512.517155708929, -11954.808170176528, 0.005, -0.02775, 0.99, 192.0, 0.0, 0.0, 0.0, 0.0, 0.0, 0.0, 0.0, 0.0, 0.0, 1.6444982110181248E9, 0.0, 2022-02-11 00:03:31.018
54.0, -10581.651101309193, -12453.587347696704, -10880.739793865658, -16861.28429904989, -3682.5393059896596, -3842.980127689854, -6397.113966597792, -7232.130435959153, -18714.601542306133, -14570.901044714576, -25312.233008412484, -14440.635078029047, -9044.454579884361, -12767.04821193793, -10505.0293213164, -11956.439847521764, 0.005, -0.02775, 0.99, 192.0, 0.0, 0.0, 0.0, 0.0, 0.0, 0.0, 0.0, 0.0, 0.0, 1.6444982110181315E9, 0.0, 2022-02-11 00:03:31.018
56.0, -10582.61222632077, -12455.196673297487, -10890.909837592822, -16866.20168283006, -3690.8765066714896, -3849.305671370706, -6417.208184863113, -7235.170273205075, -18719.965960975405, -14574.209102893961, -25315.719880547513, -14451.855653745612, -9052.210635210353, -12773.083182940863, -10502.570629426316, -11954.338783542966, 0.0045000000000000005, -0.028874999999999998, 0.99, 192.0, 0.0, 16.0, 127.5, 8.0, 15.0, 120.0, 0.0, 0.0, 0.0, 1.6444982110181384E9, 0.0, 2022-02-11 00:03:31.018
58.0, -10580.622921064249, -12452.916795363046, -10884.450183445239, -16858.065647848325, -3682.2263815672854, -3842.041354422731, -6401.897239911228, -7233.449188882017, -18716.233219651367, -14574.902006972075, -25319.11734570472, -14456.370706125583, -9046.242719440785, -12770.892711984243, -10507.59977192876, -11954.003507376136, 0.0045000000000000005, -0.028874999999999998, 0.99, 192.0, 0.0, 0.0, 0.0, 0.0, 0.0, 0.0, 0.0, 0.0, 0.0, 1.644498211018145E9, 0.0, 2022-02-11 00:03:31.018
60.0, -10586.210857178075, -12456.627184942627, -10885.187791012262, -16858.535034481887, -3685.020349624199, -3851.42908709396, -6420.3150773424, -7239.238290695941, -18719.496574341843, -14576.667794784045, -25304.655767042135, -14439.13751115054, -9048.880225286512, -12757.861644966799, -10505.40930097214, -11952.237719564167, 0.0045000000000000005, -0.028874999999999998, 0.99, 192.0, 0.0, 0.0, 0.0, 0.0, 0.0, 0.0, 0.0, 0.0, 0.0, 1.644498211018152E9, 0.0, 2022-02-11 00:03:31.018
62.0, -10592.67051132566, -12462.595100712193, -10890.887485848367, -16860.703153694052, -3691.144727604953, -3853.7089650284015, -6417.074074396382, -7241.875796541667, -18719.40716736402, -14587.329576889228, -25319.698491060557, -14443.518453063782, -9043.448751383872, -12778.157028932219, -10511.801899886359, -11958.65267022284, 0.0045000000000000005, -0.028874999999999998, 0.99, 192.0, 0.0, 0.0, 0.0, 0.0, 0.0, 0.0, 0.0, 0.0, 0.0, 1.644498211018159E9, 0.0, 2022-02-11 00:03:31.018
64.0, -10581.673453053649, -12454.570824452738, -10880.806849099023, -16859.920842638116, -3682.8969339009445, -3841.4155055779825, -6403.50656551201, -7222.139206187631, -18723.028149965783, -14583.507428587369, -25313.48470610198, -14450.04516244473, -9039.380733893006, -12779.67694755518, -10510.281981263397, -11952.997678875647, 0.0045000000000000005, -0.028874999999999998, 0.99, 192.0, 0.0, 0.0, 0.0, 0.0, 0.0, 0.0, 0.0, 0.0, 0.0, 1.6444982110181656E9, 0.0, 2022-02-11 00:03:31.018
66.0, -10584.825049021847, -12444.51253944785, -10883.958445067221, -16864.57000548482, -3696.620904996503, -3845.483523068848, -6424.22663262208, -7230.364648147184, -18722.51405984331, -14577.36069886216, -25313.305892146338, -14453.174406668473, -9047.650879341469, -12777.374717876282, -10509.812594629837, -11956.037516121569, 0.00625, -0.0304375, 0.991, 192.0, 0.0, 32.0, 127.5, 0.0, 15.5, 0.0, 0.0, 0.0, 0.0, 1.6444982110181723E9, 0.0, 2022-02-11 00:03:31.018
68.0, -10565.960176701568, -12437.471739944427, -10878.124639764386, -16857.082171092294, -3688.171945592397, -3837.012211920287, -6401.941943400138, -7227.011886478888, -18711.85227773813, -14567.369469090638, -25320.39139513867, -14459.09761894913, -9045.907443273956, -12784.393165635249, -10510.594905685772, -11954.115266098413, 0.00625, -0.0304375, 0.991, 192.0, 0.0, 0.0, 0.0, 0.0, 0.0, 0.0, 0.0, 0.0, 0.0, 1.6444982110181787E9, 0.0, 2022-02-11 00:03:31.018
70.0, -10582.81339202087, -12461.499865233884, -10881.7679741106, -16854.71288618003, -3691.435300282872, -3839.850883466111, -6408.423949292177, -7231.8175115367785, -18720.547106331243, -14587.508390844869, -25310.24370315596, -14448.18996765494, -9045.080428729108, -12758.979232189564, -10505.811632372337, -11949.577861973985, 0.00625, -0.0304375, 0.991, 192.0, 0.0, 0.0, 0.0, 0.0, 0.0, 0.0, 0.0, 0.0, 0.0, 1.6444982110181897E9, 0.0, 2022-02-11 00:03:31.018
72.0, -10595.531534615939, -12467.154856581075, -10879.644558387346, -16855.852825147253, -3694.6092479955255, -3847.8081044922, -6426.685324512163, -7246.167331477086, -18719.42951910848, -14589.162419934562, -25322.671273073112, -14443.585508297147, -9041.727667060813, -12763.784857247456, -10512.248934775465, -11958.451504522742, 0.00625, -0.0304375, 0.991, 192.0, 0.0, 0.0, 0.0, 0.0, 0.0, 0.0, 0.0, 0.0, 0.0, 1.644498211018196E9, 0.0, 2022-02-11 00:03:31.018
74.0, -10591.105889213788, -12453.855568630168, -10872.044965272542, -16861.753685683452, -3676.3925762644503, -3833.9276711854545, -6394.878792152262, -7220.61928756467, -18722.245838909846, -14587.039004211309, -25313.887037502176, -14448.90522347751, -9030.283573899696, -12766.757639260011, -10504.872859105213, -11953.310603298021, 0.00625, -0.0304375, 0.991, 192.0, 0.0, 0.0, 0.0, 0.0, 0.0, 0.0, 0.0, 0.0, 0.0, 1.6444982110182028E9, 0.0, 2022-02-11 00:03:31.018
76.0, -10589.764784546469, -12457.163626809554, -10879.175171753785, -16863.76534268443, -3688.7307392037796, -3845.5729300466696, -6411.061455137904, -7237.405447650605, -18724.905696500027, -14588.223646667439, -25316.479839858992, -14454.202586913418, -9032.36228613404, -12767.271729382484, -10501.564800925828, -11954.986984132169, 0.004125, -0.03021875, 0.9904999999999999, 192.0, 0.0, 8.0, 127.5, 8.0, 15.0, 120.0, 0.0, 0.0, 0.0, 1.6444982110182097E9, 0.0, 2022-02-11 00:03:31.018
78.0, -10573.068031438355, -12456.47072273144, -10875.710651363213, -16859.138531582183, -3681.600532722537, -3841.259043366795, -6407.6863417251525, -7227.458921367994, -18718.22252490789, -14591.397594380092, -25322.090127717274, -14458.136493937553, -9039.514844359737, -12783.856723768322, -10504.872859105213, -11954.204673076234, 0.004125, -0.03021875, 0.9904999999999999, 192.0, 0.0, 0.0, 0.0, 0.0, 0.0, 0.0, 0.0, 0.0, 0.0, 1.6444982110182164E9, 0.0, 2022-02-11 00:03:31.018
80.0, -10582.880447254234, -12455.733115164414, -10875.10715426292, -16865.039392118382, -3687.6131519810147, -3838.5768340321583, -6416.247059851535, -7235.706715072002, -18716.412033607012, -14593.208085680973, -25305.7733542649, -14442.982011196855, -9040.610079838048, -12771.04917419543, -10505.856335861246, -11954.69641145425, 0.004125, -0.03021875, 0.9904999999999999, 192.0, 0.0, 0.0, 0.0, 0.0, 0.0, 0.0, 0.0, 0.0, 0.0, 1.6444982110182233E9, 0.0, 2022-02-11 00:03:31.018
82.0, -10587.931941501134, -12458.437676243506, -10880.113945020908, -16865.48642700749, -3691.144727604953, -3846.5787585471585, -6398.477423009565, -7228.375342890661, -18718.22252490789, -14594.348024648194, -25317.91035150413, -14455.454284602916, -9043.60521359506, -12767.04821193793, -10512.047769075367, -11960.753734201639, 0.004125, -0.03021875, 0.9904999999999999, 192.0, 0.0, 0.0, 0.0, 0.0, 0.0, 0.0, 0.0, 0.0, 0.0, 1.6444982110182297E9, 0.0, 2022-02-11 00:03:31.018
84.0, -10569.335290114319, -12457.029516342822, -10873.29666296204, -16863.72063919552, -3678.2701227986963, -3843.851845723611, -6386.876867637261, -7224.195566677519, -18718.513097585812, -14590.771745535345, -25312.612988068224, -14451.632136301057, -9039.179568192909, -12775.854799253322, -10505.476356205507, -11955.434019021275, 0.004125, -0.03021875, 0.9904999999999999, 192.0, 0.0, 0.0, 0.0, 0.0, 0.0, 0.0, 0.0, 0.0, 0.0, 1.6444982110182366E9, 0.0, 2022-02-11 00:03:31.018
86.0, -10575.750240772992, -12449.206405783463, -10880.359814209916, -16869.845017176274, -3688.596628737048, -3853.23957839484, -6410.748530715529, -7238.612441851193, -18719.787147019764, -14593.923341503543, -25313.90938924663, -14459.231729415862, -9030.484739599793, -12784.147296446241, -10504.537582938383, -11957.915062655815, 0.006, -0.028, 0.994, 192.0, 0.0, 24.0, 127.5, 16.0, 15.5, 8.0, 0.0, 0.0, 0.0, 1.6444982110182433E9, 0.0, 2022-02-11 00:03:31.018
88.0, -10583.57335133235, -12453.9896790969, -10874.414250184805, -16866.738124696985, -3683.3886722789616, -3840.7673049887785, -6406.680513224664, -7231.035200480843, -18719.27305689729, -14600.293588673305, -25319.430270127094, -14459.47759860487, -9037.056152469653, -12779.587540577359, -10511.757196397448, -11963.234777836178, 0.006, -0.028, 0.994, 192.0, 0.0, 0.0, 0.0, 0.0, 0.0, 0.0, 0.0, 0.0, 0.0, 1.64449821101825E9, 0.0, 2022-02-11 00:03:31.018
90.0, -10590.9494270026, -12472.452220016983, -10874.526008907082, -16865.307613051846, -3685.266218813207, -3850.8926452270325, -6399.0585683654035, -7230.923441758567, -18723.005798221326, -14608.071995743752, -25308.43321185508, -14447.407656599005, -9039.492492615282, -12774.379584119271, -10505.40930097214, -11957.93741440027, 0.006, -0.028, 0.994, 192.0, 0.0, 0.0, 0.0, 0.0, 0.0, 0.0, 0.0, 0.0, 0.0, 1.6444982110182571E9, 0.0, 2022-02-11 00:03:31.018
92.0, -10590.390633391218, -12468.60771997067, -10878.05758453102, -16868.369802042223, -3688.3284078035845, -3844.298880612717, -6412.469615038588, -7233.985630748944, -18724.391606377558, -14615.60453362519, -25323.095956217763, -14459.90228174952, -9034.955088490855, -12770.691546284146, -10510.88547836369, -11961.312527813021, 0.006, -0.028, 0.994, 192.0, 0.0, 0.0, 0.0, 0.0, 0.0, 0.0, 0.0, 0.0, 0.0, 1.644498211018264E9, 0.0, 2022-02-11 00:03:31.018
94.0, -10565.535493556918, -12445.18309178151, -10865.764125080601, -16864.167674084627, -3677.9795501207773, -3822.975316402354, -6414.660085995208, -7232.376305148162, -18717.79784176324, -14603.378129408138, -25317.150392192652, -14458.203549170918, -9036.07267571362, -12763.740153758545, -10509.65613241865, -11957.2221585777, 0.006, -0.028, 0.994, 192.0, 0.0, 0.0, 0.0, 0.0, 0.0, 0.0, 0.0, 0.0, 0.0, 1.6444982110182707E9, 0.0, 2022-02-11 00:03:31.018
96.0, -10563.702650511581, -12442.344420235684, -10874.749526351634, -16866.827531674808, -3676.526686731182, -3841.1249329000634, -6400.354969543811, -7234.81264529379, -18715.69677778444, -14593.521010103346, -25314.736403791478, -14460.930461994465, -9028.003695965255, -12765.304775870416, -10501.140117781177, -11957.93741440027, 0.01, -0.022, 0.988, 192.0, 0.0, 40.0, 127.5, 40.0, 15.0, 112.0, 0.0, 0.0, 0.0, 1.644498211018278E9, 0.0, 2022-02-11 00:03:31.018
98.0, -10572.196313404598, -12455.688411675503, -10870.010956527109, -16858.91501413763, -3673.0845180850647, -3836.2299008643513, -6387.88269613775, -7215.433682851039, -18715.60737080662, -14600.517106117859, -25321.10665096124, -14449.307554877705, -9020.046474939165, -12774.826619008378, -10504.60463817175, -11957.691545211263, 0.01, -0.022, 0.988, 192.0, 0.0, 0.0, 0.0, 0.0, 0.0, 0.0, 0.0, 0.0, 0.0, 1.6444982110182846E9, 0.0, 2022-02-11 00:03:31.018
100.0, -10566.429563335128, -12448.84877787218, -10865.9652907807, -16859.317345537824, -3670.8046401506235, -3841.884892211544, -6403.774786445473, -7238.880662784656, -18719.22835340838, -14592.425774625037, -25299.358403606228, -14443.38434259705, -9027.802530265157, -12774.781915519467, -10497.608542157239, -11958.183283589278, 0.01, -0.022, 0.988, 192.0, 0.0, 0.0, 0.0, 0.0, 0.0, 0.0, 0.0, 0.0, 0.0, 1.6444982110182915E9, 0.0, 2022-02-11 00:03:31.018
102.0, -10583.886275754723, -12453.564995952249, -10873.25195947313, -16866.24638631897, -3681.689939700358, -3842.6448515230245, -6408.60276324782, -7224.352028888707, -18721.75410053183, -14610.709501589477, -25317.217447426017, -14456.974203225876, -9022.505166829249, -12780.347499888838, -10502.637684659683, -11963.480647025186, 0.01, -0.022, 0.988, 192.0, 0.0, 0.0, 0.0, 0.0, 0.0, 0.0, 0.0, 0.0, 0.0, 1.6444982110183E9, 0.0, 2022-02-11 00:03:31.018
104.0, -10576.286682639919, -12454.973155852933, -10870.212122227207, -16863.72063919552, -3675.431451252872, -3828.3397350716277, -6419.376304075277, -7219.9040317421, -18721.95526623193, -14611.447109156503, -25311.00366246744, -14447.921746721477, -9025.388541863984, -12766.690584026646, -10501.497745692463, -11956.819827177505, 0.01, -0.022, 0.988, 192.0, 0.0, 0.0, 0.0, 0.0, 0.0, 0.0, 0.0, 0.0, 0.0, 1.6444982110183067E9, 0.0, 2022-02-11 00:03:31.018
106.0, -10584.869752510758, -12459.443504743995, -10881.008014799121, -16878.048107391372, -3685.042701368654, -3841.9295957004547, -6393.381225273755, -7232.711581314991, -18727.61025757912, -14612.877620801642, -25317.128040448195, -14455.119008436086, -9031.26705065573, -12764.008374692008, -10501.721263137015, -11960.574920245996, 0.008, -0.018000000000000002, 0.988, 192.0, 0.0, 32.0, 127.5, 56.0, 15.0, 112.0, 0.0, 0.0, 0.0, 1.6444982110183136E9, 0.0, 2022-02-11 00:03:31.018
108.0, -10585.830877522336, -12456.850702387179, -10876.403555441328, -16870.783790443398, -3680.371186777495, -3841.9295957004547, -6379.232571033546, -7225.33550564474, -18730.359522147122, -14616.65506561459, -25329.421499898614, -14463.702078306924, -9036.564414091637, -12774.558398074914, -10505.588114927783, -11964.218254592211, 0.008, -0.018000000000000002, 0.988, 192.0, 0.0, 0.0, 0.0, 0.0, 0.0, 0.0, 0.0, 0.0, 0.0, 1.6444982110183208E9, 0.0, 2022-02-11 00:03:31.018
110.0, -10590.636502580226, -12459.599966955182, -10880.203351998729, -16872.23665383299, -3687.0320066251766, -3842.488389311837, -6402.768957944984, -7233.851520282212, -18734.85222278264, -14620.32075170526, -25311.11542118972, -14453.107351435108, -9040.475969371315, -12776.52535158698, -10507.26449576193, -11962.541873758064, 0.008, -0.018000000000000002, 0.988, 192.0, 0.0, 0.0, 0.0, 0.0, 0.0, 0.0, 0.0, 0.0, 0.0, 1.6444982110183284E9, 0.0, 2022-02-11 00:03:31.018
112.0, -10596.202086949597, -12471.021708371843, -10886.90887533532, -16872.728392211007, -3691.0106171382213, -3854.3795173620606, -6408.781577203462, -7244.021564009377, -18738.674371084497, -14623.494699417914, -25327.16397370863, -14463.053877717719, -9040.855949027056, -12780.8168865224, -10515.333475510297, -11971.728440729195, 0.008, -0.018000000000000002, 0.988, 192.0, 0.0, 0.0, 0.0, 0.0, 0.0, 0.0, 0.0, 0.0, 0.0, 1.644498211018335E9, 0.0, 2022-02-11 00:03:31.018
114.0, -10587.507258356483, -12472.809847928269, -10879.465744431704, -16872.728392211007, -3682.8075269231235, -3847.361069603094, -6411.419083049189, -7241.00407850791, -18740.440158896465, -14623.60645814019, -25324.101784718252, -14457.309479392707, -9039.112512959542, -12787.701223814634, -10512.494803964473, -11970.052059895046, 0.008, -0.018000000000000002, 0.988, 192.0, 0.0, 0.0, 0.0, 0.0, 0.0, 0.0, 0.0, 0.0, 0.0, 1.644498211018342E9, 0.0, 2022-02-11 00:03:31.018
116.0, -10601.544153874416, -12483.203409099986, -10885.947750323743, -16878.070459135826, -3690.8094514381232, -3858.6710522974795, -6424.718371000096, -7251.375287935172, -18743.502347886842, -14641.353743237703, -25328.192153953572, -14454.806084013711, -9041.705315316358, -12785.890732513755, -10510.12551905221, -11974.388298319376, 0.006, -0.022, 0.982, 192.0, 0.0, 24.0, 127.5, 40.0, 15.0, 88.0, 0.0, 0.0, 0.0, 1.6444982110183487E9, 0.0, 2022-02-11 00:03:31.018
118.0, -10596.425604394151, -12470.12763859363, -10881.008014799121, -16877.377555057712, -3683.053396112132, -3842.2872236117396, -6401.941943400138, -7231.8175115367785, -18743.189423464468, -14642.94071709403, -25330.40497665465, -14460.90811025001, -9033.21165242334, -12787.969444748098, -10514.484109220995, -11976.601121020452, 0.006, -0.022, 0.982, 192.0, 0.0, 0.0, 0.0, 0.0, 0.0, 0.0, 0.0, 0.0, 0.0, 1.644498211018356E9, 0.0, 2022-02-11 00:03:31.018
120.0, -10588.021348478955, -12459.063525088255, -10878.370508953394, -16884.440706305588, -3685.310922302118, -3845.2153021353847, -6410.770882459985, -7238.120703473175, -18745.58106012119, -14632.345990222215, -25316.748060792455, -14464.797313785233, -9053.574091622126, -12774.357232374816, -10506.213963772532, -11967.995699405159, 0.006, -0.022, 0.982, 192.0, 0.0, 0.0, 0.0, 0.0, 0.0, 0.0, 0.0, 0.0, 0.0, 1.6444982110183628E9, 0.0, 2022-02-11 00:03:31.018
122.0, -10588.401328134696, -12451.12865580662, -10883.287892733562, -16880.886778937194, -3696.0621113851207, -3855.4076976070046, -6428.093484412848, -7252.045840268832, -18745.08932174317, -14636.61517341318, -25326.53812486388, -14469.513531865303, -9051.942414276888, -12801.91693328821, -10512.159527797643, -11975.908216942336, 0.006, -0.022, 0.982, 192.0, 0.0, 0.0, 0.0, 0.0, 0.0, 0.0, 0.0, 0.0, 0.0, 1.6444982114980412E9, 0.0, 2022-02-11 00:03:31.498
124.0, -10572.352775615786, -12453.475588974428, -10873.542532151048, -16876.86346493524, -3677.0407768536543, -3850.0879824266417, -6413.654257494719, -7250.369459434683, -18734.628705338087, -14626.84746108621, -25320.369043394214, -14459.768171282789, -9042.666440327936, -12798.944151275653, -10507.465661462029, -11972.242530851667, 0.006, -0.022, 0.982, 192.0, 0.0, 0.0, 0.0, 0.0, 0.0, 0.0, 0.0, 0.0, 0.0, 1.6444982114980507E9, 0.0, 2022-02-11 00:03:31.498
126.0, -10602.818203308369, -12485.148010867599, -10883.667872389302, -16877.28814807989, -3691.6141142385145, -3860.7050610429123, -6419.912745942205, -7242.836921553246, -18740.70837982993, -14643.56656593878, -25316.993929981465, -14459.365839882594, -9039.224271681818, -12792.730366317079, -10503.844678860269, -11973.337766329976, 0.006, -0.022, 0.988, 192.0, 0.0, 24.0, 127.5, 40.0, 15.0, 112.0, 0.0, 0.0, 0.0, 1.6444982114980595E9, 0.0, 2022-02-11 00:03:31.498
128.0, -10592.625807836748, -12482.979891655434, -10879.890427576354, -16873.398944544668, -3685.757957191224, -3844.164770145985, -6416.6717429961855, -7235.460845882994, -18748.263269455823, -14653.13311256565, -25326.24755218596, -14464.171464940486, -9051.36126892105, -12788.19296219265, -10510.930181852602, -11973.293062841067, 0.006, -0.022, 0.988, 192.0, 0.0, 0.0, 0.0, 0.0, 0.0, 0.0, 0.0, 0.0, 0.0, 1.644498211498067E9, 0.0, 2022-02-11 00:03:31.498
130.0, -10584.512124599472, -12463.37741176813, -10878.839895586956, -16874.42712478961, -3693.625771239492, -3842.913072456488, -6433.860234482317, -7230.990496991933, -18746.76570257732, -14642.04664731582, -25315.608121825233, -14455.119008436086, -9041.951184505366, -12780.235741166562, -10509.298504507364, -11963.212426091723, 0.006, -0.022, 0.988, 192.0, 0.0, 0.0, 0.0, 0.0, 0.0, 0.0, 0.0, 0.0, 0.0, 1.6444982114980736E9, 0.0, 2022-02-11 00:03:31.498
132.0, -10602.617037608272, -12463.779743168325, -10880.58333165447, -16879.05393589186, -3698.006713152732, -3856.1453051740295, -6396.085786352848, -7246.279090199362, -18746.13985373257, -14645.108836306195, -25323.0289009844, -14465.713735307902, -9057.597405624081, -12785.8683807693, -10516.182841799598, -11974.56711227502, 0.006, -0.022, 0.988, 192.0, 0.0, 0.0, 0.0, 0.0, 0.0, 0.0, 0.0, 0.0, 0.0, 1.6444982114980931E9, 0.0, 2022-02-11 00:03:31.498
134.0, -10601.834726552335, -12476.631996230126, -10873.05079377303, -16879.948005670074, -3688.529573503682, -3849.5738923041695, -6419.532766286465, -7255.398601937128, -18742.004781008338, -14639.94558333702, -25309.930778733586, -14453.643793302035, -9046.55564386316, -12789.265845926506, -10512.785376642392, -11971.79549596256, 0.006, -0.022, 0.988, 192.0, 0.0, 0.0, 0.0, 0.0, 0.0, 0.0, 0.0, 0.0, 0.0, 1.644498211498106E9, 0.0, 2022-02-11 00:03:31.498
136.0, -10613.949372047111, -12483.80690620028, -10884.941921823254, -16883.27841559391, -3694.0057508952323, -3860.772116276278, -6415.621211006786, -7236.109046472197, -18759.23797598338, -14662.118513836684, -25323.475935873503, -14458.628232315568, -9045.795684551678, -12800.799346065443, -10510.281981263397, -11973.360118074432, 0.008, -0.024, 0.988, 192.0, 0.0, 32.0, 127.5, 32.0, 15.0, 112.0, 0.0, 0.0, 0.0, 1.6444982114981132E9, 0.0, 2022-02-11 00:03:31.498
138.0, -10608.38378767774, -12493.37345282715, -10883.734927622669, -16881.95966267105, -3689.0213118816987, -3855.1171249290855, -6399.863231165795, -7237.67366858407, -18751.928955546493, -14662.319679536782, -25332.528392377902, -14472.665127833501, -9054.289347444696, -12811.86345957082, -10509.678484163105, -11973.091897140968, 0.008, -0.024, 0.988, 192.0, 0.0, 0.0, 0.0, 0.0, 0.0, 0.0, 0.0, 0.0, 0.0, 1.6444982114981213E9, 0.0, 2022-02-11 00:03:31.498
140.0, -10612.518860401971, -12493.105231893687, -10881.164477010308, -16884.239540605493, -3684.953294390833, -3854.245406895329, -6398.298609053923, -7238.187758706541, -18762.635441140585, -14660.598595213723, -25327.29808417536, -14475.906130779522, -9045.21453919584, -12802.453375155137, -10502.12359453721, -11967.07927788249, 0.008, -0.024, 0.988, 192.0, 0.0, 0.0, 0.0, 0.0, 0.0, 0.0, 0.0, 0.0, 0.0, 1.6444982114981277E9, 0.0, 2022-02-11 00:03:31.498
142.0, -10622.48773842904, -12505.532801810838, -10885.143087523353, -16884.15013362767, -3696.375035807495, -3863.1861046774516, -6410.547365015432, -7235.080866227254, -18767.038734798283, -14666.879435405664, -25341.87142156022, -14473.872122034089, -9057.284481201707, -12805.984950779075, -10505.923391094613, -11972.823676207505, 0.008, -0.024, 0.988, 192.0, 0.0, 0.0, 0.0, 0.0, 0.0, 0.0, 0.0, 0.0, 0.0, 1.6444982114981344E9, 0.0, 2022-02-11 00:03:31.498
144.0, -10602.661741097181, -12490.780650470335, -10877.610549641913, -16883.05489814936, -3684.1039281015314, -3849.663299281991, -6402.634847478253, -7234.991459249432, -18756.600470137655, -14663.52667373737, -25327.633360342188, -14466.049011474732, -9055.608100367559, -12789.757584304523, -10504.895210849669, -11968.152161616346, 0.008, -0.024, 0.988, 192.0, 0.0, 0.0, 0.0, 0.0, 0.0, 0.0, 0.0, 0.0, 0.0, 1.6444982114981415E9, 0.0, 2022-02-11 00:03:31.498
146.0, -10619.693770372125, -12490.981816170433, -10887.758241624624, -16885.692403995086, -3696.106814874031, -3860.481543598359, -6419.599821519831, -7242.747514575424, -18760.5790806507, -14656.910557378598, -25332.327226677804, -14467.166598697497, -9055.362231178551, -12803.258037955527, -10507.309199250842, -11969.426211050299, 0.01, -0.024, 0.99, 192.0, 0.0, 40.0, 127.5, 32.0, 15.0, 120.0, 0.0, 0.0, 0.0, 1.6444982114981484E9, 0.0, 2022-02-11 00:03:31.498
148.0, -10609.255505711497, -12479.716536964957, -10880.650386887835, -16881.06559289284, -3685.959122891322, -3851.3173283716833, -6417.811681963406, -7240.6240988521695, -18757.181615493493, -14672.288557563848, -25337.95986628054, -14468.57475859818, -9045.706277573858, -12800.911104787721, -10514.998199343467, -11972.42134480731, 0.01, -0.024, 0.99, 192.0, 0.0, 0.0, 0.0, 0.0, 0.0, 0.0, 0.0, 0.0, 0.0, 1.6444982114981592E9, 0.0, 2022-02-11 00:03:31.498
150.0, -10602.974665519556, -12481.772897454846, -10877.901122319832, -16884.2842440944, -3689.8706781710007, -3854.580683062158, -6419.935097686661, -7249.5424448898375, -18754.342943947668, -14659.90569113561, -25315.049328213852, -14454.247290402329, -9051.271861943229, -12789.109383715318, -10506.973923084011, -11971.169647117811, 0.01, -0.024, 0.99, 192.0, 0.0, 0.0, 0.0, 0.0, 0.0, 0.0, 0.0, 0.0, 0.0, 1.6444982114981656E9, 0.0, 2022-02-11 00:03:31.498
152.0, -10602.348816674807, -12483.292816077806, -10883.757279367122, -16882.607863260255, -3697.1796986078857, -3862.359090132605, -6437.101237428336, -7258.192569994041, -18751.213699723925, -14656.485874233947, -25327.007511497442, -14466.071363219186, -9043.180530450409, -12792.260979683517, -10510.907830108146, -11978.322205343511, 0.01, -0.024, 0.99, 192.0, 0.0, 0.0, 0.0, 0.0, 0.0, 0.0, 0.0, 0.0, 0.0, 1.6444982114981723E9, 0.0, 2022-02-11 00:03:31.498
154.0, -10598.52666837295, -12479.560074753772, -10879.44339268725, -16880.350337070267, -3691.725872960791, -3849.976223704365, -6444.790237520962, -7236.399619150116, -18750.878423557097, -14665.918310394087, -25321.754851550442, -14453.934365979954, -9053.618795111037, -12794.227933195583, -10512.092472564278, -11975.215312864222, 0.01, -0.024, 0.989, 192.0, 0.0, 40.0, 127.5, 32.0, 15.0, 112.0, 0.0, 0.0, 0.0, 1.644498211498179E9, 0.0, 2022-02-11 00:03:31.498
156.0, -10611.535383645938, -12488.120792880154, -10893.077956804986, -16888.6875377521, -3702.633524254981, -3862.9402354884432, -6422.237327365557, -7248.6036716227145, -18758.589775394175, -14676.37892679917, -25326.404014397147, -14461.824531772678, -9058.245606213284, -12795.703148329634, -10514.12648130971, -11973.31541458552, 0.01, -0.024, 0.989, 192.0, 0.0, 0.0, 0.0, 0.0, 0.0, 0.0, 0.0, 0.0, 0.0, 1.6444982114981856E9, 0.0, 2022-02-11 00:03:31.498
158.0, -10604.80750856489, -12474.888560162612, -10888.920532336298, -16889.06751740784, -3691.7035212163355, -3858.268720897284, -6386.251018792513, -7242.367534919684, -18758.388609694077, -14673.786124442355, -25338.943343036575, -14474.565026112203, -9051.785952065702, -12790.204619193628, -10515.042902832378, -11979.059812910535, 0.01, -0.024, 0.989, 192.0, 0.0, 0.0, 0.0, 0.0, 0.0, 0.0, 0.0, 0.0, 0.0, 1.6444982114981923E9, 0.0, 2022-02-11 00:03:31.498
160.0, -10599.66660734017, -12462.505693734372, -10891.893314348856, -16887.39113657369, -3699.146652119953, -3867.1647151904963, -6415.263583095501, -7256.404430437617, -18757.51689166032, -14658.944566124032, -25314.870514258208, -14470.72052606589, -9057.217425968342, -12804.397976922748, -10515.691103421583, -11977.092859398468, 0.01, -0.024, 0.989, 192.0, 0.0, 0.0, 0.0, 0.0, 0.0, 0.0, 0.0, 0.0, 0.0, 1.6444982114981992E9, 0.0, 2022-02-11 00:03:31.498
162.0, -10620.789005850436, -12493.485211549427, -10896.162497539819, -16889.62631101922, -3707.9308876908885, -3874.138459460552, -6414.1459958727355, -7249.810665823301, -18761.875481829105, -14670.701583707523, -25331.097880732763, -14479.638872103558, -9056.949205034876, -12814.143337505262, -10527.001086115968, -11983.172533890312, 0.01, -0.024, 0.989, 192.0, 0.0, 0.0, 0.0, 0.0, 0.0, 0.0, 0.0, 0.0, 0.0, 1.644498211498206E9, 0.0, 2022-02-11 00:03:31.498
164.0, -10609.255505711497, -12496.86032496218, -10886.640654401857, -16882.384345815703, -3698.1184718750087, -3863.521380844281, -6420.382132575766, -7248.849540811723, -18764.982374308394, -14683.375022813681, -25327.05221498635, -14450.961583967399, -9059.810228325156, -12801.559305376924, -10523.84949014777, -11979.03746116608, 0.011, -0.023, 0.9895, 192.0, 0.0, 48.0, 127.5, 40.0, 15.0, 120.0, 0.0, 0.0, 0.0, 1.6444982114982123E9, 0.0, 2022-02-11 00:03:31.498
166.0, -10620.319619216874, -12495.474516805949, -10898.040044074065, -16887.122915640226, -3711.887146459478, -3872.0820989706635, -6446.46661835511, -7267.468543942994, -18765.67527838651, -14686.973653670986, -25324.951151007554, -14459.298784649229, -9063.073583015632, -12797.513639630513, -10526.598754715771, -11981.049118167057, 0.011, -0.023, 0.9895, 192.0, 0.0, 0.0, 0.0, 0.0, 0.0, 0.0, 0.0, 0.0, 0.0, 1.6444982114982216E9, 0.0, 2022-02-11 00:03:31.498
168.0, -10612.943543546622, -12484.18688585602, -10895.78251788408, -16890.47567730852, -3706.9027074459445, -3866.33770064565, -6424.450150066633, -7253.856331569712, -18766.681106886997, -14683.397374558137, -25340.798537826366, -14470.765229554801, -9065.867551072544, -12805.716729845612, -10530.063275106344, -11984.178362390801, 0.011, -0.023, 0.9895, 192.0, 0.0, 0.0, 0.0, 0.0, 0.0, 0.0, 0.0, 0.0, 0.0, 1.6444982114982288E9, 0.0, 2022-02-11 00:03:31.498
170.0, -10612.921191802168, -12476.408478785574, -10892.921494593798, -16889.67101450813, -3709.428454569394, -3868.036433224253, -6443.18091192018, -7267.58030266527, -18769.072743543715, -14679.083487878263, -25329.667369087623, -14464.372630640582, -9060.525484147725, -12804.643846111758, -10525.28000179291, -11978.970405932714, 0.011, -0.023, 0.9895, 192.0, 0.0, 0.0, 0.0, 0.0, 0.0, 0.0, 0.0, 0.0, 0.0, 1.6444982114982357E9, 0.0, 2022-02-11 00:03:31.498
172.0, -10620.230212239054, -12480.677661976537, -10894.843744616956, -16890.609787775255, -3710.724855747802, -3870.0927937141414, -6426.484158812065, -7261.76884910689, -18766.368182464623, -14687.890075193654, -25335.25530520145, -14474.252101689828, -9062.738306848802, -12807.303703701939, -10527.872804149723, -11987.03938568108, 0.011, -0.023, 0.9895, 192.0, 0.0, 0.0, 0.0, 0.0, 0.0, 0.0, 0.0, 0.0, 0.0, 1.644498211498242E9, 0.0, 2022-02-11 00:03:31.498
174.0, -10605.545116131916, -12479.269502075853, -10887.15474452433, -16891.95089244257, -3695.592724751559, -3865.8683140120884, -6436.7436095170515, -7254.906863559111, -18763.61891789662, -14676.33422331026, -25328.929761520598, -14473.179217955974, -9052.344745677085, -12807.236648468572, -10525.436464004097, -11978.858647210438, 0.0095, -0.0245, 0.98975, 192.0, 0.0, 32.0, 127.5, 24.0, 15.0, 120.0, 0.0, 0.0, 0.0, 1.6444982114982486E9, 0.0, 2022-02-11 00:03:31.498
176.0, -10611.91536330168, -12494.535743538827, -10898.487078963171, -16897.851752978775, -3711.8200912261123, -3878.5417531182475, -6418.593993019342, -7239.439456396039, -18771.956118578448, -14684.358499569715, -25330.58379061029, -14475.995537757342, -9061.441905670394, -12809.427119425192, -10522.150757569165, -11982.591388534474, 0.0095, -0.0245, 0.98975, 192.0, 0.0, 0.0, 0.0, 0.0, 0.0, 0.0, 0.0, 0.0, 0.0, 1.6444982114982555E9, 0.0, 2022-02-11 00:03:31.498
178.0, -10619.582011649849, -12498.782574985335, -10895.201372528241, -16891.97324418703, -3711.753035992746, -3865.4883343563483, -6429.479292569076, -7245.72029658798, -18773.34192673468, -14706.218505647006, -25344.933610550597, -14480.220017459396, -9074.830600599123, -12815.238572983573, -10528.073969849822, -11983.261940868133, 0.0095, -0.0245, 0.98975, 192.0, 0.0, 0.0, 0.0, 0.0, 0.0, 0.0, 0.0, 0.0, 0.0, 1.644498211498263E9, 0.0, 2022-02-11 00:03:31.498
180.0, -10622.063055284389, -12483.8963131781, -10894.955503339232, -16893.62727327672, -3702.789986466168, -3869.645758825035, -6419.599821519831, -7252.135247246653, -18773.878368601607, -14700.250589877438, -25329.801479554353, -14471.592244099647, -9067.588635395603, -12809.471822914104, -10527.51517623844, -11976.019975664614, 0.0095, -0.0245, 0.98975, 192.0, 0.0, 0.0, 0.0, 0.0, 0.0, 0.0, 0.0, 0.0, 0.0, 1.6444982114982693E9, 0.0, 2022-02-11 00:03:31.498
182.0, -10621.727779117558, -12491.920589437555, -10898.218858029706, -16895.68363376661, -3710.4566348143385, -3873.132630960063, -6424.204280877624, -7250.883549557156, -18774.14658953507, -14692.919217696097, -25343.77131983892, -14485.62913961758, -9060.212559725353, -12819.731273619089, -10531.024400117922, -11980.22210362221, 0.0095, -0.0245, 0.98975, 192.0, 0.0, 0.0, 0.0, 0.0, 0.0, 0.0, 0.0, 0.0, 0.0, 1.644498211498276E9, 0.0, 2022-02-11 00:03:31.498
184.0, -10623.404159951706, -12502.269447120363, -10890.194581770253, -16891.928540698118, -3704.242849855763, -3861.688537798946, -6431.89328097025, -7245.250909954419, -18770.81617961123, -14702.686930023066, -25336.037616257385, -14475.950834268431, -9075.210580254863, -12814.411558438725, -10532.343153040785, -11977.472839054208, 0.00875, -0.02525, 0.9878750000000001, 192.0, 0.0, 32.0, 127.5, 24.0, 15.0, 104.0, 0.0, 0.0, 0.0, 1.644498211498283E9, 0.0, 2022-02-11 00:03:31.498
186.0, -10634.870604857279, -12502.76118549838, -10902.622151687403, -16900.846886735784, -3715.8434052280672, -3869.1316687025633, -6432.1615019037135, -7251.8893780576445, -18783.400211739565, -14712.476994094492, -25335.054139501353, -14470.429953387971, -9063.69943186038, -12814.34450320536, -10534.757141441958, -11980.065641411024, 0.00875, -0.02525, 0.9878750000000001, 192.0, 0.0, 0.0, 0.0, 0.0, 0.0, 0.0, 0.0, 0.0, 0.0, 1.6444982114982896E9, 0.0, 2022-02-11 00:03:31.498
188.0, -10625.616982652782, -12493.03817666032, -10898.174154540797, -16899.863409979753, -3703.438187055372, -3862.9625872328984, -6425.210109378113, -7244.312136687296, -18782.506141961356, -14706.106746924728, -25347.973447796518, -14486.72437509589, -9074.584731410114, -12817.674913129202, -10536.165301342644, -11980.93735944478, 0.00875, -0.02525, 0.9878750000000001, 192.0, 0.0, 0.0, 0.0, 0.0, 0.0, 0.0, 0.0, 0.0, 0.0, 1.6444982114982965E9, 0.0, 2022-02-11 00:03:31.498
190.0, -10608.517898144471, -12483.002243399887, -10896.453070217738, -16894.409584332658, -3702.432358554883, -3869.913979758499, -6430.12749315828, -7248.447209411527, -18778.41577272603, -14701.569342800301, -25336.59640986877, -14470.00527024332, -9067.253359228773, -12821.318247475416, -10530.13033033971, -11976.467010553719, 0.00875, -0.02525, 0.9878750000000001, 192.0, 0.0, 0.0, 0.0, 0.0, 0.0, 0.0, 0.0, 0.0, 0.0, 1.6444982114983032E9, 0.0, 2022-02-11 00:03:31.498
192.0, -10625.639334397238, -12485.885618434622, -10896.073090561997, -16900.10927916876, -3703.795814966657, -3873.6020175936246, -6430.999211192037, -7252.984613535955, -18778.639290170588, -14713.281656894882, -25341.87142156022, -14486.076174506687, -9061.955995792865, -12821.072378286408, -10531.270269306931, -11981.89848445636, 0.00875, -0.02525, 0.9878750000000001, 192.0, 0.0, 0.0, 0.0, 0.0, 0.0, 0.0, 0.0, 0.0, 0.0, 1.6444982114983096E9, 0.0, 2022-02-11 00:03:31.498
194.0, -10624.812319852392, -12501.978874442444, -10886.90887533532, -16897.449421578578, -3694.8998206734445, -3867.589398335147, -6431.088618169859, -7247.642546611136, -18774.32540349071, -14710.688854538066, -25334.271828445417, -14477.426049402482, -9060.994870781287, -12821.519413175514, -10526.934030882601, -11977.003452420648, 0.008375, -0.026625000000000003, 0.9899375, 192.0, 0.0, 32.0, 127.5, 16.0, 15.5, 0.0, 0.0, 0.0, 0.0, 1.6444982114983163E9, 0.0, 2022-02-11 00:03:31.498
196.0, -10631.897822844723, -12493.820487716257, -10894.217895772206, -16900.511610568956, -3704.891050444967, -3875.6360263390575, -6444.253795654035, -7260.003061294921, -18779.801580882264, -14716.299142396349, -25331.321398177315, -14470.474656876882, -9075.389394210506, -12813.159860749229, -10525.257650048454, -11977.94222568777, 0.008375, -0.026625000000000003, 0.9899375, 192.0, 0.0, 0.0, 0.0, 0.0, 0.0, 0.0, 0.0, 0.0, 0.0, 1.6444982114983237E9, 0.0, 2022-02-11 00:03:31.498
198.0, -10627.516880931484, -12509.556115812793, -10899.448203974749, -16897.315311111844, -3698.297285830651, -3865.1307064450634, -6426.573565789887, -7244.62506110967, -18781.835589627695, -14716.589715074268, -25344.486575661493, -14478.275415691784, -9064.07941151612, -12817.786671851478, -10529.504481494962, -11978.858647210438, 0.008375, -0.026625000000000003, 0.9899375, 192.0, 0.0, 0.0, 0.0, 0.0, 0.0, 0.0, 0.0, 0.0, 0.0, 1.644498211498332E9, 0.0, 2022-02-11 00:03:31.498
200.0, -10630.82493911087, -12509.62317104616, -10896.117794050908, -16897.158848900657, -3695.726835218291, -3865.331872145161, -6432.27326062599, -7246.524959388371, -18790.217493798435, -14718.042578463863, -25335.210601712537, -14468.083020220163, -9073.891827332, -12822.614648653824, -10526.442292504584, -11972.488400040675, 0.008375, -0.026625000000000003, 0.9899375, 192.0, 0.0, 0.0, 0.0, 0.0, 0.0, 0.0, 0.0, 0.0, 0.0, 1.6444982114983387E9, 0.0, 2022-02-11 00:03:31.498
202.0, -10644.861834628802, -12520.173194429064, -10900.990474342165, -16899.192857646092, -3695.749186962746, -3872.238561181851, -6427.802911734929, -7247.240215210941, -18791.916226377038, -14725.888040767675, -25342.609029127245, -14488.11018325212, -9064.280577216217, -12821.497061431059, -10530.13033033971, -11975.572940775508, 0.008375, -0.026625000000000003, 0.9899375, 192.0, 0.0, 0.0, 0.0, 0.0, 0.0, 0.0, 0.0, 0.0, 0.0, 1.6444982114983451E9, 0.0, 2022-02-11 00:03:31.498
204.0, -10658.004660368522, -12531.617287590181, -10891.312168993018, -16898.34349135679, -3679.2983030436403, -3854.8042005067114, -6422.907879699216, -7233.67270632657, -18794.732546178406, -14734.6275728497, -25346.364122195737, -14488.847790819143, -9065.442867927894, -12818.166651507217, -10523.17893781411, -11970.297929084056, 0.0071875, -0.026312500000000003, 0.9899687500000001, 192.0, 0.0, 24.0, 127.5, 24.0, 15.0, 120.0, 0.0, 0.0, 0.0, 1.644498211498352E9, 0.0, 2022-02-11 00:03:31.498
206.0, -10697.410785843229, -12568.29650024134, -10904.164422054819, -16910.167564173647, -3698.8113759531234, -3869.8022210362224, -6457.4636766271215, -7261.38886945115, -18801.281607303812, -14741.601317119756, -25350.320380964327, -14497.207343245429, -9071.455487186371, -12815.082110772386, -10524.65415294816, -11973.538932030075, 0.0071875, -0.026312500000000003, 0.9899687500000001, 192.0, 0.0, 0.0, 0.0, 0.0, 0.0, 0.0, 0.0, 0.0, 0.0, 1.6444982114983585E9, 0.0, 2022-02-11 00:03:31.498
208.0, -10722.64590533327, -12593.531619731382, -10907.114852322919, -16910.078157195825, -3694.855117184534, -3864.616616322591, -6434.910766471716, -7240.33352617425, -18819.76649996835, -14759.438009195092, -25376.24840453248, -14516.429843476993, -9075.32233897714, -12825.520375433014, -10535.56180424235, -11981.294987356066, 0.0071875, -0.026312500000000003, 0.9899687500000001, 192.0, 0.0, 0.0, 0.0, 0.0, 0.0, 0.0, 0.0, 0.0, 0.0, 1.644498211498365E9, 0.0, 2022-02-11 00:03:31.498
210.0, -10726.870385035323, -12592.950474375544, -10901.213991786719, -16912.67095955264, -3686.048529869143, -3867.0529564682197, -6394.208239818602, -7239.215938951485, -18828.036645416814, -14758.096904527772, -25370.68282016311, -14514.999331831854, -9074.048289543187, -12812.422253182203, -10523.201289558565, -11976.42230706481, 0.0071875, -0.026312500000000003, 0.9899687500000001, 192.0, 0.0, 0.0, 0.0, 0.0, 0.0, 0.0, 0.0, 0.0, 0.0, 1.6444982114983716E9, 0.0, 2022-02-11 00:03:31.498
212.0, -10762.32025174144, -12619.861974699734, -10909.372378512906, -16910.72635778503, -3691.122375860498, -3868.0811367131637, -6416.381170318266, -7224.933174244545, -18831.031779173827, -14765.048297053374, -25384.339736025304, -14537.038151864786, -9061.866588815044, -12824.849823099354, -10518.50742322295, -11974.254187852644, 0.0071875, -0.026312500000000003, 0.9899687500000001, 192.0, 0.0, 0.0, 0.0, 0.0, 0.0, 0.0, 0.0, 0.0, 0.0, 1.644498211498378E9, 0.0, 2022-02-11 00:03:31.498
214.0, -10760.12978078482, -12650.12623669222, -10903.940904610266, -16913.92265724214, -3687.188468836364, -3858.916921486488, -6411.642600493741, -7226.542499845326, -18832.52934605233, -14781.096849572285, -25381.076381334828, -14521.391930746071, -9071.701356375379, -12818.367817207316, -10518.686237178594, -11970.454391295241, 0.00859375, -0.026156250000000002, 0.989984375, 192.0, 0.0, 40.0, 127.5, 24.0, 15.0, 120.0, 0.0, 0.0, 0.0, 1.6444982114983847E9, 0.0, 2022-02-11 00:03:31.498
216.0, -10786.527190986537, -12660.989184497499, -10915.630866960391, -16916.291942154403, -3700.8006812096455, -3879.748747318834, -6426.506510556521, -7239.260642440396, -18843.97343921345, -14785.991881607997, -25387.334869782313, -14526.085797081685, -9083.234856514318, -12836.383323238293, -10522.553088969362, -11975.438830308776, 0.00859375, -0.026156250000000002, 0.989984375, 192.0, 0.0, 0.0, 0.0, 0.0, 0.0, 0.0, 0.0, 0.0, 0.0, 1.6444982114983912E9, 0.0, 2022-02-11 00:03:31.498
218.0, -10797.457194025183, -12663.492579876493, -10910.691131435768, -16914.213229920057, -3694.8104136956235, -3874.518439116292, -6430.060437924914, -7243.395715164628, -18848.041456704315, -14787.914131631152, -25396.476733264535, -14528.097454082663, -9079.189190767907, -12850.39786701177, -10528.364542527741, -11980.84795246696, 0.00859375, -0.026156250000000002, 0.989984375, 192.0, 0.0, 0.0, 0.0, 0.0, 0.0, 0.0, 0.0, 0.0, 0.0, 1.6444982114983976E9, 0.0, 2022-02-11 00:03:31.498
220.0, -10782.481525240128, -12655.22243442803, -10907.20425930074, -16919.77881428943, -3695.5480212626485, -3874.7643083053003, -6439.157597918224, -7249.967128034488, -18847.035628203826, -14794.26202705646, -25387.625442460234, -14527.225736048906, -9068.37094645154, -12841.434817485193, -10524.65415294816, -11979.104516399446, 0.00859375, -0.026156250000000002, 0.989984375, 192.0, 0.0, 0.0, 0.0, 0.0, 0.0, 0.0, 0.0, 0.0, 0.0, 1.6444982114984043E9, 0.0, 2022-02-11 00:03:31.498
222.0, -10775.776001903534, -12637.698666775068, -10915.697922193756, -16919.2423724225, -3706.2992103456513, -3876.0160059947975, -6421.231498865069, -7239.707677329502, -18843.951087468995, -14794.239675312005, -25395.672070464145, -14546.895271169577, -9074.674138387936, -12841.144244807274, -10530.063275106344, -11981.250283867155, 0.00859375, -0.026156250000000002, 0.989984375, 192.0, 0.0, 0.0, 0.0, 0.0, 0.0, 0.0, 0.0, 0.0, 0.0, 1.6444982114984107E9, 0.0, 2022-02-11 00:03:31.498
224.0, -10755.659431893759, -12636.446969085571, -10905.39376799986, -16907.887686239206, -3695.9056491739334, -3866.7400320458455, -6420.7174087425965, -7236.757247061401, -18837.357322854677, -14795.826649168332, -25383.915052880653, -14525.459948236938, -9087.235818771818, -12841.121893062818, -10529.057446605855, -11974.053022152546, 0.01, -0.028, 0.992, 192.0, 0.0, 40.0, 127.5, 16.0, 15.5, 0.0, 0.0, 0.0, 0.0, 1.6444982114984171E9, 0.0, 2022-02-11 00:03:31.498
226.0, -10739.677934608215, -12608.015550138422, -10913.082768092487, -16906.948912972082, -3700.1524806204416, -3869.3551861471165, -6440.833978752373, -7246.234386710452, -18835.792700742808, -14781.901512372675, -25375.533148709914, -14511.91479109702, -9077.535161678215, -12826.123872533308, -10528.722170439027, -11973.427173307799, 0.01, -0.028, 0.992, 192.0, 0.0, 0.0, 0.0, 0.0, 0.0, 0.0, 0.0, 0.0, 0.0, 1.6444982114984236E9, 0.0, 2022-02-11 00:03:31.498
228.0, -10735.721675839624, -12615.413977553128, -10906.332541266984, -16909.988750218006, -3692.9999223947434, -3872.19385769294, -6420.583298275865, -7243.5521773758155, -18824.326255837233, -14774.100753557774, -25377.88008187772, -14516.139270799074, -9074.674138387936, -12831.018904569019, -10533.259574563453, -11980.400917577854, 0.01, -0.028, 0.992, 192.0, 0.0, 0.0, 0.0, 0.0, 0.0, 0.0, 0.0, 0.0, 0.0, 1.6444982114984305E9, 0.0, 2022-02-11 00:03:31.498
230.0, -10723.785844300492, -12603.008759380433, -10901.996302842654, -16913.319160141848, -3691.055320627132, -3860.7274127873675, -6429.9933826915485, -7242.926328531066, -18826.650837260586, -14775.821837880832, -25363.910241593152, -14518.150927800052, -9074.897655832488, -12824.849823099354, -10526.956382627057, -11980.065641411024, 0.01, -0.028, 0.992, 192.0, 0.0, 0.0, 0.0, 0.0, 0.0, 0.0, 0.0, 0.0, 0.0, 1.6444982114984384E9, 0.0, 2022-02-11 00:03:31.498
232.0, -10713.146413939765, -12576.29842475634, -10904.879677877389, -16907.4406513501, -3689.624808981992, -3865.5106861008035, -6426.282993111968, -7241.875796541667, -18818.53715402331, -14761.740238873988, -25369.431122473616, -14508.897305595554, -9059.497303902783, -12828.761378379033, -10525.302353537363, -11978.433964065787, 0.01, -0.028, 0.992, 192.0, 0.0, 0.0, 0.0, 0.0, 0.0, 0.0, 0.0, 0.0, 0.0, 1.644498211498445E9, 0.0, 2022-02-11 00:03:31.498
234.0, -10712.74408253957, -12565.279014739874, -10894.217895772206, -16902.232694892013, -3680.147669332942, -3851.4067353495047, -6416.895260440739, -7240.378229663162, -18815.25144758838, -14765.182407520106, -25362.278564247914, -14510.35016898515, -9082.161972780463, -12833.656410414746, -10522.17310931362, -11976.534065787086, 0.01, -0.028, 0.994, 192.0, 0.0, 40.0, 127.5, 16.0, 15.5, 8.0, 0.0, 0.0, 0.0, 1.6444982114984517E9, 0.0, 2022-02-11 00:03:31.498
236.0, -10715.247477918563, -12566.910692085112, -10904.365587754917, -16903.998482703984, -3690.2506578267407, -3866.985901234854, -6428.1158361573025, -7247.754305333413, -18819.453575545976, -14777.408811737158, -25355.170709511127, -14495.307444966727, -9076.976368066833, -12828.090826045374, -10522.195461058076, -11973.56128377453, 0.01, -0.028, 0.994, 192.0, 0.0, 0.0, 0.0, 0.0, 0.0, 0.0, 0.0, 0.0, 0.0, 1.644498211498458E9, 0.0, 2022-02-11 00:03:31.498
238.0, -10694.438003830672, -12567.760058374413, -10900.364625497417, -16894.946026199585, -3685.668550213403, -3862.6273110660686, -6408.759225459007, -7240.266470940885, -18813.86563943215, -14771.575006434323, -25366.458340461057, -14504.002273559843, -9071.991929053298, -12836.718599405123, -10525.056484348355, -11982.70314725675, 0.01, -0.028, 0.994, 192.0, 0.0, 0.0, 0.0, 0.0, 0.0, 0.0, 0.0, 0.0, 0.0, 1.6444982114984646E9, 0.0, 2022-02-11 00:03:31.498
240.0, -10680.669329246204, -12556.427723935572, -10900.163459797319, -16894.1860668881, -3682.8745821564894, -3860.8615232540997, -6417.342295329845, -7229.247060924418, -18807.540095751297, -14765.24946275347, -25352.264982731936, -14482.857523305122, -9068.974443551831, -12841.390113996282, -10517.009856344444, -11969.13563837238, 0.01, -0.028, 0.994, 192.0, 0.0, 0.0, 0.0, 0.0, 0.0, 0.0, 0.0, 0.0, 0.0, 1.6444982114984713E9, 0.0, 2022-02-11 00:03:31.498
242.0, -10691.912256707223, -12558.707601870014, -10904.276180777095, -16904.043186192892, -3691.9270386608887, -3868.7069855579125, -6410.122681870781, -7233.382133648651, -18812.323369064736, -14772.603186679267, -25362.25621250346, -14502.907038081532, -9057.97738527982, -12832.628230169801, -10522.240164546987, -11976.869341953916, 0.01, -0.028, 0.994, 192.0, 0.0, 0.0, 0.0, 0.0, 0.0, 0.0, 0.0, 0.0, 0.0, 1.6444982119775186E9, 0.0, 2022-02-11 00:03:31.977
244.0, -10682.278654846985, -12550.616270377192, -10891.714500393213, -16902.1879914031, -3690.0047886377324, -3863.8566570111107, -6410.301495826423, -7224.977877733455, -18811.652816731075, -14766.992898820985, -25355.461282189048, -14496.313273467216, -9078.049251800687, -12825.475671944103, -10524.475338992517, -11974.120077385913, 0.008, -0.026000000000000002, 0.994, 192.0, 0.0, 32.0, 127.5, 24.0, 15.5, 8.0, 0.0, 0.0, 0.0, 1.644498211977528E9, 0.0, 2022-02-11 00:03:31.977
246.0, -10683.128021136286, -12539.283935938352, -10897.458898718227, -16905.3395873713, -3697.045588141154, -3868.639930324546, -6420.806815720417, -7241.8534447972115, -18814.267970832345, -14769.362183733248, -25348.733407108, -14494.927465310988, -9077.333995978117, -12827.509680689536, -10517.993333100478, -11976.914045442825, 0.008, -0.026000000000000002, 0.994, 192.0, 0.0, 0.0, 0.0, 0.0, 0.0, 0.0, 0.0, 0.0, 0.0, 1.6444982119775355E9, 0.0, 2022-02-11 00:03:31.977
248.0, -10673.44971578714, -12538.009886504398, -10896.095442306452, -16900.131630913216, -3697.1796986078857, -3869.9586832474097, -6429.635754780264, -7243.283956442351, -18807.58479924021, -14777.945253604086, -25359.17167176863, -14515.356959743138, -9073.355385465073, -12835.846881371366, -10523.760083169947, -11981.719670500717, 0.008, -0.026000000000000002, 0.994, 192.0, 0.0, 0.0, 0.0, 0.0, 0.0, 0.0, 0.0, 0.0, 0.0, 1.6444982119775429E9, 0.0, 2022-02-11 00:03:31.977
250.0, -10655.925948134178, -12527.012828232388, -10894.597875427948, -16897.360014600756, -3695.8385939405675, -3868.8634477690994, -6433.144978659747, -7245.072095998776, -18805.282569561314, -14771.999689578974, -25347.05702627385, -14494.122802510597, -9068.661519129459, -12831.15301503575, -10522.575440713816, -11976.869341953916, 0.008, -0.026000000000000002, 0.994, 192.0, 0.0, 0.0, 0.0, 0.0, 0.0, 0.0, 0.0, 0.0, 0.0, 1.6444982119775505E9, 0.0, 2022-02-11 00:03:31.977
252.0, -10662.810285426413, -12520.240249662429, -10898.06239581852, -16900.33279661331, -3699.63839049797, -3875.8595437836107, -6425.232461122569, -7252.336412946751, -18802.510953248853, -14768.088134299296, -25351.885003076197, -14505.857468349634, -9058.893806802489, -12838.439683728182, -10522.910716880646, -11981.607911778441, 0.008, -0.026000000000000002, 0.994, 192.0, 0.0, 0.0, 0.0, 0.0, 0.0, 0.0, 0.0, 0.0, 0.0, 1.6444982119775572E9, 0.0, 2022-02-11 00:03:31.977
254.0, -10657.468218501595, -12522.318961896774, -10888.004110813632, -16895.48246806651, -3683.29926530114, -3872.976168748876, -6414.637734250753, -7233.33743015974, -18797.77238342433, -14765.607090664756, -25340.329151192804, -14489.406584430526, -9064.12411500503, -12824.805119610444, -10523.491862236484, -11975.70705124224, 0.01, -0.022, 0.992, 192.0, 0.0, 40.0, 127.5, 40.0, 15.5, 0.0, 0.0, 0.0, 0.0, 1.644498211977564E9, 0.0, 2022-02-11 00:03:31.977
0.0, -10663.257320315519, -12523.81652877528, -10893.614398671914, -16899.237561135003, -3694.1622131064196, -3882.4309566534707, -6425.5900890338535, -7250.81649432379, -18803.069746860238, -14771.709116901055, -25335.702340090556, -14478.565988369703, -9072.08133603112, -12841.837148885388, -10524.22946980351, -11975.058850653035, 0.01, -0.022, 0.992, 192.0, 0.0, 0.0, 0.0, 0.0, 0.0, 0.0, 0.0, 0.0, 0.0, 1.6444982119775708E9, 0.0, 2022-02-11 00:03:31.977
2.0, -10650.002735853523, -12502.157688398087, -10892.25094226014, -16897.181200645115, -3690.0271403821876, -3874.116107716097, -6422.527900043476, -7240.557043618804, -18798.77821192482, -14777.051183825874, -25349.001628041464, -14487.305520451728, -9070.092030774598, -12828.716674890122, -10530.286792550898, -11978.724536743706, 0.01, -0.022, 0.992, 192.0, 0.0, 0.0, 0.0, 0.0, 0.0, 0.0, 0.0, 0.0, 0.0, 1.644498211977578E9, 0.0, 2022-02-11 00:03:31.977
4.0, -10637.351648491818, -12500.14603139711, -10888.741718380657, -16896.711814011553, -3689.7365677042685, -3876.1501164615297, -6436.967126961605, -7249.43068616756, -18793.324386277724, -14766.948195332074, -25331.075528988305, -14483.930407038977, -9066.739269106301, -12830.750683635555, -10525.414112259641, -11977.159914631835, 0.01, -0.022, 0.992, 192.0, 0.0, 0.0, 0.0, 0.0, 0.0, 0.0, 0.0, 0.0, 0.0, 1.6444982119775853E9, 0.0, 2022-02-11 00:03:31.977
6.0, -10647.633450941259, -12513.8029472593, -10894.843744616956, -16897.58353204531, -3695.63742824047, -3879.2570089408173, -6436.676554283686, -7255.845636826234, -18793.90553163356, -14763.841302852787, -25334.49534588997, -14492.692290865458, -9051.987117765799, -12833.231727270095, -10530.219737317531, -11984.558342046541, 0.01, -0.022, 0.992, 192.0, 0.0, 0.0, 0.0, 0.0, 0.0, 0.0, 0.0, 0.0, 0.0, 1.6444982119776027E9, 0.0, 2022-02-11 00:03:31.977
8.0, -10630.19909026612, -12503.029406431844, -10885.880695090378, -16893.180238387613, -3685.5120880022155, -3872.9985204933314, -6416.381170318266, -7243.306308186807, -18790.57512170972, -14773.988994835496, -25333.377758667204, -14484.556255883725, -9062.850065571078, -12828.49315744557, -10525.79409191538, -11978.880998954894, 0.01, -0.026000000000000002, 0.994, 192.0, 0.0, 40.0, 127.5, 24.0, 15.5, 8.0, 0.0, 0.0, 0.0, 1.6444982119776096E9, 0.0, 2022-02-11 00:03:31.977
10.0, -10639.67622991517, -12505.309284366285, -10890.127526536886, -16897.225904134026, -3700.3536463205396, -3879.5475816187363, -6446.9583567331265, -7263.713450874502, -18794.643139200587, -14772.603186679267, -25333.958904023042, -14484.288034950261, -9073.780068609723, -12832.248250514062, -10526.822272160325, -11979.37273733291, 0.01, -0.026000000000000002, 0.994, 192.0, 0.0, 0.0, 0.0, 0.0, 0.0, 0.0, 0.0, 0.0, 0.0, 1.6444982119776163E9, 0.0, 2022-02-11 00:03:31.977
12.0, -10633.0601135564, -12500.257790119385, -10888.831125358478, -16897.449421578578, -3695.8162421961124, -3870.5398286032473, -6434.888414727261, -7252.247005968929, -18791.446839743476, -14775.464209969547, -25342.564325638334, -14495.732128111378, -9069.488533674305, -12826.056817299941, -10533.013705374446, -11983.306644357044, 0.01, -0.026000000000000002, 0.994, 192.0, 0.0, 0.0, 0.0, 0.0, 0.0, 0.0, 0.0, 0.0, 0.0, 1.6444982119776232E9, 0.0, 2022-02-11 00:03:31.977
14.0, -10618.062093026889, -12487.18201961303, -10884.24901774514, -16898.34349135679, -3692.39642529445, -3880.016968252298, -6435.357801360822, -7251.665860613091, -18789.47988623141, -14769.16101803315, -25327.990988253474, -14486.299691951239, -9061.240739970295, -12828.739026634577, -10525.257650048454, -11979.462144310732, 0.01, -0.026000000000000002, 0.994, 192.0, 0.0, 0.0, 0.0, 0.0, 0.0, 0.0, 0.0, 0.0, 0.0, 1.64449821197763E9, 0.0, 2022-02-11 00:03:31.977
16.0, -10638.849215370325, -12504.705787265992, -10895.49194520616, -16899.550485557378, -3705.785120223179, -3886.0966427441413, -6425.210109378113, -7251.464694912994, -18792.072688588225, -14765.696497642577, -25335.836450557286, -14489.741860597356, -9059.966690536343, -12833.343485992371, -10528.766873927936, -11989.90040897136, 0.01, -0.026000000000000002, 0.994, 192.0, 0.0, 0.0, 0.0, 0.0, 0.0, 0.0, 0.0, 0.0, 0.0, 1.6444982119776368E9, 0.0, 2022-02-11 00:03:31.977
18.0, -10631.897822844723, -12512.417139103072, -10889.7698986256, -16896.935331456105, -3699.7948527091567, -3874.585494349658, -6418.996324419538, -7242.881625042156, -18797.97354912443, -14784.114335073751, -25332.64015110018, -14486.72437509589, -9083.056042558675, -12830.080131301896, -10531.762007684947, -11985.98885369168, 0.004, -0.024, 0.996, 192.0, 0.0, 16.0, 127.5, 32.0, 15.5, 16.0, 0.0, 0.0, 0.0, 1.6444982119776435E9, 0.0, 2022-02-11 00:03:31.977
20.0, -10648.952203864123, -12509.645522790614, -10895.559000439525, -16904.31140712636, -3707.729721990791, -3883.325026431683, -6440.051667696437, -7250.794142579334, -18806.489563761897, -14789.948140376586, -25337.669293602623, -14489.138363497063, -9083.637187914514, -12827.174404522706, -10530.219737317531, -11985.407708335842, 0.004, -0.024, 0.996, 192.0, 0.0, 0.0, 0.0, 0.0, 0.0, 0.0, 0.0, 0.0, 0.0, 1.6444982119776502E9, 0.0, 2022-02-11 00:03:31.977
22.0, -10651.746171921037, -12503.722310509958, -10892.809735871522, -16902.29975012538, -3700.8677364430114, -3880.396947908038, -6445.594900321353, -7252.314061202295, -18807.45068877348, -14793.747936933987, -25348.532241407902, -14501.163602014018, -9078.9433215789, -12840.741913407079, -10530.599716973271, -11989.431022337798, 0.004, -0.024, 0.996, 192.0, 0.0, 0.0, 0.0, 0.0, 0.0, 0.0, 0.0, 0.0, 0.0, 1.644498211977657E9, 0.0, 2022-02-11 00:03:31.977
24.0, -10637.731628147558, -12502.917647709566, -10891.334520737473, -16905.361939115755, -3692.821108439101, -3876.418337394993, -6433.41319959321, -7249.453037912016, -18805.99782538388, -14781.610939694756, -25335.456470901547, -14497.475564178892, -9074.048289543187, -12836.11510230483, -10525.838795404292, -11985.385356591387, 0.004, -0.024, 0.996, 192.0, 0.0, 0.0, 0.0, 0.0, 0.0, 0.0, 0.0, 0.0, 0.0, 1.6444982119776638E9, 0.0, 2022-02-11 00:03:31.977
26.0, -10647.34287826334, -12504.079938421242, -10897.145974295852, -16903.68555828161, -3704.242849855763, -3877.8041455512225, -6444.164388676213, -7251.554101890815, -18806.511915506355, -14784.918997874141, -25345.335941950794, -14502.884686337076, -9061.777181837224, -12837.299744760961, -10527.626934960716, -11986.346481602965, 0.004, -0.024, 0.996, 192.0, 0.0, 0.0, 0.0, 0.0, 0.0, 0.0, 0.0, 0.0, 0.0, 1.6444982119776707E9, 0.0, 2022-02-11 00:03:31.977
28.0, -10634.82590136837, -12500.369548841662, -10889.38991896986, -16902.322101869835, -3695.8832974294783, -3875.837192039155, -6429.971030947093, -7253.9457385475325, -18800.409889270057, -14790.171657821138, -25344.263058216937, -14494.458078677426, -9080.17266752394, -12836.226861027106, -10534.533623997406, -11990.816830494026, 0.004, -0.026000000000000002, 0.992, 192.0, 0.0, 16.0, 127.5, 24.0, 15.5, 0.0, 0.0, 0.0, 0.0, 1.6444982119776773E9, 0.0, 2022-02-11 00:03:31.977
30.0, -10639.00567758151, -12510.114909424175, -10898.643541174359, -16909.83228800682, -3701.5159370322153, -3886.7001398444345, -6432.005039692526, -7242.971032019977, -18807.83066842922, -14793.5914747228, -25341.558497137845, -14496.872067078599, -9083.27956000323, -12845.145207064774, -10531.985525129501, -11989.520429315618, 0.004, -0.026000000000000002, 0.992, 192.0, 0.0, 0.0, 0.0, 0.0, 0.0, 0.0, 0.0, 0.0, 0.0, 1.6444982119776845E9, 0.0, 2022-02-11 00:03:31.977
32.0, -10633.954183334612, -12510.874868735656, -10897.72711965169, -16906.881857738717, -3701.1359573764753, -3887.8177270672, -6443.4938363425545, -7247.821360566779, -18805.081403861215, -14792.138611333206, -25354.366046710737, -14501.811802603223, -9086.140583293509, -12845.301669275961, -10541.105036867266, -11994.974254962714, 0.004, -0.026000000000000002, 0.992, 192.0, 0.0, 0.0, 0.0, 0.0, 0.0, 0.0, 0.0, 0.0, 0.0, 1.6444982119776912E9, 0.0, 2022-02-11 00:03:31.977
34.0, -10644.414799739696, -12507.902086723101, -10895.626055672892, -16909.16173567316, -3696.330332318584, -3885.6272561105798, -6454.312080658923, -7255.711526359502, -18804.3884997831, -14800.632274226222, -25335.814098812833, -14492.49112516536, -9082.363138480561, -12838.909070361742, -10539.540414755395, -11991.017996194125, 0.004, -0.026000000000000002, 0.992, 192.0, 0.0, 0.0, 0.0, 0.0, 0.0, 0.0, 0.0, 0.0, 0.0, 1.644498211977698E9, 0.0, 2022-02-11 00:03:31.977
36.0, -10644.928889862167, -12498.536705796327, -10910.44526224676, -16909.295846139892, -3699.146652119953, -3888.130651489574, -6433.256737382024, -7253.543407147337, -18810.602284741675, -14811.31640807586, -25349.35925595275, -14506.125689283097, -9071.32137671964, -12850.867253645332, -10541.663830478648, -11994.951903218258, 0.004, -0.026000000000000002, 0.988, 192.0, 0.0, 16.0, 127.5, 24.0, 15.0, 96.0, 0.0, 0.0, 0.0, 1.6444982119777048E9, 0.0, 2022-02-11 00:03:31.977
38.0, -10637.374000236274, -12496.100365650698, -10903.315055765517, -16911.352206629777, -3688.574276992593, -3874.8984187720325, -6432.8097024929175, -7249.050706511821, -18808.72473820743, -14796.11722184625, -25350.36508445324, -14514.68640740948, -9079.502115190282, -12846.106332076351, -10541.149740356177, -11991.80030725006, 0.004, -0.026000000000000002, 0.988, 192.0, 0.0, 0.0, 0.0, 0.0, 0.0, 0.0, 0.0, 0.0, 0.0, 1.644498211977714E9, 0.0, 2022-02-11 00:03:31.977
40.0, -10651.924985876678, -12518.563868828282, -10902.957427854231, -16911.01693046295, -3694.788061951168, -3885.0908142436524, -6429.278126868979, -7259.667785128091, -18813.642121987596, -14806.711948718066, -25344.19600298357, -14496.089756022664, -9088.88984786151, -12844.519358220025, -10537.931089154612, -11992.716728772728, 0.004, -0.026000000000000002, 0.988, 192.0, 0.0, 0.0, 0.0, 0.0, 0.0, 0.0, 0.0, 0.0, 0.0, 1.6444982119777205E9, 0.0, 2022-02-11 00:03:31.977
42.0, -10640.883224115756, -12516.641618805126, -10899.515259208114, -16908.848811250784, -3692.798756694646, -3881.201610708429, -6436.408333350222, -7257.074982771276, -18808.76944169634, -14811.852849942787, -25350.007456541953, -14501.051843291742, -9079.591522168103, -12849.190872811185, -10540.680353722615, -11994.37075786242, 0.004, -0.026000000000000002, 0.988, 192.0, 0.0, 0.0, 0.0, 0.0, 0.0, 0.0, 0.0, 0.0, 0.0, 1.6444982119777272E9, 0.0, 2022-02-11 00:03:31.977
44.0, -10648.460465486105, -12513.8029472593, -10897.861230118422, -16911.2404479075, -3686.249695569241, -3883.9955787653425, -6445.75136253254, -7252.8281513247675, -18808.43416552951, -14804.186201594615, -25341.82671807131, -14486.389098929061, -9074.897655832488, -12846.665125687734, -10535.494749008983, -11989.98981594918, 0.004, -0.026000000000000002, 0.988, 192.0, 0.0, 0.0, 0.0, 0.0, 0.0, 0.0, 0.0, 0.0, 0.0, 1.6444982119777343E9, 0.0, 2022-02-11 00:03:31.977
46.0, -10660.128076091776, -12515.658142049091, -10906.712520922723, -16916.44840436559, -3697.269105585707, -3889.3152939457054, -6453.797990536451, -7260.114820017197, -18817.82189820074, -14816.993751167507, -25353.49432867698, -14508.763195128822, -9077.646920400492, -12847.156864065752, -10537.685219965604, -11995.331882874, 0.006, -0.026000000000000002, 0.986, 192.0, 0.0, 32.0, 127.5, 24.0, 15.0, 96.0, 0.0, 0.0, 0.0, 1.644498211977741E9, 0.0, 2022-02-11 00:03:31.977
48.0, -10638.603346181315, -12504.19169714352, -10897.883581862878, -16912.20157291908, -3681.4440705113498, -3872.9985204933314, -6427.333525101367, -7244.870930298678, -18811.25048533088, -14812.076367387339, -25349.515718163937, -14508.986712573376, -9063.140638248997, -12838.976125595109, -10537.931089154612, -11991.822658994515, 0.006, -0.026000000000000002, 0.986, 192.0, 0.0, 0.0, 0.0, 0.0, 0.0, 0.0, 0.0, 0.0, 0.0, 1.6444982119777484E9, 0.0, 2022-02-11 00:03:31.977
50.0, -10645.174759051175, -12514.361740870685, -10903.695035421257, -16911.754538029974, -3691.1000241160423, -3885.3590351771163, -6446.51132184402, -7259.176046750074, -18812.211610342456, -14815.563239522367, -25344.911258806143, -14511.333645741182, -9071.723708119835, -12850.509625734046, -10531.31497279584, -11992.672025283817, 0.006, -0.026000000000000002, 0.986, 192.0, 0.0, 0.0, 0.0, 0.0, 0.0, 0.0, 0.0, 0.0, 0.0, 1.6444982119777553E9, 0.0, 2022-02-11 00:03:31.977
52.0, -10654.16016032221, -12521.179022929553, -10905.147898810852, -16907.91003798366, -3693.335198561573, -3884.5990758656358, -6440.386943863266, -7246.033221010354, -18819.230058101424, -14820.5476785359, -25357.96467756804, -14511.11012829663, -9087.682853660925, -12856.030506614508, -10544.077818879821, -11998.081147442002, 0.006, -0.026000000000000002, 0.986, 192.0, 0.0, 0.0, 0.0, 0.0, 0.0, 0.0, 0.0, 0.0, 0.0, 1.644498211977762E9, 0.0, 2022-02-11 00:03:31.977
54.0, -10645.44297998464, -12513.110043181186, -10901.236343531173, -16908.15590717267, -3688.9319049038777, -3877.8041455512225, -6442.108028186325, -7255.063325770298, -18824.952104681983, -14820.659437258177, -25345.090072761785, -14500.247180491351, -9083.056042558675, -12848.430913499704, -10534.578327486317, -11992.04617643907, 0.006, -0.026000000000000002, 0.986, 192.0, 0.0, 0.0, 0.0, 0.0, 0.0, 0.0, 0.0, 0.0, 0.0, 1.6444982119777687E9, 0.0, 2022-02-11 00:03:31.977
56.0, -10651.276785287475, -12515.300514137807, -10911.20522155824, -16912.022758963438, -3703.572297522104, -3890.231715468373, -6455.094391714859, -7259.064288027798, -18821.934619180516, -14825.576821038345, -25352.890831576686, -14502.370596214605, -9082.586655925114, -12859.763247938545, -10541.149740356177, -12001.120984687923, 0.007, -0.024, 0.985, 192.0, 0.0, 32.0, 127.5, 40.0, 15.0, 96.0, 0.0, 0.0, 0.0, 1.644498211977775E9, 0.0, 2022-02-11 00:03:31.977
58.0, -10640.77146539348, -12501.174211642054, -10905.550230211047, -16910.793413018397, -3689.557753748626, -3883.2132677094064, -6451.6522230687415, -7254.213959480997, -18821.264066846856, -14825.040379171418, -25357.182366512105, -14510.439575962972, -9083.972464081344, -12844.429951242204, -10541.596775245283, -11999.243438153677, 0.007, -0.024, 0.985, 192.0, 0.0, 0.0, 0.0, 0.0, 0.0, 0.0, 0.0, 0.0, 0.0, 1.644498211977782E9, 0.0, 2022-02-11 00:03:31.977
60.0, -10655.143637078243, -12514.026464703855, -10909.774709913101, -16912.24627640799, -3692.9999223947434, -3886.1860497219623, -6431.133321658769, -7254.48218041446, -18824.840345959707, -14827.566126294867, -25355.01424729994, -14502.258837492329, -9068.79562959619, -12844.139378564285, -10533.661905963649, -11998.036443953091, 0.007, -0.024, 0.985, 192.0, 0.0, 0.0, 0.0, 0.0, 0.0, 0.0, 0.0, 0.0, 0.0, 1.6444982119777887E9, 0.0, 2022-02-11 00:03:31.977
62.0, -10648.751038164024, -12513.668836792569, -10902.488041220671, -16908.647645550685, -3686.115585102509, -3875.5466193612365, -6416.157652873713, -7244.334488431751, -18823.029854658827, -14831.768254252465, -25362.21150901455, -14510.998369574354, -9084.620664670547, -12849.079114088907, -10530.0856268508, -11997.835278252993, 0.007, -0.024, 0.985, 192.0, 0.0, 0.0, 0.0, 0.0, 0.0, 0.0, 0.0, 0.0, 0.0, 1.6444982119777956E9, 0.0, 2022-02-11 00:03:31.977
64.0, -10632.255450756009, -12497.03913891782, -10903.091538320963, -16911.329854885324, -3684.0592246126207, -3867.2541221683173, -6433.569661804398, -7243.619232609181, -18821.085252891215, -14826.269725116459, -25343.659561116645, -14503.622293904102, -9073.265978487252, -12824.939230077176, -10524.855318648259, -11988.916932215327, 0.007, -0.024, 0.985, 192.0, 0.0, 0.0, 0.0, 0.0, 0.0, 0.0, 0.0, 0.0, 0.0, 1.6444982119778023E9, 0.0, 2022-02-11 00:03:31.977
66.0, -10644.146578806232, -12509.734929768436, -10912.747491925657, -16909.742881028997, -3699.884259686978, -3884.7108345879124, -6441.1469031747465, -7258.840770583245, -18822.761633725364, -14818.737187235021, -25349.44866293057, -14511.423052719005, -9078.518638434249, -12833.857576114844, -10528.65511520566, -11995.063661940536, 0.006500000000000001, -0.023, 0.9875, 192.0, 0.0, 24.0, 127.5, 40.0, 15.0, 120.0, 0.0, 0.0, 0.0, 1.644498211977809E9, 0.0, 2022-02-11 00:03:31.977
68.0, -10649.332183519862, -12511.903048980601, -10902.175116798297, -16907.686520539108, -3682.963989134311, -3874.5631426052028, -6423.869004710795, -7244.468598898483, -18823.745110481395, -14823.609867526278, -25350.409787942146, -14501.454174691937, -9076.395222710995, -12844.497006475569, -10527.55987972735, -11994.840144495982, 0.006500000000000001, -0.023, 0.9875, 192.0, 0.0, 0.0, 0.0, 0.0, 0.0, 0.0, 0.0, 0.0, 0.0, 1.6444982119778156E9, 0.0, 2022-02-11 00:03:31.977
70.0, -10655.724782434081, -12517.222764160964, -10907.383073256384, -16907.619465305743, -3688.216649081308, -3885.3590351771163, -6436.184815905669, -7253.610462380703, -18824.996808170894, -14832.08117867484, -25346.788805340388, -14492.379366443083, -9065.688737116901, -12853.348297279872, -10522.575440713816, -11992.51556307263, 0.006500000000000001, -0.023, 0.9875, 192.0, 0.0, 0.0, 0.0, 0.0, 0.0, 0.0, 0.0, 0.0, 0.0, 1.6444982119778244E9, 0.0, 2022-02-11 00:03:31.977
72.0, -10631.473139700072, -12475.067374118255, -10902.01865458711, -16899.885761724207, -3681.82405016709, -3877.62533159558, -6426.439455323155, -7245.38502042115, -18818.53715402331, -14826.068559416362, -25354.947192066575, -14499.621331646602, -9077.088126789109, -12850.666087945234, -10525.481167493006, -11995.980083463202, 0.006500000000000001, -0.023, 0.9875, 192.0, 0.0, 0.0, 0.0, 0.0, 0.0, 0.0, 0.0, 0.0, 0.0, 1.644498211977831E9, 0.0, 2022-02-11 00:03:31.977
74.0, -10641.844349127336, -12495.698034250503, -10901.325750508995, -16908.513535083956, -3680.2370763107633, -3879.8828577855656, -6441.1469031747465, -7250.548273390326, -18808.25535157387, -14820.234754113526, -25335.38941566818, -14491.8205728317, -9069.734402863312, -12829.498985946058, -10519.312086023341, -11989.833353737993, 0.006500000000000001, -0.023, 0.9875, 192.0, 0.0, 0.0, 0.0, 0.0, 0.0, 0.0, 0.0, 0.0, 0.0, 1.6444982119778376E9, 0.0, 2022-02-11 00:03:31.977
76.0, -10659.815151669402, -12522.810700274791, -10911.49579423616, -16916.135479943216, -3692.239963083263, -3895.2161544819064, -6445.1925689211575, -7258.48314267196, -18825.801470971284, -14854.052943474406, -25349.649828630667, -14514.507593453836, -9072.193094753397, -12853.772980424523, -10527.358714027252, -12000.428080609809, 0.00825, -0.0225, 0.98875, 192.0, 0.0, 40.0, 127.5, 40.0, 15.0, 120.0, 0.0, 0.0, 0.0, 1.6444982119778445E9, 0.0, 2022-02-11 00:03:31.977
78.0, -10635.049418812921, -12511.411310602583, -10899.895238863855, -16914.10147119778, -3681.980512378277, -3877.3124071732054, -6437.257699639524, -7237.606613350704, -18809.797621941285, -14851.437789373136, -25343.39134018318, -14506.639779405568, -9061.531312648214, -12843.91586111973, -10524.22946980351, -11997.388243363886, 0.00825, -0.0225, 0.98875, 192.0, 0.0, 0.0, 0.0, 0.0, 0.0, 0.0, 0.0, 0.0, 0.0, 1.6444982119778512E9, 0.0, 2022-02-11 00:03:31.977
80.0, -10654.942471378145, -12520.799043273813, -10910.646427946858, -16923.35509340228, -3686.7190822028024, -3883.593247365147, -6424.360743088811, -7249.989479778944, -18823.745110481395, -14857.31629816488, -25352.130872265207, -14512.719453897413, -9061.128981248019, -12837.992648839076, -10520.630838946205, -11993.834315995493, 0.00825, -0.0225, 0.98875, 192.0, 0.0, 0.0, 0.0, 0.0, 0.0, 0.0, 0.0, 0.0, 0.0, 1.644498211977858E9, 0.0, 2022-02-11 00:03:31.977
82.0, -10656.350631278829, -12519.86027000669, -10907.472480234204, -16913.185049675114, -3686.115585102509, -3888.3318171896717, -6446.600728821842, -7271.827134111779, -18828.617790772652, -14858.74680981002, -25361.540956680892, -14526.01874184832, -9079.233894256819, -12860.299689805472, -10525.570574470828, -12000.361025376444, 0.00825, -0.0225, 0.98875, 192.0, 0.0, 0.0, 0.0, 0.0, 0.0, 0.0, 0.0, 0.0, 0.0, 1.6444982119778645E9, 0.0, 2022-02-11 00:03:31.977
84.0, -10650.91915737619, -12522.520127596872, -10901.102233064441, -16909.474660095533, -3678.337178032062, -3885.180221221474, -6430.485121069565, -7244.490950642938, -18822.046377902792, -14849.917870750174, -25345.64886637317, -14501.141250269564, -9078.205714011874, -12855.583471725402, -10522.553088969362, -11995.331882874, 0.00825, -0.0225, 0.98875, 192.0, 0.0, 0.0, 0.0, 0.0, 0.0, 0.0, 0.0, 0.0, 0.0, 1.644498211977872E9, 0.0, 2022-02-11 00:03:31.977
86.0, -10659.412820269206, -12520.240249662429, -10908.970047112709, -16918.772985788943, -3685.3779775354838, -3898.4124539390154, -6444.589071820864, -7256.918520560089, -18823.409834314567, -14863.775952312464, -25349.895697819677, -14516.183974287984, -9074.428269198927, -12860.344393294383, -10525.257650048454, -12001.456260854753, 0.008125, -0.021249999999999998, 0.989375, 192.0, 0.0, 32.0, 127.5, 48.0, 15.0, 120.0, 0.0, 0.0, 0.0, 1.6444982119778788E9, 0.0, 2022-02-11 00:03:31.977
88.0, -10632.76954087848, -12517.401578116605, -10899.291741763562, -16916.515459598955, -3672.7715936626905, -3889.427052667982, -6437.6823827841745, -7254.7056978590135, -18817.53132552282, -14860.84787378882, -25348.48753791899, -14514.48524170938, -9071.991929053298, -12868.458076531659, -10527.425769260619, -12003.154993433356, 0.008125, -0.021249999999999998, 0.989375, 192.0, 0.0, 0.0, 0.0, 0.0, 0.0, 0.0, 0.0, 0.0, 0.0, 1.6444982119778855E9, 0.0, 2022-02-11 00:03:31.977
90.0, -10648.035782341454, -12522.497775852416, -10904.857326132933, -16918.30359915538, -3680.661759455414, -3889.5611631347138, -6443.717353787107, -7247.3743256776725, -18815.094985377193, -14861.339612166836, -25346.140604751185, -14509.523154440303, -9060.816056825644, -12844.698172175667, -10521.547260468873, -11996.1812491633, 0.008125, -0.021249999999999998, 0.989375, 192.0, 0.0, 0.0, 0.0, 0.0, 0.0, 0.0, 0.0, 0.0, 0.0, 1.644498211977893E9, 0.0, 2022-02-11 00:03:31.977
92.0, -10656.507093490016, -12521.134319440642, -10900.699901664246, -16914.414395620155, -3682.695768200847, -3883.7944130652445, -6451.540464346464, -7248.782485578357, -18818.96183716796, -14865.161760468694, -25354.053122288362, -14514.753462642844, -9075.054118043676, -12852.387172268292, -10525.481167493006, -11996.717691030228, 0.008125, -0.021249999999999998, 0.989375, 192.0, 0.0, 0.0, 0.0, 0.0, 0.0, 0.0, 0.0, 0.0, 0.0, 1.6444982119779E9, 0.0, 2022-02-11 00:03:31.977
94.0, -10647.432285241162, -12514.76407227088, -10896.743642895657, -16918.147136944193, -3675.9455413753444, -3880.1957822079403, -6429.233423380068, -7234.834997038245, -18824.527421537332, -14864.245338946026, -25344.285409961394, -14500.493049680359, -9084.978292581833, -12841.725390163112, -10522.933068625101, -11992.76143226164, 0.008125, -0.021249999999999998, 0.989375, 192.0, 0.0, 0.0, 0.0, 0.0, 0.0, 0.0, 0.0, 0.0, 0.0, 1.6444982119779067E9, 0.0, 2022-02-11 00:03:31.977
96.0, -10654.920119633689, -12510.42783384655, -10902.35393075394, -16920.002331733984, -3680.661759455414, -3897.272514971795, -6430.574528047387, -7257.7008316160245, -18825.35443608218, -14863.172455212172, -25349.381607697203, -14508.562029428726, -9078.65274890098, -12867.295785819982, -10521.0331703464, -11997.812926508537, 0.0070625, -0.019625, 0.9896875, 192.0, 0.0, 24.0, 127.5, 56.0, 15.0, 120.0, 0.0, 0.0, 0.0, 1.6444982119779136E9, 0.0, 2022-02-11 00:03:31.977
98.0, -10643.140750305743, -12501.643598275614, -10900.521087708603, -16914.883782253717, -3672.861000640512, -3887.258933455817, -6443.739705531562, -7258.147866505131, -18822.515764536354, -14847.660344560189, -25350.007456541953, -14517.905058611042, -9076.17170526644, -12851.291936789983, -10524.430635503608, -11998.863458497937, 0.0070625, -0.019625, 0.9896875, 192.0, 0.0, 0.0, 0.0, 0.0, 0.0, 0.0, 0.0, 0.0, 0.0, 1.6444982119779203E9, 0.0, 2022-02-11 00:03:31.977
100.0, -10662.899692404235, -12526.118758454175, -10914.44622450426, -16913.810898519863, -3686.0261781246877, -3893.696235858946, -6456.077868470892, -7261.791200851346, -18832.05995941877, -14863.932414523651, -25353.44962518807, -14505.432785204983, -9067.02984178422, -12870.760306210555, -10526.442292504584, -11997.879981741904, 0.0070625, -0.019625, 0.9896875, 192.0, 0.0, 0.0, 0.0, 0.0, 0.0, 0.0, 0.0, 0.0, 0.0, 1.6444982119779272E9, 0.0, 2022-02-11 00:03:31.977
102.0, -10659.39046852475, -12531.594935845726, -10911.58520121398, -16912.849773508286, -3683.7463001902465, -3890.0305497682753, -6450.556987590431, -7258.192569994041, -18835.63623853162, -14882.126734510271, -25363.97729682652, -14514.820517876211, -9081.446716957893, -12868.100448620373, -10533.125464096722, -11999.534010831596, 0.0070625, -0.019625, 0.9896875, 192.0, 0.0, 0.0, 0.0, 0.0, 0.0, 0.0, 0.0, 0.0, 0.0, 1.6444982119779367E9, 0.0, 2022-02-11 00:03:31.977
104.0, -10649.354535264318, -12513.959409470488, -10901.63867493137, -16916.40370087668, -3681.1534978334307, -3886.6330846110686, -6445.147865432247, -7255.845636826234, -18829.78008148433, -14871.464952405091, -25350.186270497594, -14506.72918638339, -9088.50986820577, -12855.583471725402, -10525.99525761548, -11994.482516584698, 0.0070625, -0.019625, 0.9896875, 192.0, 0.0, 0.0, 0.0, 0.0, 0.0, 0.0, 0.0, 0.0, 0.0, 1.644498211977944E9, 0.0, 2022-02-11 00:03:31.977
106.0, -10655.702430689626, -12515.47932809345, -10907.695997678757, -16923.869183524752, -3688.3507595480396, -3888.5329828897698, -6462.045784240459, -7269.5025526884265, -18830.58474428472, -14872.202559972116, -25354.567212410835, -14512.339474241671, -9082.787821625212, -12852.118951334829, -10528.766873927936, -12003.84789751147, 0.006, -0.018000000000000002, 0.99, 192.0, 0.0, 24.0, 127.5, 56.0, 15.0, 120.0, 0.0, 0.0, 0.0, 1.644498212458935E9, 0.0, 2022-02-11 00:03:32.458
108.0, -10641.956107849612, -12519.502642095405, -10906.35489301144, -16920.762291045463, -3680.8852768999673, -3890.9693230353982, -6442.040972952959, -7247.083752999753, -18830.227116373437, -14863.820655801375, -25362.68089564811, -14535.428826264004, -9080.038557057209, -12851.604861212358, -10530.197385573076, -11997.500002086164, 0.006, -0.018000000000000002, 0.99, 192.0, 0.0, 0.0, 0.0, 0.0, 0.0, 0.0, 0.0, 0.0, 0.0, 1.6444982124589448E9, 0.0, 2022-02-11 00:03:32.458
110.0, -10663.30202380443, -12535.215918447486, -10914.356817526439, -16917.275418910434, -3690.630637482481, -3893.0256835252862, -6452.367478891311, -7258.5278461608705, -18842.095892679205, -14888.385222957759, -25357.405883956657, -14507.757366628333, -9080.552647179682, -12866.692288719689, -10529.057446605855, -11996.427118352309, 0.006, -0.018000000000000002, 0.99, 192.0, 0.0, 0.0, 0.0, 0.0, 0.0, 0.0, 0.0, 0.0, 0.0, 1.644498212458952E9, 0.0, 2022-02-11 00:03:32.458
112.0, -10657.959956879611, -12512.350083869707, -10909.372378512906, -16914.68261655362, -3697.8726026860004, -3891.5057649023256, -6469.5559703774425, -7260.360689206206, -18838.743131010906, -14889.145182269238, -25364.804311371365, -14515.11109055413, -9084.643016415002, -12858.82447467142, -10537.282888565409, -11997.388243363886, 0.006, -0.018000000000000002, 0.99, 192.0, 0.0, 0.0, 0.0, 0.0, 0.0, 0.0, 0.0, 0.0, 0.0, 1.6444982124589589E9, 0.0, 2022-02-11 00:03:32.458
114.0, -10656.685907445659, -12524.509432853394, -10905.505526722138, -16917.320122399346, -3690.831803182579, -3886.6330846110686, -6445.684307299174, -7253.297537958329, -18836.954991454484, -14877.410516430202, -25352.287334476394, -14508.003235817343, -9092.734347907824, -12860.59026248339, -10533.885423408203, -11993.119060172923, 0.006, -0.018000000000000002, 0.99, 192.0, 0.0, 0.0, 0.0, 0.0, 0.0, 0.0, 0.0, 0.0, 0.0, 1.6444982124589777E9, 0.0, 2022-02-11 00:03:32.458
116.0, -10667.861779673312, -12545.028334263365, -10909.372378512906, -16918.05772996637, -3687.0990618585424, -3896.2443347268504, -6438.978783962582, -7271.916541089599, -18840.06188393377, -14894.286083493958, -25355.6847996336, -14509.836078862678, -9085.827658871134, -12868.569835253935, -10529.973868128523, -11998.192906164279, 0.006, -0.02, 0.988, 192.0, 0.0, 24.0, 127.5, 48.0, 15.0, 112.0, 0.0, 0.0, 0.0, 1.6444982124589844E9, 0.0, 2022-02-11 00:03:32.458
118.0, -10652.372020765784, -12526.632848576648, -10905.147898810852, -16916.694273554596, -3680.8852768999673, -3886.856602055622, -6434.329621115879, -7251.241177468441, -18832.35053209669, -14893.414365460201, -25354.343694966283, -14514.820517876211, -9077.758679122768, -12867.16167535325, -10530.555013484362, -11998.505830586653, 0.006, -0.02, 0.988, 192.0, 0.0, 0.0, 0.0, 0.0, 0.0, 0.0, 0.0, 0.0, 0.0, 1.6444982124589913E9, 0.0, 2022-02-11 00:03:32.458
120.0, -10654.048401599932, -12518.608572317193, -10910.244096546663, -16919.465889867057, -3689.200125837341, -3887.3259886891833, -6445.930176488183, -7250.235348967952, -18839.05605543328, -14889.435754947157, -25353.40492169916, -14514.418186476016, -9074.092993032098, -12856.678707203711, -10525.548222726373, -11995.1307171739, 0.006, -0.02, 0.988, 192.0, 0.0, 0.0, 0.0, 0.0, 0.0, 0.0, 0.0, 0.0, 0.0, 1.644498212458998E9, 0.0, 2022-02-11 00:03:32.458
122.0, -10657.959956879611, -12524.91176425359, -10911.384035513884, -16922.930410257628, -3690.3624165490173, -3888.7341485898673, -6455.56377834842, -7261.970014806988, -18840.06188393377, -14896.09657479484, -25364.44668346008, -14525.415244748026, -9089.403937983983, -12847.134512321296, -10536.098246109277, -12001.880943999404, 0.006, -0.02, 0.988, 192.0, 0.0, 0.0, 0.0, 0.0, 0.0, 0.0, 0.0, 0.0, 0.0, 1.6444982124590049E9, 0.0, 2022-02-11 00:03:32.459
124.0, -10664.240797071552, -12539.261584193897, -10912.568677970014, -16925.07617772534, -3684.7744804351905, -3893.8974015590434, -6439.336411873867, -7253.431648425061, -18845.292192136312, -14896.141278283749, -25364.044352059886, -14532.321933784717, -9093.539010708215, -12873.800143456478, -10533.75131294147, -12002.41738586633, 0.006, -0.02, 0.988, 192.0, 0.0, 0.0, 0.0, 0.0, 0.0, 0.0, 0.0, 0.0, 0.0, 1.6444982124590113E9, 0.0, 2022-02-11 00:03:32.459
126.0, -10681.630454257782, -12549.945718043533, -10923.364570541928, -16925.232639936523, -3704.756939978235, -3906.6378958985683, -6448.612385822819, -7263.333471218762, -18854.92579399655, -14913.262714536515, -25371.35337249677, -14527.605715704647, -9096.243571787307, -12890.183972142217, -10537.729923454515, -12006.016016723635, 0.006, -0.028, 0.988, 192.0, 0.0, 24.0, 127.5, 16.0, 15.0, 112.0, 0.0, 0.0, 0.0, 1.644498212459018E9, 0.0, 2022-02-11 00:03:32.459
128.0, -10671.706279719625, -12543.19549121803, -10918.044855361564, -16927.043131237406, -3693.5140125172156, -3893.584477136669, -6449.886435256772, -7255.465657170494, -18856.15513994159, -14911.742795913553, -25369.855805618266, -14527.471605237915, -9098.344635766105, -12884.014890672552, -10544.100170624277, -12006.373644634921, 0.006, -0.028, 0.988, 192.0, 0.0, 0.0, 0.0, 0.0, 0.0, 0.0, 0.0, 0.0, 0.0, 1.6444982124590244E9, 0.0, 2022-02-11 00:03:32.459
