%OpenBCI Raw EEG Data
%Number of channels = 16
%Sample Rate = 125 Hz
%Board = OpenBCI_GUI$BoardCytonSerialDaisy
Sample Index, EXG Channel 0, EXG Channel 1, EXG Channel 2, EXG Channel 3, EXG Channel 4, EXG Channel 5, EXG Channel 6, EXG Channel 7, EXG Channel 8, EXG Channel 9, EXG Channel 10, EXG Channel 11, EXG Channel 12, EXG Channel 13, EXG Channel 14, EXG Channel 15, Accel Channel 0, Accel Channel 1, Accel Channel 2, Other, Other, Other, Other, Other, Other, Other, Analog Channel 0, Analog Channel 1, Analog Channel 2, Timestamp, Other, Timestamp (Formatted)
0.0, -10832.95176422021, -12581.282863769873, -10859.48328488866, -16923.913887013663, -3747.761696310246, -4298.776900622475, -6422.192623876646, -7481.061813957908, 0.0, 0.0, 0.0, 0.0, 0.0, 0.0, 0.0, 0.0, 0.0, 0.0, 0.0, 192.0, 0.0, 0.0, 0.0, 0.0, 0.0, 0.0, 0.0, 0.0, 0.0, 1.644498268760799E9, 0.0, 2022-02-11 00:04:28.760
104.0, -10819.965400691677, -12575.091430555753, -10854.632956341859, -16923.6456660802, -3738.955108994855, -4289.009188295507, -6416.559984273909, -7464.85679922781, -19287.16382827328, -15777.403506923141, -25222.826030591255, -14571.415134837049, -9393.52177304289, -13559.283442411834, -10559.142894642699, -12051.05478180108, 0.0, 0.0, 0.0, 192.0, 0.0, 0.0, 0.0, 0.0, 0.0, 0.0, 0.0, 0.0, 0.0, 1.6444982687608073E9, 0.0, 2022-02-11 00:04:28.760
106.0, -10846.228700426664, -12584.456811482527, -10862.925453534777, -16929.30065742739, -3755.0707167471314, -4294.865345342797, -6451.227539924091, -7485.9791977380755, -19291.164790530776, -15780.286881957876, -25222.51310616888, -14578.701803529479, -9386.302159583827, -13556.288308654823, -10559.925205698635, -12053.267604502154, 0.0, 0.0, 0.0, 192.0, 0.0, 0.0, 0.0, 0.0, 0.0, 0.0, 0.0, 0.0, 0.0, 1.644498268760815E9, 0.0, 2022-02-11 00:04:28.760
108.0, -10863.528950635071, -12612.284733329385, -10865.875883802877, -16929.97120976105, -3748.119324221531, -4287.556324905911, -6437.280051383978, -7483.408747125715, -19294.875180110357, -15793.541466419872, -25237.220554020474, -14588.067184456253, -9400.651979524133, -13558.881111011638, -10567.144819157698, -12059.615499927462, 0.0, 0.0, 0.0, 192.0, 0.0, 0.0, 0.0, 0.0, 0.0, 0.0, 0.0, 0.0, 0.0, 1.6444982687608218E9, 0.0, 2022-02-11 00:04:28.760
110.0, -10880.739793865658, -12638.16805340863, -10868.379279181872, -16933.949820274094, -3745.951205009366, -4285.835240582853, -6444.231443909579, -7481.173572680184, -19314.34354953093, -15801.31987349032, -25241.42268197807, -14591.911684502566, -9398.66267426761, -13550.67802079654, -10567.345984857797, -12056.86623535946, 0.014, -0.028, 0.994, 192.0, 0.0, 56.0, 127.5, 16.0, 15.5, 8.0, 0.0, 0.0, 0.0, 1.6444982687608287E9, 0.0, 2022-02-11 00:04:28.760
112.0, -10915.8767361494, -12661.771495553434, -10872.402593183828, -16933.480433640532, -3746.8676265320337, -4282.5048306590115, -6448.880606756283, -7480.950055235631, -19321.406700778807, -15804.806745625347, -25254.632562951156, -14600.405347395581, -9392.605351520224, -13542.16200615907, -10571.95044421559, -12059.570796438551, 0.014, -0.028, 0.994, 192.0, 0.0, 0.0, 0.0, 0.0, 0.0, 0.0, 0.0, 0.0, 0.0, 1.644498268760836E9, 0.0, 2022-02-11 00:04:28.760
114.0, -10939.25666084965, -12689.55471391138, -10869.407459426817, -16927.713683571063, -3731.847254258067, -4270.390185164236, -6414.45892029511, -7464.610930038802, -19335.10832012991, -15808.561838693839, -25262.74624618843, -14602.975798007941, -9395.533430043868, -13554.187244676024, -10566.85424647978, -12050.495988189698, 0.014, -0.028, 0.994, 192.0, 0.0, 0.0, 0.0, 0.0, 0.0, 0.0, 0.0, 0.0, 0.0, 1.6444982687608433E9, 0.0, 2022-02-11 00:04:28.760
116.0, -10977.187571190307, -12726.591554473825, -10875.91181706331, -16937.123767986748, -3742.687850318891, -4281.007263780506, -6421.164443631702, -7468.701299274123, -19342.797320222537, -15819.916524877135, -25274.369153305193, -14619.337274949226, -9389.677272996578, -13553.606099320186, -10564.127333656232, -12050.160712022867, 0.014, -0.028, 0.994, 192.0, 0.0, 0.0, 0.0, 0.0, 0.0, 0.0, 0.0, 0.0, 0.0, 1.6444982687608504E9, 0.0, 2022-02-11 00:04:28.760
118.0, -10991.582094619525, -12730.346647542316, -10870.8156193275, -16930.35118941679, -3736.8763967605114, -4269.183190963649, -6423.55608028842, -7459.671194514179, -19352.408570338317, -15817.904867876157, -25289.14365639015, -14634.268240245372, -9393.611180020713, -13559.909291256583, -10568.888255225213, -12048.305517233077, 0.012, -0.03, 0.992, 192.0, 0.0, 40.0, 127.5, 0.0, 15.0, 120.0, 0.0, 0.0, 0.0, 1.644498268760858E9, 0.0, 2022-02-11 00:04:28.760
120.0, -10997.125327244441, -12749.613851262791, -10872.492000161648, -16928.54069811591, -3731.199053668863, -4270.32312993087, -6422.662010510208, -7464.700337016623, -19358.35413436343, -15824.185708068098, -25273.89976667163, -14604.786289308822, -9390.727804985978, -13553.941375487017, -10567.994185447, -12043.388133452909, 0.012, -0.03, 0.992, 192.0, 0.0, 0.0, 0.0, 0.0, 0.0, 0.0, 0.0, 0.0, 0.0, 1.6444982687608657E9, 0.0, 2022-02-11 00:04:28.760
122.0, -11002.55680114708, -12748.51861578448, -10873.408421684317, -16931.96051501757, -3733.8812630035, -4277.587446878844, -6414.50362378402, -7472.14346792024, -19355.0684279285, -15829.058388359355, -25283.846292954244, -14620.343103449715, -9392.203020120027, -13544.128959671136, -10561.646290021694, -12048.305517233077, 0.012, -0.03, 0.992, 192.0, 0.0, 0.0, 0.0, 0.0, 0.0, 0.0, 0.0, 0.0, 0.0, 1.6444982687608724E9, 0.0, 2022-02-11 00:04:28.760
124.0, -10980.138001458407, -12757.146389144229, -10866.971119281188, -16927.49016612651, -3731.489626346782, -4278.32505444587, -6431.021562936493, -7464.543874805436, -19358.957631463723, -15832.120577349733, -25276.827845195276, -14604.696882331, -9393.789993976354, -13561.608023835186, -10564.484961567518, -12047.724371877239, 0.012, -0.03, 0.992, 192.0, 0.0, 0.0, 0.0, 0.0, 0.0, 0.0, 0.0, 0.0, 0.0, 1.6444982687608795E9, 0.0, 2022-02-11 00:04:28.760
126.0, -10966.145809429385, -12722.769406171967, -10868.848665815434, -16930.082968483326, -3734.4847601037936, -4278.079185256861, -6440.051667696437, -7479.296026145938, -19350.598079037438, -15833.171109339131, -25273.318621315793, -14603.467536385959, -9386.659787495111, -13552.577919075242, -10564.440258078606, -12049.825435856037, 0.012, -0.03, 0.992, 192.0, 0.0, 0.0, 0.0, 0.0, 0.0, 0.0, 0.0, 0.0, 0.0, 1.6444982687608864E9, 0.0, 2022-02-11 00:04:28.760
128.0, -10957.942719214287, -12688.571237155347, -10859.662098844303, -16925.903192270183, -3722.5489285646595, -4265.22693219506, -6425.8806617117725, -7474.132773176762, -19338.30461958702, -15819.111862076745, -25265.09317935624, -14607.55790562128, -9382.055328137318, -13534.67417176654, -10563.456781322573, -12050.831264356526, 0.011, -0.031, 0.993, 192.0, 0.0, 40.0, 127.5, 0.0, 15.5, 8.0, 0.0, 0.0, 0.0, 1.6444982687608936E9, 0.0, 2022-02-11 00:04:28.760
130.0, -10942.318849840029, -12694.22622850254, -10858.700973832723, -16924.96441900306, -3727.1310361779974, -4271.418365409179, -6423.824301221884, -7453.725630489067, -19333.096663128934, -15814.216830041032, -25249.826937893267, -14589.832972268221, -9374.545142000336, -13550.610965563175, -10556.505388796973, -12042.71758111925, 0.011, -0.031, 0.993, 192.0, 0.0, 0.0, 0.0, 0.0, 0.0, 0.0, 0.0, 0.0, 0.0, 1.644498268760901E9, 0.0, 2022-02-11 00:04:28.760
132.0, -10935.188643358784, -12685.330234209328, -10864.53477913556, -16929.881802783228, -3742.1961119408743, -4278.414461423691, -6430.79804549194, -7460.498209059026, -19330.570916005483, -15819.245972543476, -25263.506205499914, -14603.333425919227, -9370.745345442932, -13556.400067377099, -10564.32849935633, -12051.166540523356, 0.011, -0.031, 0.993, 192.0, 0.0, 0.0, 0.0, 0.0, 0.0, 0.0, 0.0, 0.0, 0.0, 1.644498268760908E9, 0.0, 2022-02-11 00:04:28.760
134.0, -10895.938980095265, -12652.830797771312, -10852.084857473954, -16922.3939683907, -3731.623736813514, -4254.654557067699, -6439.045839195948, -7460.274691614472, -19320.62438972287, -15797.497725188463, -25249.42460649307, -14594.258617670372, -9381.943569415042, -13549.739247529418, -10564.730830756525, -12044.416313697853, 0.011, -0.031, 0.993, 192.0, 0.0, 0.0, 0.0, 0.0, 0.0, 0.0, 0.0, 0.0, 0.0, 1.644498268760922E9, 0.0, 2022-02-11 00:04:28.760
136.0, -10902.041006331565, -12642.59369881078, -10866.524084392082, -16927.132538215224, -3742.3749258965167, -4262.164743204683, -6438.665859540208, -7472.501095831525, -19317.673959454773, -15798.861181600236, -25246.27301052487, -14592.31401590276, -9376.735612956954, -13519.095005881192, -10564.060278422867, -12043.231671241721, 0.011, -0.031, 0.993, 192.0, 0.0, 0.0, 0.0, 0.0, 0.0, 0.0, 0.0, 0.0, 0.0, 1.6444982687609289E9, 0.0, 2022-02-11 00:04:28.760
138.0, -10879.957482809721, -12630.099073660263, -10861.025555256076, -16921.49989861249, -3729.9920594682767, -4260.667176326177, -6421.320905842889, -7452.228063610562, -19314.87999139786, -15798.525905433406, -25252.844423394734, -14590.771745535345, -9382.725880470978, -13539.748017757896, -10564.104981911776, -12045.645659642894, 0.0095, -0.0275, 0.9904999999999999, 192.0, 0.0, 32.0, 127.5, 32.0, 15.0, 112.0, 0.0, 0.0, 0.0, 1.6444982687609355E9, 0.0, 2022-02-11 00:04:28.760
140.0, -10865.205331469218, -12620.621934011215, -10857.739848821146, -16919.66705556715, -3727.7345332782907, -4259.683699570143, -6431.714467014607, -7459.648842769724, -19303.72647091466, -15787.685309372582, -25229.240981249928, -14564.284928355806, -9377.42851703507, -13531.656686265074, -10557.958252186567, -12040.23653748471, 0.0095, -0.0275, 0.9904999999999999, 192.0, 0.0, 0.0, 0.0, 0.0, 0.0, 0.0, 0.0, 0.0, 0.0, 1.6444982687609425E9, 0.0, 2022-02-11 00:04:28.760
142.0, -10875.8671135744, -12624.064102657332, -10861.137313978352, -16915.867259009752, -3733.233062414296, -4257.828504780353, -6426.953545445627, -7454.932624689654, -19303.458249981195, -15788.22175123951, -25247.32354251427, -14569.157608647063, -9362.229330805461, -13547.258203894879, -10564.529665056429, -12042.851691585982, 0.0095, -0.0275, 0.9904999999999999, 192.0, 0.0, 0.0, 0.0, 0.0, 0.0, 0.0, 0.0, 0.0, 0.0, 1.6444982687609491E9, 0.0, 2022-02-11 00:04:28.760
144.0, -10862.277252945572, -12604.238105325474, -10848.016839983087, -16912.2909798969, -3718.8385389850787, -4251.860589010786, -6413.788367961451, -7461.861665470799, -19299.949026101713, -15789.31698671782, -25227.765766115877, -14568.97879469142, -9378.501400768924, -13537.11051191217, -10558.718211498048, -12038.493101417196, 0.0095, -0.0275, 0.9904999999999999, 192.0, 0.0, 0.0, 0.0, 0.0, 0.0, 0.0, 0.0, 0.0, 0.0, 1.644498268760956E9, 0.0, 2022-02-11 00:04:28.760
146.0, -10852.464837129693, -12603.902829158644, -10858.097476732431, -16921.455195123577, -3727.555719322648, -4259.974272248062, -6417.096426140836, -7456.072563656875, -19297.602092933907, -15789.808725095836, -25223.854210836198, -14569.179960391517, -9366.386755274149, -13528.81801471925, -10555.030173662923, -12043.075209030534, 0.0095, -0.0275, 0.9904999999999999, 192.0, 0.0, 0.0, 0.0, 0.0, 0.0, 0.0, 0.0, 0.0, 0.0, 1.6444982687609627E9, 0.0, 2022-02-11 00:04:28.760
148.0, -10846.8098457825, -12599.231314567485, -10858.365697665895, -16919.890573011708, -3725.4546553438495, -4247.9937372200175, -6415.911783684705, -7451.669269999179, -19294.271683010065, -15786.254797727443, -25234.47128945247, -14572.17509414853, -9375.126287356174, -13531.38846533161, -10563.859112722768, -12042.628174141428, 0.00675, -0.026750000000000003, 0.99025, 192.0, 0.0, 16.0, 127.5, 24.0, 15.0, 120.0, 0.0, 0.0, 0.0, 1.6444982687609696E9, 0.0, 2022-02-11 00:04:28.760
150.0, -10847.078066715965, -12586.669634183603, -10864.355965179917, -16921.25402942348, -3736.719934549324, -4258.70022281411, -6437.391810106255, -7467.114325417796, -19294.96458708818, -15789.942835562568, -25227.095213782217, -14573.002108693376, -9374.455735022513, -13528.77331123034, -10564.41790633415, -12040.23653748471, 0.00675, -0.026750000000000003, 0.99025, 192.0, 0.0, 0.0, 0.0, 0.0, 0.0, 0.0, 0.0, 0.0, 0.0, 1.6444982687609763E9, 0.0, 2022-02-11 00:04:28.760
152.0, -10850.34142140644, -12595.856201154733, -10871.352061194428, -16920.337607900812, -3747.851103288067, -4262.678833327154, -6445.773714276996, -7465.683813772656, -19302.54182845853, -15792.490934430472, -25239.589838932734, -14568.889387713598, -9386.369214817192, -13527.499261796387, -10577.225455907042, -12050.80891261207, 0.00675, -0.026750000000000003, 0.99025, 192.0, 0.0, 0.0, 0.0, 0.0, 0.0, 0.0, 0.0, 0.0, 0.0, 1.6444982687609832E9, 0.0, 2022-02-11 00:04:28.760
154.0, -10829.867223485378, -12570.464619453505, -10859.125656977374, -16915.95666598757, -3734.3506496370615, -4256.040365223928, -6437.101237428336, -7465.236778883551, -19296.126877799856, -15788.244102983965, -25226.089385281728, -14558.518178286336, -9385.09516538324, -13531.008485675871, -10572.777458760436, -12046.673839887839, 0.00675, -0.026750000000000003, 0.99025, 192.0, 0.0, 0.0, 0.0, 0.0, 0.0, 0.0, 0.0, 0.0, 0.0, 1.64449826876099E9, 0.0, 2022-02-11 00:04:28.760
156.0, -10827.408531595294, -12559.892244326145, -10862.880750045866, -16914.950837487082, -3742.7325538078017, -4256.755621046498, -6446.913653244216, -7472.791668509444, -19290.091906796923, -15769.848617297248, -25214.533533398335, -14549.085742126197, -9370.164200087094, -13532.751921743384, -10570.028194192433, -12050.63009865643, 0.00675, -0.026750000000000003, 0.99025, 192.0, 0.0, 0.0, 0.0, 0.0, 0.0, 0.0, 0.0, 0.0, 0.0, 1.6444982687609975E9, 0.0, 2022-02-11 00:04:28.760
158.0, -10819.116034402376, -12553.72316285648, -10856.041116242543, -16908.066500194847, -3728.7180100343244, -4243.79160926242, -6431.200376892135, -7462.018127681987, -19283.29697648251, -15774.855408055237, -25214.064146764773, -14567.727097001924, -9371.57235998778, -13518.267991336346, -10569.402345347686, -12048.774903866639, 0.0063750000000000005, -0.026375000000000003, 0.989125, 192.0, 0.0, 24.0, 127.5, 24.0, 15.0, 112.0, 0.0, 0.0, 0.0, 1.6444982687610042E9, 0.0, 2022-02-11 00:04:28.761
160.0, -10814.779795978046, -12559.087581525753, -10855.012935997598, -16908.982921717517, -3736.1611409379416, -4254.073411711862, -6451.026374223992, -7471.338805119849, -19287.09677303991, -15769.64745159715, -25206.531608883335, -14545.464759524437, -9372.198208832528, -13515.116395368148, -10563.009746433467, -12043.43283694182, 0.0063750000000000005, -0.026375000000000003, 0.989125, 192.0, 0.0, 0.0, 0.0, 0.0, 0.0, 0.0, 0.0, 0.0, 0.0, 1.6444982687610111E9, 0.0, 2022-02-11 00:04:28.761
162.0, -10816.970266934666, -12552.605575633714, -10858.879787788366, -16907.463003094555, -3743.179588696908, -4265.405746150702, -6463.90097903025, -7489.466069873103, -19284.928653827745, -15769.602748108238, -25213.23713221993, -14554.897195684576, -9377.38381354616, -13535.031799677827, -10570.18465640362, -12054.72046789175, 0.0063750000000000005, -0.026375000000000003, 0.989125, 192.0, 0.0, 0.0, 0.0, 0.0, 0.0, 0.0, 0.0, 0.0, 0.0, 1.6444982687610185E9, 0.0, 2022-02-11 00:04:28.761
164.0, -10808.051920896998, -12554.885453568157, -10848.843854527933, -16902.366805358746, -3730.953184479855, -4250.385373876736, -6459.430630139188, -7471.785840008955, -19281.285319481532, -15768.84278879676, -25203.782344315332, -14538.7815879323, -9378.344938557737, -13511.271895321834, -10569.290586625408, -12049.154883522378, 0.0063750000000000005, -0.026375000000000003, 0.989125, 192.0, 0.0, 0.0, 0.0, 0.0, 0.0, 0.0, 0.0, 0.0, 0.0, 1.6444982687610252E9, 0.0, 2022-02-11 00:04:28.761
166.0, -10817.014970423577, -12557.76882860289, -10858.991546510642, -16912.15686943017, -3737.2563764162514, -4265.562208361889, -6438.598804306842, -7474.5351045769585, -19285.845075350415, -15773.424896410097, -25210.040832762817, -14541.776721689312, -9375.640377478645, -13505.616903974642, -10562.741525500003, -12048.081999788523, 0.0063750000000000005, -0.026375000000000003, 0.989125, 192.0, 0.0, 0.0, 0.0, 0.0, 0.0, 0.0, 0.0, 0.0, 0.0, 1.6444982687610343E9, 0.0, 2022-02-11 00:04:28.761
168.0, -10815.450348311704, -12547.688191853547, -10857.404572654315, -16909.295846139892, -3729.5450245791703, -4254.028708222951, -6433.010868193015, -7459.268863113984, -19281.24061599262, -15770.943852775557, -25214.377071187148, -14560.194559120484, -9366.252644807417, -13525.375846073133, -10565.691955768103, -12052.15001727939, 0.0071875, -0.027187500000000003, 0.9875625, 192.0, 0.0, 32.0, 127.5, 16.0, 15.0, 104.0, 0.0, 0.0, 0.0, 1.6444982687610412E9, 0.0, 2022-02-11 00:04:28.761
170.0, -10811.739958732123, -12544.916575541089, -10860.712630833701, -16914.906133998174, -3736.742286293779, -4256.2638826684815, -6436.341278116855, -7461.325223603872, -19287.364993973373, -15780.26453021342, -25202.12831522564, -14548.951631659465, -9372.466429765991, -13529.577974030732, -10564.373202845241, -12045.66801138735, 0.0071875, -0.027187500000000003, 0.9875625, 192.0, 0.0, 0.0, 0.0, 0.0, 0.0, 0.0, 0.0, 0.0, 0.0, 1.644498268761048E9, 0.0, 2022-02-11 00:04:28.761
172.0, -10814.936258189233, -12558.685250125558, -10865.9652907807, -16916.291942154403, -3744.632452086503, -4262.991757749529, -6442.331545630878, -7472.590502809347, -19287.700270140205, -15791.194533252066, -25215.204085731995, -14554.941899173487, -9381.608293248211, -13533.86950896615, -10572.598644804793, -12054.653412658385, 0.0071875, -0.027187500000000003, 0.9875625, 192.0, 0.0, 0.0, 0.0, 0.0, 0.0, 0.0, 0.0, 0.0, 0.0, 1.6444982687610552E9, 0.0, 2022-02-11 00:04:28.761
174.0, -10809.080101141943, -12551.44328492204, -10855.951709264722, -16914.16852643115, -3734.9764984818103, -4245.132713929738, -6437.727086273085, -7458.173627635673, -19285.509799183583, -15781.471524414006, -25205.23520770493, -14548.795169448278, -9384.7151857275, -13519.944372170494, -10570.13995291471, -12047.076171288034, 0.0071875, -0.027187500000000003, 0.9875625, 192.0, 0.0, 0.0, 0.0, 0.0, 0.0, 0.0, 0.0, 0.0, 0.0, 1.644498268761062E9, 0.0, 2022-02-11 00:04:28.761
176.0, -10812.321104087961, -12543.284898195852, -10865.987642525155, -16921.477546868035, -3744.7218590643242, -4258.409650136191, -6443.627946809286, -7463.470991071581, -19286.96266257318, -15774.922463288602, -25206.598664116704, -14552.617317750135, -9383.888171182654, -13514.937581412505, -10569.268234880952, -12051.032430056624, 0.0071875, -0.027187500000000003, 0.9875625, 192.0, 0.0, 0.0, 0.0, 0.0, 0.0, 0.0, 0.0, 0.0, 0.0, 1.644498268761069E9, 0.0, 2022-02-11 00:04:28.761
178.0, -10812.455214554693, -12542.681401095559, -10867.015822770098, -16920.806994534374, -3741.0338212291986, -4253.112286700283, -6439.671688040697, -7456.251377612517, -19288.683746896237, -15777.872893556703, -25223.31776896927, -14568.21883537994, -9384.782240960865, -13527.923944941038, -10575.23615065052, -12050.80891261207, 0.00759375, -0.02859375, 0.9867812499999999, 192.0, 0.0, 32.0, 127.5, 8.0, 15.0, 104.0, 0.0, 0.0, 0.0, 1.6444982687610762E9, 0.0, 2022-02-11 00:04:28.761
180.0, -10820.52419430306, -12555.064267523798, -10861.807866312012, -16916.671921810143, -3732.7189722918242, -4248.2843098979365, -6441.102199685836, -7459.850008469822, -19289.801334119, -15779.862198813225, -25209.70555659599, -14558.518178286336, -9379.887208925153, -13517.508032024865, -10569.268234880952, -12044.90805207587, 0.00759375, -0.02859375, 0.9867812499999999, 192.0, 0.0, 0.0, 0.0, 0.0, 0.0, 0.0, 0.0, 0.0, 0.0, 1.644498268761083E9, 0.0, 2022-02-11 00:04:28.761
182.0, -10830.671886285769, -12557.545311158337, -10865.473552402682, -16918.549468344387, -3740.8326555291005, -4254.006356478495, -6450.355821890334, -7462.196941637629, -19294.271683010065, -15792.423879197107, -25219.339158456227, -14556.685335241002, -9380.110726369707, -13526.851061207184, -10569.692918025603, -12047.590261410507, 0.00759375, -0.02859375, 0.9867812499999999, 192.0, 0.0, 0.0, 0.0, 0.0, 0.0, 0.0, 0.0, 0.0, 0.0, 1.64449826876109E9, 0.0, 2022-02-11 00:04:28.761
184.0, -10800.18410684873, -12540.893261539133, -10855.81759879799, -16911.48631709651, -3730.7743705242124, -4235.40970509168, -6454.982632992582, -7454.865569456288, -19293.399964976306, -15787.797068094858, -25215.94169329902, -14554.15958811755, -9390.57134277479, -13515.384616301611, -10567.502447068984, -12042.471711930242, 0.00759375, -0.02859375, 0.9867812499999999, 192.0, 0.0, 0.0, 0.0, 0.0, 0.0, 0.0, 0.0, 0.0, 0.0, 1.6444982687610967E9, 0.0, 2022-02-11 00:04:28.761
186.0, -10809.281266842041, -12545.408313919106, -10857.069296487487, -16917.67775031063, -3730.9755362243104, -4244.752734273999, -6420.091559897847, -7458.531255546958, -19290.471886452662, -15779.482219157484, -25213.997091531408, -14560.351021331671, -9383.508191526913, -13507.896781909083, -10561.936862699613, -12039.297764217588, 0.00759375, -0.02859375, 0.9867812499999999, 192.0, 0.0, 0.0, 0.0, 0.0, 0.0, 0.0, 0.0, 0.0, 0.0, 1.6444982687611032E9, 0.0, 2022-02-11 00:04:28.761
188.0, -10810.555316275993, -12545.229499963463, -10851.57076735148, -16918.191840433105, -3725.722876277313, -4236.884920225731, -6434.597842049342, -7446.7742379634665, -19285.19687476121, -15782.365594192219, -25209.12441124015, -14558.473474797425, -9378.43434553556, -13502.264142306345, -10561.802752232881, -12042.71758111925, 0.004, -0.028, 0.986, 192.0, 0.0, 16.0, 127.5, 16.0, 15.0, 104.0, 0.0, 0.0, 0.0, 1.64449826876111E9, 0.0, 2022-02-11 00:04:28.761
190.0, -10812.410511065784, -12542.256717950908, -10853.224796441174, -16919.82351777834, -3729.8132455126342, -4247.949033731107, -6422.818472721395, -7443.846159439821, -19282.939348571224, -15777.090582500767, -25197.903835523586, -14543.296640312272, -9369.717165197988, -13511.048377877281, -10560.752220243481, -12036.23557522721, 0.004, -0.028, 0.986, 192.0, 0.0, 0.0, 0.0, 0.0, 0.0, 0.0, 0.0, 0.0, 0.0, 1.6444982687611167E9, 0.0, 2022-02-11 00:04:28.761
192.0, -10823.18405189324, -12545.475369152471, -10858.209235454708, -16917.29777065489, -3738.038687472187, -4255.168647190171, -6438.330583373378, -7457.1007439018185, -19293.71288939868, -15792.043899541368, -25215.06997526526, -14560.619242265135, -9372.421726277082, -13524.302962339278, -10566.362508101764, -12045.265679987155, 0.004, -0.028, 0.986, 192.0, 0.0, 0.0, 0.0, 0.0, 0.0, 0.0, 0.0, 0.0, 0.0, 1.6444982687611237E9, 0.0, 2022-02-11 00:04:28.761
194.0, -10808.454252297193, -12533.04779923532, -10850.05084872852, -16910.659302551663, -3730.550853079659, -4239.343612115814, -6445.661955554719, -7452.183360121651, -19287.834380606935, -15780.130419746689, -25209.102059495697, -14549.219852592929, -9387.106822384218, -13515.854002935172, -10564.797885989892, -12039.342467706498, 0.004, -0.028, 0.986, 192.0, 0.0, 0.0, 0.0, 0.0, 0.0, 0.0, 0.0, 0.0, 0.0, 1.6444982687611308E9, 0.0, 2022-02-11 00:04:28.761
196.0, -10816.255011112096, -12549.543386643338, -10855.884654031355, -16919.555296844876, -3735.378829882006, -4248.396068620214, -6417.319943585389, -7458.911235202699, -19294.808124876992, -15780.152771491144, -25213.527704897846, -14555.098361384675, -9384.983406660964, -13513.775290700829, -10562.965042944556, -12041.063552029556, 0.004, -0.028, 0.986, 192.0, 0.0, 0.0, 0.0, 0.0, 0.0, 0.0, 0.0, 0.0, 0.0, 1.6444982687611377E9, 0.0, 2022-02-11 00:04:28.761
198.0, -10817.126729145853, -12550.504511654915, -10852.956575507711, -16913.833250264317, -3727.466312344827, -4239.991812705018, -6415.0847691398585, -7453.055078155408, -19293.19879927621, -15790.993367551968, -25211.717213596967, -14552.997297405875, -9371.550008243325, -13511.763633699851, -10566.407211590673, -12037.688438616806, 0.002, -0.03, 0.99, 192.0, 0.0, 8.0, 127.5, 8.0, 15.0, 120.0, 0.0, 0.0, 0.0, 1.6444982687611473E9, 0.0, 2022-02-11 00:04:28.761
200.0, -10807.202554607697, -12533.450130635516, -10853.984755752654, -16917.58834333281, -3727.7121815338355, -4235.588519047323, -6426.685324512163, -7443.354421061805, -19293.623482420862, -15792.021547796912, -25203.692937337513, -14542.223756578418, -9375.908598412108, -13501.325369039223, -10564.61907203425, -12034.916822304347, 0.002, -0.03, 0.99, 192.0, 0.0, 0.0, 0.0, 0.0, 0.0, 0.0, 0.0, 0.0, 0.0, 1.6444982687611544E9, 0.0, 2022-02-11 00:04:28.761
202.0, -10821.485319314637, -12544.782465074357, -10862.031383756565, -16912.514497341454, -3739.335088650595, -4245.870321496764, -6441.213958408112, -7432.871452912266, -19294.696366154716, -15781.002137780446, -25212.454821163992, -14552.147931116573, -9373.248740821928, -13526.225212362435, -10572.173961660143, -12038.358990950464, 0.002, -0.03, 0.99, 192.0, 0.0, 0.0, 0.0, 0.0, 0.0, 0.0, 0.0, 0.0, 0.0, 1.644498268761161E9, 0.0, 2022-02-11 00:04:28.761
204.0, -10815.47270005616, -12535.730008569957, -10851.950747007222, -16910.122860684736, -3721.453693086349, -4233.912138213174, -6418.146958130236, -7431.619755222769, -19292.72941264265, -15786.165390749622, -25207.738603083922, -14548.616355492635, -9372.846409421732, -13502.733528939907, -10569.648214536694, -12033.463958914752, 0.002, -0.03, 0.99, 192.0, 0.0, 0.0, 0.0, 0.0, 0.0, 0.0, 0.0, 0.0, 0.0, 1.6444982687611685E9, 0.0, 2022-02-11 00:04:28.761
206.0, -10820.747711747612, -12548.895186054133, -10861.33847967845, -16914.459099109066, -3735.2447194152737, -4242.182283661638, -6426.886490212261, -7438.32527855936, -19300.1054883129, -15791.082774529788, -25208.453858906494, -14543.78837869029, -9378.277883324372, -13501.906514395061, -10569.201179647587, -12033.218089725744, 0.002, -0.03, 0.99, 192.0, 0.0, 0.0, 0.0, 0.0, 0.0, 0.0, 0.0, 0.0, 0.0, 1.6444982687611752E9, 0.0, 2022-02-11 00:04:28.761
208.0, -10796.361958546873, -12551.130360499665, -10856.711668576201, -16912.045110707895, -3729.142693178975, -4231.095818411805, -6432.094446670348, -7437.878243670255, -19291.67888065325, -15782.566759892317, -25218.51214391138, -14548.012858392342, -9380.75892695891, -13506.10864235266, -10573.693880283105, -12033.642772870395, 0.006, -0.028, 0.988, 192.0, 0.0, 24.0, 127.5, 16.0, 15.0, 112.0, 0.0, 0.0, 0.0, 1.6444982687611823E9, 0.0, 2022-02-11 00:04:28.761
210.0, -10819.585421035938, -12535.394732403129, -10856.801075554024, -16921.321084656847, -3727.466312344827, -4232.7274957570435, -6416.694094740641, -7438.258223325995, -19290.360127730386, -15787.730012861493, -25201.14483846961, -14555.41128580705, -9375.796839689832, -13499.514877738344, -10569.648214536694, -12030.04414201309, 0.006, -0.028, 0.988, 192.0, 0.0, 0.0, 0.0, 0.0, 0.0, 0.0, 0.0, 0.0, 0.0, 1.644498268761189E9, 0.0, 2022-02-11 00:04:28.761
212.0, -10829.733113018647, -12541.876738295166, -10859.080953488465, -16917.118956699247, -3733.456579858849, -4237.644879537211, -6429.41223733571, -7447.690659486135, -19296.328043499954, -15790.680443129593, -25206.732774583434, -14558.07114339723, -9363.883359895153, -13510.176659843524, -10572.41983084915, -12036.90612756087, 0.006, -0.028, 0.988, 192.0, 0.0, 0.0, 0.0, 0.0, 0.0, 0.0, 0.0, 0.0, 0.0, 1.6444982687611957E9, 0.0, 2022-02-11 00:04:28.761
214.0, -10809.594191264414, -12542.547290628827, -10851.280194673562, -16911.68748279661, -3721.408989597439, -4225.709047998077, -6427.132359401269, -7441.231005338551, -19291.187142275234, -15795.374309465207, -25205.190504216018, -14542.581384489702, -9372.533484999358, -13505.192220829991, -10571.52576107094, -12032.569889136541, 0.006, -0.028, 0.988, 192.0, 0.0, 0.0, 0.0, 0.0, 0.0, 0.0, 0.0, 0.0, 0.0, 1.6444982687612023E9, 0.0, 2022-02-11 00:04:28.761
216.0, -10814.623333766858, -12541.273241194875, -10852.107209218408, -16912.603904319276, -3727.265146644729, -4228.435960821625, -6426.171234389692, -7437.90059541471, -19292.796467876015, -15793.36265246423, -25204.162323971075, -14541.843776922677, -9369.203075075517, -13495.402156758566, -10570.452877337084, -12031.742874591693, 0.006, -0.028, 0.988, 192.0, 0.0, 0.0, 0.0, 0.0, 0.0, 0.0, 0.0, 0.0, 0.0, 1.6444982687612095E9, 0.0, 2022-02-11 00:04:28.761
218.0, -10810.37650232035, -12535.10415972521, -10844.798188781524, -16909.072328695336, -3715.150501149953, -4221.5963270183, -6397.717463698085, -7420.622696950758, -19289.19783701871, -15786.679480872093, -25204.899931538097, -14552.907890428054, -9359.502417981914, -13494.016348602338, -10561.243958621497, -12030.222955968733, 0.006, -0.028, 0.99, 192.0, 0.0, 24.0, 127.5, 16.0, 15.0, 120.0, 0.0, 0.0, 0.0, 1.6444982687612164E9, 0.0, 2022-02-11 00:04:28.761
220.0, -10789.164696832264, -12529.069188722277, -10843.546491092025, -16911.73218628552, -3712.0883121595757, -4209.995771645996, -6417.7222749855855, -7431.7538656895, -19282.559368915485, -15767.144056218154, -25193.65700407708, -14538.423960021015, -9353.512150467892, -13492.921113124028, -10554.51608354045, -12025.439682655298, 0.006, -0.028, 0.99, 192.0, 0.0, 0.0, 0.0, 0.0, 0.0, 0.0, 0.0, 0.0, 0.0, 1.644498268761223E9, 0.0, 2022-02-11 00:04:28.761
222.0, -10806.532002274038, -12536.869947537178, -10855.728191820168, -16910.793413018397, -3722.705390775847, -4230.827597478342, -6412.894298183239, -7439.688734971134, -19282.91699682677, -15791.038071040879, -25204.18467571553, -14540.010933877342, -9362.452848250014, -13508.522630753832, -10558.204121375577, -12029.641810612895, 0.006, -0.028, 0.99, 192.0, 0.0, 0.0, 0.0, 0.0, 0.0, 0.0, 0.0, 0.0, 0.0, 1.6444982687612298E9, 0.0, 2022-02-11 00:04:28.761
224.0, -10795.311426557473, -12529.627982333659, -10846.00518298211, -16906.211305405057, -3711.2165941258186, -4223.943260186107, -6414.257754595013, -7427.127054587252, -19289.95779633019, -15792.98267280849, -25201.189541958516, -14540.390913533081, -9355.836731891242, -13507.829726675716, -10557.287699852908, -12027.38428442291, 0.006, -0.028, 0.99, 192.0, 0.0, 0.0, 0.0, 0.0, 0.0, 0.0, 0.0, 0.0, 0.0, 1.6444982687612376E9, 0.0, 2022-02-11 00:04:28.761
0.0, -5007.8412899781815, -5946.79337105672, -5397.231030134086, -8402.490127383486, -1608.2974205371645, -1856.267673524341, -3295.541202490473, -3753.7072603353577, -9649.046915655961, -7893.429147413868, -12602.382910535684, -7269.368442221695, -4681.63993139743, -6755.166561027356, -5280.465517099562, -6015.592040490155, 0.006, -0.026000000000000002, 0.984, 192.0, 0.0, 24.0, 127.5, 24.0, 15.0, 96.0, 0.0, 0.0, 0.0, 1.644498269339896E9, 0.0, 2022-02-11 00:04:29.339
2.0, -10015.995504378738, -11895.218419458679, -10792.204534078186, -16807.260132701413, -3212.124492183267, -3716.0669226726204, -6592.982303259648, -7502.9441717796535, -18111.305607712937, -15632.228926685922, -23983.04182088874, -13391.667710741487, -7884.644911842932, -12635.552899307359, -10942.050628906563, -12033.910993803858, 0.006, -0.026000000000000002, 0.984, 192.0, 0.0, 0.0, 0.0, 0.0, 0.0, 0.0, 0.0, 0.0, 0.0, 1.6444982693400629E9, 0.0, 2022-02-11 00:04:29.340
4.0, -10035.016838910204, -11897.92298053777, -10802.061653382976, -16811.037577514362, -3221.3781143877645, -3722.5489285646595, -6626.196995520234, -7520.423235943704, -18114.59131414787, -15635.134653465111, -23988.22742560237, -13391.22067585238, -7886.27658918817, -12645.07474244532, -10947.8844342094, -12036.973182794236, 0.006, -0.026000000000000002, 0.984, 192.0, 0.0, 0.0, 0.0, 0.0, 0.0, 0.0, 0.0, 0.0, 0.0, 1.6444982693400815E9, 0.0, 2022-02-11 00:04:29.340
6.0, -10021.874013170484, -11897.766518326584, -10794.998502135099, -16808.33301643527, -3210.6269253047617, -3714.4128935829276, -6599.732530085151, -7516.9140120642205, -18115.440680437172, -15633.57003135324, -23997.2128268734, -13406.956303948917, -7895.016121270195, -12664.45370488807, -10953.181797645308, -12040.169482251345, 0.006, -0.026000000000000002, 0.984, 192.0, 0.0, 0.0, 0.0, 0.0, 0.0, 0.0, 0.0, 0.0, 0.0, 1.6444982693400884E9, 0.0, 2022-02-11 00:04:29.340
8.0, -10018.968286391293, -11900.649893361318, -10789.388214276816, -16816.200830483536, -3200.1216054107676, -3709.987248180777, -6589.629541591352, -7514.544727151958, -18114.077224025397, -15632.1395197081, -23978.817341186685, -13391.712414230396, -7885.091946732038, -12655.356544894761, -10940.575413772514, -12032.167557736346, 0.008, -0.028, 0.982, 192.0, 0.0, 32.0, 127.5, 16.0, 15.0, 88.0, 0.0, 0.0, 0.0, 1.6444982693400953E9, 0.0, 2022-02-11 00:04:29.340
10.0, -10035.396818565943, -11900.851059061415, -10796.116089357864, -16818.033673528873, -3208.816434003882, -3706.9474109348553, -6600.313675440989, -7496.171593209696, -18112.69141586917, -15636.878089532625, -23985.344050567634, -13409.280885372269, -7868.372841879469, -12638.100998175263, -10941.73770448419, -12033.32984844802, 0.008, -0.028, 0.982, 192.0, 0.0, 0.0, 0.0, 0.0, 0.0, 0.0, 0.0, 0.0, 0.0, 1.6444982693401022E9, 0.0, 2022-02-11 00:04:29.340
12.0, -10021.69519921484, -11906.394291686333, -10792.316292800462, -16814.010359526917, -3208.9505444706137, -3701.11360563202, -6608.561469144996, -7501.558363623424, -18109.875096067797, -15627.557412094762, -23989.724992480875, -13412.119556918093, -7886.634217099455, -12625.293448602373, -10940.59776551697, -12024.120929732435, 0.008, -0.028, 0.982, 192.0, 0.0, 0.0, 0.0, 0.0, 0.0, 0.0, 0.0, 0.0, 0.0, 1.6444982693401089E9, 0.0, 2022-02-11 00:04:29.340
14.0, -10028.356019062521, -11906.997788786626, -10800.56408650447, -16807.215429212505, -3220.841672520837, -3713.7646929937237, -6617.524518671575, -7514.0976922628515, -18119.374587461305, -15642.935412280014, -23992.630719260065, -13399.066138156193, -7893.339740436047, -12652.9872599825, -10949.292594110084, -12029.284182701611, 0.008, -0.028, 0.982, 192.0, 0.0, 0.0, 0.0, 0.0, 0.0, 0.0, 0.0, 0.0, 0.0, 1.6444982693401155E9, 0.0, 2022-02-11 00:04:29.340
16.0, -10025.226774838779, -11900.515782894587, -10793.165659089764, -16804.913199533607, -3205.038989190935, -3704.3322568335843, -6618.2621262386, -7507.369817181804, -18116.245343237562, -15643.76242682486, -23989.143847125037, -13395.89219044354, -7887.416528155391, -12652.517873348937, -10950.186663888297, -12031.161729235857, 0.005, -0.026000000000000002, 0.987, 192.0, 0.0, 8.0, 127.5, 32.0, 15.5, 0.0, 0.0, 0.0, 0.0, 1.6444982693401225E9, 0.0, 2022-02-11 00:04:29.340
18.0, -10015.906097400915, -11893.273817691066, -10795.46788876866, -16812.713958348508, -3196.835898975837, -3703.661704499925, -6603.867602809382, -7511.326075950394, -18112.132622257785, -15634.32999066472, -23983.13122786656, -13391.22067585238, -7883.70613857581, -12649.589794825291, -10943.011753918143, -12026.892546044892, 0.005, -0.026000000000000002, 0.987, 192.0, 0.0, 0.0, 0.0, 0.0, 0.0, 0.0, 0.0, 0.0, 0.0, 1.6444982693401291E9, 0.0, 2022-02-11 00:04:29.340
20.0, -10039.353077334534, -11904.673207363274, -10798.641836481314, -16816.08907176126, -3199.6745705216613, -3707.2156318683187, -6605.8569080659045, -7513.181270740184, -18115.708901370635, -15648.121016993646, -23994.687079749954, -13407.090414415648, -7879.74987980722, -12648.896890747177, -10941.469483550725, -12031.42995016932, 0.005, -0.026000000000000002, 0.987, 192.0, 0.0, 0.0, 0.0, 0.0, 0.0, 0.0, 0.0, 0.0, 0.0, 1.6444982693401356E9, 0.0, 2022-02-11 00:04:29.340
22.0, -10023.12571085998, -11910.797585344028, -10787.018929364554, -16810.009397269416, -3189.906858194692, -3698.58785850857, -6581.225285676156, -7499.345540922349, -18112.53495365798, -15644.768255325349, -23987.55687326871, -13405.056405670215, -7877.335891406047, -12635.68700977409, -10930.78534970109, -12026.087883244501, 0.005, -0.026000000000000002, 0.987, 192.0, 0.0, 0.0, 0.0, 0.0, 0.0, 0.0, 0.0, 0.0, 0.0, 1.6444982693401425E9, 0.0, 2022-02-11 00:04:29.340
24.0, -10026.679638228374, -11901.633370117352, -10795.244371324108, -16812.08810950376, -3201.686227522639, -3701.4041783099387, -6601.7441870861285, -7505.715788092111, -18113.943113558664, -15633.033589486313, -23986.685155234954, -13405.190516136947, -7883.929656020362, -12625.427559069105, -10929.757169456145, -12024.545612877086, 0.005, -0.026000000000000002, 0.987, 192.0, 0.0, 0.0, 0.0, 0.0, 0.0, 0.0, 0.0, 0.0, 0.0, 1.6444982693401494E9, 0.0, 2022-02-11 00:04:29.340
26.0, -10023.595097493542, -11907.310713208999, -10793.433880023227, -16803.035652999362, -3192.8349367183373, -3698.7666724642127, -6578.565428085974, -7499.323189177894, -18113.63018913629, -15630.396083640586, -23994.441210560944, -13399.55787653421, -7886.231885699259, -12647.667544802136, -10936.239175348184, -12028.278354201122, 0.0045000000000000005, -0.026000000000000002, 0.9875, 192.0, 0.0, 16.0, 127.5, 24.0, 15.0, 112.0, 0.0, 0.0, 0.0, 1.6444982693401566E9, 0.0, 2022-02-11 00:04:29.340
28.0, -10023.84096668255, -11902.572143384474, -10790.61756022186, -16807.4165949126, -3195.4724425640634, -3696.4420910408608, -6598.2573149511, -7499.05496824443, -18115.999474048553, -15642.913060535559, -23986.238120345846, -13392.338263075146, -7880.040452485139, -12635.374085351717, -10928.63958223338, -12022.645714598384, 0.0045000000000000005, -0.026000000000000002, 0.9875, 192.0, 0.0, 0.0, 0.0, 0.0, 0.0, 0.0, 0.0, 0.0, 0.0, 1.6444982693401635E9, 0.0, 2022-02-11 00:04:29.340
30.0, -10036.693219744351, -11904.427338174264, -10794.931446901734, -16806.43311815657, -3200.1886606441335, -3699.213707353319, -6601.252448708111, -7499.904334533732, -18119.039311294473, -15645.662325103562, -23998.732745496363, -13409.392644094545, -7889.249371200725, -12649.031001213909, -10930.427721789805, -12028.501871645674, 0.0045000000000000005, -0.026000000000000002, 0.9875, 192.0, 0.0, 0.0, 0.0, 0.0, 0.0, 0.0, 0.0, 0.0, 0.0, 1.6444982693401716E9, 0.0, 2022-02-11 00:04:29.340
32.0, -10028.288963829156, -11906.036663775047, -10793.009196878576, -16803.12505997718, -3197.193526887122, -3700.0407218981654, -6599.643123107329, -7503.704131091134, -18116.40180544875, -15643.404798913574, -23990.864931448097, -13397.389757322046, -7886.880086288463, -12646.795826768379, -10930.673590978813, -12022.33279017601, 0.0045000000000000005, -0.026000000000000002, 0.9875, 192.0, 0.0, 0.0, 0.0, 0.0, 0.0, 0.0, 0.0, 0.0, 0.0, 1.6444982693401785E9, 0.0, 2022-02-11 00:04:29.340
34.0, -10032.468740042299, -11908.540059154042, -10803.76038596158, -16808.444775157546, -3212.2586026499994, -3703.4828905442823, -6616.988076804648, -7513.673009118201, -18120.983913062086, -15651.540833895308, -23998.173951884983, -13400.429594567966, -7893.160926480405, -12644.806521511857, -10937.602631759957, -12027.138415233901, 0.0045000000000000005, -0.026000000000000002, 0.9875, 192.0, 0.0, 0.0, 0.0, 0.0, 0.0, 0.0, 0.0, 0.0, 0.0, 1.6444982693401852E9, 0.0, 2022-02-11 00:04:29.340
36.0, -10029.406551051921, -11907.958913798204, -10795.8478684244, -16806.969560023495, -3203.9884572015358, -3696.2856288296734, -6608.382655189354, -7506.766320081511, -18120.581581661892, -15641.147272723589, -24007.047594433738, -13402.754175991318, -7896.290170704147, -12648.315745391339, -10940.59776551697, -12026.534918133608, 0.00425, -0.026000000000000002, 0.99075, 192.0, 0.0, 16.0, 127.5, 24.0, 15.5, 8.0, 0.0, 0.0, 0.0, 1.6444982693401947E9, 0.0, 2022-02-11 00:04:29.340
38.0, -10029.540661518653, -11903.756785840606, -10794.149135845797, -16808.601237368734, -3202.6026490453064, -3697.269105585707, -6611.4895476686415, -7504.0617590024185, -18123.241439252073, -15635.916964521048, -23995.089411150147, -13407.068062671193, -7889.070557245083, -12633.496538817471, -10933.199338102262, -12017.95184826277, 0.00425, -0.026000000000000002, 0.99075, 192.0, 0.0, 0.0, 0.0, 0.0, 0.0, 0.0, 0.0, 0.0, 0.0, 1.6444982693402011E9, 0.0, 2022-02-11 00:04:29.340
40.0, -10033.206347609324, -11906.841326575439, -10796.451365524694, -16804.957903022518, -3204.0778641793568, -3695.1233381179977, -6630.913213600304, -7508.48740440457, -18120.939209573175, -15647.495168148896, -23998.12924839607, -13409.258533627813, -7885.315464176591, -12620.554878777848, -10939.949564927765, -12021.081092486513, 0.00425, -0.026000000000000002, 0.99075, 192.0, 0.0, 0.0, 0.0, 0.0, 0.0, 0.0, 0.0, 0.0, 0.0, 1.6444982693402078E9, 0.0, 2022-02-11 00:04:29.340
42.0, -10015.615524722996, -11892.02212000157, -10788.985882876621, -16797.403013396623, -3188.8116227163823, -3692.2846665721736, -6603.822899320472, -7502.273619445994, -18110.612703634823, -15642.2425082019, -23985.835788945653, -13392.919408430984, -7875.056013471605, -12625.002875924454, -10936.954431170754, -12016.543688362086, 0.00425, -0.026000000000000002, 0.99075, 192.0, 0.0, 0.0, 0.0, 0.0, 0.0, 0.0, 0.0, 0.0, 0.0, 1.6444982693402145E9, 0.0, 2022-02-11 00:04:29.340
44.0, -10031.172338863891, -11901.789832328539, -10795.445537024205, -16799.057042486314, -3197.5735065428626, -3707.953239435344, -6595.865678294383, -7502.564192123913, -18117.944075816165, -15639.649705845084, -23990.976690170373, -13391.779469463763, -7884.242580442737, -12651.31087914835, -10932.97582065771, -12018.465938385241, 0.00425, -0.026000000000000002, 0.99075, 192.0, 0.0, 0.0, 0.0, 0.0, 0.0, 0.0, 0.0, 0.0, 0.0, 1.644498269340222E9, 0.0, 2022-02-11 00:04:29.340
46.0, -10024.98090564977, -11915.849079590927, -10790.528153244037, -16796.285426173858, -3187.068186648868, -3698.4760997862936, -6568.842419247916, -7501.8265845568885, -18117.519392671515, -15642.533080879819, -23997.145771640036, -13396.272170099279, -7891.149269479427, -12641.07378018782, -10934.249870091662, -12019.203545952267, 0.005125, -0.024, 0.992375, 192.0, 0.0, 24.0, 127.5, 40.0, 15.5, 8.0, 0.0, 0.0, 0.0, 1.6444982693402283E9, 0.0, 2022-02-11 00:04:29.340
48.0, -10031.373504563988, -11914.373864456877, -10791.8469061669, -16805.203772211527, -3192.522012295963, -3701.3818265654836, -6591.372977658865, -7492.751776308033, -18117.34057871587, -15646.578746626228, -23988.60740525811, -13391.041861896738, -7884.600208354022, -12636.245803385473, -10935.054532892053, -12012.430967382308, 0.005125, -0.024, 0.992375, 192.0, 0.0, 0.0, 0.0, 0.0, 0.0, 0.0, 0.0, 0.0, 0.0, 1.6444982693402357E9, 0.0, 2022-02-11 00:04:29.340
50.0, -10043.041115169659, -11912.116338266891, -10796.920752158256, -16810.70230134753, -3203.027332189957, -3705.561602778626, -6610.707236612706, -7505.358160180826, -18120.358064217337, -15651.67494436204, -23999.69387050794, -13401.815402724196, -7892.736243335753, -12641.54316682138, -10942.609422517948, -12021.930458775814, 0.005125, -0.024, 0.992375, 192.0, 0.0, 0.0, 0.0, 0.0, 0.0, 0.0, 0.0, 0.0, 0.0, 1.6444982693402424E9, 0.0, 2022-02-11 00:04:29.340
52.0, -10028.4677777848, -11905.12024225238, -10794.484412012627, -16812.021054270394, -3191.6055907732953, -3699.526631775693, -6590.858887536394, -7494.629322842279, -18117.83231709389, -15630.485490618408, -23990.663765748, -13397.4121090665, -7889.830516556563, -12625.762835235935, -10936.574451515015, -12017.884793029403, 0.005125, -0.024, 0.992375, 192.0, 0.0, 0.0, 0.0, 0.0, 0.0, 0.0, 0.0, 0.0, 0.0, 1.644498269340249E9, 0.0, 2022-02-11 00:04:29.340
54.0, -10035.03919065466, -11896.112489236892, -10804.587400506425, -16813.093938004247, -3200.099253666312, -3710.8142627256234, -6611.646009879829, -7501.446604901148, -18124.604895663848, -15656.413514186564, -24001.392603086544, -13406.330455104167, -7892.043339257639, -12643.912451733644, -10934.741608469678, -12018.175365707322, 0.005125, -0.024, 0.992375, 192.0, 0.0, 0.0, 0.0, 0.0, 0.0, 0.0, 0.0, 0.0, 0.0, 1.6444982693402572E9, 0.0, 2022-02-11 00:04:29.340
56.0, -10021.225812581279, -11894.816088058484, -10802.352226060895, -16804.287350688857, -3196.5676780423737, -3703.7064079888355, -6596.312713183488, -7490.650712329235, -18120.87215433981, -15646.802264070782, -24007.94166421195, -13404.095280658637, -7887.908266533407, -12650.573271581325, -10939.524881783114, -12018.443586640786, 0.006562500000000001, -0.025, 0.9921875, 192.0, 0.0, 32.0, 127.5, 24.0, 15.5, 0.0, 0.0, 0.0, 0.0, 1.6444982693402643E9, 0.0, 2022-02-11 00:04:29.340
58.0, -10023.818614938094, -11913.859774334405, -10801.927542916244, -16806.65663560112, -3204.904878724203, -3710.0319516696877, -6618.664457638795, -7501.491308390058, -18123.554363674448, -15648.344534438198, -23989.635585503052, -13392.204152608414, -7887.058900244106, -12645.45472210106, -10941.424780061816, -12013.682665071807, 0.006562500000000001, -0.025, 0.9921875, 192.0, 0.0, 0.0, 0.0, 0.0, 0.0, 0.0, 0.0, 0.0, 0.0, 1.6444982693402708E9, 0.0, 2022-02-11 00:04:29.340
60.0, -10045.276289615189, -11922.845175605438, -10808.94599067521, -16812.155164737127, -3212.102140438812, -3720.5149198192266, -6635.562376447007, -7522.434892944681, -18127.30945674294, -15655.362982197164, -24000.94556819744, -13404.296446358734, -7900.224077728281, -12653.07666696032, -10952.444190078282, -12028.94890653478, 0.006562500000000001, -0.025, 0.9921875, 192.0, 0.0, 0.0, 0.0, 0.0, 0.0, 0.0, 0.0, 0.0, 0.0, 1.6444982693402915E9, 0.0, 2022-02-11 00:04:29.340
62.0, -10032.066408642104, -11907.958913798204, -10801.726377216146, -16808.690644346552, -3199.2051838881, -3713.8317482270895, -6617.345704715933, -7494.919895520198, -18127.041235809476, -15656.659383375572, -23995.268225105792, -13397.322702088679, -7897.184240482359, -12649.478036103015, -10946.54332954208, -12025.797310566582, 0.006562500000000001, -0.025, 0.9921875, 192.0, 0.0, 0.0, 0.0, 0.0, 0.0, 0.0, 0.0, 0.0, 0.0, 1.644498269340299E9, 0.0, 2022-02-11 00:04:29.340
64.0, -10029.048923140637, -11916.541983669042, -10807.560182518982, -16814.65856011612, -3212.482120094552, -3718.3244488626065, -6619.267954739089, -7506.788671825966, -18133.411482979238, -15659.274537476844, -24002.42078333149, -13405.123460903582, -7894.591438125544, -12649.031001213909, -10941.223614361717, -12024.411502410354, 0.006562500000000001, -0.025, 0.9921875, 192.0, 0.0, 0.0, 0.0, 0.0, 0.0, 0.0, 0.0, 0.0, 0.0, 1.6444982693403056E9, 0.0, 2022-02-11 00:04:29.340
66.0, -10022.388103292955, -11891.262160690088, -10797.546601003003, -16803.50503963292, -3198.10994840979, -3697.962009663822, -6629.080370554969, -7499.211430455617, -18121.34154097337, -15636.788682554805, -24000.252664119325, -13402.910638202506, -7894.9937695257395, -12640.894966232177, -10945.358687085949, -12021.796348309083, 0.00828125, -0.0235, 0.98909375, 192.0, 0.0, 40.0, 127.5, 40.0, 15.0, 104.0, 0.0, 0.0, 0.0, 1.6444982693403249E9, 0.0, 2022-02-11 00:04:29.340
68.0, -10032.960478420315, -11912.116338266891, -10799.021816137054, -16805.36023442271, -3190.845631461815, -3707.059169657132, -6593.7646143155835, -7498.585581610869, -18120.581581661892, -15646.936374537514, -23984.405277300513, -13385.990367649838, -7887.908266533407, -12649.053352958364, -10939.055495149552, -12017.795386051583, 0.00828125, -0.0235, 0.98909375, 192.0, 0.0, 0.0, 0.0, 0.0, 0.0, 0.0, 0.0, 0.0, 0.0, 1.644498269340334E9, 0.0, 2022-02-11 00:04:29.340
70.0, -10038.235490111767, -11914.910306323804, -10808.834231952935, -16811.462260659013, -3201.038026933435, -3715.239908127774, -6590.836535791938, -7498.250305444039, -18127.91295384323, -15663.074334034245, -24006.28763512226, -13405.615199281598, -7896.200763726326, -12658.664603074147, -10935.434512547794, -12026.087883244501, 0.00828125, -0.0235, 0.98909375, 192.0, 0.0, 0.0, 0.0, 0.0, 0.0, 0.0, 0.0, 0.0, 0.0, 1.6444982693403404E9, 0.0, 2022-02-11 00:04:29.340
72.0, -10028.244260340245, -11911.334027210954, -10801.435804538227, -16812.065757759305, -3195.8300704753483, -3703.2817248441847, -6606.706274355206, -7498.652636844235, -18127.890602098778, -15662.29202297831, -24002.197265886934, -13408.99031269435, -7895.194935225837, -12645.45472210106, -10934.428684047305, -12023.986819265703, 0.00828125, -0.0235, 0.98909375, 192.0, 0.0, 0.0, 0.0, 0.0, 0.0, 0.0, 0.0, 0.0, 0.0, 1.6444982693403473E9, 0.0, 2022-02-11 00:04:29.340
74.0, -10038.3696005785, -11900.918114294782, -10807.448423796704, -16814.05506301583, -3212.3256578833652, -3714.882280216489, -6620.139672772846, -7512.890698062265, -18130.461052711136, -15660.302717721788, -24001.012623430805, -13403.335321347156, -7896.826612571074, -12642.25842264395, -10932.327620068505, -12028.166595478844, 0.00828125, -0.0235, 0.98909375, 192.0, 0.0, 0.0, 0.0, 0.0, 0.0, 0.0, 0.0, 0.0, 0.0, 1.6444982693403535E9, 0.0, 2022-02-11 00:04:29.340
76.0, -10031.46291154181, -11911.78106210006, -10806.04026389602, -16811.4175571701, -3207.1177014252785, -3711.1718906369083, -6620.586707661952, -7504.240572958061, -18133.411482979238, -15660.01214504387, -24008.343995612147, -13413.281847629769, -7901.162850995404, -12646.058219201353, -10937.490873037681, -12030.602935624473, 0.007140625, -0.02175, 0.9905468749999999, 192.0, 0.0, 24.0, 127.5, 48.0, 15.5, 0.0, 0.0, 0.0, 0.0, 1.6444982693403604E9, 0.0, 2022-02-11 00:04:29.340
78.0, -10028.110149873513, -11900.627541616863, -10802.531040016538, -16816.33494095027, -3197.238230376033, -3701.985323665777, -6607.600344133419, -7507.705093348634, -18131.086901555886, -15659.274537476844, -23992.049573904227, -13403.871763214083, -7894.479679403267, -12637.36339060824, -10931.433550290294, -12025.082054744013, 0.007140625, -0.02175, 0.9905468749999999, 192.0, 0.0, 0.0, 0.0, 0.0, 0.0, 0.0, 0.0, 0.0, 0.0, 1.6444982693403673E9, 0.0, 2022-02-11 00:04:29.340
80.0, -10041.163568635413, -11914.396216201332, -10810.912944187277, -16820.358254952225, -3202.5802973008513, -3705.1592713784307, -6611.556602902008, -7501.96069502362, -18131.10925330034, -15663.230796245432, -24003.270149620792, -13418.869783743596, -7893.764423580697, -12633.675352773113, -10936.127416625908, -12027.227822211722, 0.007140625, -0.02175, 0.9905468749999999, 192.0, 0.0, 0.0, 0.0, 0.0, 0.0, 0.0, 0.0, 0.0, 0.0, 1.6444982693403738E9, 0.0, 2022-02-11 00:04:29.340
82.0, -10024.511519016209, -11916.966666813692, -10804.877973184344, -16810.970522280993, -3194.243096619022, -3711.887146459478, -6601.341855685932, -7496.439814143159, -18133.612648679336, -15664.683659635028, -24006.64526303354, -13402.240085868847, -7900.760519595208, -12663.716097321047, -10939.45782654975, -12024.992647766192, 0.007140625, -0.02175, 0.9905468749999999, 192.0, 0.0, 0.0, 0.0, 0.0, 0.0, 0.0, 0.0, 0.0, 0.0, 1.6444982693403804E9, 0.0, 2022-02-11 00:04:29.340
84.0, -10031.239394097256, -11903.197992229223, -10810.33179883144, -16817.921914806597, -3202.781463000949, -3719.240870385274, -6615.781082604061, -7499.05496824443, -18122.30266598495, -15655.117113008157, -23994.485914049856, -13404.117632403093, -7887.79650781113, -12659.357507152261, -10937.200300359762, -12025.372627421932, 0.007140625, -0.02175, 0.9905468749999999, 192.0, 0.0, 0.0, 0.0, 0.0, 0.0, 0.0, 0.0, 0.0, 0.0, 1.644498269340387E9, 0.0, 2022-02-11 00:04:29.340
86.0, -10044.024591925692, -11911.110509766402, -10814.869202955866, -16811.79753682584, -3206.782425258449, -3712.4682918153158, -6616.988076804648, -7498.473822888592, -18143.089788328387, -15674.786648128826, -24010.98150145787, -13416.3663883646, -7898.257124216214, -12655.7365245505, -10943.391733573882, -12029.95473503527, 0.008, -0.026000000000000002, 0.994, 192.0, 0.0, 32.0, 127.5, 24.0, 15.5, 8.0, 0.0, 0.0, 0.0, 1.644498269340394E9, 0.0, 2022-02-11 00:04:29.340
88.0, -10035.12859763248, -11910.886992321848, -10815.785624478534, -16816.401996183635, -3210.5375183269407, -3714.882280216489, -6619.804396606016, -7506.900430548243, -18146.755474419057, -15669.265767248366, -24002.689004264954, -13403.60354228062, -7895.329045692569, -12650.483864603504, -10939.25666084965, -12024.120929732435, 0.008, -0.026000000000000002, 0.994, 192.0, 0.0, 0.0, 0.0, 0.0, 0.0, 0.0, 0.0, 0.0, 0.0, 1.6444982693404005E9, 0.0, 2022-02-11 00:04:29.340
90.0, -10050.260728628722, -11919.939448826248, -10821.641781525825, -16822.52637416439, -3217.041875963435, -3721.3866378529833, -6620.9443355732365, -7517.226936486595, -18155.22678556762, -15679.569921442262, -24016.077699193684, -13412.74540576284, -7917.3008104921355, -12654.685992561102, -10943.727009740713, -12037.442569427798, 0.008, -0.026000000000000002, 0.994, 192.0, 0.0, 0.0, 0.0, 0.0, 0.0, 0.0, 0.0, 0.0, 0.0, 1.6444982693404076E9, 0.0, 2022-02-11 00:04:29.340
92.0, -10030.680600485874, -11895.799564814517, -10811.583496520936, -16820.4700136745, -3209.5763933153626, -3713.5411755491705, -6624.945297830737, -7511.303724205938, -18145.906108129755, -15677.222988274454, -24011.47323983589, -13416.768719764796, -7912.539888923156, -12645.8347017568, -10945.671611508324, -12034.983877537714, 0.008, -0.026000000000000002, 0.994, 192.0, 0.0, 0.0, 0.0, 0.0, 0.0, 0.0, 0.0, 0.0, 0.0, 1.6444982693404143E9, 0.0, 2022-02-11 00:04:29.340
94.0, -10031.440559797355, -11906.774271342072, -10818.71370300218, -16826.415577699612, -3216.9301172411583, -3724.8064547546455, -6636.814074136505, -7526.793483113466, -18143.06743658393, -15667.321165480753, -24004.588902543655, -13410.823155739685, -7909.209478999314, -12641.36435286574, -10949.694925510279, -12037.710790361261, 0.008, -0.026000000000000002, 0.994, 192.0, 0.0, 0.0, 0.0, 0.0, 0.0, 0.0, 0.0, 0.0, 0.0, 1.6444982693404207E9, 0.0, 2022-02-11 00:04:29.340
96.0, -10039.17426337889, -11920.162966270802, -10823.47462457116, -16825.74502536595, -3218.8523672643146, -3720.559623308137, -6613.54590815853, -7491.9694652520975, -18146.196680807672, -15671.47858994944, -24016.636492805064, -13408.073891171682, -7908.784795854664, -12652.339059393295, -10954.411143590349, -12035.699133360284, 0.008, -0.028, 0.99, 192.0, 0.0, 32.0, 127.5, 16.0, 15.0, 120.0, 0.0, 0.0, 0.0, 1.6444982693404276E9, 0.0, 2022-02-11 00:04:29.340
98.0, -10042.638783769464, -11911.490489422142, -10820.703008258703, -16815.306760705324, -3223.613288833295, -3723.957088465344, -6625.861719353405, -7506.811023570422, -18152.030486110507, -15671.746810882905, -24007.33816711166, -13409.973789450383, -7921.100607049538, -12675.048431759888, -10950.857216221955, -12027.831319312016, 0.008, -0.028, 0.99, 192.0, 0.0, 0.0, 0.0, 0.0, 0.0, 0.0, 0.0, 0.0, 0.0, 1.6444982693404353E9, 0.0, 2022-02-11 00:04:29.340
100.0, -10043.868129714505, -11903.510916651598, -10820.054807669498, -16822.168746253104, -3225.9825737455576, -3722.5712803091146, -6637.88695787036, -7521.920802822209, -18151.941079132688, -15672.573825427751, -24010.93679796896, -13408.163298149502, -7922.553470439133, -12686.537228409914, -10952.287727867095, -12033.28514495911, 0.008, -0.028, 0.99, 192.0, 0.0, 0.0, 0.0, 0.0, 0.0, 0.0, 0.0, 0.0, 0.0, 1.6444982693404438E9, 0.0, 2022-02-11 00:04:29.340
102.0, -10025.785568450161, -11901.543963139531, -10809.102452886398, -16822.638132886666, -3208.4364543481415, -3709.3166958471174, -6628.45452171022, -7504.173517724696, -18140.38522724929, -15672.573825427751, -24000.386774586055, -13407.492745815844, -7912.204612756326, -12656.138855950698, -10945.962184186243, -12030.2900112021, 0.008, -0.028, 0.99, 192.0, 0.0, 0.0, 0.0, 0.0, 0.0, 0.0, 0.0, 0.0, 0.0, 1.6444982693404503E9, 0.0, 2022-02-11 00:04:29.340
104.0, -10032.379333064477, -11916.340817968943, -10812.991656421622, -16825.119176521202, -3209.129358426256, -3716.0445709281653, -6608.896745311827, -7513.181270740184, -18142.978029606107, -15678.362927241675, -24003.203094387423, -13397.277998599768, -7901.341664951046, -12648.092227946787, -10940.26248935014, -12030.737046091206, 0.008, -0.028, 0.99, 192.0, 0.0, 0.0, 0.0, 0.0, 0.0, 0.0, 0.0, 0.0, 0.0, 1.644498269340457E9, 0.0, 2022-02-11 00:04:29.340
106.0, -10019.147100346936, -11904.114413751891, -10810.063577897976, -16824.649789887644, -3200.5462885554184, -3704.6451812559585, -6600.716006841184, -7509.96261953862, -18138.39592199277, -15669.66809864856, -24007.449925833935, -13403.044748669237, -7898.301827705125, -12639.062123186843, -10942.40825681785, -12033.687476359306, 0.004, -0.024, 0.998, 192.0, 0.0, 16.0, 127.5, 32.0, 15.5, 24.0, 0.0, 0.0, 0.0, 1.6444982693404636E9, 0.0, 2022-02-11 00:04:29.340
108.0, -10020.063521869602, -11899.219381716179, -10812.61167676588, -16819.19596424055, -3205.4413205911305, -3709.987248180777, -6612.540079658042, -7498.183250210674, -18134.21614577963, -15655.608851386172, -23995.268225105792, -13400.384891079057, -7907.242525487248, -12649.947422736577, -10939.614288760935, -12026.177290222322, 0.004, -0.024, 0.998, 192.0, 0.0, 0.0, 0.0, 0.0, 0.0, 0.0, 0.0, 0.0, 0.0, 1.6444982693404703E9, 0.0, 2022-02-11 00:04:29.340
110.0, -10032.446388297843, -11912.1610417558, -10820.010104180588, -16818.12308050669, -3218.87471900877, -3720.492568074771, -6612.003637791114, -7503.950000280142, -18144.185023806695, -15680.843970876214, -24010.93679796896, -13405.659902770509, -7914.797415113141, -12661.570329853337, -10947.839730720489, -12029.686514101806, 0.004, -0.024, 0.998, 192.0, 0.0, 0.0, 0.0, 0.0, 0.0, 0.0, 0.0, 0.0, 0.0, 1.6444982693404772E9, 0.0, 2022-02-11 00:04:29.340
112.0, -10020.532908503164, -11908.003617287115, -10813.170470377263, -16816.916086306108, -3212.124492183267, -3713.608230782537, -6613.322390713977, -7505.380511925282, -18138.97706734861, -15676.418325474064, -23999.738573996852, -13404.922295203483, -7910.908211577918, -12657.278794917918, -10949.583166788003, -12032.793406581093, 0.004, -0.024, 0.998, 192.0, 0.0, 0.0, 0.0, 0.0, 0.0, 0.0, 0.0, 0.0, 0.0, 1.6444982693404837E9, 0.0, 2022-02-11 00:04:29.340
114.0, -10036.469702299799, -11910.171736499278, -10821.865298970379, -16823.934534065073, -3230.318812169887, -3725.052323943654, -6641.731457916672, -7529.140416281273, -18146.15197731876, -15672.663232405572, -23998.777448985275, -13400.720167245885, -7918.396045970446, -12666.93474852261, -10956.087524424496, -12038.180176994823, 0.004, -0.024, 0.998, 192.0, 0.0, 0.0, 0.0, 0.0, 0.0, 0.0, 0.0, 0.0, 0.0, 1.6444982693404903E9, 0.0, 2022-02-11 00:04:29.340
116.0, -10019.92941140287, -11890.815125800984, -10815.18212737824, -16816.916086306108, -3215.946640485125, -3708.8696609580115, -6623.268916996589, -7522.546651666958, -18137.747721403568, -15679.167590042067, -24003.94070195445, -13406.866896971094, -7913.523365679189, -12662.21853044254, -10959.283823881606, -12040.616517140452, 0.006, -0.026000000000000002, 0.994, 192.0, 0.0, 24.0, 127.5, 24.0, 15.5, 8.0, 0.0, 0.0, 0.0, 1.6444982693404973E9, 0.0, 2022-02-11 00:04:29.340
118.0, -10012.93331538836, -11884.847210031416, -10815.115072144876, -16817.653693873133, -3213.040913705935, -3705.136919633975, -6619.424416950276, -7495.7692618095, -18136.67483766971, -15667.589386414218, -23998.79980072973, -13398.663806755998, -7907.04135978715, -12658.17286469613, -10948.756152243157, -12027.674857100828, 0.006, -0.026000000000000002, 0.994, 192.0, 0.0, 0.0, 0.0, 0.0, 0.0, 0.0, 0.0, 0.0, 0.0, 1.644498269340504E9, 0.0, 2022-02-11 00:04:29.340
120.0, -10026.299658572634, -11903.488564907142, -10819.071330913464, -16828.85191784524, -3212.124492183267, -3717.3856755954835, -6600.246620207623, -7506.431043914681, -18136.07134056942, -15667.678793392039, -24008.94749271244, -13406.196344637436, -7905.655551630921, -12648.472207602526, -10947.839730720489, -12034.402732181876, 0.006, -0.026000000000000002, 0.994, 192.0, 0.0, 0.0, 0.0, 0.0, 0.0, 0.0, 0.0, 0.0, 0.0, 1.6444982698203688E9, 0.0, 2022-02-11 00:04:29.820
122.0, -10017.26955381269, -11899.241733460634, -10812.321104087961, -16825.297990476847, -3205.3519136133095, -3705.852175456545, -6590.881239280849, -7501.647770601246, -18136.31720975843, -15677.29004350782, -23998.531579796265, -13407.895077216039, -7903.018045785195, -12650.237995414496, -10945.02341091912, -12033.799235081582, 0.006, -0.026000000000000002, 0.994, 192.0, 0.0, 0.0, 0.0, 0.0, 0.0, 0.0, 0.0, 0.0, 0.0, 1.6444982698205483E9, 0.0, 2022-02-11 00:04:29.820
124.0, -10029.451254540832, -11900.806355572506, -10819.47366231366, -16830.975333568495, -3219.9923062315356, -3711.7083325038357, -6608.181489489257, -7519.7303318655895, -18137.635962681292, -15676.395973729608, -23995.201169872424, -13398.283827100257, -7910.729397622275, -12646.50525409046, -10945.537501041592, -12036.52614790513, 0.006, -0.026000000000000002, 0.994, 192.0, 0.0, 0.0, 0.0, 0.0, 0.0, 0.0, 0.0, 0.0, 0.0, 1.644498269820556E9, 0.0, 2022-02-11 00:04:29.820
126.0, -10028.4677777848, -11889.78694555604, -10821.150043147809, -16824.918010821108, -3217.4889108525413, -3712.267126115218, -6606.169832488279, -7508.420349171204, -18141.122834816317, -15678.407630730586, -24009.08160317917, -13409.727920261374, -7912.495185434245, -12658.262271673952, -10957.272166880628, -12038.537804906107, 0.006, -0.028, 0.988, 192.0, 0.0, 24.0, 127.5, 16.0, 15.0, 112.0, 0.0, 0.0, 0.0, 1.6444982698205628E9, 0.0, 2022-02-11 00:04:29.820
128.0, -10024.511519016209, -11901.07457650597, -10820.345380347417, -16828.22606900049, -3218.651201564217, -3714.0329139271876, -6606.773329588572, -7509.8732125607985, -18141.50281447206, -15670.450409704497, -23998.21865537389, -13403.55883879171, -7905.879069075474, -12660.07276297483, -10952.108913911452, -12033.307496703566, 0.006, -0.028, 0.988, 192.0, 0.0, 0.0, 0.0, 0.0, 0.0, 0.0, 0.0, 0.0, 0.0, 1.64449826982057E9, 0.0, 2022-02-11 00:04:29.820
130.0, -10025.65145798343, -11897.095965992925, -10823.876955971356, -16829.43306320108, -3219.299402153421, -3719.0620564296314, -6620.899632084326, -7520.713808621623, -18144.25207904006, -15674.026688817346, -24014.4683735929, -13408.006835938317, -7918.887784348462, -12663.55963510986, -10957.02629769162, -12038.895432817393, 0.006, -0.028, 0.988, 192.0, 0.0, 0.0, 0.0, 0.0, 0.0, 0.0, 0.0, 0.0, 0.0, 1.6444982698205771E9, 0.0, 2022-02-11 00:04:29.820
132.0, -10023.103359115525, -11898.21355321569, -10817.976095435155, -16822.973409053495, -3205.7765967579603, -3708.981419680288, -6615.445806437231, -7511.281372461483, -18140.184061549196, -15667.611738158672, -24006.824076989185, -13401.144850390536, -7915.467967446801, -12661.07859147532, -10953.31590811204, -12034.961525793258, 0.006, -0.028, 0.988, 192.0, 0.0, 0.0, 0.0, 0.0, 0.0, 0.0, 0.0, 0.0, 0.0, 1.6444982698205917E9, 0.0, 2022-02-11 00:04:29.820
134.0, -10029.36184756301, -11913.010408045104, -10822.491147815126, -16832.294086491358, -3213.5773555728624, -3721.0290099416984, -6610.126091256869, -7521.652581888746, -18139.491157471082, -15683.302662766298, -24004.924178710484, -13405.011702181304, -7912.271667989692, -12657.055277473364, -10949.426704576816, -12035.565022893552, 0.006, -0.028, 0.988, 192.0, 0.0, 0.0, 0.0, 0.0, 0.0, 0.0, 0.0, 0.0, 0.0, 1.6444982698205984E9, 0.0, 2022-02-11 00:04:29.820
136.0, -10023.237469582256, -11898.660588104796, -10818.66899951327, -16831.623534157698, -3208.9952479595245, -3706.455672556838, -6616.250469237622, -7503.4135584132155, -18135.7807678915, -15685.470781978463, -24010.288597379757, -13414.84646974164, -7904.336798708057, -12646.751123279468, -10951.438361577793, -12037.174348494334, 0.008, -0.036000000000000004, 0.986, 192.0, 0.0, 32.0, 127.0, 112.0, 15.0, 104.0, 0.0, 0.0, 0.0, 1.6444982698206053E9, 0.0, 2022-02-11 00:04:29.820
138.0, -10019.392969535944, -11901.812184072995, -10818.646647768814, -16831.53412717988, -3213.040913705935, -3705.6510097564474, -6609.947277301226, -7508.018017771008, -18132.96444809013, -15682.520351710362, -23995.64820476153, -13405.481088814866, -7908.181298754371, -12634.97175395152, -10948.800855732066, -12030.558232135563, 0.008, -0.036000000000000004, 0.986, 192.0, 0.0, 0.0, 0.0, 0.0, 0.0, 0.0, 0.0, 0.0, 0.0, 1.644498269820612E9, 0.0, 2022-02-11 00:04:29.820
140.0, -10030.993524908248, -11903.890896307337, -10829.554299063004, -16832.249383002447, -3216.013695718491, -3720.090236674576, -6599.017274262581, -7518.411578942726, -18134.752587646555, -15677.893540608115, -24008.791030501252, -13410.756100506318, -7912.13755752296, -12655.31184140585, -10952.153617400363, -12037.397865938887, 0.008, -0.036000000000000004, 0.986, 192.0, 0.0, 0.0, 0.0, 0.0, 0.0, 0.0, 0.0, 0.0, 0.0, 1.644498269820619E9, 0.0, 2022-02-11 00:04:29.820
142.0, -10020.041170125149, -11895.039605503036, -10819.227793124652, -16825.119176521202, -3203.7872915014377, -3709.5849167805814, -6598.413777162287, -7507.213354970617, -18131.265715511527, -15678.117058052667, -24004.119515910093, -13404.251742869825, -7909.097720277038, -12672.656795103168, -10950.097256910474, -12032.972220536736, 0.008, -0.036000000000000004, 0.986, 192.0, 0.0, 0.0, 0.0, 0.0, 0.0, 0.0, 0.0, 0.0, 0.0, 1.6444982698206267E9, 0.0, 2022-02-11 00:04:29.820
144.0, -10032.22287085329, -11900.627541616863, -10831.81182525299, -16831.690589391066, -3220.7075620541054, -3726.281669888696, -6626.711085642706, -7529.833320359388, -18138.485328970593, -15690.321110525265, -24006.33233861117, -13413.728882518875, -7908.2036504988255, -12666.755934566967, -10954.835826735, -12036.280278716122, 0.008, -0.036000000000000004, 0.986, 192.0, 0.0, 0.0, 0.0, 0.0, 0.0, 0.0, 0.0, 0.0, 0.0, 1.644498269820634E9, 0.0, 2022-02-11 00:04:29.820
146.0, -10031.820539453094, -11914.373864456877, -10825.396874594317, -16829.947153323552, -3219.1429399422336, -3725.5217105772153, -6622.240736751644, -7526.972297069108, -18141.39105574978, -15697.29485479532, -24012.121440425093, -13416.388740109056, -7916.429092458379, -12675.160190482164, -10965.251739651172, -12049.020773055647, 0.01, -0.032, 0.988, 192.0, 0.0, 40.0, 127.5, 0.0, 15.0, 112.0, 0.0, 0.0, 0.0, 1.6444982698206408E9, 0.0, 2022-02-11 00:04:29.820
148.0, -10030.993524908248, -11912.384559200354, -10825.396874594317, -16833.76930162541, -3223.1215504552783, -3723.1524256649527, -6636.210577036211, -7523.6642388897235, -18143.179195306206, -15693.875037893658, -23999.917387952493, -13402.284789357756, -7920.094778549049, -12677.618882372248, -10959.59674830398, -12042.739932863706, 0.01, -0.032, 0.988, 192.0, 0.0, 0.0, 0.0, 0.0, 0.0, 0.0, 0.0, 0.0, 0.0, 1.6444982698206477E9, 0.0, 2022-02-11 00:04:29.820
150.0, -10031.172338863891, -11903.890896307337, -10834.851662498912, -16835.892717348663, -3229.424742391675, -3726.97457396681, -6616.496338426631, -7534.214262272628, -18143.648581939768, -15690.81284890328, -24010.333300868668, -13409.146774905537, -7917.524327936689, -12658.888120518699, -10964.424725106326, -12048.417275955353, 0.01, -0.032, 0.988, 192.0, 0.0, 0.0, 0.0, 0.0, 0.0, 0.0, 0.0, 0.0, 0.0, 1.644498269820655E9, 0.0, 2022-02-11 00:04:29.820
152.0, -10027.774873706685, -11913.83742258995, -10825.307467616496, -16838.306705749834, -3220.551099842918, -3720.0231814412095, -6614.931716314759, -7526.771131369011, -18138.59708769287, -15700.781726930349, -24006.958187455915, -13419.428577354978, -7915.8926505914515, -12651.422637870626, -10958.79208550359, -12041.354124707475, 0.01, -0.032, 0.988, 192.0, 0.0, 0.0, 0.0, 0.0, 0.0, 0.0, 0.0, 0.0, 0.0, 1.644498269820662E9, 0.0, 2022-02-11 00:04:29.820
154.0, -10029.250088840734, -11908.808280087505, -10830.00133395211, -16840.363066239723, -3227.5695476018846, -3732.8083792696452, -6627.918079843293, -7540.9197856092205, -18141.905145872253, -15707.576657244761, -24005.639434533052, -13419.920315732994, -7922.017028572206, -12675.070783504341, -10954.746419757179, -12044.036334042114, 0.01, -0.032, 0.988, 192.0, 0.0, 0.0, 0.0, 0.0, 0.0, 0.0, 0.0, 0.0, 0.0, 1.644498269820669E9, 0.0, 2022-02-11 00:04:29.820
156.0, -10050.238376884268, -11923.046341305535, -10835.05282819901, -16847.47092097651, -3221.847501021326, -3736.0940857045757, -6617.9492018162255, -7545.233672289094, -18145.436721496193, -15713.745738714426, -24019.452812606432, -13426.692894302952, -7923.246374517247, -12682.60332138578, -10959.730858770712, -12051.323002734543, 0.008, -0.032, 0.988, 192.0, 0.0, 32.0, 127.5, 0.0, 15.0, 112.0, 0.0, 0.0, 0.0, 1.6444982698206763E9, 0.0, 2022-02-11 00:04:29.820
158.0, -10043.80107448114, -11918.128957525369, -10834.114054931886, -16844.81106338633, -3216.4383788631417, -3740.989117740288, -6608.4944139116305, -7542.104428065351, -18157.64077396879, -15718.976046916969, -24016.390623616055, -13430.917374005006, -7928.9237176088955, -12689.800583100388, -10959.641451792892, -12051.211244012267, 0.008, -0.032, 0.988, 192.0, 0.0, 0.0, 0.0, 0.0, 0.0, 0.0, 0.0, 0.0, 0.0, 1.6444982698206837E9, 0.0, 2022-02-11 00:04:29.820
160.0, -10045.61156578202, -11943.677001437783, -10838.740866034135, -16845.883947120186, -3223.0321434774573, -3747.69464107688, -6612.227155235667, -7541.769151898522, -18155.427951267713, -15724.519279541884, -24020.32453064019, -13435.544185107254, -7923.447540217346, -12692.974530813042, -10961.11666692694, -12053.111142290967, 0.008, -0.032, 0.988, 192.0, 0.0, 0.0, 0.0, 0.0, 0.0, 0.0, 0.0, 0.0, 0.0, 1.6444982698206904E9, 0.0, 2022-02-11 00:04:29.820
162.0, -10045.030420426181, -11939.072542079992, -10832.392970608827, -16841.81592962932, -3215.4772538515635, -3739.8715305175224, -6608.360303444899, -7535.242442517572, -18151.49404424358, -15731.269506367387, -24016.860010249617, -13425.70941754692, -7926.66619141891, -12690.26996973395, -10957.853312236466, -12050.607746911974, 0.008, -0.032, 0.988, 192.0, 0.0, 0.0, 0.0, 0.0, 0.0, 0.0, 0.0, 0.0, 0.0, 1.6444982698206975E9, 0.0, 2022-02-11 00:04:29.820
164.0, -10055.267519386713, -11928.83544311946, -10840.126674190364, -16850.24253728897, -3223.6803440666613, -3745.9959084982765, -6629.683867655262, -7540.562157697936, -18156.45613151266, -15727.156785387611, -24012.814344503207, -13434.985391495871, -7927.001467585739, -12676.188370727108, -10955.148751157374, -12051.43476145682, 0.011, -0.029, 0.985, 192.0, 0.0, 56.0, 127.5, 24.0, 15.0, 88.0, 0.0, 0.0, 0.0, 1.6444982698207085E9, 0.0, 2022-02-11 00:04:29.820
166.0, -10042.482321558276, -11908.920038809782, -10833.823482253967, -16841.57006044031, -3216.4160271186865, -3735.378829882006, -6620.430245450765, -7540.115122808829, -18154.60093672287, -15712.158764858099, -24019.363405628614, -13438.584022353176, -7921.815862872108, -12695.500277936493, -10959.6861552818, -12055.368668480955, 0.011, -0.029, 0.985, 192.0, 0.0, 0.0, 0.0, 0.0, 0.0, 0.0, 0.0, 0.0, 0.0, 1.644498269820716E9, 0.0, 2022-02-11 00:04:29.820
168.0, -10040.671830257395, -11927.69550415224, -10834.494034587626, -16846.46509247602, -3214.136149184245, -3735.423533370916, -6625.9287745867705, -7544.026678088508, -18146.800177907968, -15711.979950902458, -24006.399393844535, -13417.416920354, -7912.450481945334, -12683.475039419538, -10951.728934255712, -12050.63009865643, 0.011, -0.029, 0.985, 192.0, 0.0, 0.0, 0.0, 0.0, 0.0, 0.0, 0.0, 0.0, 0.0, 1.644498269820723E9, 0.0, 2022-02-11 00:04:29.820
170.0, -10051.244205384757, -11930.2659547646, -10841.065447457488, -16854.690534435576, -3224.820283033882, -3740.989117740288, -6626.129940286868, -7538.997535586064, -18153.148073333272, -15735.091654669244, -24015.921236982496, -13434.22543218439, -7935.2045578008365, -12680.725774851535, -10958.07682968102, -12058.274395260143, 0.011, -0.029, 0.985, 192.0, 0.0, 0.0, 0.0, 0.0, 0.0, 0.0, 0.0, 0.0, 0.0, 1.6444982698207302E9, 0.0, 2022-02-11 00:04:29.820
172.0, -10042.079990158081, -11924.521556439586, -10835.701028788213, -16847.828548887795, -3217.8912422527364, -3736.5187688492265, -6621.078446039969, -7542.0373728319855, -18154.511529745047, -15731.090692411744, -24019.139888184058, -13438.964002008915, -7935.673944434398, -12687.073670276843, -10963.955338472764, -12057.067401059558, 0.011, -0.029, 0.985, 192.0, 0.0, 0.0, 0.0, 0.0, 0.0, 0.0, 0.0, 0.0, 0.0, 1.6444982698207376E9, 0.0, 2022-02-11 00:04:29.820
174.0, -10060.788400267173, -11938.93843161326, -10847.14512194933, -16852.410656501135, -3235.7502860725267, -3742.3525741520616, -6639.78685614906, -7550.128704324807, -18161.41821878174, -15729.213145877498, -24018.916370739506, -13432.303182161235, -7935.897461878952, -12694.27093199145, -10964.894111739888, -12061.29188076161, 0.0115, -0.027500000000000004, 0.9855, 192.0, 0.0, 48.0, 127.5, 24.0, 15.0, 104.0, 0.0, 0.0, 0.0, 1.6444982698207445E9, 0.0, 2022-02-11 00:04:29.820
176.0, -10050.014859439714, -11927.60609717442, -10843.568842836481, -16852.768284412417, -3238.3877919182532, -3737.144617693975, -6652.236777810666, -7562.623329475324, -18161.97701239312, -15731.82829997877, -24031.1204232121, -13439.813368298217, -7937.99852585775, -12687.788926099412, -10973.141905443896, -12068.243273287211, 0.0115, -0.027500000000000004, 0.9855, 192.0, 0.0, 0.0, 0.0, 0.0, 0.0, 0.0, 0.0, 0.0, 0.0, 1.6444982698207512E9, 0.0, 2022-02-11 00:04:29.820
178.0, -10047.98085069428, -11923.560431428008, -10838.919679989778, -16858.780903670897, -3229.4470941361305, -3740.8326555291005, -6614.9540680592145, -7559.4717335071255, -18157.21609082414, -15717.411424805097, -24012.3673096141, -13427.65401931453, -7938.646726446954, -12671.65096660268, -10964.424725106326, -12069.584377954528, 0.0115, -0.027500000000000004, 0.9855, 192.0, 0.0, 0.0, 0.0, 0.0, 0.0, 0.0, 0.0, 0.0, 0.0, 1.6444982698207583E9, 0.0, 2022-02-11 00:04:29.820
180.0, -10055.021650197703, -11922.934582583259, -10847.43569462725, -16856.94806062556, -3240.6676698526944, -3752.343803923584, -6629.728571144173, -7559.807009673955, -18166.849692684376, -15729.906049955613, -24028.862897022118, -13434.89598451805, -7941.23952880377, -12695.65674014768, -10967.196341418785, -12072.512456478174, 0.0115, -0.027500000000000004, 0.9855, 192.0, 0.0, 0.0, 0.0, 0.0, 0.0, 0.0, 0.0, 0.0, 0.0, 1.6444982698207653E9, 0.0, 2022-02-11 00:04:29.820
182.0, -10041.856472713527, -11917.145480769335, -10839.031438712054, -16843.80523488584, -3233.269242437988, -3737.8375217720895, -6643.407838750821, -7556.342489283382, -18159.54067224749, -15733.34821860173, -24019.40810911752, -13430.358580393622, -7932.701162421842, -12690.046452289398, -10974.862989766954, -12068.399735498399, 0.0115, -0.027500000000000004, 0.9855, 192.0, 0.0, 0.0, 0.0, 0.0, 0.0, 0.0, 0.0, 0.0, 0.0, 1.644498269820772E9, 0.0, 2022-02-11 00:04:29.820
184.0, -10051.445371084854, -11915.26793423509, -10842.227738169162, -16849.281412277393, -3241.5840913753623, -3743.6489753304695, -6635.249452024634, -7557.817704417433, -18156.746704190577, -15719.624247506172, -24016.94941722744, -13422.714283789908, -7938.825540402597, -12698.294245993406, -10973.7901060331, -12066.142209308411, 0.00975, -0.027750000000000004, 0.98675, 192.0, 0.0, 32.0, 127.5, 16.0, 15.0, 112.0, 0.0, 0.0, 0.0, 1.644498269820779E9, 0.0, 2022-02-11 00:04:29.820
186.0, -10047.623222782997, -11922.107568038413, -10839.612584067892, -16851.583641956287, -3231.8387307928483, -3740.631489829003, -6614.0152947920915, -7548.7875996574885, -18154.176253578218, -15734.711675013505, -24024.683120808975, -13437.04175198576, -7933.416418244412, -12693.55567616888, -10972.449001365781, -12068.444438987308, 0.00975, -0.027750000000000004, 0.98675, 192.0, 0.0, 0.0, 0.0, 0.0, 0.0, 0.0, 0.0, 0.0, 0.0, 1.6444982698207862E9, 0.0, 2022-02-11 00:04:29.820
188.0, -10045.835083226571, -11929.953030342225, -10837.220947411173, -16852.343601267767, -3224.0826754668565, -3738.59748108357, -6606.862736566393, -7538.841073374877, -18158.333678046904, -15731.045988922835, -24014.624835804087, -13429.308048404224, -7933.639935688965, -12686.783097598924, -10962.770696016634, -12062.118895306456, 0.00975, -0.027750000000000004, 0.98675, 192.0, 0.0, 0.0, 0.0, 0.0, 0.0, 0.0, 0.0, 0.0, 0.0, 1.644498269820793E9, 0.0, 2022-02-11 00:04:29.820
190.0, -10056.94390022086, -11932.21055653221, -10844.641726570337, -16854.444665246567, -3235.6608790947057, -3737.099914205064, -6625.794664120039, -7557.929463139709, -18161.239404826094, -15739.919631471592, -24021.352710885134, -13429.598621082143, -7924.9898105847615, -12683.631501630725, -10967.21869316324, -12062.923558106848, 0.00975, -0.027750000000000004, 0.98675, 192.0, 0.0, 0.0, 0.0, 0.0, 0.0, 0.0, 0.0, 0.0, 0.0, 1.6444982698208003E9, 0.0, 2022-02-11 00:04:29.820
192.0, -10045.633917526475, -11915.223230746178, -10833.443502598227, -16851.024848344907, -3230.743495314538, -3729.522672834715, -6627.35928623191, -7543.847864132866, -18156.947869890675, -15728.319076099287, -24022.51500159681, -13424.502423346332, -7938.512615980222, -12677.305957949873, -10970.79497227609, -12060.442514472308, 0.00975, -0.027750000000000004, 0.98675, 192.0, 0.0, 0.0, 0.0, 0.0, 0.0, 0.0, 0.0, 0.0, 0.0, 1.6444982698208075E9, 0.0, 2022-02-11 00:04:29.820
194.0, -10057.279176387688, -11930.60123093143, -10840.461950357194, -16855.606955958243, -3240.9135390417027, -3736.630527571503, -6630.063847311002, -7541.702096665156, -18163.07224787143, -15742.624192550684, -24012.61317880311, -13427.676371058986, -7938.9596508693285, -12693.153344768685, -10972.046669965586, -12061.046011572602, 0.008875000000000001, -0.025875000000000002, 0.985375, 192.0, 0.0, 32.0, 127.5, 32.0, 15.0, 96.0, 0.0, 0.0, 0.0, 1.6444982698208141E9, 0.0, 2022-02-11 00:04:29.820
196.0, -10056.295699631655, -11928.567222185997, -10837.533871833548, -16852.6788774346, -3230.385867403253, -3729.433265856894, -6612.562431402497, -7536.248271018061, -18159.384210036304, -15741.327791372276, -24023.61023707512, -13437.33232466368, -7937.573842713099, -12696.75197562599, -10974.840638022499, -12062.677688917838, 0.008875000000000001, -0.025875000000000002, 0.985375, 192.0, 0.0, 0.0, 0.0, 0.0, 0.0, 0.0, 0.0, 0.0, 0.0, 1.6444982698208237E9, 0.0, 2022-02-11 00:04:29.820
198.0, -10048.070257672103, -11924.186280272757, -10835.43280785475, -16849.661391933132, -3224.775579544971, -3727.1533879224526, -6617.189242504745, -7530.839148859876, -18159.607727480856, -15733.169404646089, -24015.407146860023, -13428.078702459181, -7931.516519965711, -12680.010519028965, -10966.592844318491, -12054.474598702742, 0.008875000000000001, -0.025875000000000002, 0.985375, 192.0, 0.0, 0.0, 0.0, 0.0, 0.0, 0.0, 0.0, 0.0, 0.0, 1.64449826982083E9, 0.0, 2022-02-11 00:04:29.820
200.0, -10040.98475467977, -11917.748977869627, -10838.182072422753, -16851.29306927837, -3234.8562162943144, -3730.7073152908465, -6633.014277579103, -7539.243404775072, -18157.953698391164, -15733.549384301828, -24020.32453064019, -13428.771606537297, -7926.465025718811, -12672.969719525543, -10969.386812375405, -12059.43668597182, 0.008875000000000001, -0.025875000000000002, 0.985375, 192.0, 0.0, 0.0, 0.0, 0.0, 0.0, 0.0, 0.0, 0.0, 0.0, 1.6444982698208373E9, 0.0, 2022-02-11 00:04:29.820
202.0, -10032.826367953583, -11904.561448640998, -10828.995505451621, -16843.134682552183, -3227.97187900208, -3720.827844241601, -6633.327202001477, -7535.130683795296, -18145.280259285006, -15723.669913252583, -24010.288597379757, -13422.13313843407, -7920.4077029714235, -12667.024155500432, -10969.878550753421, -12056.709773148272, 0.008875000000000001, -0.025875000000000002, 0.985375, 192.0, 0.0, 0.0, 0.0, 0.0, 0.0, 0.0, 0.0, 0.0, 0.0, 1.644498269820844E9, 0.0, 2022-02-11 00:04:29.820
204.0, -10043.51050180322, -11905.522573652575, -10831.074217685964, -16849.415522744122, -3234.006850005013, -3729.925004234911, -6621.59253616244, -7549.167579313229, -18153.036314610996, -15726.128605142667, -24011.137963669058, -13417.036940698259, -7921.368827983002, -12682.491562663505, -10969.36446063095, -12060.107238305478, 0.0084375, -0.0249375, 0.9876875, 192.0, 0.0, 32.0, 127.5, 32.0, 15.0, 120.0, 0.0, 0.0, 0.0, 1.6444982698208516E9, 0.0, 2022-02-11 00:04:29.820
206.0, -10046.013897182214, -11920.967629071192, -10831.8565287419, -16851.203662300548, -3227.2119196905996, -3722.794797753668, -6613.791777347538, -7548.54173046848, -18149.549442475967, -15727.40265457662, -24016.927065482985, -13427.206984425424, -7930.465987976312, -12672.477981147525, -10969.498571097682, -12061.090715061513, 0.0084375, -0.0249375, 0.9876875, 192.0, 0.0, 0.0, 0.0, 0.0, 0.0, 0.0, 0.0, 0.0, 0.0, 1.6444982698208587E9, 0.0, 2022-02-11 00:04:29.820
208.0, -10050.372487351, -11922.956934327714, -10835.656325299302, -16849.594336699767, -3230.8329022923594, -3729.723838534813, -6608.293248211533, -7537.455265218648, -18157.819587924434, -15742.244212894942, -24008.12047816759, -13426.379969880578, -7929.638973431465, -12669.236978201507, -10967.486914096704, -12055.122799291945, 0.0084375, -0.0249375, 0.9876875, 192.0, 0.0, 0.0, 0.0, 0.0, 0.0, 0.0, 0.0, 0.0, 0.0, 1.6444982698208656E9, 0.0, 2022-02-11 00:04:29.820
210.0, -10058.329708377089, -11924.856832606416, -10847.413342882794, -16853.796464657364, -3243.998079776535, -3738.083390961098, -6621.59253616244, -7549.547558968969, -18165.93327116171, -15738.287954126354, -24019.363405628614, -13429.151586193037, -7932.410589743923, -12695.500277936493, -10977.74636480169, -12060.688383661316, 0.0084375, -0.0249375, 0.9876875, 192.0, 0.0, 0.0, 0.0, 0.0, 0.0, 0.0, 0.0, 0.0, 0.0, 1.6444982698208728E9, 0.0, 2022-02-11 00:04:29.820
212.0, -10039.755408734729, -11910.395253943832, -10837.265650900084, -16850.600165200256, -3228.083637724357, -3727.555719322648, -6621.257259995611, -7558.085925350896, -18160.144169347783, -15732.141224401144, -24015.720071282398, -13431.431464127478, -7939.831368903086, -12682.424507430138, -10980.339167158505, -12062.029488328635, 0.0084375, -0.0249375, 0.9876875, 192.0, 0.0, 0.0, 0.0, 0.0, 0.0, 0.0, 0.0, 0.0, 0.0, 1.6444982698208797E9, 0.0, 2022-02-11 00:04:29.820
214.0, -10050.372487351, -11927.136710540857, -10845.20052018172, -16856.277508291903, -3242.366402431298, -3734.2165391703297, -6630.019143822092, -7534.147207039262, -18161.14999784827, -15744.389980362652, -24014.311911381712, -13421.127309933581, -7936.724476423798, -12672.276815447429, -10975.779411289623, -12060.218997027756, 0.01021875, -0.029468750000000002, 0.98684375, 192.0, 0.0, 48.0, 127.0, 120.0, 15.0, 104.0, 0.0, 0.0, 0.0, 1.6444982698208876E9, 0.0, 2022-02-11 00:04:29.820
216.0, -10059.737868277773, -11928.097835552435, -10848.441523127738, -16860.2784705494, -3238.54425412944, -3732.6519170584584, -6619.156196016812, -7545.7924659004775, -18169.107218874364, -15746.781617019371, -24032.483879623876, -13437.08645547467, -7936.389200256968, -12682.26804521895, -10978.461620624259, -12062.141247050911, 0.01021875, -0.029468750000000002, 0.98684375, 192.0, 0.0, 0.0, 0.0, 0.0, 0.0, 0.0, 0.0, 0.0, 0.0, 1.644498269820895E9, 0.0, 2022-02-11 00:04:29.820
218.0, -10050.886577473471, -11918.531288925564, -10840.551357335014, -16857.260985047935, -3231.8387307928483, -3738.955108994855, -6630.957917089215, -7545.546596711469, -18168.570777007437, -15751.050800210334, -24021.308007396223, -13427.341094892157, -7938.244395046759, -12694.94148432511, -10971.51022809866, -12062.00713658418, 0.01021875, -0.029468750000000002, 0.98684375, 192.0, 0.0, 0.0, 0.0, 0.0, 0.0, 0.0, 0.0, 0.0, 0.0, 1.644498269820902E9, 0.0, 2022-02-11 00:04:29.820
220.0, -10056.474513587298, -11918.665399392296, -10849.581462094959, -16862.647755461665, -3243.26047220951, -3738.955108994855, -6640.8373881384605, -7552.296823536972, -18164.54746300548, -15747.273355397387, -24026.4712603654, -13427.206984425424, -7938.937299124873, -12685.732565609524, -10974.281844411116, -12065.225787785745, 0.01021875, -0.029468750000000002, 0.98684375, 192.0, 0.0, 0.0, 0.0, 0.0, 0.0, 0.0, 0.0, 0.0, 0.0, 1.6444982698209095E9, 0.0, 2022-02-11 00:04:29.820
222.0, -10049.590176295063, -11926.130882040368, -10841.579537579959, -16856.34456352527, -3230.4082191477087, -3726.7734082667125, -6633.193091534745, -7542.35029725436, -18163.005192638062, -15748.614460064706, -24021.12919344058, -13431.006780982827, -7947.296851551158, -12682.64802487469, -10971.353765887472, -12063.080020318035, 0.01021875, -0.029468750000000002, 0.98684375, 192.0, 0.0, 0.0, 0.0, 0.0, 0.0, 0.0, 0.0, 0.0, 0.0, 1.6444982698209164E9, 0.0, 2022-02-11 00:04:29.820
224.0, -10061.235435156279, -11935.608021689419, -10847.815674282989, -16857.66331644813, -3232.68809708215, -3735.736457793291, -6614.283515725555, -7548.049992090463, -18165.530939761513, -15753.39773337814, -24016.256513149325, -13426.22350766939, -7940.8371974035745, -12669.862827046256, -10962.211902405252, -12060.107238305478, 0.010109375, -0.029734375, 0.986421875, 192.0, 0.0, 40.0, 127.5, 8.0, 15.0, 104.0, 0.0, 0.0, 0.0, 1.644498269820926E9, 0.0, 2022-02-11 00:04:29.820
226.0, -10062.129504934492, -11938.245527535144, -10846.116941704386, -16854.601127457754, -3229.1565214582115, -3736.5858240825924, -6618.776216361072, -7551.7827334144995, -18167.632003740313, -15759.902091014636, -24025.84541152065, -13436.28179267428, -7931.047133332149, -12684.41381268666, -10965.207036162263, -12066.321023264054, 0.010109375, -0.029734375, 0.986421875, 192.0, 0.0, 0.0, 0.0, 0.0, 0.0, 0.0, 0.0, 0.0, 0.0, 1.6444982698209536E9, 0.0, 2022-02-11 00:04:29.820
228.0, -10055.111057175525, -11933.998696088636, -10843.367677136384, -16853.57294721281, -3229.491797625041, -3731.623736813514, -6632.053152567524, -7543.959622855142, -18168.97310840763, -15759.276242169886, -24016.770603271798, -13432.951382750438, -7942.021839859705, -12680.010519028965, -10963.731821028212, -12060.822494128048, 0.010109375, -0.029734375, 0.986421875, 192.0, 0.0, 0.0, 0.0, 0.0, 0.0, 0.0, 0.0, 0.0, 0.0, 1.644498269820963E9, 0.0, 2022-02-11 00:04:29.820
230.0, -10072.098382961558, -11945.711010183217, -10851.347249906928, -16858.04329610387, -3234.7221058275827, -3738.5527775946593, -6619.670286139284, -7550.531035725002, -18174.896320688287, -15767.322870173797, -24029.488745866867, -13436.482958374378, -7942.178302070893, -12683.631501630725, -10965.542312329091, -12065.158732552378, 0.010109375, -0.029734375, 0.986421875, 192.0, 0.0, 0.0, 0.0, 0.0, 0.0, 0.0, 0.0, 0.0, 0.0, 1.6444982698209698E9, 0.0, 2022-02-11 00:04:29.820
232.0, -10064.85641775804, -11943.900518882338, -10840.104322445908, -16855.15992106914, -3222.428646377164, -3727.8462920005672, -6622.374847218376, -7537.96935534112, -18170.537730519503, -15767.278166684888, -24025.37602488709, -13436.550013607743, -7934.042267089161, -12676.277777704929, -10963.105972183463, -12065.873988374948, 0.010109375, -0.029734375, 0.986421875, 192.0, 0.0, 0.0, 0.0, 0.0, 0.0, 0.0, 0.0, 0.0, 0.0, 1.6444982698209767E9, 0.0, 2022-02-11 00:04:29.820
234.0, -10094.80775532815, -11967.436905793777, -10846.072238215476, -16857.708019937043, -3226.9213470126806, -3731.7354955357905, -6620.497300684131, -7545.121913566818, -18177.77969572302, -15771.346184175753, -24024.034920219772, -13435.745350807352, -7930.4436362318565, -12677.060088760863, -10961.161370415852, -12066.34337500851, 0.006, -0.024, 0.992, 192.0, 0.0, 24.0, 127.5, 32.0, 15.5, 0.0, 0.0, 0.0, 0.0, 1.6444982698209836E9, 0.0, 2022-02-11 00:04:29.820
236.0, -10111.348046225077, -11982.770202490115, -10846.161645193297, -16855.048162346862, -3223.3897713887422, -3722.817149498123, -6610.707236612706, -7536.9858785850865, -18181.445381813694, -15785.383079693685, -24038.742368071362, -13451.23510971488, -7925.593307685055, -12677.373013183238, -10966.481085596215, -12068.243273287211, 0.006, -0.024, 0.992, 192.0, 0.0, 0.0, 0.0, 0.0, 0.0, 0.0, 0.0, 0.0, 0.0, 1.6444982698209908E9, 0.0, 2022-02-11 00:04:29.820
238.0, -10156.140942113512, -12021.304609931065, -10846.295755660029, -16857.462150748033, -3214.717294540083, -3714.59170753857, -6598.771405073572, -7527.44168370267, -18202.858353001877, -15784.64547212666, -24042.631571606587, -13450.765723081318, -7936.277441534691, -12657.256443173463, -10963.038916950098, -12056.933290592826, 0.006, -0.024, 0.992, 192.0, 0.0, 0.0, 0.0, 0.0, 0.0, 0.0, 0.0, 0.0, 0.0, 1.6444982698209977E9, 0.0, 2022-02-11 00:04:29.820
240.0, -10205.918277015482, -12067.304500020087, -10852.107209218408, -16866.67106946362, -3221.7357422990494, -3724.8511582435563, -6616.384579704354, -7535.912994851232, -18216.738786308622, -15799.978768823, -24059.887118326085, -13469.049450045759, -7937.395028757457, -12663.917263021143, -10960.513169826649, -12060.621328427951, 0.006, -0.024, 0.992, 192.0, 0.0, 0.0, 0.0, 0.0, 0.0, 0.0, 0.0, 0.0, 0.0, 1.6444982702997756E9, 0.0, 2022-02-11 00:04:30.299
242.0, -10239.892928587547, -12101.972055670269, -10854.118866219385, -16861.463113005535, -3213.6667625506834, -3715.910460461433, -6618.396236705332, -7530.503872693047, -18232.07208300496, -15810.215867783532, -24072.00176382086, -13475.486752448887, -7928.320220508603, -12689.107679022274, -10962.971861716731, -12067.57272095355, 0.006, -0.024, 0.992, 192.0, 0.0, 0.0, 0.0, 0.0, 0.0, 0.0, 0.0, 0.0, 0.0, 1.6444982702999728E9, 0.0, 2022-02-11 00:04:30.299
244.0, -10275.588664482673, -12138.15952994341, -10862.836046556957, -16863.877101406706, -3217.39950387472, -3722.3254111201063, -6598.190259717734, -7529.922727337209, -18261.196406030227, -15819.357731265753, -24094.264101298348, -13479.979453084405, -7940.233700303281, -12683.944426053098, -10961.496646582682, -12063.795276140605, 0.008, -0.03, 0.986, 192.0, 0.0, 32.0, 127.5, 8.0, 15.0, 104.0, 0.0, 0.0, 0.0, 1.644498270299981E9, 0.0, 2022-02-11 00:04:30.299
246.0, -10283.143554108567, -12135.410265375409, -10862.925453534777, -16864.167674084627, -3213.77852127296, -3716.268088372718, -6602.370035930877, -7533.29784074996, -18262.738676397643, -15812.831021884802, -24105.082345614715, -13489.389537500088, -7942.759447426731, -12678.55765563937, -10964.804704762068, -12066.611595941973, 0.008, -0.03, 0.986, 192.0, 0.0, 0.0, 0.0, 0.0, 0.0, 0.0, 0.0, 0.0, 0.0, 1.6444982702999883E9, 0.0, 2022-02-11 00:04:30.299
248.0, -10291.74897572386, -12145.647364335939, -10858.589215110447, -16864.659412462643, -3217.4665591080857, -3718.3468006070616, -6615.043475037036, -7526.167634268718, -18259.698839151722, -15818.03897834289, -24088.72086867343, -13481.454668218455, -7938.289098535669, -12679.518780650948, -10961.02725994912, -12057.492084204208, 0.008, -0.03, 0.986, 192.0, 0.0, 0.0, 0.0, 0.0, 0.0, 0.0, 0.0, 0.0, 0.0, 1.6444982702999952E9, 0.0, 2022-02-11 00:04:30.299
250.0, -10288.731490222393, -12148.486035881762, -10868.781610582068, -16861.038429860884, -3229.938832514147, -3722.4148180979278, -6626.8675478538935, -7536.292974506971, -18270.874711379376, -15826.353827280263, -24100.947272890484, -13479.28654900629, -7945.419305016912, -12681.441030674105, -10968.090411196998, -12060.28605226112, 0.008, -0.03, 0.986, 192.0, 0.0, 0.0, 0.0, 0.0, 0.0, 0.0, 0.0, 0.0, 0.0, 1.6444982703000023E9, 0.0, 2022-02-11 00:04:30.300
252.0, -10265.977414366891, -12121.216907646289, -10851.838988284944, -16858.110351337236, -3203.742588012527, -3711.5518702926483, -6592.222343948168, -7525.7205993796115, -18259.542376940535, -15811.132289306199, -24093.951176875973, -13470.368202968622, -7929.437807731368, -12681.8433620743, -10960.759039015657, -12058.497912704697, 0.008, -0.03, 0.986, 192.0, 0.0, 0.0, 0.0, 0.0, 0.0, 0.0, 0.0, 0.0, 0.0, 1.6444982703000093E9, 0.0, 2022-02-11 00:04:30.300
254.0, -10259.741277663861, -12109.72811099626, -10854.297680175028, -16855.71871468052, -3211.431588105153, -3712.982381937788, -6600.470137652175, -7512.9801050400865, -18249.864071591386, -15809.299446260864, -24074.86278711114, -13467.060144789237, -7929.504862964734, -12675.718984093546, -10950.87956796641, -12053.468770202253, 0.008, -0.024, 0.992, 192.0, 0.0, 32.0, 127.5, 32.0, 15.5, 0.0, 0.0, 0.0, 0.0, 1.6444982703000169E9, 0.0, 2022-02-11 00:04:30.300
0.0, -10235.511986674308, -12091.690253220828, -10855.661136586803, -16851.71775242302, -3203.228497890055, -3703.7064079888355, -6583.236942677134, -7511.594296883857, -18243.292658721526, -15805.969036337023, -24081.09892381417, -13462.008650542337, -7925.816825129608, -12660.765667052945, -10954.16527440134, -12054.00521206918, 0.008, -0.024, 0.992, 192.0, 0.0, 0.0, 0.0, 0.0, 0.0, 0.0, 0.0, 0.0, 0.0, 1.6444982703000236E9, 0.0, 2022-02-11 00:04:30.300
2.0, -10215.373064920077, -12072.154828566889, -10849.223834183675, -16854.042333846373, -3199.3839978437422, -3700.912439931922, -6578.654835063796, -7504.508793891525, -18231.625048115857, -15787.573550650306, -24065.76562711783, -13454.453760916444, -7920.653572160432, -12652.920204749133, -10945.850425463967, -12046.875005587937, 0.008, -0.024, 0.992, 192.0, 0.0, 0.0, 0.0, 0.0, 0.0, 0.0, 0.0, 0.0, 0.0, 1.6444982703000305E9, 0.0, 2022-02-11 00:04:30.300
4.0, -10183.63358779354, -12056.374496981442, -10849.67086907278, -16851.203662300548, -3210.939849727136, -3713.272954615707, -6607.756806344606, -7533.186082027684, -18219.75627181009, -15796.491896687974, -24066.77145561832, -13466.255481988846, -7915.915002335907, -12674.959024782065, -10949.918442954831, -12052.731162635228, 0.008, -0.024, 0.992, 192.0, 0.0, 0.0, 0.0, 0.0, 0.0, 0.0, 0.0, 0.0, 0.0, 1.644498270300046E9, 0.0, 2022-02-11 00:04:30.300
6.0, -10170.647224265007, -12035.274450215633, -10838.71851428968, -16846.979182598494, -3205.620134546773, -3695.7715387072017, -6613.322390713977, -7505.224049714095, -18194.990538953607, -15784.421954682108, -24052.51104265583, -13449.111693991625, -7910.796452855641, -12662.866731031745, -10951.952451700265, -12052.798217868592, 0.008, -0.024, 0.992, 192.0, 0.0, 0.0, 0.0, 0.0, 0.0, 0.0, 0.0, 0.0, 0.0, 1.644498270300053E9, 0.0, 2022-02-11 00:04:30.300
8.0, -10184.572361060664, -12043.589299153007, -10841.66894455778, -16850.913089622627, -3204.3460851128207, -3708.5120330467266, -6580.599436831408, -7507.861555559821, -18204.847658258397, -15794.167315264622, -24046.00668501934, -13444.842510800661, -7914.417435457402, -12660.07276297483, -10946.163349886341, -12046.38326720992, 0.008, -0.024, 0.99, 192.0, 0.0, 32.0, 127.5, 32.0, 15.0, 120.0, 0.0, 0.0, 0.0, 1.6444982703000603E9, 0.0, 2022-02-11 00:04:30.300
10.0, -10158.353764814588, -12034.134511248412, -10838.070313700475, -16849.281412277393, -3200.0545501774013, -3705.11456788952, -6587.886105523838, -7514.231802729583, -18198.432707599724, -15801.096356045766, -24054.925031057006, -13448.66465910252, -7909.2541824882255, -12672.299167191884, -10944.151692885363, -12051.77003762365, 0.008, -0.024, 0.99, 192.0, 0.0, 0.0, 0.0, 0.0, 0.0, 0.0, 0.0, 0.0, 0.0, 1.644498270300067E9, 0.0, 2022-02-11 00:04:30.300
12.0, -10134.459749991865, -12013.973237749726, -10832.169453164275, -16848.18617679908, -3199.2945908659212, -3699.8395561980674, -6584.600399088908, -7506.319285192405, -18184.105239403874, -15783.259663970432, -24033.534411613276, -13437.354676408135, -7916.116168036005, -12656.720001306534, -10940.754227728155, -12044.975107309236, 0.008, -0.024, 0.99, 192.0, 0.0, 0.0, 0.0, 0.0, 0.0, 0.0, 0.0, 0.0, 0.0, 1.644498270300074E9, 0.0, 2022-02-11 00:04:30.300
14.0, -10144.138055341013, -12007.491231857686, -10841.579537579959, -16856.881005392195, -3213.7338177840493, -3717.9444692068664, -6603.1523469868125, -7529.118064536819, -18185.98278593812, -15788.333509961787, -24037.04363549276, -13447.23414745738, -7917.926659336885, -12655.22243442803, -10945.090466152486, -12052.105313790478, 0.008, -0.024, 0.99, 192.0, 0.0, 0.0, 0.0, 0.0, 0.0, 0.0, 0.0, 0.0, 0.0, 1.6444982703000813E9, 0.0, 2022-02-11 00:04:30.300
16.0, -10127.173081299434, -12000.249266654166, -10835.455159599205, -16843.134682552183, -3204.1896229016334, -3707.752073735246, -6577.626654818851, -7518.9703725541085, -18188.12855340583, -15783.50553315944, -24042.89979254005, -13446.496539890355, -7916.920830836396, -12698.51776343796, -10948.554986543058, -12057.00034582619, 0.008, -0.024, 0.99, 192.0, 0.0, 0.0, 0.0, 0.0, 0.0, 0.0, 0.0, 0.0, 0.0, 1.6444982703000891E9, 0.0, 2022-02-11 00:04:30.300
18.0, -10117.606534672563, -11985.206542635744, -10836.23747065514, -16845.772188397907, -3206.9835909585468, -3705.181623122886, -6585.025082233558, -7514.812948085421, -18184.149942892785, -15793.764983864427, -24033.780280802286, -13434.605411840132, -7912.785758112163, -12681.865713818755, -10945.448094063771, -12047.254985243677, 0.004, -0.03, 0.99, 192.0, 0.0, 16.0, 127.5, 8.0, 15.0, 120.0, 0.0, 0.0, 0.0, 1.6444982703000965E9, 0.0, 2022-02-11 00:04:30.300
20.0, -10099.635732130497, -11957.356269044432, -10830.314258374485, -16840.251307517447, -3201.39565484472, -3698.8337276975785, -6585.472117122665, -7514.030637029486, -18170.06834388594, -15779.616329624216, -24031.478051123388, -13442.003839254838, -7904.3815021969685, -12674.355527681771, -10948.890262709889, -12047.880834088426, 0.004, -0.03, 0.99, 192.0, 0.0, 0.0, 0.0, 0.0, 0.0, 0.0, 0.0, 0.0, 0.0, 1.6444982703001037E9, 0.0, 2022-02-11 00:04:30.300
22.0, -10082.246074944267, -11960.84314117946, -10821.775891992556, -16835.266868503913, -3193.907820452192, -3690.2953613156515, -6582.834611276939, -7517.0928260198625, -18161.01588738154, -15772.843751054259, -24014.602484059633, -13425.03886521326, -7897.877144560474, -12653.389591382695, -10945.135169641397, -12041.555290407574, 0.004, -0.03, 0.99, 192.0, 0.0, 0.0, 0.0, 0.0, 0.0, 0.0, 0.0, 0.0, 0.0, 1.6444982703001103E9, 0.0, 2022-02-11 00:04:30.300
24.0, -10093.868982061027, -11972.84602795196, -10827.52029031757, -16839.692513906066, -3206.000114202513, -3710.367227836517, -6589.406024146799, -7517.808081842432, -18160.904128659266, -15774.207207466032, -24017.597617816642, -13419.026245954783, -7907.734263865264, -12658.798713540878, -10947.124474897919, -12050.920671334348, 0.004, -0.03, 0.99, 192.0, 0.0, 0.0, 0.0, 0.0, 0.0, 0.0, 0.0, 0.0, 0.0, 1.6444982703001175E9, 0.0, 2022-02-11 00:04:30.300
26.0, -10083.318958678123, -11961.580748746484, -10820.792415236523, -16833.590487669764, -3191.337369839832, -3704.086387644576, -6584.645102577818, -7516.690494619667, -18162.669916471234, -15777.0235272674, -24020.570399829197, -13425.75412103583, -7903.196859740837, -12667.471190389537, -10945.626908019412, -12049.870139344948, 0.004, -0.03, 0.99, 192.0, 0.0, 0.0, 0.0, 0.0, 0.0, 0.0, 0.0, 0.0, 0.0, 1.6444982703001246E9, 0.0, 2022-02-11 00:04:30.300
28.0, -10088.817487814127, -11950.181359074279, -10827.743807762125, -16839.46899646151, -3196.724140253561, -3700.308942831629, -6597.430300406254, -7519.149186509751, -18162.133474604307, -15768.418105652108, -24011.383832858068, -13414.868821486096, -7895.776080581675, -12659.603376341269, -10940.798931217067, -12046.852653843482, 0.002, -0.03, 0.99, 192.0, 0.0, 8.0, 127.5, 8.0, 15.0, 120.0, 0.0, 0.0, 0.0, 1.6444982703001325E9, 0.0, 2022-02-11 00:04:30.300
30.0, -10081.62022609952, -11941.151254314334, -10830.984810708143, -16837.703208649542, -3207.0282944474575, -3698.654913741936, -6592.8258410484605, -7518.322171964905, -18165.419181039237, -15770.094486486256, -24027.65590282153, -13428.413978626011, -7903.889763818952, -12672.187408469606, -10950.54429179958, -12051.077133545534, 0.002, -0.03, 0.99, 192.0, 0.0, 0.0, 0.0, 0.0, 0.0, 0.0, 0.0, 0.0, 0.0, 1.644498270300139E9, 0.0, 2022-02-11 00:04:30.300
32.0, -10063.068278201614, -11947.141521828356, -10824.346342604917, -16840.452473217545, -3206.4024456027087, -3704.242849855763, -6606.482756910653, -7529.542747681469, -18160.21122458115, -15768.954547519035, -24012.85904799212, -13422.311952389713, -7903.4427289298455, -12671.338042180305, -10952.287727867095, -12052.753514379683, 0.002, -0.03, 0.99, 192.0, 0.0, 0.0, 0.0, 0.0, 0.0, 0.0, 0.0, 0.0, 0.0, 1.644498270300146E9, 0.0, 2022-02-11 00:04:30.300
34.0, -10080.748508065763, -11943.36407701541, -10830.224851396662, -16841.055970317837, -3217.846538763826, -3718.167986651419, -6615.8928413263375, -7539.913957108732, -18161.79819843748, -15780.577454635795, -24015.630664304575, -13414.89117323055, -7906.549621409134, -12671.583911369315, -10959.395582603882, -12061.537749950618, 0.002, -0.03, 0.99, 192.0, 0.0, 0.0, 0.0, 0.0, 0.0, 0.0, 0.0, 0.0, 0.0, 1.6444982703001528E9, 0.0, 2022-02-11 00:04:30.300
36.0, -10066.108115447536, -11930.489472209154, -10823.832252482445, -16836.18329002658, -3204.4131403461865, -3708.9367161913774, -6609.232021478656, -7535.801236128955, -18157.6854774577, -15780.175123235598, -24008.74632701234, -13409.392644094545, -7900.8052230841195, -12669.147571223686, -10962.100143682974, -12064.063497074068, 0.002, -0.03, 0.99, 192.0, 0.0, 0.0, 0.0, 0.0, 0.0, 0.0, 0.0, 0.0, 0.0, 1.644498270300162E9, 0.0, 2022-02-11 00:04:30.300
38.0, -10064.61054856903, -11939.877204880382, -10830.470720585672, -16843.648772674653, -3201.8203379893707, -3711.4848150592825, -6608.986152289647, -7531.800273871455, -18157.12668384632, -15779.54927439085, -24006.2652833778, -13409.70556851692, -7909.27653423268, -12657.07762921782, -10957.74155351419, -12061.358935994976, 0.002, -0.03, 0.99, 192.0, 0.0, 0.0, 127.5, 8.0, 15.5, 0.0, 0.0, 0.0, 0.0, 1.644498270300169E9, 0.0, 2022-02-11 00:04:30.300
40.0, -10064.051754957647, -11933.953992599725, -10830.180147907753, -16840.653638917644, -3202.5132420674854, -3715.0834459165867, -6631.0920275559465, -7534.638945417279, -18158.221919324627, -15783.93021630409, -24017.597617816642, -13426.022341969294, -7892.490374146745, -12671.919187536143, -10959.8873209819, -12064.041145329613, 0.002, -0.03, 0.99, 192.0, 0.0, 0.0, 0.0, 0.0, 0.0, 0.0, 0.0, 0.0, 0.0, 1.644498270300176E9, 0.0, 2022-02-11 00:04:30.300
42.0, -10050.394839095456, -11923.60513491692, -10817.707874501692, -16836.339752237767, -3197.908782709692, -3709.9425446918663, -6584.354529899899, -7534.929518095198, -18147.627192452812, -15761.846692782246, -23998.397469329535, -13410.331417361667, -7901.520478906689, -12675.339004437805, -10952.667707522834, -12059.079058060535, 0.002, -0.03, 0.99, 192.0, 0.0, 0.0, 0.0, 0.0, 0.0, 0.0, 0.0, 0.0, 0.0, 1.6444982703001833E9, 0.0, 2022-02-11 00:04:30.300
44.0, -10060.475475844798, -11925.54973668453, -10827.833214739945, -16839.46899646151, -3219.5452713424293, -3726.4604838443383, -6618.664457638795, -7549.793428157977, -18156.344372790383, -15782.49970465895, -24004.90182696603, -13410.376120850578, -7906.4378626868565, -12676.277777704929, -10958.233291892206, -12065.33754650802, 0.002, -0.03, 0.99, 192.0, 0.0, 0.0, 0.0, 0.0, 0.0, 0.0, 0.0, 0.0, 0.0, 1.64449827030019E9, 0.0, 2022-02-11 00:04:30.300
46.0, -10054.507560075232, -11926.153233784824, -10823.653438526802, -16834.417502214612, -3213.2867828949434, -3711.9989051817547, -6607.0862540109465, -7527.7769598694995, -18152.74574193308, -15780.510399402428, -24005.952358955426, -13411.896039473539, -7907.890726076452, -12667.113562478253, -10965.877588495921, -12062.923558106848, 0.002, -0.03, 0.99, 192.0, 0.0, 0.0, 127.5, 0.0, 15.0, 120.0, 0.0, 0.0, 0.0, 1.6444982703001976E9, 0.0, 2022-02-11 00:04:30.300
48.0, -10054.641670541963, -11920.274724993078, -10824.391046093828, -16835.065702803815, -3217.0865794523456, -3711.618925526014, -6608.539117400542, -7534.102503550352, -18157.327849546415, -15778.677556357094, -24000.74440249734, -13409.236181883358, -7906.214345242303, -12665.548940366381, -10960.60257680447, -12057.20151152629, 0.002, -0.03, 0.99, 192.0, 0.0, 0.0, 0.0, 0.0, 0.0, 0.0, 0.0, 0.0, 0.0, 1.6444982703002048E9, 0.0, 2022-02-11 00:04:30.300
50.0, -10045.589214037564, -11907.578934142462, -10819.652476269302, -16830.86357484622, -3215.521957340474, -3713.8317482270895, -6618.284477983056, -7541.63504143179, -18148.45420699766, -15765.490027128462, -24002.42078333149, -13408.856202227618, -7902.995694040739, -12675.026080015432, -10964.536483828602, -12061.403639483886, 0.002, -0.03, 0.99, 192.0, 0.0, 0.0, 0.0, 0.0, 0.0, 0.0, 0.0, 0.0, 0.0, 1.644498270300212E9, 0.0, 2022-02-11 00:04:30.300
52.0, -10041.834120969072, -11918.508937181108, -10818.75840649109, -16835.266868503913, -3206.0895211803345, -3711.1495388924527, -6587.416718890277, -7524.7818261124885, -18144.050913339965, -15763.947756761047, -23992.161332626503, -13401.010739923804, -7895.887839303951, -12666.55476886687, -10957.562739558547, -12055.838055114515, 0.002, -0.03, 0.99, 192.0, 0.0, 0.0, 0.0, 0.0, 0.0, 0.0, 0.0, 0.0, 0.0, 1.6444982703002186E9, 0.0, 2022-02-11 00:04:30.300
54.0, -10048.874920472494, -11919.470062192686, -10827.788511251034, -16841.838281373773, -3207.7435502700273, -3722.6159837980254, -6612.383617446854, -7545.434837989193, -18151.181119821205, -15772.59788186525, -24010.42270784649, -13414.578248808177, -7895.776080581675, -12669.996937512988, -10959.864969237444, -12062.76709589566, 0.002, -0.03, 0.99, 192.0, 0.0, 0.0, 0.0, 0.0, 0.0, 0.0, 0.0, 0.0, 0.0, 1.644498270300226E9, 0.0, 2022-02-11 00:04:30.300
56.0, -10044.98571693727, -11914.306809223512, -10822.737017004136, -16837.971429583005, -3198.5793350433514, -3705.561602778626, -6612.674190124773, -7531.44264596017, -18150.242346554085, -15773.424896410097, -24008.232236889868, -13412.65599878502, -7900.1570224949155, -12657.79288504039, -10959.708507026256, -12061.33658425052, 0.002, -0.028999999999999998, 0.992, 192.0, 0.0, 8.0, 127.5, 16.0, 15.5, 8.0, 0.0, 0.0, 0.0, 1.6444982703002334E9, 0.0, 2022-02-11 00:04:30.300
58.0, -10052.294737374155, -11931.115321053901, -10826.559165305993, -16843.60406918574, -3205.39661710222, -3706.1874516233747, -6637.574033447985, -7544.607823444346, -18152.678686699714, -15775.704774344538, -23996.40816407301, -13412.946571462939, -7895.776080581675, -12657.055277473364, -10956.243986635684, -12056.128627792434, 0.002, -0.028999999999999998, 0.992, 192.0, 0.0, 0.0, 0.0, 0.0, 0.0, 0.0, 0.0, 0.0, 0.0, 1.6444982703002405E9, 0.0, 2022-02-11 00:04:30.300
60.0, -10053.993469952758, -11926.35439948492, -10831.878880486356, -16843.335848252278, -3211.520995082974, -3710.791910981168, -6613.411797691799, -7540.249233275561, -18154.39977102277, -15783.46082967053, -24013.015510203306, -13412.611295296108, -7898.7488625942315, -12669.907530535165, -10966.324623385028, -12062.878854617937, 0.002, -0.028999999999999998, 0.992, 192.0, 0.0, 0.0, 0.0, 0.0, 0.0, 0.0, 0.0, 0.0, 0.0, 1.644498270300247E9, 0.0, 2022-02-11 00:04:30.300
62.0, -10052.630013540986, -11916.139652268846, -10828.86139498489, -16848.163825054628, -3204.5472508129183, -3696.8667741855115, -6595.664512594284, -7533.342544238872, -18156.299669301472, -15781.739745347471, -24010.84739099114, -13416.344036620145, -7900.939333550851, -12662.196178698085, -10959.306175626061, -12054.251081258188, 0.002, -0.028999999999999998, 0.992, 192.0, 0.0, 0.0, 0.0, 0.0, 0.0, 0.0, 0.0, 0.0, 0.0, 1.6444982703002536E9, 0.0, 2022-02-11 00:04:30.300
64.0, -10061.011917711725, -11927.092007051946, -10838.047961956021, -16843.916993608116, -3218.9864777310468, -3709.271992358207, -6630.175606033279, -7530.615631415324, -18160.635907725802, -15774.117800488211, -24016.301216638236, -13428.3692751371, -7897.385406182458, -12678.043565516899, -10967.6880797968, -12057.62619467094, 0.002, -0.028999999999999998, 0.992, 192.0, 0.0, 0.0, 0.0, 0.0, 0.0, 0.0, 0.0, 0.0, 0.0, 1.6444982703002608E9, 0.0, 2022-02-11 00:04:30.300
66.0, -10039.062504656615, -11923.40396921682, -10823.876955971356, -16845.638077931177, -3202.4461868341195, -3704.6898847448692, -6583.72868105515, -7522.233727244584, -18153.77392217802, -15779.728088346494, -24014.55778057072, -13417.37221686509, -7909.656513888421, -12673.282643947918, -10964.849408250977, -12054.742819636205, 0.005, -0.0265, 0.993, 192.0, 0.0, 32.0, 127.5, 32.0, 15.5, 8.0, 0.0, 0.0, 0.0, 1.6444982703002682E9, 0.0, 2022-02-11 00:04:30.300
68.0, -10064.476438102298, -11932.724646654684, -10829.710761274191, -16856.076342591805, -3209.911669482192, -3722.705390775847, -6592.982303259648, -7547.960585112642, -18158.803064680465, -15795.195495509566, -23999.962091441404, -13416.142870920048, -7906.549621409134, -12664.878388032723, -10959.864969237444, -12061.62715692844, 0.005, -0.0265, 0.993, 192.0, 0.0, 0.0, 0.0, 0.0, 0.0, 0.0, 0.0, 0.0, 0.0, 1.6444982703002777E9, 0.0, 2022-02-11 00:04:30.300
70.0, -10069.885560260482, -11936.949126356736, -10834.561089820992, -16851.740104167475, -3213.0185619614795, -3727.4439606003716, -6604.9181347987815, -7530.861500604332, -18168.995460152088, -15800.828135112302, -24022.537353341264, -13429.620972826599, -7911.04232204465, -12692.348681968295, -10969.856199008966, -12071.506627977686, 0.005, -0.0265, 0.993, 192.0, 0.0, 0.0, 0.0, 0.0, 0.0, 0.0, 0.0, 0.0, 0.0, 1.6444982703002841E9, 0.0, 2022-02-11 00:04:30.300
72.0, -10046.505635560232, -11918.732454625662, -10826.134482161342, -16848.85672913274, -3204.7037130241056, -3703.505242288738, -6610.304905212511, -7527.39698021376, -18158.91482340274, -15787.305329716843, -24015.675367793487, -13421.328475633678, -7909.321237721591, -12689.532362166925, -10967.084582696509, -12059.906072605381, 0.005, -0.0265, 0.993, 192.0, 0.0, 0.0, 0.0, 0.0, 0.0, 0.0, 0.0, 0.0, 0.0, 1.644498270300291E9, 0.0, 2022-02-11 00:04:30.300
74.0, -10055.848664742549, -11922.219326760689, -10828.012028695588, -16853.48354023499, -3214.2255561620664, -3712.915326704422, -6609.2096697342, -7537.29880300746, -18158.87011991383, -15791.798030352358, -24013.619007303598, -13434.761874051319, -7908.002484798728, -12676.255425960473, -10965.40820186236, -12061.62715692844, 0.005, -0.0265, 0.993, 192.0, 0.0, 0.0, 0.0, 0.0, 0.0, 0.0, 0.0, 0.0, 0.0, 1.644498270300298E9, 0.0, 2022-02-11 00:04:30.300
76.0, -10052.026516440692, -11929.349533241932, -10822.267630370574, -16841.39124648467, -3201.038026933435, -3707.953239435344, -6593.630503848852, -7526.167634268718, -18157.149035590774, -15795.955454821045, -24012.83669624766, -13417.416920354, -7913.433958701367, -12679.027042272932, -10963.553007072569, -12060.28605226112, 0.006500000000000001, -0.026250000000000002, 0.9915, 192.0, 0.0, 32.0, 127.5, 24.0, 15.0, 120.0, 0.0, 0.0, 0.0, 1.644498270300305E9, 0.0, 2022-02-11 00:04:30.300
78.0, -10054.84283624206, -11927.270821007589, -10822.669961770769, -16847.89560412116, -3204.0555124349016, -3712.40123658195, -6602.839422564438, -7545.926576367209, -18159.384210036304, -15790.568684407317, -23999.22448387438, -13407.380987093567, -7894.077348003072, -12675.942501538098, -10956.623966291425, -12059.570796438551, 0.006500000000000001, -0.026250000000000002, 0.9915, 192.0, 0.0, 0.0, 0.0, 0.0, 0.0, 0.0, 0.0, 0.0, 0.0, 1.6444982703003118E9, 0.0, 2022-02-11 00:04:30.300
80.0, -10049.299603617144, -11916.720797624685, -10823.72049376017, -16849.303764021846, -3207.4082741031975, -3709.026123169199, -6600.000751018614, -7525.0723987904075, -18156.6349454683, -15789.69696637356, -24012.70258578093, -13422.826042512184, -7911.3105429781135, -12673.684975348113, -10962.189550660796, -12066.72335466425, 0.006500000000000001, -0.026250000000000002, 0.9915, 192.0, 0.0, 0.0, 0.0, 0.0, 0.0, 0.0, 0.0, 0.0, 0.0, 1.6444982703003185E9, 0.0, 2022-02-11 00:04:30.300
82.0, -10051.333612362578, -11911.892820822337, -10822.692313515225, -16849.57198495531, -3206.134224669245, -3698.9231346754, -6607.443881922231, -7522.971334811608, -18155.69617220118, -15789.36169020673, -24008.07577467868, -13426.379969880578, -7908.896554576941, -12662.12912346472, -10957.540387814091, -12055.547482436596, 0.006500000000000001, -0.026250000000000002, 0.9915, 192.0, 0.0, 0.0, 0.0, 0.0, 0.0, 0.0, 0.0, 0.0, 0.0, 1.6444982703003254E9, 0.0, 2022-02-11 00:04:30.300
84.0, -10054.41815309741, -11927.516690196597, -10834.181110165253, -16848.052066332348, -3221.1545969432113, -3712.4235883264055, -6608.650876122818, -7532.20260527165, -18160.568852492437, -15789.60755939574, -24014.200152659436, -13431.632629827576, -7905.655551630921, -12680.636367873713, -10961.720164027234, -12060.15194179439, 0.006500000000000001, -0.026250000000000002, 0.9915, 192.0, 0.0, 0.0, 0.0, 0.0, 0.0, 0.0, 0.0, 0.0, 0.0, 1.644498270300332E9, 0.0, 2022-02-11 00:04:30.300
86.0, -10039.84481571255, -11915.580858657464, -10824.078121671453, -16839.066665061317, -3212.079788694357, -3706.120396390009, -6597.8102800619945, -7519.05977953193, -18155.047971611973, -15791.373347207707, -24011.540295069255, -13422.75898727882, -7908.248353987737, -12680.278739962429, -10962.770696016634, -12059.1461132939, 0.00625, -0.025125, 0.99075, 192.0, 0.0, 24.0, 127.5, 32.0, 15.0, 120.0, 0.0, 0.0, 0.0, 1.6444982703003392E9, 0.0, 2022-02-11 00:04:30.300
88.0, -10054.686374030875, -11914.351512712421, -10826.849737983912, -16842.3747232407, -3211.9233264831696, -3707.8414807130675, -6592.356454414899, -7525.988820313075, -18156.903166401764, -15788.914655317623, -23994.687079749954, -13404.184687636458, -7905.812013842108, -12672.120353236241, -10959.59674830398, -12054.653412658385, 0.00625, -0.025125, 0.99075, 192.0, 0.0, 0.0, 0.0, 0.0, 0.0, 0.0, 0.0, 0.0, 0.0, 1.6444982703003464E9, 0.0, 2022-02-11 00:04:30.300
90.0, -10054.574615308597, -11927.874318107883, -10831.297735130518, -16846.554499453843, -3209.2187654040777, -3709.4731580583048, -6590.680073580751, -7525.228861001595, -18159.943003647688, -15791.306291974342, -24009.70745202392, -13416.99223720935, -7910.438824944356, -12681.46338241856, -10962.949509972277, -12061.448342972797, 0.00625, -0.025125, 0.99075, 192.0, 0.0, 0.0, 0.0, 0.0, 0.0, 0.0, 0.0, 0.0, 0.0, 1.6444982703003533E9, 0.0, 2022-02-11 00:04:30.300
92.0, -10042.83994946956, -11914.776195857072, -10824.391046093828, -16845.436912231078, -3198.6687420211724, -3699.973666664799, -6580.688843809229, -7515.304686463438, -18154.869157656332, -15793.183838508588, -24001.37025134209, -13419.696798288442, -7904.537964408156, -12673.707327092568, -10960.289652382095, -12053.178197524334, 0.00625, -0.025125, 0.99075, 192.0, 0.0, 0.0, 0.0, 0.0, 0.0, 0.0, 0.0, 0.0, 0.0, 1.64449827030036E9, 0.0, 2022-02-11 00:04:30.300
94.0, -10048.18201639438, -11913.323332467477, -10831.789473508534, -16851.315421022824, -3207.4082741031975, -3713.585879038081, -6593.943428271226, -7523.574831911902, -18154.243308811583, -15795.731937376493, -24006.89113222255, -13423.429539612478, -7904.2697434746915, -12679.65289111768, -10959.954376215264, -12056.083924303524, 0.00625, -0.025125, 0.99075, 192.0, 0.0, 0.0, 0.0, 0.0, 0.0, 0.0, 0.0, 0.0, 0.0, 1.644498270300367E9, 0.0, 2022-02-11 00:04:30.300
96.0, -10039.12955988998, -11902.460384662198, -10825.821557738967, -16849.974316355507, -3200.233364133044, -3706.500376045749, -6582.186410687735, -7518.702151620645, -18152.20930006615, -15791.418050696619, -24008.388699101055, -13436.214737440914, -7891.75276657972, -12677.75299283898, -10961.40723960486, -12058.855540615981, 0.006125, -0.0235625, 0.991375, 192.0, 0.0, 24.0, 127.5, 40.0, 15.5, 0.0, 0.0, 0.0, 0.0, 1.6444982703003745E9, 0.0, 2022-02-11 00:04:30.300
98.0, -10047.019725682703, -11917.570163913986, -10827.833214739945, -16849.14730181066, -3211.2080706606, -3716.536309306182, -6598.883163795849, -7528.492215692069, -18152.8351489109, -15786.768887849914, -23995.201169872424, -13426.603487325132, -7906.482566175768, -12684.883199320222, -10958.747382014679, -12059.123761549445, 0.006125, -0.0235625, 0.991375, 192.0, 0.0, 0.0, 0.0, 0.0, 0.0, 0.0, 0.0, 0.0, 0.0, 1.644498270300381E9, 0.0, 2022-02-11 00:04:30.300
100.0, -10049.254900128235, -11920.453538948721, -10832.124749675364, -16846.48744422048, -3209.2187654040777, -3709.1602336359306, -6605.16400398779, -7529.207471514639, -18152.902204144266, -15794.79316410937, -24008.07577467868, -13410.353769106123, -7913.299848234636, -12676.098963749286, -10968.962129230755, -12067.1480378089, 0.006125, -0.0235625, 0.991375, 192.0, 0.0, 0.0, 0.0, 0.0, 0.0, 0.0, 0.0, 0.0, 0.0, 1.6444982703003905E9, 0.0, 2022-02-11 00:04:30.300
102.0, -10051.445371084854, -11919.447710448232, -10828.906098473799, -16841.346542995758, -3204.4801955795524, -3704.7122364893244, -6595.485698638642, -7505.671084603201, -18152.8351489109, -15793.630873397695, -24001.482010064366, -13406.218696381891, -7906.70608362032, -12666.711231078058, -10963.910634983855, -12056.441552214808, 0.006125, -0.0235625, 0.991375, 192.0, 0.0, 0.0, 0.0, 0.0, 0.0, 0.0, 0.0, 0.0, 0.0, 1.6444982703003972E9, 0.0, 2022-02-11 00:04:30.300
104.0, -10057.256824643235, -11923.560431428008, -10835.186938665742, -16843.782883141386, -3212.5715270723736, -3708.467329557816, -6608.807338334005, -7519.4397591876705, -18160.613555981345, -15798.45885020004, -24010.288597379757, -13410.242010383847, -7908.069540032094, -12679.831705073322, -10964.380021617417, -12055.368668480955, 0.006125, -0.0235625, 0.991375, 192.0, 0.0, 0.0, 0.0, 0.0, 0.0, 0.0, 0.0, 0.0, 0.0, 1.6444982707793164E9, 0.0, 2022-02-11 00:04:30.779
106.0, -10037.341420333556, -11901.83453581745, -10826.693275772725, -16835.982124326485, -3201.2838961224434, -3691.055320627132, -6585.382710144843, -7505.313456691916, -18152.097541343875, -15791.529809418895, -24005.393565344046, -13410.063196428204, -7906.840194087053, -12666.063030488853, -10960.40141110437, -12050.160712022867, 0.009062500000000001, -0.02278125, 0.9886874999999999, 192.0, 0.0, 48.0, 127.5, 40.0, 15.0, 104.0, 0.0, 0.0, 0.0, 1.6444982707794783E9, 0.0, 2022-02-11 00:04:30.779
108.0, -10041.476493057788, -11905.768442841583, -10830.537775819037, -16840.072493561805, -3208.548213070418, -3695.279800329185, -6592.892896281826, -7516.109349263829, -18148.387151764295, -15785.494838415962, -23992.586015771154, -13410.465527828399, -7906.951952809329, -12648.628669813714, -10955.774600002123, -12045.355086964975, 0.009062500000000001, -0.02278125, 0.9886874999999999, 192.0, 0.0, 0.0, 0.0, 0.0, 0.0, 0.0, 0.0, 0.0, 0.0, 1.6444982707794857E9, 0.0, 2022-02-11 00:04:30.779
110.0, -10050.327783862089, -11916.519631924586, -10838.964383478688, -16839.245479016958, -3220.819320776382, -3713.563527293626, -6612.07069302448, -7532.046143060464, -18157.86429141334, -15794.301425731353, -24010.37800435758, -13418.534507576765, -7909.053016788128, -12666.063030488853, -10968.64920480838, -12057.693249904305, 0.009062500000000001, -0.02278125, 0.9886874999999999, 192.0, 0.0, 0.0, 0.0, 0.0, 0.0, 0.0, 0.0, 0.0, 0.0, 1.6444982707794926E9, 0.0, 2022-02-11 00:04:30.779
112.0, -10043.577557036586, -11902.728605595661, -10828.57082230697, -16837.591449927266, -3207.1847566586443, -3697.559678263626, -6603.666437109285, -7514.880003318787, -18156.25496581256, -15787.618254139217, -24000.967919941893, -13405.145812648036, -7904.940295808351, -12683.720908608546, -10972.918387999343, -12057.022697570646, 0.009062500000000001, -0.02278125, 0.9886874999999999, 192.0, 0.0, 0.0, 0.0, 0.0, 0.0, 0.0, 0.0, 0.0, 0.0, 1.6444982707794993E9, 0.0, 2022-02-11 00:04:30.779
114.0, -10059.313185133122, -11921.88405059386, -10836.930374733254, -16846.174519798104, -3213.3091346393985, -3713.7870447381792, -6594.077538737958, -7524.513605179025, -18157.86429141334, -15795.351957720753, -24007.852257234128, -13418.020417454294, -7898.190068982848, -12667.828818300823, -10967.844542007988, -12054.76517138066, 0.009062500000000001, -0.02278125, 0.9886874999999999, 192.0, 0.0, 0.0, 0.0, 0.0, 0.0, 0.0, 0.0, 0.0, 0.0, 1.6444982707795062E9, 0.0, 2022-02-11 00:04:30.779
116.0, -10040.113036646013, -11914.619733645884, -10825.843909483423, -16834.395150470158, -3202.133262411745, -3710.367227836517, -6572.441050105221, -7514.388264940771, -18150.979954121107, -15789.831076840292, -24009.238065390356, -13407.828021982674, -7910.66234238891, -12678.669414361646, -10968.31392864155, -12057.648546415396, 0.008, -0.024, 0.986, 192.0, 0.0, 32.0, 127.5, 32.0, 15.0, 104.0, 0.0, 0.0, 0.0, 1.6444982707795131E9, 0.0, 2022-02-11 00:04:30.779
118.0, -10042.884652958472, -11910.283495221556, -10830.738941519136, -16839.692513906066, -3208.0788264368566, -3704.086387644576, -6589.271913680067, -7521.920802822209, -18152.79044542199, -15797.989463566479, -23996.251701861824, -13405.190516136947, -7912.673999389887, -12671.762725324956, -10968.69390829729, -12054.832226614026, 0.008, -0.024, 0.986, 192.0, 0.0, 0.0, 0.0, 0.0, 0.0, 0.0, 0.0, 0.0, 0.0, 1.6444982707795322E9, 0.0, 2022-02-11 00:04:30.779
120.0, -10038.928394189883, -11901.2086869727, -10829.599002551915, -16837.882022605183, -3206.134224669245, -3695.2574485847294, -6595.552753872008, -7516.6234393863015, -18146.286087785495, -15798.41414671113, -23998.50922805181, -13406.79984173773, -7902.615714385, -12640.82791099881, -10973.633643821913, -12056.307441748077, 0.008, -0.024, 0.986, 192.0, 0.0, 0.0, 0.0, 0.0, 0.0, 0.0, 0.0, 0.0, 0.0, 1.6444982707795389E9, 0.0, 2022-02-11 00:04:30.779
122.0, -10030.70295223033, -11894.726681080661, -10825.508633316593, -16831.51177543542, -3195.874773964259, -3687.277875814185, -6577.9172274967705, -7503.502965391036, -18141.905145872253, -15784.824286082303, -23989.16619886949, -13399.982559678861, -7895.105528248016, -12651.579100081814, -10966.771658274134, -12046.986764310213, 0.008, -0.024, 0.986, 192.0, 0.0, 0.0, 0.0, 0.0, 0.0, 0.0, 0.0, 0.0, 0.0, 1.6444982707795453E9, 0.0, 2022-02-11 00:04:30.779
124.0, -10041.051809913137, -11913.368035956388, -10830.537775819037, -16833.635191158675, -3202.5802973008513, -3698.990189908766, -6584.220419433167, -7521.160843510729, -18144.520299973527, -15780.532751146884, -23994.93294893896, -13398.999082922826, -7893.138574735949, -12674.780210826422, -10962.16719891634, -12046.204453254279, 0.008, -0.024, 0.986, 192.0, 0.0, 0.0, 0.0, 0.0, 0.0, 0.0, 0.0, 0.0, 0.0, 1.6444982707795515E9, 0.0, 2022-02-11 00:04:30.779
