%OpenBCI Raw EEG Data
%Number of channels = 16
%Sample Rate = 125 Hz
%Board = OpenBCI_GUI$BoardCytonSerialDaisy
Sample Index, EXG Channel 0, EXG Channel 1, EXG Channel 2, EXG Channel 3, EXG Channel 4, EXG Channel 5, EXG Channel 6, EXG Channel 7, EXG Channel 8, EXG Channel 9, EXG Channel 10, EXG Channel 11, EXG Channel 12, EXG Channel 13, EXG Channel 14, EXG Channel 15, Accel Channel 0, Accel Channel 1, Accel Channel 2, Other, Other, Other, Other, Other, Other, Other, Analog Channel 0, Analog Channel 1, Analog Channel 2, Timestamp, Other, Timestamp (Formatted)
48.0, -7288.166259308608, -6609.097911011924, -6462.492819129565, -11243.620365097568, -4715.6369347139525, -2696.96148597735, -5143.6728410330825, -4351.772886726008, -15066.483922777645, -9697.997236013083, -6201.603257847221, -6033.2499186098485, -2269.5514285029685, -4957.840437631659, -5324.9901920545335, -6310.098625433282, 0.0, 0.0, 0.0, 192.0, 0.0, 0.0, 0.0, 0.0, 0.0, 0.0, 0.0, 0.0, 0.0, 1.6444918587528036E9, 0.0, 2022-02-10 22:17:38.752
50.0, -7268.697889888035, -6583.326349654955, -6439.89520548525, -11220.016922952762, -4693.285190258645, -2675.9955496782723, -5132.9887071834455, -4333.556214994934, -15055.732733694642, -9686.955474252161, -6196.730577555964, -6016.150834101539, -2251.804143405455, -4942.283623490765, -5306.19237496762, -6293.983017681006, 0.0, 0.0, 0.0, 192.0, 0.0, 0.0, 0.0, 0.0, 0.0, 0.0, 0.0, 0.0, 0.0, 1.6444918587528112E9, 0.0, 2022-02-10 22:17:38.752
52.0, -7284.992311595955, -6598.681998095751, -6456.65901382673, -11233.070341714661, -4715.078141102569, -2698.4143493669453, -5153.8875882491575, -4360.713584508131, -15053.676373204753, -9680.428764871212, -6195.277714166369, -6019.257726580826, -2253.860503895343, -4942.149513024034, -5303.577220866349, -6290.272628101424, 0.005, 0.036000000000000004, 0.488, 192.0, 0.0, 40.0, 1.0, 32.0, 15.0, 64.0, 0.0, 0.0, 0.0, 1.644491858752818E9, 0.0, 2022-02-10 22:17:38.752
54.0, -7267.960282321011, -6585.2485996781115, -6444.074981698392, -11220.083978186129, -4705.668056686885, -2685.9867794497945, -5144.343393366742, -4337.132494107783, -15062.661774475788, -9691.5375818655, -6206.61004860521, -6034.6580785105325, -2264.142306344784, -4958.131010309578, -5312.182642481643, -6296.776985737919, 0.005, 0.036000000000000004, 0.488, 192.0, 0.0, 0.0, 0.0, 0.0, 0.0, 0.0, 0.0, 0.0, 0.0, 1.6444918587528248E9, 0.0, 2022-02-10 22:17:38.752
56.0, -7259.891302572644, -6583.3710531438655, -6432.452074581633, -11205.801213479188, -4695.609771681997, -2677.5825235345987, -5140.364782853697, -4336.573700496399, -15041.49467247661, -9669.901093232762, -6179.564437814288, -6011.546374743745, -2239.890663610776, -4935.175768753978, -5287.23809566952, -6271.631273225698, 0.005, 0.036000000000000004, 0.488, 192.0, 0.0, 0.0, 0.0, 0.0, 0.0, 0.0, 0.0, 0.0, 0.0, 1.6444918587528312E9, 0.0, 2022-02-10 22:17:38.752
58.0, -7272.050651556332, -6592.736434070639, -6448.99236547856, -11211.389149593015, -4711.1218823339805, -2686.098538172071, -5150.020736458389, -4339.725296464598, -15056.023306372561, -9683.58036083941, -6196.752929300419, -6026.946726673452, -2249.6136724488347, -4951.134914295068, -5299.419796397662, -6277.710947717542, 0.005, 0.036000000000000004, 0.488, 192.0, 0.0, 0.0, 0.0, 0.0, 0.0, 0.0, 0.0, 0.0, 0.0, 1.644491858752838E9, 0.0, 2022-02-10 22:17:38.752
60.0, -7234.81264529379, -6565.310843623977, -6426.7076762566185, -11187.182210347917, -4687.853716356006, -2673.156878132448, -5146.735030023459, -4326.515415491512, -15045.942669623217, -9675.287863646492, -6187.0969756957265, -6019.928278914485, -2242.01407933403, -4945.5022746923305, -5287.796889280902, -6264.5234184889105, 0.005, 0.036000000000000004, 0.488, 192.0, 0.0, 0.0, 0.0, 0.0, 0.0, 0.0, 0.0, 0.0, 0.0, 1.6444918587528443E9, 0.0, 2022-02-10 22:17:38.752
62.0, -7250.10123850122, -6575.927922240248, -6434.08375192687, -11191.45139353888, -4695.877992615461, -2691.418253352434, -5163.565893598306, -4349.157732624738, -15042.366390510368, -9669.38700311029, -6185.375891372668, -6020.017685892307, -2240.784733388988, -4950.911396850514, -5286.120508446755, -6257.683784685587, 0.0055, 0.055, 0.735, 192.0, 0.0, 24.0, 1.0, 40.0, 15.0, 88.0, 0.0, 0.0, 0.0, 1.644491858752851E9, 0.0, 2022-02-10 22:17:38.752
64.0, -7249.095410000731, -6565.243788390611, -6423.377266332778, -11175.469896253337, -4687.630198911453, -2674.520334544222, -5135.603861284717, -4316.702999675632, -15044.959192867183, -9677.076003202916, -6183.990083216439, -6026.991430162362, -2241.432933978192, -4959.606225443629, -5288.132165447732, -6258.734316674986, 0.0055, 0.055, 0.735, 192.0, 0.0, 0.0, 0.0, 0.0, 0.0, 0.0, 0.0, 0.0, 0.0, 1.6444918587528577E9, 0.0, 2022-02-10 22:17:38.752
66.0, -7236.779598805857, -6554.380840585332, -6417.02937090747, -11166.998585104775, -4676.051995283603, -2672.3745670765124, -5140.63300378716, -4311.360932750814, -15025.714340891165, -9654.925424447707, -6165.371080085169, -6006.114900841106, -2218.321230211405, -4937.790922855249, -5261.958272690567, -6231.554595417332, 0.0055, 0.055, 0.735, 192.0, 0.0, 0.0, 0.0, 0.0, 0.0, 0.0, 0.0, 0.0, 0.0, 1.644491858752864E9, 0.0, 2022-02-10 22:17:38.752
68.0, -7226.587203334237, -6553.8443987184055, -6422.684362254663, -11171.759506673754, -4685.21621051028, -2674.900314199962, -5152.278262648376, -4331.321040549403, -15032.151643294294, -9666.257758886548, -6175.719937767975, -6017.067255624206, -2227.9324803271866, -4952.811295129215, -5270.9883774505115, -6241.5681769333105, 0.0055, 0.055, 0.735, 192.0, 0.0, 0.0, 0.0, 0.0, 0.0, 0.0, 0.0, 0.0, 0.0, 1.6444918587528706E9, 0.0, 2022-02-10 22:17:38.752
70.0, -7223.7708835328685, -6536.164168854257, -6395.795213674929, -11149.11718954053, -4661.143381731914, -2652.615624978021, -5135.425047329074, -4290.283237729459, -15022.58509666742, -9648.733991233586, -6169.103821409205, -6003.745615928843, -2209.8722708072987, -4933.722905364383, -5252.257615596965, -6226.100769770238, 0.0055, 0.055, 0.735, 192.0, 0.0, 0.0, 0.0, 0.0, 0.0, 0.0, 0.0, 0.0, 0.0, 1.6444918587528772E9, 0.0, 2022-02-10 22:17:38.752
72.0, -7224.821415522268, -6544.031982902526, -6408.535708014454, -11155.107457054552, -4672.833344082039, -2664.774973961708, -5139.426009586574, -4294.015979053495, -15018.002989054083, -9643.347220819858, -6161.928911439051, -6003.633857206566, -2200.082206735874, -4924.648097115529, -5244.903891671168, -6212.6897230970535, 0.008, 0.074, 0.984, 192.0, 0.0, 32.0, 1.0, 40.0, 15.0, 96.0, 0.0, 0.0, 0.0, 1.644491858752884E9, 0.0, 2022-02-10 22:17:38.752
74.0, -7211.499775826905, -6533.504311264076, -6398.544478242931, -11134.812073089131, -4658.662338097374, -2658.851761681052, -5132.58637578325, -4292.406653452713, -15021.512212933567, -9649.069267400417, -6169.416745831579, -6014.09447361165, -2209.24642196255, -4952.990109084858, -5249.709516729059, -6214.410807420112, 0.008, 0.074, 0.984, 192.0, 0.0, 0.0, 0.0, 0.0, 0.0, 0.0, 0.0, 0.0, 0.0, 1.6444918587528903E9, 0.0, 2022-02-10 22:17:38.752
76.0, -7197.127604142142, -6527.603450727875, -6392.442452006633, -11126.92190729641, -4645.117180957458, -2650.6263197214985, -5114.861442430191, -4292.18313600816, -15001.887381301807, -9627.85746191233, -6150.417763044568, -5997.643589692544, -2187.9452094966423, -4929.5431291512405, -5230.039981608389, -6192.573153087277, 0.008, 0.074, 0.984, 192.0, 0.0, 0.0, 0.0, 0.0, 0.0, 0.0, 0.0, 0.0, 0.0, 1.644491858752897E9, 0.0, 2022-02-10 22:17:38.752
78.0, -7208.906973470089, -6532.297317063489, -6405.182946346158, -11134.342686455571, -4652.5379601166205, -2651.7886104331747, -5115.286125574842, -4291.177307507671, -15017.287733231513, -9640.016810896017, -6166.287501607836, -6014.273287567293, -2200.2386689470613, -4933.052353030724, -5237.013725878444, -6200.642132835643, 0.008, 0.074, 0.984, 192.0, 0.0, 0.0, 0.0, 0.0, 0.0, 0.0, 0.0, 0.0, 0.0, 1.6444918587529037E9, 0.0, 2022-02-10 22:17:38.752
80.0, -7203.743720500913, -6514.035941843503, -6383.635864691242, -11106.268895419706, -4632.443741851299, -2625.0559240646276, -5105.093730103223, -4255.07924021235, -15008.905829060774, -9624.5717554774, -6156.296271836313, -5997.956514114919, -2187.9452094966423, -4918.59077436814, -5221.613373948739, -6183.5206965828775, 0.008, 0.074, 0.984, 192.0, 0.0, 0.0, 0.0, 0.0, 0.0, 0.0, 0.0, 0.0, 0.0, 1.6444918587529132E9, 0.0, 2022-02-10 22:17:38.752
82.0, -7218.138243930131, -6529.704514706674, -6395.482289252554, -11117.44476764736, -4644.87131176845, -2641.551511472644, -5124.048009401323, -4269.630225852755, -15008.749366849586, -9617.218031551603, -6158.5537980263, -6001.801014161231, -2182.5584390829135, -4907.124329462567, -5217.4559494800515, -6171.115478410182, 0.004, 0.07, 0.98, 192.0, 0.0, 16.0, 1.0, 24.0, 15.0, 80.0, 0.0, 0.0, 0.0, 1.64449185875292E9, 0.0, 2022-02-10 22:17:38.752
84.0, -7199.116909398665, -6515.667619188741, -6382.965312357583, -11104.81603203011, -4624.82179699204, -2635.002450347239, -5112.425102284563, -4269.898446786219, -15014.270247730048, -9625.242307811059, -6163.761754484386, -6010.875822410086, -2180.9938169710417, -4927.799693083727, -5222.686257682593, -6184.012434960894, 0.004, 0.07, 0.98, 192.0, 0.0, 0.0, 0.0, 0.0, 0.0, 0.0, 0.0, 0.0, 0.0, 1.6444918587529263E9, 0.0, 2022-02-10 22:17:38.752
86.0, -7189.237438349419, -6503.865898116338, -6371.856495363295, -11090.667377789901, -4621.066703923548, -2637.774066659697, -5116.515471519884, -4273.519429387979, -14997.037052755006, -9603.359949989313, -6141.164140840071, -5988.546429699234, -2164.922912707676, -4915.908565033504, -5200.356864971741, -6165.058155662794, 0.004, 0.07, 0.98, 192.0, 0.0, 0.0, 0.0, 0.0, 0.0, 0.0, 0.0, 0.0, 0.0, 1.644491858752933E9, 0.0, 2022-02-10 22:17:38.752
88.0, -7183.358929557673, -6513.007761598559, -6387.279199037457, -11098.177563926884, -4637.092904698004, -2646.2677295527137, -5125.165596624088, -4288.919781317685, -15004.658997614266, -9613.619400694299, -6153.569359012766, -6003.879726395575, -2176.210543657606, -4930.526605907275, -5209.051693564856, -6177.105745924205, 0.004, 0.07, 0.98, 192.0, 0.0, 0.0, 0.0, 0.0, 0.0, 0.0, 0.0, 0.0, 0.0, 1.6444918587529397E9, 0.0, 2022-02-10 22:17:38.752
90.0, -7168.517371239349, -6492.6229706553195, -6365.665062149175, -11075.267025860194, -4616.551651543576, -2615.489377437756, -5126.551404780317, -4229.93352770013, -14996.053575998973, -9601.191830777148, -6142.907576907584, -5995.274304780281, -2168.85681973181, -4924.759855837805, -5200.98271381649, -6162.375946328158, 0.004, 0.07, 0.98, 192.0, 0.0, 0.0, 0.0, 0.0, 0.0, 0.0, 0.0, 0.0, 0.0, 1.6444918587529461E9, 0.0, 2022-02-10 22:17:38.752
92.0, -7180.274388822841, -6501.630723670808, -6372.303530252401, -11086.979339954774, -4626.744047015196, -2634.3766015024903, -5129.278317603865, -4264.869304283775, -14994.667767842742, -9593.346368473336, -6134.7938936703085, -5983.427880218969, -2158.99970042702, -4910.566498108685, -5197.942876570568, -6149.680155477543, 0.002, 0.064, 0.972, 192.0, 0.0, 8.0, 1.0, 0.0, 15.0, 48.0, 0.0, 0.0, 0.0, 1.6444918587529528E9, 0.0, 2022-02-10 22:17:38.752
94.0, -7172.5853887302155, -6488.689063631185, -6361.217065002569, -11076.04933691613, -4614.3835323314115, -2624.1171507975046, -5105.361951036686, -4233.822731235353, -15000.233352212115, -9600.811851121409, -6137.923137894051, -5994.603752446622, -2163.514752806992, -4921.205928469411, -5199.954533571546, -6158.576149770755, 0.002, 0.064, 0.972, 192.0, 0.0, 0.0, 0.0, 0.0, 0.0, 0.0, 0.0, 0.0, 0.0, 1.6444918587529593E9, 0.0, 2022-02-10 22:17:38.752
96.0, -7166.4833624939165, -6488.823174097917, -6352.0975532648035, -11064.739354221745, -4600.637209491398, -2616.830482105074, -5109.519375505373, -4231.855777723286, -14982.642529325787, -9582.930455557163, -6118.566527195755, -5974.487182436846, -2139.486627517537, -4913.3381144211435, -5175.702890837538, -6135.419742515057, 0.002, 0.064, 0.972, 192.0, 0.0, 0.0, 0.0, 0.0, 0.0, 0.0, 0.0, 0.0, 0.0, 1.6444918587529657E9, 0.0, 2022-02-10 22:17:38.752
98.0, -7170.573731729238, -6499.8425841143835, -6364.636881904231, -11072.271892103183, -4616.238727121202, -2622.5301769411776, -5122.595146011728, -4243.165760417672, -14996.321796932436, -9599.224877265082, -6135.375039026147, -5997.308313525715, -2150.506037534003, -4925.273945960277, -5187.079928765289, -6142.907576907584, 0.002, 0.064, 0.972, 192.0, 0.0, 0.0, 0.0, 0.0, 0.0, 0.0, 0.0, 0.0, 0.0, 1.6444918587529724E9, 0.0, 2022-02-10 22:17:38.752
100.0, -7149.026650074322, -6473.04284251247, -6339.625279858742, -11044.935708634343, -4592.322360554023, -2601.22896447527, -5092.085014830233, -4226.133731142728, -14984.095392715382, -9586.6631968812, -6125.562623210267, -5984.56781918619, -2140.827732184855, -4912.01936149828, -5177.848658305247, -6131.2176145574595, 0.002, 0.064, 0.972, 192.0, 0.0, 0.0, 0.0, 0.0, 0.0, 0.0, 0.0, 0.0, 0.0, 1.6444918587529793E9, 0.0, 2022-02-10 22:17:38.752
102.0, -7159.062583334754, -6474.987444280082, -6349.482399163533, -11052.42354302687, -4605.509889782655, -2616.294040238147, -5094.38724450913, -4256.397993135213, -14978.663918812743, -9575.934359542653, -6113.06799805975, -5974.08485103665, -2135.552720493403, -4905.716169561883, -5166.605730844228, -6122.075751075238, 0.002, 0.062, 0.978, 192.0, 0.0, 8.0, 0.5, 120.0, 15.0, 72.0, 0.0, 0.0, 0.0, 1.6444918587529857E9, 0.0, 2022-02-10 22:17:38.752
104.0, -7147.394972729084, -6469.131287232792, -6343.961518283072, -11046.388572023938, -4580.6323982038975, -2603.9558772988175, -5093.917857875569, -4233.93448995763, -14984.497724115578, -9581.99168229004, -6117.963030095462, -5982.109127296106, -2140.403049040204, -4911.773492309272, -5174.473544892496, -6129.988268612417, 0.002, 0.062, 0.978, 192.0, 0.0, 0.0, 0.0, 0.0, 0.0, 0.0, 0.0, 0.0, 0.0, 1.6444918587529922E9, 0.0, 2022-02-10 22:17:38.752
106.0, -7129.848853331668, -6453.820342280906, -6332.092741977303, -11034.340981762527, -4571.512886466132, -2603.0618075206053, -5094.007264853391, -4227.430132321136, -14963.420029094224, -9558.969385501074, -6104.127300277627, -5963.84775207612, -2112.5304237044365, -4902.430463126953, -5150.937157981058, -6108.329428235224, 0.002, 0.062, 0.978, 192.0, 0.0, 0.0, 0.0, 0.0, 0.0, 0.0, 0.0, 0.0, 0.0, 1.6444918587529988E9, 0.0, 2022-02-10 22:17:38.752
108.0, -7146.567958184238, -6472.864028556827, -6348.901253807695, -11042.700534188813, -4590.020130875127, -2611.1754907578816, -5101.316285290276, -4223.228004363537, -14973.254796654559, -9569.474705395069, -6118.566527195755, -5983.405528474514, -2124.130979076741, -4918.076684245669, -5163.990576742956, -6116.152538794582, 0.002, 0.062, 0.978, 192.0, 0.0, 0.0, 0.0, 0.0, 0.0, 0.0, 0.0, 0.0, 0.0, 1.6444918587530053E9, 0.0, 2022-02-10 22:17:38.753
110.0, -7117.309524692241, -6445.170217176702, -6322.615602328254, -11018.873574599455, -4560.5605316830315, -2591.394196914935, -5090.296875273809, -4206.799472188887, -14967.219825651626, -9561.808057046897, -6097.913515319052, -5976.2529702488155, -2109.9823248365315, -4908.577192852163, -5154.804009771826, -6103.613210155155, 0.002, 0.062, 0.978, 192.0, 0.0, 0.0, 0.0, 0.0, 0.0, 0.0, 0.0, 0.0, 0.0, 1.644491858753012E9, 0.0, 2022-02-10 22:17:38.753
112.0, -7118.829443315201, -6435.313097871912, -6327.264765174958, -11021.46637695627, -4568.897732364861, -2601.139557497449, -5110.413445283585, -4237.287251625926, -14937.648467737255, -9540.17156841416, -6077.215799953437, -5959.89149330753, -2094.090234528808, -4895.412015367987, -5147.740858523948, -6099.500489175379, 0.006, 0.064, 0.98, 192.0, 0.0, 24.0, 1.0, 0.0, 15.0, 80.0, 0.0, 0.0, 0.0, 1.644491858753022E9, 0.0, 2022-02-10 22:17:38.753
114.0, -7126.36198119664, -6436.900071728239, -6330.997506498994, -11013.375045463448, -4566.4837439636885, -2589.360188169502, -5093.001436352902, -4208.140576856205, -14968.806799507953, -9548.240548162526, -6102.093291532194, -5966.060574777195, -2114.1397493052186, -4902.229297426856, -5158.40264062913, -6106.653047401077, 0.006, 0.064, 0.98, 192.0, 0.0, 0.0, 0.0, 0.0, 0.0, 0.0, 0.0, 0.0, 0.0, 1.6444918587530289E9, 0.0, 2022-02-10 22:17:38.753
116.0, -7108.88291703259, -6420.382132575766, -6318.212308670558, -10999.807536579077, -4549.85404608894, -2584.7333770672535, -5074.427136710541, -4192.360245270758, -14956.692154013177, -9523.765387983965, -6085.485945401901, -5942.390077399025, -2096.9736095635426, -4886.717186774872, -5137.012021185401, -6081.552038377767, 0.006, 0.064, 0.98, 192.0, 0.0, 0.0, 0.0, 0.0, 0.0, 0.0, 0.0, 0.0, 0.0, 1.6444918587530353E9, 0.0, 2022-02-10 22:17:38.753
118.0, -7125.803187585258, -6436.7436095170515, -6333.344439666801, -11011.18457450683, -4562.1475055393585, -2578.9442752533287, -5080.350348991197, -4196.092986594795, -14979.692099057687, -9533.555452055389, -6112.285687003814, -5953.297728693215, -2114.005638838487, -4886.091337930124, -5145.8409602452475, -6084.6142273681435, 0.006, 0.064, 0.98, 192.0, 0.0, 0.0, 0.0, 0.0, 0.0, 0.0, 0.0, 0.0, 0.0, 1.6444918587530415E9, 0.0, 2022-02-10 22:17:38.753
120.0, -7125.378504440607, -6420.158615131213, -6310.053921944371, -10985.211847449762, -4540.08633376197, -2560.4370308443345, -5071.230837253433, -4172.310730494348, -14972.181912920703, -9528.481606064035, -6093.979608294918, -5958.460981662391, -2097.2418304970065, -4886.694835030417, -5136.095599662734, -6068.744488804876, 0.006, 0.064, 0.98, 192.0, 0.0, 0.0, 0.0, 0.0, 0.0, 0.0, 0.0, 0.0, 0.0, 1.6444918587530482E9, 0.0, 2022-02-10 22:17:38.753
122.0, -7115.07435024671, -6418.683399997163, -6317.184128425614, -10987.402318406383, -4550.457543189233, -2571.4787926052563, -5096.264791043376, -4209.705198968077, -14957.72033425812, -9515.227021602037, -6081.529686633312, -5953.007156015296, -2082.6237896232356, -4878.223523881856, -5126.909032691602, -6062.173075935016, -0.002, 0.062, 0.982, 192.0, 127.5, 120.0, 0.5, 120.0, 15.0, 88.0, 0.0, 0.0, 0.0, 1.6444918587530549E9, 0.0, 2022-02-10 22:17:38.753
124.0, -7109.508765877339, -6415.956487173616, -6315.463044102556, -10980.227408436229, -4542.835598329973, -2563.432164601346, -5068.682738385527, -4178.479811964013, -14961.475427326612, -9522.245469361003, -6086.067090757739, -5957.455153161902, -2094.0455310398975, -4889.645265298518, -5136.900262463125, -6071.337291161692, -0.002, 0.062, 0.982, 192.0, 0.0, 0.0, 0.0, 0.0, 0.0, 0.0, 0.0, 0.0, 0.0, 1.6444918587530613E9, 0.0, 2022-02-10 22:17:38.753
126.0, -7105.9771902534, -6404.490042268043, -6304.600096297276, -10973.566588588546, -4525.580051610476, -2562.6945570343205, -5057.1492382465885, -4178.9044951086635, -14954.322869100914, -9503.760576696466, -6073.77363130732, -5941.227786687349, -2080.254504710973, -4870.355709833588, -5111.86630867318, -6049.991375206873, -0.002, 0.062, 0.982, 192.0, 0.0, 0.0, 0.0, 0.0, 0.0, 0.0, 0.0, 0.0, 0.0, 1.644491858753068E9, 0.0, 2022-02-10 22:17:38.753
128.0, -7107.631219343093, -6406.680513224664, -6314.434863857611, -10982.686100326313, -4535.9065575488285, -2568.0813274480497, -5082.9207996035575, -4190.236829547504, -14961.318965115424, -9504.811108685864, -6075.450012141468, -5931.88475750503, -2087.0717867698418, -4880.950436705403, -5120.672895988571, -6063.268311413326, -0.002, 0.062, 0.982, 192.0, 0.0, 0.0, 0.0, 0.0, 0.0, 0.0, 0.0, 0.0, 0.0, 1.644491858753075E9, 0.0, 2022-02-10 22:17:38.753
130.0, -7076.629349783582, -6383.747623413518, -6289.065633900837, -10959.797914004079, -4513.1301299488705, -2546.221321370759, -5057.328052202231, -4159.704346621555, -14948.734932987087, -9501.838326673309, -6059.110886944639, -5936.2209959293605, -2064.1165452142413, -4864.656014997485, -5109.318209805276, -6053.411192108535, -0.002, 0.062, 0.982, 192.0, 0.0, 0.0, 0.0, 0.0, 0.0, 0.0, 0.0, 0.0, 0.0, 1.6444918587530816E9, 0.0, 2022-02-10 22:17:38.753
132.0, -7093.661379058526, -6394.699978196619, -6297.1569653936585, -10962.278957638617, -4529.491606890155, -2559.565312810578, -5079.121003046155, -4185.386501000703, -14933.28987756847, -9488.248466044482, -6042.48118906989, -5927.056780702685, -2065.1000219702746, -4856.832904438127, -5103.864384158181, -6041.743581502865, 0.002, 0.064, 0.984, 192.0, 0.0, 8.0, 1.0, 0.0, 15.0, 96.0, 0.0, 0.0, 0.0, 1.644491858753088E9, 0.0, 2022-02-10 22:17:38.753
134.0, -7082.932541719979, -6386.228667048057, -6294.362997336745, -10953.472370323227, -4515.208842183214, -2545.617824270466, -5074.069508799256, -4170.813163615842, -14951.998287677561, -9500.161945839161, -6060.474343356413, -5940.3337169091365, -2080.209801222062, -4858.017546894258, -5114.973201152468, -6049.700802528954, 0.002, 0.064, 0.984, 192.0, 0.0, 0.0, 0.0, 0.0, 0.0, 0.0, 0.0, 0.0, 0.0, 1.6444918587530947E9, 0.0, 2022-02-10 22:17:38.753
136.0, -7067.68865200146, -6372.21412327458, -6281.868372186229, -10936.417989303827, -4501.261353643102, -2546.8918737044187, -5069.286235485821, -4174.277684006415, -14932.820490934908, -9471.01527106944, -6040.514235557823, -5916.484405575324, -2054.862923009744, -4854.821247437149, -5092.710863674983, -6034.3675058326135, 0.002, 0.064, 0.984, 192.0, 0.0, 0.0, 0.0, 0.0, 0.0, 0.0, 0.0, 0.0, 0.0, 1.644491858753101E9, 0.0, 2022-02-10 22:17:38.753
138.0, -7073.298939859741, -6381.937132112638, -6299.705064261564, -10949.337297598995, -4514.5382898495545, -2561.107583177994, -5068.950959318991, -4188.314579524348, -14944.801025962954, -9475.709137405054, -6052.785343263787, -5926.140359180017, -2070.8891237841995, -4869.193419121912, -5098.5893724667285, -6048.113828672627, 0.002, 0.064, 0.984, 192.0, 0.0, 0.0, 0.0, 0.0, 0.0, 0.0, 0.0, 0.0, 0.0, 1.6444918587531075E9, 0.0, 2022-02-10 22:17:38.753
140.0, -7054.970509406389, -6364.145143526214, -6276.414546539134, -10929.332486311494, -4487.98441743665, -2531.4691700302565, -5062.0219185378455, -4160.263140232938, -14941.157691616738, -9473.697480404076, -6044.179921648493, -5919.41248409897, -2061.970777746532, -4865.505381286786, -5087.324093261253, -6038.81550297922, 0.004, 0.061, 0.981, 192.0, 0.0, 24.0, 0.5, 104.0, 15.0, 72.0, 0.0, 0.0, 0.0, 1.6444918587531145E9, 0.0, 2022-02-10 22:17:38.753
142.0, -7074.103602660132, -6365.888579593728, -6281.644854741676, -10936.865024192934, -4497.416853596789, -2539.784018967631, -5074.918875088558, -4163.593550156778, -14930.09357811136, -9457.313651718337, -6027.4384650514685, -5915.769149752754, -2044.871693238222, -4844.830017665627, -5076.036462311324, -6021.381142304081, 0.004, 0.061, 0.981, 192.0, 0.0, 0.0, 0.0, 0.0, 0.0, 0.0, 0.0, 0.0, 0.0, 1.644491858753121E9, 0.0, 2022-02-10 22:17:38.753
144.0, -7064.782925222269, -6369.844838362317, -6271.81008718134, -10928.192547344273, -4491.426586082767, -2535.2913183321143, -5077.712843145471, -4165.135820524195, -14945.493930041068, -9471.64111991419, -6035.3062790997365, -5932.711772049877, -2059.6014928342693, -4858.598692250096, -5091.0791863297445, -6033.160511632027, 0.004, 0.061, 0.981, 192.0, 0.0, 0.0, 0.0, 0.0, 0.0, 0.0, 0.0, 0.0, 0.0, 1.6444918587531307E9, 0.0, 2022-02-10 22:17:38.753
146.0, -7053.763515205803, -6356.053812033393, -6258.153171319148, -10917.26254430563, -4474.93099867475, -2529.4351612848236, -5056.322223701743, -4161.7607071114435, -14929.735950200076, -9454.452628428058, -6017.179014346482, -5917.356123609081, -2034.098152410764, -4841.030221108225, -5070.0014913083905, -6013.490976511357, 0.004, 0.061, 0.981, 192.0, 0.0, 0.0, 0.0, 0.0, 0.0, 0.0, 0.0, 0.0, 0.0, 1.64449185875316E9, 0.0, 2022-02-10 22:17:38.753
148.0, -7052.15418960502, -6356.992585300516, -6271.76538369243, -10930.852404934456, -4488.677321514764, -2530.7762659521422, -5070.090898286212, -4160.888989077686, -14938.654296237744, -9458.766515107933, -6031.886462198075, -5927.79438826971, -2044.1564374156521, -4838.14684607349, -5076.237628011421, -6023.348095816147, 0.004, 0.061, 0.981, 192.0, 0.0, 0.0, 0.0, 0.0, 0.0, 0.0, 0.0, 0.0, 0.0, 1.644491858753167E9, 0.0, 2022-02-10 22:17:38.753
150.0, -7042.788808678247, -6336.96542226856, -6251.38059274919, -10906.690169178268, -4456.759030432586, -2515.5100244891673, -5029.94716524448, -4123.449817115047, -14930.786482189475, -9441.421561410614, -6014.765025945309, -5905.733216492322, -2033.4723035660154, -4840.136151330013, -5063.161857505066, -6011.52402299929, 0.003, 0.0635, 0.9815, 192.0, 0.0, 8.0, 1.0, 8.0, 15.0, 88.0, 0.0, 0.0, 0.0, 1.6444918587531736E9, 0.0, 2022-02-10 22:17:38.753
152.0, -7060.245521097841, -6354.422134688156, -6261.170656820615, -10910.892297135866, -4469.007786394094, -2525.233033327226, -5057.171589991044, -4134.9386137650745, -14924.259772808526, -9440.39338116567, -6016.888441668563, -5909.130681649528, -2014.0486376343536, -4840.627889708029, -5056.098706257189, -6000.661075194011, 0.003, 0.0635, 0.9815, 192.0, 0.0, 0.0, 0.0, 0.0, 0.0, 0.0, 0.0, 0.0, 0.0, 1.6444918587531805E9, 0.0, 2022-02-10 22:17:38.753
154.0, -7052.891797172046, -6347.381335184734, -6252.989918349972, -10905.170250555308, -4461.855228168396, -2509.2738877861366, -5064.458258683474, -4135.6762213321, -14935.569755502911, -9452.306860960349, -6022.878709182586, -5922.6981905339, -2040.2672338804286, -4852.496666013797, -5073.913046588069, -6008.886517153564, 0.003, 0.0635, 0.9815, 192.0, 0.0, 0.0, 0.0, 0.0, 0.0, 0.0, 0.0, 0.0, 0.0, 1.6444918587531872E9, 0.0, 2022-02-10 22:17:38.753
156.0, -7030.718866672381, -6329.231718687024, -6238.505987942933, -10892.362700982416, -4440.174036046748, -2495.8851928574077, -5053.036517266813, -4142.24763420196, -14916.257848293526, -9424.545994346858, -5998.8505838931305, -5902.089882146106, -2010.4053032881384, -4818.209090019356, -5049.527293387329, -5986.981807587363, 0.003, 0.0635, 0.9815, 192.0, 0.0, 0.0, 0.0, 0.0, 0.0, 0.0, 0.0, 0.0, 0.0, 1.644491858753194E9, 0.0, 2022-02-10 22:17:38.753
158.0, -7050.656622726515, -6338.440637402611, -6256.029755595894, -10903.762090654624, -4457.831914166441, -2508.40216975238, -5063.743002860904, -4151.389497684181, -14925.153842586738, -9431.206814194538, -6005.623162463089, -5913.712789262866, -2020.3518295707502, -4825.719276156339, -5058.803267336281, -6000.772833916287, 0.003, 0.0635, 0.9815, 192.0, 0.0, 0.0, 0.0, 0.0, 0.0, 0.0, 0.0, 0.0, 0.0, 1.6444918587532008E9, 0.0, 2022-02-10 22:17:38.753
160.0, -7030.472997483373, -6316.714741792052, -6235.309688485824, -10881.969139810699, -4430.272213253047, -2481.133041516905, -5042.777066561826, -4121.438160114069, -14927.880755410286, -9416.298200642848, -6008.014799119806, -5898.714768733355, -2014.3168585678172, -4806.832052091605, -5050.756639332371, -5986.981807587363, 0.0035, 0.06675, 0.98075, 192.0, 0.0, 16.0, 1.0, 24.0, 15.0, 80.0, 0.0, 0.0, 0.0, 1.6444918587532077E9, 0.0, 2022-02-10 22:17:38.753
162.0, -7027.991953848834, -6320.715704049552, -6245.323270001802, -10890.73102363718, -4433.624974921343, -2495.30404750157, -5053.707069600471, -4131.876424774698, -14918.269505294504, -9406.172860404595, -5999.208211804415, -5894.512640775757, -2003.2974485513507, -4814.543403928686, -5036.004487991869, -5976.655301649011, 0.0035, 0.06675, 0.98075, 192.0, 0.0, 0.0, 0.0, 0.0, 0.0, 0.0, 0.0, 0.0, 0.0, 1.6444918587532144E9, 0.0, 2022-02-10 22:17:38.753
164.0, -7016.1008257986105, -6311.015046955949, -6234.952060574539, -10884.427831700783, -4419.677486381232, -2488.330303231514, -5037.591461848195, -4124.477997359991, -14925.913801898218, -9412.230183151984, -6000.95164787193, -5906.850803715087, -2005.9573061415324, -4821.807720876661, -5042.441790394997, -5983.696101152433, 0.0035, 0.06675, 0.98075, 192.0, 0.0, 0.0, 0.0, 0.0, 0.0, 0.0, 0.0, 0.0, 0.0, 1.6444918587532213E9, 0.0, 2022-02-10 22:17:38.753
166.0, -7015.34086648713, -6303.527212563421, -6222.099807512737, -10867.351098936928, -4405.081797251916, -2477.847335081975, -5049.4602381539635, -4101.701569760033, -14906.71365341111, -9392.80651722032, -5979.695138894933, -5884.655521470967, -1981.5715529407923, -4804.798043346173, -5021.0511709512675, -5959.980900285352, 0.0035, 0.06675, 0.98075, 192.0, 0.0, 0.0, 0.0, 0.0, 0.0, 0.0, 0.0, 0.0, 0.0, 1.644491858753229E9, 0.0, 2022-02-10 22:17:38.753
168.0, -7050.67897447097, -6326.325991907835, -6244.049220567849, -10883.958445067221, -4427.522948685044, -2493.717073645243, -5052.85770331117, -4117.012514711919, -14921.711673940621, -9398.595619034246, -5987.987636087852, -5902.5816205241235, -1988.165317555108, -4821.271279009733, -5034.216348435444, -5971.000310301818, 0.0035, 0.06675, 0.98075, 192.0, 0.0, 0.0, 0.0, 0.0, 0.0, 0.0, 0.0, 0.0, 0.0, 1.6444918587532568E9, 0.0, 2022-02-10 22:17:38.753
0.0, -3266.618045165306, -2849.601548862642, -2878.010616065337, -5058.222121980443, -1902.7369502469244, -686.2432582668374, -2354.443353944225, -1748.040526871744, -7454.172665378173, -4693.553411192109, -2988.9423237970263, -2944.7082215199734, -988.662360747142, -2393.178927085272, -2504.267097028148, -2977.855858547194, 0.004, 0.07200000000000001, 0.98, 192.0, 0.0, 16.0, 1.0, 32.0, 15.0, 80.0, 0.0, 0.0, 0.0, 1.6444918593294504E9, 0.0, 2022-02-10 22:17:39.329
2.0, -6513.745369165585, -5677.7901265371, -5736.105827820997, -10094.628941372508, -3788.46422296336, -1352.8840366463705, -4693.553411192109, -3463.7604312611143, -14720.791843031866, -7513.1589189957285, -5794.555639571624, -5129.278317603865, -952.8995696186507, -4046.0233743218632, -4478.864905698884, -5237.259595067453, 0.004, 0.07200000000000001, 0.98, 192.0, 0.0, 0.0, 0.0, 0.0, 0.0, 0.0, 0.0, 0.0, 0.0, 1.6444918593295825E9, 0.0, 2022-02-10 22:17:39.329
4.0, -6523.24486055909, -5675.845524769488, -5743.66071744689, -10095.523011150719, -3793.113385810064, -1355.2533215586332, -4696.012103082193, -3462.955768460723, -14715.181555173584, -7501.692474090157, -5799.540078585158, -5128.004268169912, -944.7188311480083, -4047.118609800173, -4469.968911405672, -5220.69695242607, 0.004, 0.07200000000000001, 0.98, 192.0, 0.0, 0.0, 0.0, 0.0, 0.0, 0.0, 0.0, 0.0, 0.0, 1.64449185932959E9, 0.0, 2022-02-10 22:17:39.329
6.0, -6511.890174375793, -5667.709489787757, -5722.426560214349, -10074.445316129366, -3771.0969175215864, -1331.4263619692758, -4673.526248160154, -3444.359117073908, -14707.492555080958, -7495.232819942573, -5782.217476632295, -5117.431893042552, -938.5721014227988, -4055.6569761821006, -4467.59962649341, -5219.3334960142965, 0.004, 0.07200000000000001, 0.98, 192.0, 0.0, 0.0, 0.0, 0.0, 0.0, 0.0, 0.0, 0.0, 0.0, 1.64449185932961E9, 0.0, 2022-02-10 22:17:39.329
8.0, -6520.406189013266, -5670.414050866849, -5714.759911866178, -10062.956519479338, -3770.4263651879273, -1330.7781613800719, -4681.25995174169, -3438.480608282162, -14687.800668215832, -7474.780973765966, -5768.337043325549, -5110.0558173723, -911.8394150542516, -4022.7328565994335, -4441.761009903074, -5190.253876477942, 0.006, 0.066, 0.978, 192.0, 0.0, 24.0, 1.0, 8.0, 15.0, 72.0, 0.0, 0.0, 0.0, 1.6444918593296173E9, 0.0, 2022-02-10 22:17:39.329
10.0, -6508.962095852148, -5669.095297943985, -5716.480996189237, -10057.100362432047, -3759.786934827201, -1320.518710675086, -4676.230809239246, -3440.648727494327, -14696.942531698052, -7480.570075579892, -5781.077537665074, -5121.231689599954, -920.8471680697404, -4025.3703624451596, -4450.142914073815, -5198.166394015121, 0.006, 0.066, 0.978, 192.0, 0.0, 0.0, 0.0, 0.0, 0.0, 0.0, 0.0, 0.0, 0.0, 1.6444918593296244E9, 0.0, 2022-02-10 22:17:39.329
12.0, -6512.381912753811, -5659.528751317114, -5693.548106378092, -10029.115978374002, -3736.719934549324, -1295.3282946739548, -4656.091887485014, -3409.065712578978, -14661.738534180944, -7450.395220565227, -5756.691784464334, -5097.337674777231, -884.1456036741262, -3996.2460394198943, -4422.82908234943, -5169.645568090149, 0.006, 0.066, 0.978, 192.0, 0.0, 0.0, 0.0, 0.0, 0.0, 0.0, 0.0, 0.0, 0.0, 1.644491859329631E9, 0.0, 2022-02-10 22:17:39.329
14.0, -6555.297262108, -5698.443138413803, -5709.283734474628, -10037.676696500384, -3748.119324221531, -1304.1572337338011, -4670.084079514037, -3421.6944481962264, -14687.778316471376, -7460.051174169919, -5782.418642332393, -5112.626267984661, -888.5936008207323, -3997.1401091981065, -4420.079817781427, -5158.670861562594, 0.006, 0.066, 0.978, 192.0, 0.0, 0.0, 0.0, 0.0, 0.0, 0.0, 0.0, 0.0, 0.0, 1.644491859329638E9, 0.0, 2022-02-10 22:17:39.329
16.0, -6562.762744756073, -5698.1972692247955, -5695.336245934516, -10018.521251502187, -3732.271937402718, -1283.2136491791784, -4654.5943206065085, -3418.6993144392154, -14687.085412393262, -7467.807229495911, -5782.977435943775, -5114.570869752272, -884.0338449518497, -3996.4248533755367, -4425.310125983969, -5157.754440039926, 0.004, 0.067, 0.98, 192.0, 0.0, 8.0, 1.0, 16.0, 15.0, 88.0, 0.0, 0.0, 0.0, 1.644491859329645E9, 0.0, 2022-02-10 22:17:39.329
18.0, -6588.511954368586, -5714.469339188259, -5688.094280730997, -10009.22292580878, -3725.3876001104836, -1277.133974687335, -4658.192951463813, -3401.8237473754584, -14679.686984978556, -7446.28249958545, -5780.161116142406, -5103.797328924815, -860.6986237405091, -3971.457954818959, -4400.186765216204, -5130.150035637622, 0.004, 0.067, 0.98, 192.0, 0.0, 0.0, 0.0, 0.0, 0.0, 0.0, 0.0, 0.0, 0.0, 1.644491859329652E9, 0.0, 2022-02-10 22:17:39.329
20.0, -6600.246620207623, -5728.03684807263, -5696.3197226905495, -10010.362864776, -3727.555719322648, -1267.522724571553, -4660.986919520727, -3404.6624189212826, -14691.980444428975, -7453.658575255701, -5795.136784927462, -5115.82256744177, -868.2758651108581, -3973.782536242311, -4408.434558920212, -5131.804064727315, 0.004, 0.067, 0.98, 192.0, 0.0, 0.0, 0.0, 0.0, 0.0, 0.0, 0.0, 0.0, 0.0, 1.6444918593296587E9, 0.0, 2022-02-10 22:17:39.329
22.0, -6556.772477242051, -5690.17299296534, -5670.861085755955, -9986.155925530902, -3705.7180649898132, -1252.234131364123, -4650.6604135823745, -3365.323348679942, -14672.735592452955, -7439.509921015492, -5776.830706218566, -5105.451358014508, -846.5276177558444, -3950.2461493308724, -4387.803898787964, -5106.658352215094, 0.004, 0.067, 0.98, 192.0, 0.0, 0.0, 0.0, 0.0, 0.0, 0.0, 0.0, 0.0, 0.0, 1.644491859329667E9, 0.0, 2022-02-10 22:17:39.329
24.0, -6543.0485061464915, -5669.207056666262, -5671.866914256444, -9987.899361598416, -3710.434283069883, -1261.4654018241647, -4646.3465269025, -3390.245543747609, -14651.948470109519, -7417.5381562159255, -5769.409927059403, -5096.220087554466, -834.055344349783, -3961.6678907475343, -4377.589151571889, -5100.757491678893, 0.004, 0.067, 0.98, 192.0, 0.0, 0.0, 0.0, 0.0, 0.0, 0.0, 0.0, 0.0, 0.0, 1.644491859329674E9, 0.0, 2022-02-10 22:17:39.329
26.0, -6500.580191681408, -5622.49191075467, -5656.690079771291, -9966.888721810428, -3686.2943990581516, -1230.5082357535643, -4608.348561328478, -3342.61397631335, -14641.353743237703, -7404.752958387489, -5755.909473408398, -5074.471840199451, -830.702582681487, -3955.0517743887635, -4372.67176779172, -5101.204526567999, 0.006, 0.0675, 0.982, 192.0, 0.0, 32.0, 1.0, 16.0, 15.0, 96.0, 0.0, 0.0, 0.0, 1.6444918593296807E9, 0.0, 2022-02-10 22:17:39.329
28.0, -6451.9427957466605, -5565.025575760076, -5639.121608629419, -9941.050105220093, -3673.598608207537, -1222.4392560051986, -4614.316477098046, -3335.32730762092, -14609.7483765779, -7360.0718212213305, -5727.768627139167, -5043.9393572735025, -802.1147015231493, -3917.1879192814736, -4342.251043588048, -5066.693433129005, 0.006, 0.0675, 0.982, 192.0, 0.0, 0.0, 0.0, 0.0, 0.0, 0.0, 0.0, 0.0, 0.0, 1.644491859329688E9, 0.0, 2022-02-10 22:17:39.329
30.0, -6411.329676071367, -5535.387162612339, -5642.563777275536, -9933.986953972215, -3677.3313495315733, -1215.4208082462321, -4614.227070120224, -3341.809313512959, -14594.526838603835, -7341.855149490256, -5716.905679333888, -5029.164854188544, -801.6006114006772, -3922.306468761739, -4349.71652623612, -5069.867380841659, 0.006, 0.0675, 0.982, 192.0, 0.0, 0.0, 0.0, 0.0, 0.0, 0.0, 0.0, 0.0, 0.0, 1.6444918593296952E9, 0.0, 2022-02-10 22:17:39.329
32.0, -6370.314224995879, -5497.344493549406, -5616.099311840452, -9910.092939149492, -3659.8075818786124, -1206.8377383753943, -4607.409788061355, -3329.1135226623446, -14565.178998134017, -7321.4480068025605, -5687.200210952784, -5009.160042901045, -781.1040617351606, -3914.6398204135685, -4333.600918483844, -5050.555473632273, 0.006, 0.0675, 0.982, 192.0, 0.0, 0.0, 0.0, 0.0, 0.0, 0.0, 0.0, 0.0, 0.0, 1.6444918593297033E9, 0.0, 2022-02-10 22:17:39.329
34.0, -6354.220968988057, -5479.708967174169, -5624.011829377631, -9915.479709563222, -3657.1030207995204, -1212.1127500668467, -4614.987029431704, -3337.9424617221907, -14554.651326495568, -7306.762910695424, -5685.501478374181, -5012.043417935779, -772.1410122085824, -3904.156852264029, -4324.481406746078, -5044.90048228508, 0.006, 0.0675, 0.982, 192.0, 0.0, 0.0, 0.0, 0.0, 0.0, 0.0, 0.0, 0.0, 0.0, 1.6444918593297105E9, 0.0, 2022-02-10 22:17:39.329
36.0, -6309.048093443882, -5440.258138210552, -5607.471538480704, -9896.614837242942, -3640.406267691406, -1179.009816528537, -4602.224183347725, -3323.167958637233, -14539.586250732691, -7290.8708203877, -5674.593827079992, -4997.425377062008, -767.1789249395043, -3890.432881168471, -4321.441569500157, -5043.268804939843, 0.006, 0.0675, 0.982, 192.0, 0.0, 0.0, 1.0, 32.0, 15.0, 96.0, 0.0, 0.0, 0.0, 1.6444918593297176E9, 0.0, 2022-02-10 22:17:39.329
38.0, -6285.757575721452, -5401.902544725245, -5591.624151661891, -9884.746060937174, -3628.269270452174, -1172.1254792363025, -4599.407863546356, -3309.6004497528616, -14512.652398664046, -7264.115782274697, -5654.007870436653, -4974.336025039676, -738.8145612257197, -3855.944139473932, -4292.2501912415255, -5015.910269726547, 0.006, 0.0675, 0.982, 192.0, 0.0, 0.0, 0.0, 0.0, 0.0, 0.0, 0.0, 0.0, 0.0, 1.6444918593297267E9, 0.0, 2022-02-10 22:17:39.329
40.0, -6254.129857317193, -5380.534277025971, -5596.496831953148, -9880.633339957398, -3632.538453643138, -1172.3266449364, -4607.655657250364, -3315.4342550556967, -14502.303540981238, -7249.7212588454795, -5651.616233779935, -4956.231112030878, -737.3169943472141, -3872.90911351551, -4296.9440575771405, -5019.888880239592, 0.006, 0.0675, 0.982, 192.0, 0.0, 0.0, 0.0, 0.0, 0.0, 0.0, 0.0, 0.0, 0.0, 1.6444918593297336E9, 0.0, 2022-02-10 22:17:39.329
42.0, -6240.294127499357, -5360.618872716293, -5574.234494475662, -9853.878301844396, -3606.0069329746884, -1150.84661851485, -4588.9695988857275, -3292.7248826891046, -14479.504761636827, -7229.671744069069, -5627.319887557017, -4942.3953822130425, -715.2334708253707, -3854.8042005067114, -4277.073356756372, -5000.129938141101, 0.006, 0.0675, 0.982, 192.0, 0.0, 0.0, 0.0, 0.0, 0.0, 0.0, 0.0, 0.0, 0.0, 1.6444918593297408E9, 0.0, 2022-02-10 22:17:39.329
44.0, -6249.704211915042, -5358.473105248583, -5588.539610927059, -9856.024069312105, -3609.8961365099117, -1145.236330656568, -4581.995854615671, -3272.340091745865, -14477.806029058222, -7221.6027643207035, -5627.655163723846, -4949.816161372204, -709.5561277337227, -3840.722601499868, -4264.17640020566, -4980.572161742707, 0.006, 0.0675, 0.982, 192.0, 0.0, 0.0, 0.0, 0.0, 0.0, 0.0, 0.0, 0.0, 0.0, 1.6444918593297474E9, 0.0, 2022-02-10 22:17:39.329
46.0, -6210.298086440335, -5316.809453583891, -5567.752488583624, -9832.46533065621, -3580.2577233621746, -1114.8379581973504, -4553.787953113074, -3253.430515936675, -14470.29584292124, -7208.057607180787, -5619.519128742115, -4943.244748502344, -704.9740201203848, -3830.686668239435, -4256.979138491051, -4974.917170395514, 0.002, 0.06675, 0.984, 192.0, 127.5, 120.0, 1.0, 8.0, 15.0, 104.0, 0.0, 0.0, 0.0, 1.6444918593297548E9, 0.0, 2022-02-10 22:17:39.329
48.0, -6188.929818741062, -5298.033988241433, -5551.2121976866965, -9812.169946690792, -3567.8525051894794, -1107.7301034605628, -4542.433266929778, -3236.6890593396497, -14436.8576332161, -7169.120868339643, -5597.100329053442, -4908.286620174244, -671.066423781684, -3812.201775574896, -4228.50301605499, -4944.496446191842, 0.002, 0.06675, 0.984, 192.0, 0.0, 0.0, 0.0, 0.0, 0.0, 0.0, 0.0, 0.0, 0.0, 1.6444918593297622E9, 0.0, 2022-02-10 22:17:39.329
50.0, -6167.606254530699, -5284.980569479534, -5552.150970953819, -9810.918249001295, -3568.2101331007643, -1096.8671556552836, -4551.128095522892, -3249.161332745711, -14434.533051792749, -7170.059641606766, -5599.044930821054, -4907.616067840585, -675.9614558173962, -3802.5681737146588, -4241.377620861247, -4950.017327072302, 0.002, 0.06675, 0.984, 192.0, 0.0, 0.0, 0.0, 0.0, 0.0, 0.0, 0.0, 0.0, 0.0, 1.6444918593297691E9, 0.0, 2022-02-10 22:17:39.329
52.0, -6156.788010214331, -5261.198313379087, -5532.101456177408, -9787.963007445695, -3554.061478860555, -1080.8409548808283, -4540.332202950979, -3221.0651899653903, -14415.154089349997, -7153.519350709838, -5577.631959632869, -4887.901829231004, -655.3978509185137, -3784.6420746615026, -4226.69252475411, -4932.605318141618, 0.002, 0.06675, 0.984, 192.0, 0.0, 0.0, 0.0, 0.0, 0.0, 0.0, 0.0, 0.0, 0.0, 1.6444918593297763E9, 0.0, 2022-02-10 22:17:39.329
54.0, -6161.437173061035, -5259.499580800483, -5540.639822559336, -9791.427527836267, -3555.2237695722306, -1084.5736962048645, -4551.128095522892, -3230.2070534476106, -14416.741063206324, -7139.616565658637, -5581.767032357101, -4881.889209972526, -653.162676472983, -3782.205734515874, -4219.919946184153, -4921.943536036437, 0.002, 0.06675, 0.984, 192.0, 0.0, 0.0, 0.0, 0.0, 0.0, 0.0, 0.0, 0.0, 0.0, 1.6444918593297832E9, 0.0, 2022-02-10 22:17:39.329
56.0, -6123.618021442655, -5227.6706966961265, -5519.852700215901, -9769.07578338096, -3527.4629029587395, -1054.3988411902, -4539.415781428312, -3211.006904960502, -14409.901429403, -7134.922699323023, -5573.00514853062, -4877.955302948392, -647.7535543147986, -3766.1348302525084, -4221.2834025959255, -4921.228280213867, 0.002, 0.06675, 0.984, 192.0, 0.0, 0.0, 1.0, 24.0, 15.0, 88.0, 0.0, 0.0, 0.0, 1.64449185932979E9, 0.0, 2022-02-10 22:17:39.329
58.0, -6111.056341058772, -5204.402530718152, -5507.559240765481, -9751.909643639285, -3514.051856285555, -1049.7049748545855, -4528.329316178479, -3198.6016867878066, -14374.764487119257, -7092.163812180021, -5547.904139507311, -4848.071020611646, -606.1793096279275, -3744.855969531056, -4193.276666793427, -4891.768681021772, 0.002, 0.06675, 0.984, 192.0, 0.0, 0.0, 0.0, 0.0, 0.0, 0.0, 0.0, 0.0, 0.0, 1.6444918593297968E9, 0.0, 2022-02-10 22:17:39.329
60.0, -6096.415948440546, -5193.36076895723, -5515.829386213945, -9750.07680059395, -3513.5377661630832, -1038.5067508824768, -4521.355571908423, -3210.559870071396, -14380.151257532985, -7092.901419747045, -5553.760296554601, -4851.2449683243, -613.5777370426342, -3751.852065545567, -4205.525422754935, -4900.687027059439, 0.002, 0.06675, 0.984, 192.0, 0.0, 0.0, 0.0, 0.0, 0.0, 0.0, 0.0, 0.0, 0.0, 1.6444918593298044E9, 0.0, 2022-02-10 22:17:39.329
62.0, -6076.947579019974, -5157.553274339828, -5494.997560381599, -9726.987448571617, -3492.482422886184, -1018.7478087839853, -4519.254507929624, -3201.038026933435, -14360.816998579145, -7070.192047380454, -5532.101456177408, -4831.374267503532, -591.1365856095059, -3729.8355972570894, -4190.706216181065, -4886.381910608043, 0.002, 0.06675, 0.984, 192.0, 0.0, 0.0, 0.0, 0.0, 0.0, 0.0, 0.0, 0.0, 0.0, 1.6444918593298118E9, 0.0, 2022-02-10 22:17:39.329
64.0, -6084.278951201314, -5163.476486620484, -5505.659342486781, -9733.581213185933, -3499.187946222776, -1022.5476053413875, -4531.235042957669, -3196.4112158311864, -14355.541986887692, -7060.670204242493, -5531.766180010579, -4830.882529125515, -581.6594459604557, -3718.21269014033, -4185.811184145354, -4876.547143047708, 0.002, 0.06675, 0.984, 192.0, 0.0, 0.0, 0.0, 0.0, 0.0, 0.0, 0.0, 0.0, 0.0, 1.644491859329819E9, 0.0, 2022-02-10 22:17:39.329
66.0, -6064.587064336189, -5154.871065005192, -5492.449461513694, -9716.549183910989, -3481.9547512477343, -1001.7828347424072, -4496.969818707683, -3171.2207998300555, -14355.519635143237, -7061.318404831696, -5526.75938925259, -4827.105084312569, -582.5758674831233, -3723.8676814875225, -4186.101756823273, -4876.144811647512, 0.002, 0.06675, 0.984, 192.0, 0.0, 0.0, 1.0, 0.0, 15.0, 104.0, 0.0, 0.0, 0.0, 1.6444918593298268E9, 0.0, 2022-02-10 22:17:39.329
68.0, -6055.780477020798, -5140.476541575974, -5482.36882476435, -9703.16048898226, -3467.9178557298014, -991.6574945041532, -4494.198202395225, -3142.945843094092, -14331.402102875962, -7032.305840528708, -5507.827461698945, -4807.927287569915, -551.0152043122297, -3700.0854253870757, -4156.552750653356, -4844.762962432261, 0.002, 0.06675, 0.984, 192.0, 0.0, 0.0, 0.0, 0.0, 0.0, 0.0, 0.0, 0.0, 0.0, 1.644491859329834E9, 0.0, 2022-02-10 22:17:39.329
70.0, -6047.5103315723345, -5125.67968674656, -5490.504859746082, -9702.355826181869, -3470.2647888976085, -990.3163898368347, -4499.808490253507, -3157.9885671125135, -14342.22034719233, -7030.741218416837, -5519.651534515802, -4811.548270171675, -559.039480571685, -3708.5343847911818, -4168.712099637044, -4848.585110734119, 0.002, 0.06675, 0.984, 192.0, 0.0, 0.0, 0.0, 0.0, 0.0, 0.0, 0.0, 0.0, 0.0, 1.6444918593298428E9, 0.0, 2022-02-10 22:17:39.329
72.0, -6019.548299258745, -5096.264791043376, -5460.933501831711, -9675.95841598015, -3446.8178089639914, -974.0890233622818, -4496.902763474317, -3148.0196890854468, -14322.796681260668, -7012.233974007842, -5499.870240672856, -4789.956485027848, -535.1901692378723, -3680.8852768999673, -4149.556654638845, -4836.939851872904, 0.002, 0.06675, 0.984, 192.0, 0.0, 0.0, 0.0, 0.0, 0.0, 0.0, 0.0, 0.0, 0.0, 1.64449185932985E9, 0.0, 2022-02-10 22:17:39.329
74.0, -6014.541508500756, -5091.43681424103, -5468.264874013052, -9680.406413126757, -3449.410611320807, -973.8208024288181, -4498.534440819555, -3137.0449825578908, -14310.21264913233, -6994.4419854214175, -5492.628275469337, -4782.535705868686, -520.8403492975651, -3669.2176662942966, -4136.525587621401, -4826.076904067624, 0.002, 0.06675, 0.984, 192.0, 0.0, 0.0, 0.0, 0.0, 0.0, 0.0, 0.0, 0.0, 0.0, 1.6444918593298576E9, 0.0, 2022-02-10 22:17:39.329
76.0, -5995.229601291371, -5070.269712241854, -5457.044298296488, -9666.414221097735, -3431.328050056464, -946.6187294267094, -4472.896989929318, -3113.6203543687293, -14308.223343875808, -6993.570267387661, -5486.503897488582, -4781.127545968002, -521.6450120979563, -3663.6073784360146, -4140.280680689893, -4827.440360479398, -0.001, 0.068375, 0.985, 192.0, 127.5, 112.0, 1.0, 24.0, 15.0, 104.0, 0.0, 0.0, 0.0, 1.6444918593298645E9, 0.0, 2022-02-10 22:17:39.329
78.0, -5982.623217418578, -5050.488418398907, -5443.633251623303, -9653.00317442455, -3409.6245061903605, -941.56723517981, -4462.011690379583, -3103.025627496914, -14284.239922075263, -6961.249644905287, -5469.851847869379, -4761.815638758617, -490.62079079399, -3627.5093111406936, -4113.927973977086, -4799.3442176990775, -0.001, 0.068375, 0.985, 192.0, 0.0, 0.0, 0.0, 0.0, 0.0, 0.0, 0.0, 0.0, 0.0, 1.644491859329872E9, 0.0, 2022-02-10 22:17:39.329
80.0, -5971.8496765911195, -5044.632261351617, -5444.773190590524, -9649.046915655961, -3401.8013956310033, -925.9657175500057, -4453.696841442209, -3095.336627404288, -14283.278797063685, -6959.193284415399, -5469.829496124923, -4762.106211436536, -490.9784187052749, -3646.575349161071, -4118.286564145871, -4803.367531701032, -0.001, 0.068375, 0.985, 192.0, 0.0, 0.0, 0.0, 0.0, 0.0, 0.0, 0.0, 0.0, 0.0, 1.6444918593298793E9, 0.0, 2022-02-10 22:17:39.329
82.0, -5947.4862751348355, -5014.166833659034, -5417.302896654952, -9623.163595576716, -3376.1415929963105, -899.5012521149221, -4435.860149366874, -3065.854676467738, -14260.43531423036, -6935.366324826041, -5446.069591768932, -4735.664097745907, -462.61405499149026, -3616.825177291057, -4093.699645245033, -4779.697034322862, -0.001, 0.068375, 0.985, 192.0, 0.0, 0.0, 0.0, 0.0, 0.0, 0.0, 0.0, 0.0, 0.0, 1.6444918593298864E9, 0.0, 2022-02-10 22:17:39.329
84.0, -5953.141266482028, -5015.619697048628, -5426.511815370538, -9627.075150856394, -3382.8471163329027, -907.3467144187349, -4443.347983759401, -3077.4105283511317, -14258.848340374034, -6924.592783998583, -5448.46122842565, -4737.340478580056, -456.10969735499594, -3606.1633951858757, -4087.9328951755638, -4771.762165041228, -0.001, 0.068375, 0.985, 192.0, 0.0, 0.0, 0.0, 0.0, 0.0, 0.0, 0.0, 0.0, 0.0, 1.6444918593298934E9, 0.0, 2022-02-10 22:17:39.329
86.0, -5924.352219623593, -4987.635312990584, -5412.720789041614, -9608.120871558294, -3355.5556363529727, -879.6752547830647, -4425.041905050505, -3052.0412983943584, -14254.310936249607, -6919.60834498505, -5441.062801010943, -4730.143216865446, -453.29337755362724, -3598.899078237901, -4093.09614814474, -4770.219894673812, -0.002, 0.07200000000000001, 0.982, 192.0, 127.5, 120.0, 1.0, 32.0, 15.0, 88.0, 0.0, 0.0, 0.0, 1.6444918593299012E9, 0.0, 2022-02-10 22:17:39.329
88.0, -5919.4348358434245, -4965.417679002008, -5393.7888614879685, -9592.586409161855, -3342.4351623577077, -873.0144349353833, -4423.857262594373, -3044.397001790643, -14225.38777892444, -6887.913571347424, -5412.989009975077, -4707.947934621327, -419.20696725928394, -3567.1372493669096, -4065.670557698078, -4740.804998970628, -0.002, 0.07200000000000001, 0.982, 192.0, 0.0, 0.0, 0.0, 0.0, 0.0, 0.0, 0.0, 0.0, 0.0, 1.6444918593299081E9, 0.0, 2022-02-10 22:17:39.329
90.0, -5912.237574128816, -4961.7072894224275, -5401.835489491879, -9594.240438251549, -3342.1445896797886, -860.2068853624924, -4432.865015609863, -3030.9412516285483, -14229.209927226297, -6887.600646925051, -5419.761588545035, -4705.578649709064, -423.9902405727197, -3570.534714524116, -4071.9737496344746, -4747.17524614039, -0.002, 0.07200000000000001, 0.982, 192.0, 0.0, 0.0, 0.0, 0.0, 0.0, 0.0, 0.0, 0.0, 0.0, 1.644491859329915E9, 0.0, 2022-02-10 22:17:39.329
92.0, -5891.159879107461, -4936.293355976743, -5379.863724692313, -9566.345461171326, -3319.166996379733, -840.2914810528138, -4395.224677947125, -3011.6740479080736, -14210.546220606117, -6867.93111180438, -5398.147451656753, -4688.16664077838, -399.58213562752434, -3541.8350746435017, -4053.958243603497, -4725.739923207751, -0.002, 0.07200000000000001, 0.982, 192.0, 0.0, 0.0, 0.0, 0.0, 0.0, 0.0, 0.0, 0.0, 0.0, 1.644491859329922E9, 0.0, 2022-02-10 22:17:39.329
94.0, -5896.077262887628, -4938.4614751889085, -5390.301989352941, -9570.145257728727, -3326.431313327708, -852.7190509699644, -4411.474396166133, -3022.5816992022633, -14207.595790338015, -6857.6716610993935, -5401.433158091683, -4690.334759990545, -393.0330745021194, -3549.1664468248428, -4043.095295798218, -4718.8108824266055, -0.002, 0.07200000000000001, 0.982, 192.0, 0.0, 0.0, 0.0, 0.0, 0.0, 0.0, 0.0, 0.0, 0.0, 1.6444918593299289E9, 0.0, 2022-02-10 22:17:39.329
96.0, -5870.260998041749, -4919.082512746157, -5381.137774126265, -9557.002431989007, -3309.6451532417723, -827.9533181134842, -4396.923410525729, -3001.705169881007, -14209.585095594537, -6861.225588467788, -5403.243649392563, -4686.780832622151, -398.5539553825802, -3538.482312975206, -4052.2148075359833, -4719.436731271355, -0.002, 0.07200000000000001, 0.982, 192.0, 0.0, 0.0, 1.0, 16.0, 15.0, 88.0, 0.0, 0.0, 0.0, 1.644491859329939E9, 0.0, 2022-02-10 22:17:39.329
98.0, -5862.34848050457, -4900.150585192512, -5365.9162361522, -9540.953879470097, -3295.161222834733, -817.2468325193921, -4390.843736033886, -2985.164878984079, -14184.394679593406, -6829.866090996992, -5380.847201448346, -4659.243483453212, -366.9038852338654, -3509.5591556500385, -4025.258603722883, -4691.07236755757, -0.002, 0.07200000000000001, 0.982, 192.0, 0.0, 0.0, 0.0, 0.0, 0.0, 0.0, 0.0, 0.0, 0.0, 1.6444918593299465E9, 0.0, 2022-02-10 22:17:39.329
100.0, -5866.260035784249, -4896.976637479858, -5374.0075676450215, -9543.814902760376, -3293.9542286341466, -808.0379138038056, -4400.432634405212, -2995.0443500333254, -14188.686214528825, -6833.263556154198, -5385.004625917033, -4667.6253876239525, -371.79891726957766, -3508.6650858718262, -4035.003964305397, -4696.2132687822905, -0.002, 0.07200000000000001, 0.982, 192.0, 0.0, 0.0, 0.0, 0.0, 0.0, 0.0, 0.0, 0.0, 0.0, 1.6444918593299534E9, 0.0, 2022-02-10 22:17:39.329
102.0, -5844.2435674957715, -4861.81734345166, -5349.063020832899, -9518.065693147862, -3268.115612043812, -785.6191141151327, -4371.218904402126, -2965.271826418856, -14173.978766677234, -6819.025494936168, -5365.446849518639, -4647.933500758827, -352.7552309936561, -3482.088861714466, -4016.9214030410535, -4682.422242453366, -0.002, 0.07200000000000001, 0.982, 192.0, 0.0, 0.0, 0.0, 0.0, 0.0, 0.0, 0.0, 0.0, 0.0, 1.6444918593299637E9, 0.0, 2022-02-10 22:17:39.329
104.0, -5839.504997671247, -4862.063212640669, -5353.935701124156, -9516.16579486916, -3267.6015219213396, -793.7104456079538, -4378.796145772475, -2981.4097859155877, -14162.42291479384, -6805.010951162691, -5360.73063143857, -4636.757628531173, -339.2771290871059, -3489.800213551547, -4005.723179068945, -4670.173486491858, -0.002, 0.07200000000000001, 0.982, 192.0, 0.0, 0.0, 0.0, 0.0, 0.0, 0.0, 0.0, 0.0, 0.0, 1.6444918593299704E9, 0.0, 2022-02-10 22:17:39.329
106.0, -5814.180471203384, -4839.890282141004, -5340.479950962062, -9506.509841264467, -3245.674460610683, -763.7591080378423, -4372.001215458062, -2958.9239309935488, -14156.812626935558, -6803.558087773095, -5350.270015033486, -4637.875215753939, -335.6114429964355, -3485.083995471477, -4011.869908794154, -4679.583570907542, -0.002, 0.07200000000000001, 0.982, 192.0, 0.0, 0.0, 1.0, 24.0, 15.0, 72.0, 0.0, 0.0, 0.0, 1.6444918593299773E9, 0.0, 2022-02-10 22:17:39.329
108.0, -5809.553660101135, -4826.702752912373, -5328.611174656293, -9494.35049228078, -3237.4490186511302, -759.4675731024233, -4370.280131135003, -2948.3292041217333, -14140.451149994273, -6775.506648481685, -5335.2049392706085, -4614.24942186468, -308.856404883433, -3455.1326579013657, -3989.2722951498386, -4650.995689749204, -0.002, 0.07200000000000001, 0.982, 192.0, 0.0, 0.0, 0.0, 0.0, 0.0, 0.0, 0.0, 0.0, 0.0, 1.6444918593299844E9, 0.0, 2022-02-10 22:17:39.329
110.0, -5800.992941974752, -4817.225613263323, -5336.590747426838, -9490.26012304546, -3237.6725360956834, -751.6668142875212, -4384.562895841944, -2959.706242049485, -14141.971068617233, -6775.283131037132, -5336.411933471195, -4618.2056806332685, -313.72908517468994, -3463.0228236940893, -4000.716388310956, -4657.432992152333, -0.002, 0.07200000000000001, 0.982, 192.0, 0.0, 0.0, 0.0, 0.0, 0.0, 0.0, 0.0, 0.0, 0.0, 1.6444918593299916E9, 0.0, 2022-02-10 22:17:39.329
112.0, -5777.992996930242, -4788.324807682611, -5309.992171525022, -9466.410811711647, -3208.4364543481415, -728.6221657540997, -4349.448305302657, -2928.6596690010633, -14124.246135264175, -6758.027584317635, -5321.905651319701, -4603.922915926328, -289.9244773297879, -3436.7148204701925, -3988.0429492047965, -4641.339736144511, -0.002, 0.07200000000000001, 0.982, 192.0, 0.0, 0.0, 0.0, 0.0, 0.0, 0.0, 0.0, 0.0, 0.0, 1.6444918593299983E9, 0.0, 2022-02-10 22:17:39.329
114.0, -5787.3583778570155, -4790.5376303836865, -5319.1787384961535, -9471.976396081018, -3212.6385823057394, -733.673660000999, -4362.032337430995, -2920.635392741608, -14115.059568293043, -6739.162711997356, -5313.166119237676, -4596.077453622514, -274.90410505582156, -3424.443712764229, -3971.5026583078693, -4627.906337726872, -0.002, 0.07200000000000001, 0.982, 192.0, 0.0, 0.0, 0.0, 0.0, 0.0, 0.0, 0.0, 0.0, 0.0, 1.644491859330005E9, 0.0, 2022-02-10 22:17:39.330
116.0, -5773.947331183831, -4777.886543021982, -5313.456691915595, -9465.87436984472, -3204.033160690446, -714.0041248803288, -4341.28991857647, -2914.4886630163987, -14126.07897830951, -6748.2598719906655, -5317.994096040023, -4601.665389736341, -286.25879123911756, -3428.310564554997, -3980.130431667618, -4634.187177918813, -0.002, 0.07200000000000001, 0.98, 192.0, 127.5, 120.0, 1.0, 32.0, 15.0, 80.0, 0.0, 0.0, 0.0, 1.644491859330012E9, 0.0, 2022-02-10 22:17:39.330
118.0, -5764.023156645675, -4763.357909126033, -5300.291514431419, -9456.173712751117, -3195.3383320973317, -707.3433050326473, -4344.083886633383, -2889.5888196931865, -14106.36473969993, -6724.030581001113, -5305.81239531188, -4585.348616283967, -259.4814013816597, -3399.2980002520085, -3959.522123279825, -4610.673142751831, -0.002, 0.07200000000000001, 0.98, 192.0, 0.0, 0.0, 0.0, 0.0, 0.0, 0.0, 0.0, 0.0, 0.0, 1.644491859330019E9, 0.0, 2022-02-10 22:17:39.330
120.0, -5764.827819446065, -4763.112039937025, -5307.712293590581, -9457.291299973882, -3193.0584541628905, -696.7485781608318, -4335.47846501809, -2890.8181656382285, -14115.104271781955, -6733.507720650163, -5308.494604646517, -4593.1940785877805, -268.5115061416037, -3413.6254684478604, -3970.4744780629253, -4615.568174787542, -0.002, 0.07200000000000001, 0.98, 192.0, 0.0, 0.0, 0.0, 0.0, 0.0, 0.0, 0.0, 0.0, 0.0, 1.644491859809652E9, 0.0, 2022-02-10 22:17:39.809
122.0, -5729.668525417867, -4722.968306895293, -5278.275046142941, -9422.824910023799, -3161.050756102891, -664.4056039340024, -4314.333714763369, -2865.2254182369015, -14094.764184327625, -6706.417406370331, -5285.405252624185, -4563.220389273213, -245.71272679719053, -3381.550715154495, -3950.044983630775, -4592.389415787389, -0.002, 0.07200000000000001, 0.98, 192.0, 0.0, 0.0, 0.0, 0.0, 0.0, 0.0, 0.0, 0.0, 0.0, 1.6444918598097665E9, 0.0, 2022-02-10 22:17:39.809
124.0, -5731.970755096764, -4712.775911423673, -5280.644331055204, -9423.651924568645, -3155.2840060334215, -665.5678946456784, -4332.95271789464, -2869.5840084056867, -14077.419230630307, -6682.970426436714, -5275.816354252858, -4549.563473411021, -223.94212769772147, -3360.651834088783, -3933.817617156222, -4576.318511524023, -0.002, 0.07200000000000001, 0.98, 192.0, 0.0, 0.0, 0.0, 0.0, 0.0, 0.0, 0.0, 0.0, 0.0, 1.644491859809774E9, 0.0, 2022-02-10 22:17:39.809
126.0, -5711.898888575899, -4696.526193204665, -5270.18371465012, -9414.085377941774, -3139.235453514511, -649.4969903823127, -4323.09559858985, -2865.1360112590805, -14079.050907975545, -6686.434946827287, -5269.647272783193, -4545.89778732035, -222.57867128594773, -3362.7976015564923, -3939.807884670244, -4585.102747094959, -0.004, 0.074, 0.982, 192.0, 127.5, 112.0, 1.0, 40.0, 15.0, 88.0, 0.0, 0.0, 0.0, 1.6444918598097813E9, 0.0, 2022-02-10 22:17:39.809
128.0, -5700.611257625968, -4681.327006975056, -5253.7328307310145, -9401.702511513533, -3120.4823399165084, -639.5281123552456, -4314.110197318816, -2859.570426889709, -14056.87797747588, -6665.4913622726635, -5247.7425632169925, -4529.603365612432, -193.0073133715765, -3340.0882291899, -3916.0926838031633, -4565.90259860785, -0.004, 0.074, 0.982, 192.0, 0.0, 0.0, 0.0, 0.0, 0.0, 0.0, 0.0, 0.0, 0.0, 1.644491859809788E9, 0.0, 2022-02-10 22:17:39.809
130.0, -5695.425652912338, -4678.220114495768, -5263.254673868975, -9403.311837114315, -3118.269517215433, -634.7671907862652, -4309.930421105673, -2849.1768657179914, -14056.945032709245, -6659.0317081250805, -5254.157513875665, -4530.0951039904485, -195.10837735037535, -3336.4001913547745, -3922.8652623731214, -4567.646034675364, -0.004, 0.074, 0.982, 192.0, 0.0, 0.0, 0.0, 0.0, 0.0, 0.0, 0.0, 0.0, 0.0, 1.644491859809795E9, 0.0, 2022-02-10 22:17:39.809
132.0, -5681.209943438762, -4660.472829398254, -5247.340231816796, -9381.764755459399, -3101.595115851774, -617.0199056887515, -4302.062607057405, -2831.0048974758265, -14044.293945347543, -6641.083257327468, -5237.259595067453, -4509.710313047208, -178.8363073869118, -3325.358429593853, -3911.622334912102, -4553.653842646342, -0.004, 0.074, 0.982, 192.0, 0.0, 0.0, 0.0, 0.0, 0.0, 0.0, 0.0, 0.0, 0.0, 1.6444918598098016E9, 0.0, 2022-02-10 22:17:39.809
134.0, -5678.572437593036, -4654.527265373143, -5254.112810386755, -9384.089336882751, -3107.1159967322346, -623.8371877476201, -4302.040255312951, -2850.048583751748, -14041.72349473518, -6632.299021756533, -5238.600699734771, -4509.352685135923, -173.8071648844677, -3315.1660341222328, -3904.2686109863057, -4543.729668108185, -0.004, 0.074, 0.982, 192.0, 0.0, 0.0, 0.0, 0.0, 0.0, 0.0, 0.0, 0.0, 0.0, 1.6444918598098152E9, 0.0, 2022-02-10 22:17:39.809
136.0, -5659.953434461765, -4635.640041308408, -5241.841702680791, -9372.153505343616, -3086.9547232335476, -598.0656263906511, -4299.581563422867, -2828.903833497028, -14042.72932323567, -6630.756751389116, -5235.918490400135, -4503.451824599722, -177.31638876395093, -3315.2777928445093, -3909.2530499998393, -4552.37979321239, 0.002, 0.068, 0.978, 192.0, 0.0, 8.0, 1.0, 16.0, 15.0, 72.0, 0.0, 0.0, 0.0, 1.644491859809822E9, 0.0, 2022-02-10 22:17:39.809
138.0, -5661.875684484921, -4618.25038412218, -5227.625993207216, -9359.457714493003, -3073.141345160168, -582.3523500385702, -4268.400879907713, -2777.74069043883, -14019.259991557597, -6601.297152197022, -5205.989504574479, -4484.564600534988, -145.82278082642327, -3279.291484271465, -3880.9557415194204, -4519.99211549665, 0.002, 0.068, 0.978, 192.0, 0.0, 0.0, 0.0, 0.0, 0.0, 0.0, 0.0, 0.0, 0.0, 1.6444918598098288E9, 0.0, 2022-02-10 22:17:39.809
140.0, -5660.780449006611, -4606.582773516509, -5238.198368334576, -9365.492685495936, -3069.6097695362296, -577.2338005583049, -4265.718670573076, -2790.8835161785505, -14027.977171895167, -6602.0347597640475, -5215.5784029458055, -4488.1855831367475, -153.1988564966746, -3284.4770889850965, -3885.6719595994905, -4524.082484731971, 0.002, 0.068, 0.978, 192.0, 0.0, 0.0, 0.0, 0.0, 0.0, 0.0, 0.0, 0.0, 0.0, 1.6444918598098576E9, 0.0, 2022-02-10 22:17:39.809
142.0, -5623.16246308833, -4590.780090186607, -5211.286868010387, -9339.139978783129, -3044.5981674907407, -558.2795212602045, -4257.560283846889, -2770.565780468676, -14009.715796675182, -6583.1922391882235, -5198.032283548389, -4469.208952094192, -131.9870510085882, -3280.4090714942304, -3870.00338673632, -4515.924098005784, 0.002, 0.068, 0.978, 192.0, 0.0, 0.0, 0.0, 0.0, 0.0, 0.0, 0.0, 0.0, 0.0, 1.6444918598098643E9, 0.0, 2022-02-10 22:17:39.809
144.0, -5632.2819748260945, -4590.824793675518, -5217.947687858068, -9336.189548515029, -3051.147228616146, -557.9218933489196, -4267.75267931851, -2780.1323270955477, -13999.188125036731, -6567.389555858321, -5193.047844534855, -4461.40819327929, -120.87823401430059, -3256.2244839935884, -3858.3134243861946, -4505.977571723172, 0.002, 0.068, 0.978, 192.0, 0.0, 0.0, 0.0, 0.0, 0.0, 0.0, 0.0, 0.0, 0.0, 1.6444918598098712E9, 0.0, 2022-02-10 22:17:39.809
146.0, -5616.725160685201, -4574.642130689876, -5212.65032442216, -9325.952449554497, -3034.852806908227, -534.6537273709449, -4240.349440616303, -2772.488030491833, -14002.205610538198, -6566.629596546841, -5189.471565422006, -4461.162324090281, -127.42729513970556, -3251.4412106801524, -3865.62244482308, -4510.157347936314, 0.002, 0.07, 0.984, 192.0, 0.0, 8.0, 1.0, 24.0, 15.0, 96.0, 0.0, 0.0, 0.0, 1.644491859809878E9, 0.0, 2022-02-10 22:17:39.809
148.0, -5614.8252624065, -4557.18541827028, -5198.658132393138, -9313.726045337444, -3015.764417143395, -526.4953406447579, -4246.987908719529, -2753.9137308494724, -13986.447630697206, -6546.20010211469, -5171.746632068948, -4441.805713391986, -100.20287039314157, -3224.6414690782394, -3840.655546266502, -4483.514068545588, 0.002, 0.07, 0.984, 192.0, 0.0, 0.0, 0.0, 0.0, 0.0, 0.0, 0.0, 0.0, 0.0, 1.6444918598098845E9, 0.0, 2022-02-10 22:17:39.809
150.0, -5620.68141945379, -4552.089220534471, -5207.531774941895, -9322.465577419469, -3015.2726787653783, -520.6168318530121, -4258.946092003118, -2760.0157570857714, -13989.666281898772, -6546.758895726072, -5175.188800715066, -4442.811541892474, -103.1533006612421, -3223.233309177555, -3849.8421132376334, -4488.4761558146665, 0.002, 0.07, 0.984, 192.0, 0.0, 0.0, 0.0, 0.0, 0.0, 0.0, 0.0, 0.0, 0.0, 1.6444918598098912E9, 0.0, 2022-02-10 22:17:39.809
152.0, -5587.824355104489, -4525.08831323246, -5180.441460662063, -9302.639580087613, -2984.9860650284368, -496.879279241476, -4227.631298021233, -2740.0556492871824, -13975.38351719183, -6535.359506053866, -5160.347242396741, -4431.769780131553, -82.99202716255512, -3210.202242160111, -3838.5321305432476, -4484.162269134792, 0.002, 0.07, 0.984, 192.0, 0.0, 0.0, 0.0, 0.0, 0.0, 0.0, 0.0, 0.0, 0.0, 1.644491859809898E9, 0.0, 2022-02-10 22:17:39.809
154.0, -5599.693131410258, -4525.892976032851, -5185.738824097971, -9306.484080133925, -2985.9695417844705, -497.2145554083056, -4225.910213698175, -2755.031318072238, -13959.71494432866, -6517.075779089425, -5147.584396312761, -4421.800902104485, -65.75883218751338, -3191.0244454174576, -3820.069589623164, -4471.622940495365, 0.002, 0.07, 0.984, 192.0, 0.0, 0.0, 0.0, 0.0, 0.0, 0.0, 0.0, 0.0, 0.0, 1.6444918598099048E9, 0.0, 2022-02-10 22:17:39.809
156.0, -5586.595009159447, -4509.106815946915, -5184.576533386295, -9296.112870706662, -2976.715919579973, -486.66453202540066, -4214.197899603593, -2715.826358297629, -13968.208607221677, -6528.363410039355, -5151.518303336895, -4423.276117238536, -74.05132938043229, -3198.3781693432534, -3828.362086816083, -4474.88629518584, 0.002, 0.07, 0.984, 192.0, 0.0, 0.0, 1.0, 24.0, 15.0, 104.0, 0.0, 0.0, 0.0, 1.6444918598099115E9, 0.0, 2022-02-10 22:17:39.809
158.0, -5574.793288087045, -4495.047568684527, -5167.566855855805, -9277.7397367644, -2963.1931141845125, -475.1310318864622, -4205.480719266024, -2701.6553523129646, -13956.250423938087, -6505.631685928308, -5133.860425217203, -4403.003085017573, -53.46537273709449, -3182.6425412467174, -3806.7032464388903, -4449.539416973522, 0.002, 0.07, 0.984, 192.0, 0.0, 0.0, 0.0, 0.0, 0.0, 0.0, 0.0, 0.0, 0.0, 1.6444918598099182E9, 0.0, 2022-02-10 22:17:39.809
160.0, -5571.708747352212, -4488.610266281398, -5173.646530347649, -9282.992396711397, -2962.4778583619427, -459.88714216794284, -4213.728512970032, -2699.4872331008, -13953.970546003646, -6499.909639347749, -5133.055762416811, -4402.3101809394575, -54.359442515306775, -3173.8583056757816, -3810.7936156742117, -4453.987414120128, 0.002, 0.07, 0.984, 192.0, 0.0, 0.0, 0.0, 0.0, 0.0, 0.0, 0.0, 0.0, 0.0, 1.6444918598099248E9, 0.0, 2022-02-10 22:17:39.809
162.0, -5539.365773125383, -4458.815390922474, -5150.847751003236, -9265.78155348081, -2939.7014307619847, -442.5198367261692, -4193.030797604418, -2681.29291311418, -13938.503138840573, -6484.66574962923, -5114.280297074353, -4384.831116775407, -36.27688125096336, -3154.09936357729, -3801.919973125455, -4442.588024447921, 0.002, 0.07, 0.984, 192.0, 0.0, 0.0, 0.0, 0.0, 0.0, 0.0, 0.0, 0.0, 0.0, 1.6444918598099315E9, 0.0, 2022-02-10 22:17:39.809
164.0, -5542.2938516490285, -4458.413059522279, -5152.479428348473, -9266.899140703576, -2935.968689437949, -448.6218629624681, -4206.888879166708, -2699.196660422881, -13924.399188089275, -6468.505438388042, -5105.920744648069, -4375.979825971106, -18.373133942262406, -3138.3637354807543, -3786.4749177068375, -4434.831969121929, 0.003, 0.067, 0.983, 192.0, 0.0, 16.0, 1.0, 0.0, 15.0, 88.0, 0.0, 0.0, 0.0, 1.6444918598099384E9, 0.0, 2022-02-10 22:17:39.809
166.0, -5535.387162612339, -4447.237187294625, -5148.992556213446, -9253.97983240841, -2922.535291020309, -422.8726533499543, -4178.613922430744, -2678.968331690828, -13929.160109658254, -6471.6123308673305, -5104.7584539363925, -4365.3850990992905, -22.59761364431544, -3142.3870494827092, -3796.689664922913, -4442.610376192377, 0.003, 0.067, 0.983, 192.0, 0.0, 0.0, 0.0, 0.0, 0.0, 0.0, 0.0, 0.0, 0.0, 1.644491859809947E9, 0.0, 2022-02-10 22:17:39.809
168.0, -5535.722438779168, -4435.860149366874, -5134.150997895122, -9242.692201458478, -2902.753997177362, -413.6637346343678, -4159.503180921457, -2641.1715318169036, -13914.98910367359, -6448.724144545096, -5083.9713315929575, -4359.841866474374, 0.3799796557402201, -3117.107226503757, -3767.7441558532905, -4415.877689823829, 0.003, 0.067, 0.983, 192.0, 0.0, 0.0, 0.0, 0.0, 0.0, 0.0, 0.0, 0.0, 0.0, 1.6444918598099537E9, 0.0, 2022-02-10 22:17:39.809
170.0, -5530.425075343261, -4435.144893544304, -5144.723373022482, -9249.196559094973, -2904.4527297559657, -409.238089232217, -4166.9239600806195, -2659.1199826145153, -13923.974504944625, -6454.13326670328, -5097.337674777231, -4373.543485825478, -6.325543680851899, -3114.3803136802094, -3772.505077422271, -4419.521024170044, 0.003, 0.067, 0.983, 192.0, 0.0, 0.0, 0.0, 0.0, 0.0, 0.0, 0.0, 0.0, 0.0, 1.6444918598099604E9, 0.0, 2022-02-10 22:17:39.809
172.0, -5496.8974586603, -4400.656151849765, -5118.571832009773, -9226.755407661845, -2884.6937876574743, -383.3771208974267, -4163.370032712225, -2637.841121893063, -13904.528487268506, -6440.074019440892, -5074.315377988265, -4349.850636702852, 12.762846083980333, -3093.883764014693, -3765.7995540856787, -4412.256707222069, 0.003, 0.067, 0.983, 192.0, 0.0, 0.0, 0.0, 0.0, 0.0, 0.0, 0.0, 0.0, 0.0, 1.6444918598099673E9, 0.0, 2022-02-10 22:17:39.809
174.0, -5495.46694701516, -4388.608561588355, -5119.220032598977, -9227.44831173996, -2887.1971830364687, -376.5374870941028, -4172.467192705535, -2636.812941648119, -13887.496457993562, -6415.263583095501, -5062.066622026757, -4338.250081330548, 30.174855014664534, -3070.8614672257268, -3756.210655714352, -4396.722244825631, 0.0045000000000000005, 0.0655, 0.9835, 192.0, 0.0, 24.0, 1.0, 0.0, 15.0, 96.0, 0.0, 0.0, 0.0, 1.6444918598099737E9, 0.0, 2022-02-10 22:17:39.809
176.0, -5474.255141527074, -4371.017738702028, -5109.9217069055685, -9220.519270958814, -2863.325519958201, -362.52294332062525, -4145.801561570354, -2633.840159635563, -13888.457583005142, -6413.9671819170935, -5057.819790580248, -4330.628136471288, 25.972727057066805, -3057.0257374078915, -3763.1843999844077, -4404.880631551818, 0.0045000000000000005, 0.0655, 0.9835, 192.0, 0.0, 0.0, 0.0, 0.0, 0.0, 0.0, 0.0, 0.0, 0.0, 1.6444918598099804E9, 0.0, 2022-02-10 22:17:39.809
178.0, -5467.974301335133, -4360.825343230408, -5098.38820676663, -9201.699102127446, -2855.904740799039, -365.8310015000107, -4165.202875757561, -2636.611775948021, -13868.944510095658, -6394.856440407806, -5042.218272950444, -4292.51841217499, 55.29821578242967, -3054.187065862068, -3742.464332874338, -4385.3452068978795, 0.0045000000000000005, 0.0655, 0.9835, 192.0, 0.0, 0.0, 0.0, 0.0, 0.0, 0.0, 0.0, 0.0, 0.0, 1.6444918598099873E9, 0.0, 2022-02-10 22:17:39.809
180.0, -5485.699234688192, -4374.884590492796, -5108.848823171714, -9212.025608065798, -2864.1748862475024, -366.8368300004995, -4162.654776889655, -2642.0879533395714, -13882.1767428132, -6408.781577203462, -5043.805246806771, -4323.073246845394, 45.39639298872864, -3063.4183363221096, -3753.2825771907064, -4398.309218681958, 0.0045000000000000005, 0.0655, 0.9835, 192.0, 0.0, 0.0, 0.0, 0.0, 0.0, 0.0, 0.0, 0.0, 0.0, 1.644491859809994E9, 0.0, 2022-02-10 22:17:39.809
182.0, -5457.804257607968, -4339.993517398062, -5079.366872235164, -9187.885724054066, -2824.969926472894, -330.62700398290207, -4104.093206416751, -2600.1784324858704, -13873.861893875826, -6398.388016031745, -5032.249394923377, -4305.70594140362, 59.634454206759244, -3041.535978500364, -3736.3846583824943, -4384.808765030953, 0.0045000000000000005, 0.0655, 0.9835, 192.0, 0.0, 0.0, 0.0, 0.0, 0.0, 0.0, 0.0, 0.0, 0.0, 1.6444918598100183E9, 0.0, 2022-02-10 22:17:39.810
184.0, -5461.313481487451, -4336.171369096204, -5082.987854836923, -9188.221000220896, -2819.359638614612, -328.0118498816311, -4108.943534963552, -2596.8256708175745, -13856.114608778313, -6373.532876197443, -5022.369923874131, -4293.412481953202, 83.01437890701042, -3016.099693310224, -3713.898803460456, -4363.775773498509, 0.00525, 0.06475, 0.98475, 192.0, 0.0, 24.0, 1.0, 0.0, 15.0, 104.0, 0.0, 0.0, 0.0, 1.6444918598100255E9, 0.0, 2022-02-10 22:17:39.810
186.0, -5441.9345190447, -4320.458092744123, -5077.377566978642, -9184.91294204151, -2807.4908623088436, -305.79421589305593, -4108.38474135217, -2580.5759525985663, -13860.450847202641, -6375.902161109706, -5022.66049655205, -4295.46884244309, 77.15822185971999, -3016.345562499233, -3728.270975145218, -4370.838924746386, 0.00525, 0.06475, 0.98475, 192.0, 0.0, 0.0, 0.0, 0.0, 0.0, 0.0, 0.0, 0.0, 0.0, 1.644491859810032E9, 0.0, 2022-02-10 22:17:39.810
188.0, -5429.328135171907, -4302.263772757504, -5058.378584191631, -9173.692366324945, -2793.3645598130897, -298.4628437117152, -4108.76472100791, -2574.2504089177146, -13837.383846924764, -6352.723402109552, -4995.793699716771, -4273.362967176791, 107.98127746358843, -2989.791690086328, -3709.048474913654, -4352.041107659472, 0.00525, 0.06475, 0.98475, 192.0, 0.0, 0.0, 0.0, 0.0, 0.0, 0.0, 0.0, 0.0, 0.0, 1.6444918598100388E9, 0.0, 2022-02-10 22:17:39.810
190.0, -5429.506949127549, -4302.33082799087, -5073.711880887971, -9182.72247108489, -2797.0525976482154, -306.4200647378045, -4115.6714100446, -2594.5681446275885, -13843.97761153908, -6357.283157978435, -5001.1804701305, -4276.648673611721, 102.14747216075328, -2997.7712628568725, -3716.5139575617263, -4361.518247308522, 0.00525, 0.06475, 0.98475, 192.0, 0.0, 0.0, 0.0, 0.0, 0.0, 0.0, 0.0, 0.0, 0.0, 1.644491859810062E9, 0.0, 2022-02-10 22:17:39.810
192.0, -5423.762550802535, -4278.526220145967, -5049.035555009313, -9158.336717884149, -2764.0167193432712, -280.8720208253886, -4088.290523086849, -2565.5332285801446, -13837.719123091594, -6349.504750907988, -4981.801507687749, -4267.551513618411, 117.03373396798779, -2983.3543876831995, -3705.405140567439, -4357.629043773299, 0.00525, 0.06475, 0.98475, 192.0, 0.0, 0.0, 0.0, 0.0, 0.0, 0.0, 0.0, 0.0, 0.0, 1.6444918598100688E9, 0.0, 2022-02-10 22:17:39.810
194.0, -5423.40492289125, -4271.418365409179, -5054.154104489578, -9159.409601618005, -2760.865123375073, -271.9760265321763, -4093.006741166919, -2558.559484310089, -13826.655009586217, -6329.008201242471, -4980.303940809244, -4250.005394220995, 136.79267606647923, -2953.6936227910073, -3685.1991635798413, -4339.725296464598, 0.005625, 0.067375, 0.982375, 192.0, 0.0, 24.0, 1.0, 24.0, 15.0, 80.0, 0.0, 0.0, 0.0, 1.6444918598100772E9, 0.0, 2022-02-10 22:17:39.810
196.0, -5401.701379025148, -4264.154048461205, -5052.47772365543, -9155.252177149318, -2756.8194576286623, -254.31814841248377, -4080.8473921832315, -2537.414734055368, -13834.299306189932, -6333.63501234472, -4982.31559781022, -4246.920853486163, 130.31067017444016, -2967.909332264582, -3697.4926230302603, -4350.700002992154, 0.005625, 0.067375, 0.982375, 192.0, 0.0, 0.0, 0.0, 0.0, 0.0, 0.0, 0.0, 0.0, 0.0, 1.644491859810084E9, 0.0, 2022-02-10 22:17:39.810
198.0, -5409.300972139951, -4251.949995988607, -5033.94812750198, -9144.076304921664, -2744.2354255003247, -250.74186929963463, -4064.6870809420448, -2523.8248734265417, -13817.826070526371, -6320.939221494105, -4964.367147012609, -4244.618623807267, 150.74016460659084, -2942.2718813743454, -3674.3362157745623, -4329.644659715254, 0.005625, 0.067375, 0.982375, 192.0, 0.0, 0.0, 0.0, 0.0, 0.0, 0.0, 0.0, 0.0, 0.0, 1.6444918598100924E9, 0.0, 2022-02-10 22:17:39.810
200.0, -5413.816024519923, -4254.341632645325, -5048.186188720011, -9152.279395136762, -2756.26066401728, -256.5086193691038, -4085.09422362974, -2533.4137717978683, -13832.198242211134, -6330.3940093987, -4973.687824450472, -4249.9830424765405, 136.6809173442027, -2954.0065472133815, -3683.4110240234168, -4336.059610373928, 0.005625, 0.067375, 0.982375, 192.0, 0.0, 0.0, 0.0, 0.0, 0.0, 0.0, 0.0, 0.0, 0.0, 1.6444918598100991E9, 0.0, 2022-02-10 22:17:39.810
202.0, -5379.841372947857, -4228.88299571073, -5021.252336651366, -9129.570022770169, -2723.4035996679786, -231.20644464569625, -4068.196304821528, -2514.2806785441257, -13822.765806050993, -6320.4027796271785, -4963.5848359566735, -4228.681830010632, 147.58856863839253, -2939.053230172781, -3676.6831489423694, -4332.483331261079, 0.005625, 0.067375, 0.982375, 192.0, 0.0, 0.0, 0.0, 0.0, 0.0, 0.0, 0.0, 0.0, 0.0, 1.644491859810106E9, 0.0, 2022-02-10 22:17:39.810
204.0, -5385.719881739603, -4218.9364694281185, -5023.845139008181, -9133.638040261036, -2723.7612275792635, -239.2307209051515, -4066.318758287282, -2522.5061205036786, -13792.121564402767, -6293.267761858436, -4934.460512931409, -4211.806262946876, 177.13757480830847, -2917.103817117669, -3655.7172126432915, -4321.955659622629, 0.0058125, 0.06868750000000001, 0.9831875, 192.0, 0.0, 24.0, 1.0, 24.0, 15.0, 96.0, 0.0, 0.0, 0.0, 1.6444918598101127E9, 0.0, 2022-02-10 22:17:39.810
206.0, -5377.360329313317, -4212.275649580437, -5026.70616229846, -9129.480615792349, -2712.58535535161, -209.01116240157634, -4053.578263947757, -2513.0513325990837, -13831.17006196619, -6310.29979113338, -4952.565425940207, -4218.668248494655, 157.3115774764511, -2923.8763956876273, -3670.6481779394367, -4334.137360350771, 0.0058125, 0.06868750000000001, 0.9831875, 192.0, 0.0, 0.0, 0.0, 0.0, 0.0, 0.0, 0.0, 0.0, 0.0, 1.6444918598101192E9, 0.0, 2022-02-10 22:17:39.810
208.0, -5370.855971676823, -4193.701349938077, -5009.785891745793, -9115.533127252236, -2692.6028958085653, -198.0364558740206, -4050.1137435571845, -2495.393454479391, -13806.270218642978, -6282.561276264343, -4929.900757062525, -4202.239716320004, 188.87224064734468, -2891.444014482977, -3647.491770683738, -4309.2151652831035, 0.0058125, 0.06868750000000001, 0.9831875, 192.0, 0.0, 0.0, 0.0, 0.0, 0.0, 0.0, 0.0, 0.0, 0.0, 1.644491859810126E9, 0.0, 2022-02-10 22:17:39.810
210.0, -5387.128041640287, -4205.815995432853, -5024.716857041938, -9126.105502379598, -2699.219012167336, -195.75657793957924, -4055.7463831599216, -2501.3390185045027, -13821.49175661704, -6295.4358810706, -4950.531417194774, -4214.734341470521, 176.66818817474703, -2898.4177587530326, -3655.1360672874534, -4313.953735107629, 0.0058125, 0.06868750000000001, 0.9831875, 192.0, 0.0, 0.0, 0.0, 0.0, 0.0, 0.0, 0.0, 0.0, 0.0, 1.6444918598101327E9, 0.0, 2022-02-10 22:17:39.810
212.0, -5362.8540471618235, -4170.880218849208, -4996.5760107727065, -9101.85385964559, -2664.618511750521, -170.61086542735882, -4033.2828799823383, -2481.2224484947265, -13806.292570387432, -6281.980130908505, -4925.698629104928, -4191.6896929371, 195.6001157283921, -2877.7870986207845, -3644.988375304744, -4304.878926858774, 0.0058125, 0.06868750000000001, 0.9831875, 192.0, 0.0, 0.0, 0.0, 0.0, 0.0, 0.0, 0.0, 0.0, 0.0, 1.6444918598101394E9, 0.0, 2022-02-10 22:17:39.810
214.0, -5365.715070452103, -4168.354471725759, -5001.247525363866, -9103.306723035184, -2664.126773372504, -166.14051653629738, -4033.2828799823383, -2470.359500689447, -13794.803773737405, -6261.505932987444, -4909.6947800749285, -4186.861716134753, 214.48733979312658, -2854.541284387265, -3629.0068780191996, -4292.049025541428, 0.00490625, 0.06734375000000001, 0.9845937499999999, 192.0, 0.0, 16.0, 1.0, 8.0, 15.0, 104.0, 0.0, 0.0, 0.0, 1.644491859810146E9, 0.0, 2022-02-10 22:17:39.810
216.0, -5354.20392205762, -4150.830704072798, -4999.414682318531, -9098.590504955115, -2657.9576919028395, -150.0919640173869, -4028.164330502073, -2455.205017948749, -13804.258561642, -6263.159962077137, -4911.326457420166, -4187.241695790493, 207.9382786677216, -2855.99414777686, -3642.0379450366436, -4300.319170989892, 0.00490625, 0.06734375000000001, 0.9845937499999999, 192.0, 0.0, 0.0, 0.0, 0.0, 0.0, 0.0, 0.0, 0.0, 0.0, 1.6444918598101528E9, 0.0, 2022-02-10 22:17:39.810
218.0, -5340.032916072955, -4120.633497313678, -4980.192182086967, -9085.760603637767, -2631.716743912309, -140.07838250140935, -4014.3509524286933, -2443.0233172206067, -13783.225570109555, -6235.533205930377, -4890.941666476925, -4150.763648839432, 233.41926734677165, -2836.7716475452958, -3618.9932965032217, -4279.2191242240815, 0.00490625, 0.06734375000000001, 0.9845937499999999, 192.0, 0.0, 0.0, 0.0, 0.0, 0.0, 0.0, 0.0, 0.0, 0.0, 1.6444918598101597E9, 0.0, 2022-02-10 22:17:39.810
220.0, -5343.408029485707, -4144.639270858678, -4995.279609594299, -9090.856801373578, -2630.4650462228115, -141.8441703133786, -4013.9486210284977, -2457.6413580943777, -13791.339253346832, -6241.456418211033, -4896.35078863511, -4164.44291644608, 232.14521791281916, -2844.3935924045554, -3625.1847297173417, -4288.383339450757, 0.00490625, 0.06734375000000001, 0.9845937499999999, 192.0, 0.0, 0.0, 0.0, 0.0, 0.0, 0.0, 0.0, 0.0, 0.0, 1.6444918598101664E9, 0.0, 2022-02-10 22:17:39.810
222.0, -5329.661706645693, -4122.153415936639, -4974.8501151621485, -9069.019147040743, -2607.688618622854, -117.7489897905576, -3990.5016410948806, -2440.8551980084417, -13784.521971287963, -6235.197929763548, -4881.688044272429, -4163.213570501038, 245.80213377501178, -2835.475246366888, -3617.0933982245206, -4282.214257981093, 0.00490625, 0.06734375000000001, 0.9845937499999999, 192.0, 0.0, 0.0, 0.0, 0.0, 0.0, 0.0, 0.0, 0.0, 0.0, 1.644491859810173E9, 0.0, 2022-02-10 22:17:39.810
224.0, -5327.717104878081, -4107.088340173762, -4974.760708184327, -9065.711088861357, -2605.6322581329655, -112.9657164771219, -4004.739702312911, -2433.568529316012, -13772.228511837544, -6211.102749240727, -4871.562704034174, -4145.0863057477845, 265.94105552924344, -2803.3110860957013, -3601.7153980392695, -4269.049080496917, 0.00490625, 0.06734375000000001, 0.9845937499999999, 192.0, 0.0, 0.0, 1.0, 32.0, 15.0, 80.0, 0.0, 0.0, 0.0, 1.6444918598101797E9, 0.0, 2022-02-10 22:17:39.810
226.0, -5309.723950591559, -4093.386720822659, -4970.64798720455, -9062.98417603781, -2594.0540545051163, -94.86080346832317, -3999.9787807439307, -2420.5151105541127, -13780.789229963928, -6216.556574887822, -4873.3061401016885, -4144.0357737583845, 257.536799614048, -2804.31691459619, -3617.8086540470904, -4276.268693955982, 0.00490625, 0.06734375000000001, 0.9845937499999999, 192.0, 0.0, 0.0, 0.0, 0.0, 0.0, 0.0, 0.0, 0.0, 0.0, 1.6444918598101864E9, 0.0, 2022-02-10 22:17:39.810
228.0, -5301.900840032201, -4076.041767125341, -4952.45366721793, -9052.367097421538, -2574.7421472957312, -88.0211696649992, -3982.231495646417, -2406.433511547269, -13759.666831453662, -6194.808327532808, -4846.461695010865, -4124.500349104446, 286.21408775020694, -2776.421937515967, -3593.2664386351635, -4258.6555193252, 0.00490625, 0.06734375000000001, 0.9845937499999999, 192.0, 0.0, 0.0, 0.0, 0.0, 0.0, 0.0, 0.0, 0.0, 0.0, 1.6444918598101933E9, 0.0, 2022-02-10 22:17:39.810
230.0, -5312.517918648472, -4083.507249773413, -4963.830705145682, -9066.98513829531, -2578.8325165310525, -88.51290804301597, -3988.2664666493497, -2410.9262121827855, -13768.29460481341, -6206.118310227193, -4862.107916129579, -4141.666488846122, 282.213125492707, -2773.2032863144027, -3596.1274619254427, -4265.450449639613, 0.00490625, 0.06734375000000001, 0.9845937499999999, 192.0, 0.0, 0.0, 0.0, 0.0, 0.0, 0.0, 0.0, 0.0, 0.0, 1.6444918598102012E9, 0.0, 2022-02-10 22:17:39.810
232.0, -5281.896028744702, -4056.416935493581, -4938.528530422274, -9039.961879248844, -2549.9540626947955, -66.11646009879829, -3977.35881535516, -2398.364531798903, -13754.77179941795, -6190.717958297487, -4842.997174620292, -4116.967811223008, 300.20627977922913, -2771.2363328023357, -3590.4277670893393, -4261.538894359934, 0.00490625, 0.06734375000000001, 0.9845937499999999, 192.0, 0.0, 0.0, 0.0, 0.0, 0.0, 0.0, 0.0, 0.0, 0.0, 1.644491859810208E9, 0.0, 2022-02-10 22:17:39.810
234.0, -5291.61903758276, -4051.0525168243075, -4942.350678724132, -9042.21940543883, -2556.7266412647537, -73.33607355786248, -3984.0196352028415, -2398.677456221277, -13741.807787633872, -6172.054251677305, -4827.485063968309, -4103.780281994376, 316.6571636983352, -2752.863198860073, -3577.463755305261, -4246.004431963495, -0.002, 0.07200000000000001, 0.978, 192.0, 127.5, 120.0, 1.0, 32.0, 15.0, 72.0, 0.0, 0.0, 0.0, 1.6444918598102155E9, 0.0, 2022-02-10 22:17:39.810
236.0, -5283.795927023402, -4046.3139469997823, -4943.065934546702, -9039.336030404094, -2546.824818471053, -54.04651809293248, -3971.614417030146, -2380.0361013455513, -13755.643517451706, -6184.817097761285, -4834.52586347173, -4104.964924450508, 302.8437856249554, -2760.440440230422, -3595.2557438916856, -4259.169609447671, -0.002, 0.07200000000000001, 0.978, 192.0, 0.0, 0.0, 0.0, 0.0, 0.0, 0.0, 0.0, 0.0, 0.0, 1.644491859810222E9, 0.0, 2022-02-10 22:17:39.810
238.0, -5269.535514060916, -4025.7950455898103, -4926.8385680721485, -9026.59553606457, -2525.3447920495028, -37.95326208511139, -3971.100326907674, -2379.074976333973, -13738.879709110226, -6161.593635272221, -4811.592973660586, -4093.967866178497, 333.75624820664507, -2732.5901666391096, -3575.474450048739, -4242.674022039655, -0.002, 0.07200000000000001, 0.978, 192.0, 0.0, 0.0, 0.0, 0.0, 0.0, 0.0, 0.0, 0.0, 0.0, 1.6444918598102288E9, 0.0, 2022-02-10 22:17:39.810
240.0, -5259.544284289394, -4019.7600745868776, -4940.942518823447, -9042.353515905561, -2529.256347329181, -32.298270737918706, -3956.0128994003417, -2365.4180604717803, -13741.159587044667, -6159.179646871048, -4819.3043254976665, -4098.706436003022, 327.45305627024845, -2725.862291558062, -3577.4190518163505, -4244.484513340534, -0.002, 0.07200000000000001, 0.978, 192.0, 0.0, 0.0, 0.0, 0.0, 0.0, 0.0, 0.0, 0.0, 0.0, 1.6444918602890432E9, 0.0, 2022-02-10 22:17:40.289
242.0, -5245.283871326908, -4003.6891703235115, -4915.170957466478, -9018.459501082838, -2499.0591405700616, -15.422703674161873, -3929.0343438427863, -2357.4384877012358, -13734.76698813045, -6152.921158423563, -4805.446243935376, -4081.1156131166954, 336.6396232413797, -2727.292803203202, -3569.439479045806, -4239.07539118235, -0.002, 0.07200000000000001, 0.978, 192.0, 0.0, 0.0, 0.0, 0.0, 0.0, 0.0, 0.0, 0.0, 0.0, 1.6444918602890894E9, 0.0, 2022-02-10 22:17:40.289
244.0, -5259.007842422467, -4006.8854697806205, -4915.059198744202, -9018.861832483033, -2499.68498941481, -21.480026421550086, -3935.672811946012, -2348.3636794523813, -13723.56876415834, -6135.062114603772, -4787.877772793505, -4068.419822266081, 360.91361771984316, -2708.316172160646, -3550.485199747706, -4225.3290683423365, 0.002, 0.07, 0.984, 192.0, 0.0, 8.0, 1.0, 24.0, 15.0, 96.0, 0.0, 0.0, 0.0, 1.6444918602890973E9, 0.0, 2022-02-10 22:17:40.289
246.0, -5249.396592306685, -4000.1128912106624, -4919.6189546130845, -9010.949314945856, -2489.3808352209135, 1.050531989399432, -3931.582442710691, -2340.8981968043086, -13735.996334075491, -6144.7180682084645, -4792.079900751102, -4077.606389237212, 349.3354140919941, -2709.3667041500457, -3562.7116039647585, -4235.990850447518, 0.002, 0.07, 0.984, 192.0, 0.0, 0.0, 0.0, 0.0, 0.0, 0.0, 0.0, 0.0, 0.0, 1.644491860289104E9, 0.0, 2022-02-10 22:17:40.289
248.0, -5255.6103772652605, -3985.517202081347, -4902.810442782694, -8997.381806061483, -2466.358538431947, 15.847386818812707, -3911.0188378118087, -2321.474530872647, -13719.277229222922, -6119.840576629708, -4789.621208861018, -4053.935891859042, 376.0233969716307, -2669.4017850639566, -3542.5950339549822, -4213.1250158697385, 0.002, 0.07, 0.984, 192.0, 0.0, 0.0, 0.0, 0.0, 0.0, 0.0, 0.0, 0.0, 0.0, 1.644491860289111E9, 0.0, 2022-02-10 22:17:40.289
250.0, -5264.148743647188, -3994.7261207969336, -4914.031018499258, -9014.615001036525, -2475.522753658623, 4.693866335614483, -3924.5416432072693, -2333.7009350896997, -13734.655229408174, -6122.947469108995, -4799.098348510069, -4058.9426826170306, 370.10018469097434, -2675.839087467085, -3548.7417636801915, -4221.238699107015, 0.002, 0.07, 0.984, 192.0, 0.0, 0.0, 0.0, 0.0, 0.0, 0.0, 0.0, 0.0, 0.0, 1.6444918602891183E9, 0.0, 2022-02-10 22:17:40.289
252.0, -5232.409266520652, -3958.717460479434, -4886.3372071191325, -8990.631579235982, -2445.303195155048, 27.291479979929925, -3910.840023856166, -2317.853548270887, -13721.445348435087, -6118.6559341735765, -4779.85349653405, -4054.0923540702292, 383.42182438633733, -2675.8837909559957, -3546.506589234661, -4222.848024707798, 0.002, 0.07, 0.984, 192.0, 0.0, 0.0, 0.0, 0.0, 0.0, 0.0, 0.0, 0.0, 0.0, 1.644491860289254E9, 0.0, 2022-02-10 22:17:40.289
254.0, -5238.623051479227, -3956.750506967367, -4888.304160631199, -8991.704462969836, -2439.5140933411235, 29.750171870013702, -3908.0907592881636, -2322.435655884225, -13704.994464515981, -6097.131204263116, -4761.458010847332, -4040.167217274573, 404.20894672977295, -2649.754601687742, -3526.4570744582506, -4211.40393154668, 0.002, 0.068, 0.984, 192.0, 0.0, 8.0, 1.0, 16.0, 15.0, 96.0, 0.0, 0.0, 0.0, 1.6444918602892618E9, 0.0, 2022-02-10 22:17:40.289
0.0, -5225.457873995051, -3946.2451870733726, -4892.506288588797, -8990.273951324696, -2433.523825827101, 49.71027966860291, -3908.9624773219202, -2303.7048940306777, -13716.550316399374, -6104.9766665669285, -4769.124659195502, -4044.3469934877153, 393.3459989244937, -2649.195808076359, -3543.1985310552755, -4227.318373598859, 0.002, 0.068, 0.984, 192.0, 0.0, 0.0, 0.0, 0.0, 0.0, 0.0, 0.0, 0.0, 0.0, 1.6444918602892692E9, 0.0, 2022-02-10 22:17:40.289
2.0, -5212.806786633348, -3929.8613583876327, -4877.977654692848, -8974.068936594598, -2419.0845989089726, 68.39633803323962, -3886.1860497219623, -2283.8118414654546, -13697.305464423354, -6079.607436610155, -4750.975042697793, -4021.905842054587, 418.4023044588929, -2615.1541012709263, -3516.6893621312815, -4199.311637796359, 0.002, 0.068, 0.984, 192.0, 0.0, 0.0, 0.0, 0.0, 0.0, 0.0, 0.0, 0.0, 0.0, 1.6444918602892766E9, 0.0, 2022-02-10 22:17:40.289
4.0, -5224.742618172481, -3924.0946083181634, -4890.137003676535, -8981.243846564752, -2422.1244361548947, 62.942512386144685, -3898.837137083666, -2303.3249143749376, -13708.213115717544, -6079.875657543619, -4760.295720135656, -4028.6337171356345, 411.0709322775522, -2624.5194821977, -3524.065437801533, -4205.436015777113, 0.002, 0.068, 0.984, 192.0, 0.0, 0.0, 0.0, 0.0, 0.0, 0.0, 0.0, 0.0, 0.0, 1.6444918602892835E9, 0.0, 2022-02-10 22:17:40.289
6.0, -5210.906888354646, -3908.135462777074, -4866.980596420836, -8963.183637044864, -2391.4801945066683, 88.82583246539026, -3888.6670933565015, -2272.792431448988, -13699.831211546805, -6070.912608017041, -4741.207330370824, -4009.321809926249, 422.7832463721331, -2612.1589675139153, -3521.3385249779853, -4203.960800643063, 0.002, 0.068, 0.984, 192.0, 0.0, 0.0, 0.0, 0.0, 0.0, 0.0, 0.0, 0.0, 0.0, 1.644491860289304E9, 0.0, 2022-02-10 22:17:40.289
8.0, -5215.779568645903, -3908.8954220885544, -4865.415974308965, -8969.755049914724, -2381.6230752018782, 86.74712023104671, -3857.866389497088, -2273.373576804826, -13689.392946886177, -6055.3781456206025, -4734.837083201061, -4004.1138534681627, 441.4022495034039, -2581.8947055214294, -3502.540707891072, -4185.408852745158, 0.002, 0.068, 0.984, 192.0, 0.0, 0.0, 1.0, 40.0, 15.0, 96.0, 0.0, 0.0, 0.0, 1.6444918602893112E9, 0.0, 2022-02-10 22:17:40.289
10.0, -5200.446271949562, -3898.747730105845, -4860.610349251074, -8967.452820235827, -2369.37431924037, 101.253402382541, -3851.384383605049, -2270.6243122368232, -13696.90313302316, -6061.256654412348, -4738.860397203016, -4008.31598142576, 436.3060517675939, -2601.0501505196276, -3507.100463759955, -4199.378693029725, 0.002, 0.068, 0.984, 192.0, 0.0, 0.0, 0.0, 0.0, 0.0, 0.0, 0.0, 0.0, 0.0, 1.644491860289318E9, 0.0, 2022-02-10 22:17:40.289
12.0, -5195.350074213752, -3885.269628199295, -4840.024392607736, -8952.186578772853, -2353.1246010213617, 111.15522517624203, -3850.400906849016, -2267.428012779714, -13679.625234559207, -6041.095380913661, -4713.155891079413, -3985.3607398701597, 463.8657526809875, -2576.0832519630494, -3484.5252018600945, -4180.223248031527, 0.002, 0.068, 0.984, 192.0, 0.0, 0.0, 0.0, 0.0, 0.0, 0.0, 0.0, 0.0, 0.0, 1.644491860289325E9, 0.0, 2022-02-10 22:17:40.289
14.0, -5211.018647076923, -3900.3123522177166, -4860.230369595333, -8969.240959792252, -2372.302397764015, 102.43804483867227, -3858.0675551971863, -2253.5475794729687, -13690.890513764682, -6048.024421694806, -4722.968306895293, -3999.3976353880926, 454.880351409954, -2591.75182482622, -3495.0081700096334, -4190.147422569683, 0.002, 0.068, 0.984, 192.0, 0.0, 0.0, 0.0, 0.0, 0.0, 0.0, 0.0, 0.0, 0.0, 1.644491860289332E9, 0.0, 2022-02-10 22:17:40.289
16.0, -5193.31606546832, -3879.324064174183, -4840.091447841102, -8952.544206684137, -2346.508484662591, 136.43504815519432, -3844.008307934798, -2225.3620297148263, -13698.04307199038, -6050.9748519629065, -4720.263745816201, -3996.26839116435, 452.95810138679764, -2580.061862476094, -3494.9858182651783, -4188.515745224446, 0.002, 0.068, 0.984, 192.0, 0.0, 0.0, 0.0, 0.0, 0.0, 0.0, 0.0, 0.0, 0.0, 1.6444918602893393E9, 0.0, 2022-02-10 22:17:40.289
18.0, -5191.147946256155, -3868.304654157717, -4843.7794856762275, -8952.454799706316, -2338.0371735140293, 133.66343184273623, -3847.3163661141834, -2224.9149948257204, -13679.222903159012, -6028.488997040868, -4701.443576984832, -3982.4326613465146, 475.9580464313086, -2547.6741847603544, -3477.9984924791447, -4174.098870050772, -0.004, 0.068, 0.982, 192.0, 127.5, 112.0, 1.0, 16.0, 15.0, 88.0, 0.0, 0.0, 0.0, 1.644491860289346E9, 0.0, 2022-02-10 22:17:40.289
20.0, -5175.88170479318, -3851.1161626715857, -4843.667726953951, -8947.895043837434, -2321.787455295021, 159.12206877733098, -3830.7090199838904, -2225.831416348388, -13688.2306561745, -6032.869938954108, -4707.769120665685, -3985.6289608036236, 467.86671493848746, -2543.3379463360247, -3491.7001118302483, -4184.626541689222, -0.004, 0.068, 0.982, 192.0, 0.0, 0.0, 0.0, 0.0, 0.0, 0.0, 0.0, 0.0, 0.0, 1.6444918602893531E9, 0.0, 2022-02-10 22:17:40.289
22.0, -5181.402585673641, -3831.42427580646, -4826.5239389567305, -8936.070971020576, -2302.050864940985, 166.27462700302925, -3816.6497727215024, -2207.2347649615726, -13668.18114139809, -6007.299543297237, -4684.478602943254, -3950.335556308694, 496.99103796375255, -2523.6684112153544, -3469.728347030681, -4165.851076346765, -0.004, 0.068, 0.982, 192.0, 0.0, 0.0, 0.0, 0.0, 0.0, 0.0, 0.0, 0.0, 0.0, 1.6444918602893605E9, 0.0, 2022-02-10 22:17:40.289
24.0, -5190.11976601121, -3845.461171324393, -4841.700773441884, -8949.370258971485, -2310.142196433806, 157.9821298101103, -3832.3406973291276, -2231.1958350176615, -13676.697156035561, -6012.328685799681, -4696.079158315559, -3969.200428628973, 493.16888966189504, -2531.1115421189716, -3476.635036067371, -4175.171753784627, -0.004, 0.068, 0.982, 192.0, 0.0, 0.0, 0.0, 0.0, 0.0, 0.0, 0.0, 0.0, 0.0, 1.6444918602893684E9, 0.0, 2022-02-10 22:17:40.289
26.0, -5164.303501165331, -3831.178406617452, -4823.059418566158, -8932.584098885549, -2290.204440379672, 178.97041785364365, -3808.983124373332, -2205.2007562161393, -13678.127667680701, -6014.787377689765, -4683.338663976034, -3956.772858711822, 493.52651757317994, -2530.105713618483, -3480.3230739024966, -4181.139669554194, -0.004, 0.068, 0.982, 192.0, 0.0, 0.0, 0.0, 0.0, 0.0, 0.0, 0.0, 0.0, 0.0, 1.6444918602893753E9, 0.0, 2022-02-10 22:17:40.289
28.0, -5170.941969268557, -3832.6312700070466, -4821.42774122092, -8933.701686108314, -2273.5523907604684, 182.09966207738663, -3805.362141771572, -2192.7284828100783, -13662.883777962183, -6000.571668216189, -4669.793506836118, -3954.224759843917, 518.3593056630261, -2507.6422104408994, -3454.6632712678042, -4160.0619745328395, -0.002, 0.07200000000000001, 0.982, 192.0, 127.5, 120.0, 1.0, 32.0, 15.0, 88.0, 0.0, 0.0, 0.0, 1.6444918602893825E9, 0.0, 2022-02-10 22:17:40.289
30.0, -5172.774812313893, -3824.7411042143235, -4823.439398221898, -8936.67446812087, -2264.187009833695, 195.15308083928596, -3797.9637143568657, -2184.279523405972, -13676.18306591309, -6014.183880589471, -4679.516515674176, -3958.940977923987, 511.1843956928725, -2511.1514343203826, -3466.5543993180277, -4173.830649117309, -0.002, 0.07200000000000001, 0.982, 192.0, 0.0, 0.0, 0.0, 0.0, 0.0, 0.0, 0.0, 0.0, 0.0, 1.6444918602893891E9, 0.0, 2022-02-10 22:17:40.289
32.0, -5161.5765883417835, -3799.662446935469, -4800.2829909662005, -8923.062255747587, -2242.952852601153, 200.87512741984457, -3786.0949380510974, -2183.9665989835976, -13661.229748872489, -5994.022607090785, -4660.942216031815, -3944.233530072395, 535.2795762156935, -2490.9901608216956, -3445.834332207958, -4158.832628587798, -0.002, 0.07200000000000001, 0.982, 192.0, 0.0, 0.0, 0.0, 0.0, 0.0, 0.0, 0.0, 0.0, 0.0, 1.6444918602893965E9, 0.0, 2022-02-10 22:17:40.289
34.0, -5166.181047699577, -3802.836394648122, -4811.503566682764, -8936.450950676317, -2250.6642044382343, 196.8741651623446, -3797.1590515564744, -2187.408767629715, -13665.36482159672, -5994.402586746524, -4664.943178289316, -3946.8263324292107, 531.6809453583891, -2487.235067753204, -3451.7575444886143, -4170.835515360298, -0.002, 0.07200000000000001, 0.982, 192.0, 0.0, 0.0, 0.0, 0.0, 0.0, 0.0, 0.0, 0.0, 0.0, 1.644491860289404E9, 0.0, 2022-02-10 22:17:40.289
36.0, -5144.410448600108, -3777.198943757885, -4796.304380453155, -8917.250802189208, -2228.603032660846, 222.69043000822427, -3781.4681269488487, -2162.307758606405, -13667.532940808886, -5995.944857113941, -4656.829495052039, -3934.756390423345, 532.329145947593, -2483.524678173623, -3453.6127392784047, -4168.8685618482305, -0.002, 0.07200000000000001, 0.982, 192.0, 0.0, 0.0, 0.0, 0.0, 0.0, 0.0, 0.0, 0.0, 0.0, 1.6444918602894108E9, 0.0, 2022-02-10 22:17:40.289
38.0, -5149.528998080373, -3773.8014786006784, -4795.611476375041, -8918.323685923062, -2219.930555812187, 216.7448659831126, -3774.6508448899804, -2177.3728343692824, -13655.954737181037, -5979.069290050184, -4643.507855356676, -3922.328820506194, 553.4291927134029, -2479.1884397492936, -3437.5865385039497, -4152.931768051597, -0.002, 0.07200000000000001, 0.982, 192.0, 0.0, 0.0, 1.0, 40.0, 15.0, 112.0, 0.0, 0.0, 0.0, 1.64449186028942E9, 0.0, 2022-02-10 22:17:40.289
40.0, -5138.487236319451, -3772.1027460220753, -4797.3325606981, -8916.200270199808, -2210.3640091853154, 234.93918596973253, -3754.1542952244636, -2155.5575317809025, -13663.93430995158, -5990.356921000114, -4648.939329259316, -3927.223852541906, 546.9695385658191, -2474.0922420134834, -3446.5942915194382, -4164.308805979348, -0.002, 0.07200000000000001, 0.982, 192.0, 0.0, 0.0, 0.0, 0.0, 0.0, 0.0, 0.0, 0.0, 0.0, 1.6444918602894273E9, 0.0, 2022-02-10 22:17:40.289
42.0, -5123.668029745582, -3751.36032716755, -4773.013862730725, -8900.129365936442, -2184.279523405972, 259.8837327818552, -3733.0318967141984, -2121.7169906755676, -13644.220071342, -5972.4978771803235, -4626.073494681536, -3910.1918232669623, 576.7867656691988, -2445.593767832967, -3416.911174882791, -4138.805465555843, -0.002, 0.07200000000000001, 0.982, 192.0, 0.0, 0.0, 0.0, 0.0, 0.0, 0.0, 0.0, 0.0, 0.0, 1.6444918602894344E9, 0.0, 2022-02-10 22:17:40.289
44.0, -5138.107256663711, -3758.0882022485976, -4786.670778592918, -8915.172089954864, -2195.3883404002595, 257.67091008077983, -3749.371021911028, -2141.0736013738633, -13650.165635367113, -5971.268531235281, -4630.432084850322, -3913.1199017906074, 575.2221435573273, -2442.889206753875, -3424.130788341855, -4139.744238822966, -0.002, 0.07200000000000001, 0.982, 192.0, 0.0, 0.0, 0.0, 0.0, 0.0, 0.0, 0.0, 0.0, 0.0, 1.6444918602894423E9, 0.0, 2022-02-10 22:17:40.289
46.0, -5119.376494810163, -3734.820036270623, -4770.264598162723, -8897.447156601806, -2178.579828569869, 277.7427766016456, -3741.011469484743, -2127.70725818959, -13648.869234188705, -5970.061537034695, -4621.111407412459, -3904.6038871531355, 578.5972569700787, -2435.4460758502573, -3429.986945389145, -4146.6285761152, 0.0, 0.07300000000000001, 0.981, 192.0, 0.0, 8.0, 1.0, 40.0, 15.0, 80.0, 0.0, 0.0, 0.0, 1.6444918602894497E9, 0.0, 2022-02-10 22:17:40.289
48.0, -5136.319117107287, -3742.1067049630533, -4771.762165041228, -8900.084662447533, -2172.1872296556508, 272.44541316573776, -3757.55176038167, -2128.444865756615, -13639.950888151037, -5951.800161814709, -4612.774206730629, -3892.8915730585545, 593.8411466885981, -2417.631735519378, -3416.620602204872, -4134.558634109335, 0.0, 0.07300000000000001, 0.981, 192.0, 0.0, 0.0, 0.0, 0.0, 0.0, 0.0, 0.0, 0.0, 0.0, 1.6444918602894573E9, 0.0, 2022-02-10 22:17:40.289
50.0, -5131.267622860387, -3742.576091596615, -4775.740775554273, -8904.443252616316, -2168.432136587159, 284.85063133843323, -3744.7665625532345, -2128.4895692455257, -13659.32985059379, -5967.804010844709, -4623.234823135713, -3899.4406341839594, 581.8606116605534, -2427.555910057534, -3433.6302797353605, -4151.389497684181, 0.0, 0.07300000000000001, 0.981, 192.0, 0.0, 0.0, 0.0, 0.0, 0.0, 0.0, 0.0, 0.0, 0.0, 1.6444918602894647E9, 0.0, 2022-02-10 22:17:40.289
52.0, -5127.53488153635, -3725.141730921475, -4758.820505001606, -8893.468546088761, -2143.7558107085006, 296.56294543301414, -3726.4157803554276, -2118.23011854054, -13646.902280676637, -5956.672842105966, -4611.142529385392, -3890.1870119794626, 606.4698823058466, -2408.6239825038892, -3410.160948057288, -4135.340945165271, 0.0, 0.07300000000000001, 0.981, 192.0, 0.0, 0.0, 0.0, 0.0, 0.0, 0.0, 0.0, 0.0, 0.0, 1.6444918602894714E9, 0.0, 2022-02-10 22:17:40.289
54.0, -5135.5144543068955, -3728.047457700665, -4773.2820836641895, -8906.633723572937, -2148.382621810749, 298.4181402228046, -3721.2525273862516, -2117.6266214402463, -13651.707905734529, -5957.008118272796, -4616.171671887836, -3890.4999364018367, 607.0286759172292, -2404.8018342020314, -3413.424302747763, -4138.626651600201, 0.0, 0.07300000000000001, 0.981, 192.0, 0.0, 0.0, 0.0, 0.0, 0.0, 0.0, 0.0, 0.0, 0.0, 1.6444918602894783E9, 0.0, 2022-02-10 22:17:40.289
56.0, -5125.098541390722, -3711.30600110364, -4761.927397480893, -8889.489935575717, -2129.8753774017546, 319.54053873306975, -3719.598498296559, -2089.955161804576, -13657.787580226372, -5959.645624118522, -4607.655657250364, -3884.5096688878143, 605.8887369500086, -2398.2527730766265, -3413.1784335587545, -4138.939576022574, 0.001, 0.07350000000000001, 0.9784999999999999, 192.0, 0.0, 8.0, 1.0, 40.0, 15.0, 64.0, 0.0, 0.0, 0.0, 1.6444918602894852E9, 0.0, 2022-02-10 22:17:40.289
58.0, -5121.186986111044, -3703.4828905442823, -4755.154818910935, -8891.27807513214, -2117.447807484604, 316.00896310913123, -3700.8677364430114, -2101.868641599255, -13644.957678909026, -5940.758400053787, -4599.452567035266, -3873.825535038178, 627.7040395383882, -2366.2450750166267, -3398.6274479183494, -4126.757875294433, 0.001, 0.07350000000000001, 0.9784999999999999, 192.0, 0.0, 0.0, 0.0, 0.0, 0.0, 0.0, 0.0, 0.0, 0.0, 1.644491860289492E9, 0.0, 2022-02-10 22:17:40.289
60.0, -5104.020846369368, -3689.0883671150646, -4755.400688099943, -8888.841734986512, -2115.2126330390734, 331.8116464390333, -3704.511070789227, -2091.1398042607075, -13655.79827496985, -5948.134475724039, -4611.433102063311, -3882.4086049090156, 615.3435248546034, -2379.2537902896156, -3410.6526864353045, -4140.168921967616, 0.001, 0.07350000000000001, 0.9784999999999999, 192.0, 0.0, 0.0, 0.0, 0.0, 0.0, 0.0, 0.0, 0.0, 0.0, 1.6444918602894988E9, 0.0, 2022-02-10 22:17:40.289
62.0, -5099.729311433949, -3675.3867477639615, -4735.865263446005, -8877.732917992225, -2096.0124845519645, 333.823303440011, -3692.1282043609867, -2075.2700656974393, -13638.140396850158, -5927.973202225352, -4584.2757325501125, -3858.3357761306497, 640.5562926001897, -2367.9438075952303, -3396.347569983908, -4127.8307590282875, 0.001, 0.07350000000000001, 0.9784999999999999, 192.0, 0.0, 0.0, 0.0, 0.0, 0.0, 0.0, 0.0, 0.0, 0.0, 1.6444918602895055E9, 0.0, 2022-02-10 22:17:40.289
64.0, -5121.030523899856, -3696.73266371878, -4750.2150833863125, -8893.468546088761, -2099.5887636648135, 328.727105704201, -3704.242849855763, -2087.4294146811267, -13650.612670256218, -5933.762304039276, -4589.1484128413695, -3855.1841801624514, 638.097600710106, -2377.9350373667526, -3403.880107865347, -4135.028020742896, 0.001, 0.07350000000000001, 0.9784999999999999, 192.0, 0.0, 0.0, 0.0, 0.0, 0.0, 0.0, 0.0, 0.0, 0.0, 1.644491860289512E9, 0.0, 2022-02-10 22:17:40.289
66.0, -5113.408579040597, -3688.507221759227, -4736.22289135729, -8884.326682606541, -2077.4605366540595, 354.3869083388935, -3676.079651842076, -2073.6607400966573, -13651.03735340087, -5942.36772565457, -4583.76164242764, -3860.9285784874655, 640.9586240003854, -2371.922418108275, -3402.606058431394, -4138.96192776703, 0.0015, 0.07275000000000001, 0.97825, 192.0, 0.0, 8.0, 1.0, 32.0, 15.0, 72.0, 0.0, 0.0, 0.0, 1.6444918602895188E9, 0.0, 2022-02-10 22:17:40.289
68.0, -5115.509643019395, -3689.915381659911, -4737.496940791242, -8889.400528597895, -2077.192315720596, 345.44621055677067, -3681.175849577886, -2074.93478953061, -13643.840091686261, -5933.538786594723, -4577.86078189144, -3863.8566570111107, 655.420202662969, -2357.080859789951, -3386.222229745654, -4126.95904099453, 0.0015, 0.07275000000000001, 0.97825, 192.0, 0.0, 0.0, 0.0, 0.0, 0.0, 0.0, 0.0, 0.0, 0.0, 1.6444918602895255E9, 0.0, 2022-02-10 22:17:40.289
70.0, -5119.130625621156, -3685.310922302118, -4745.744734495251, -8892.820345499558, -2082.22145822304, 355.4150885838376, -3686.249695569241, -2065.211780692551, -13660.961527939025, -5948.55915886869, -4592.09884310947, -3873.4455553824373, 637.6952693099105, -2366.8709238613756, -3406.4058549887964, -4148.282605204893, 0.0015, 0.07275000000000001, 0.97825, 192.0, 0.0, 0.0, 0.0, 0.0, 0.0, 0.0, 0.0, 0.0, 0.0, 1.6444918602895343E9, 0.0, 2022-02-10 22:17:40.289
72.0, -5103.9314393915465, -3658.7570498892132, -4724.041190629147, -8875.274226102141, -2055.421716621127, 374.59288532649106, -3674.2244570522857, -2050.5937398187807, -13646.723466720996, -5930.118969693061, -4567.914255608828, -3850.2891481267393, 658.549446886712, -2342.8651503163755, -3391.5642966704727, -4131.742314307966, 0.0015, 0.07275000000000001, 0.97825, 192.0, 0.0, 0.0, 0.0, 0.0, 0.0, 0.0, 0.0, 0.0, 0.0, 1.6444918602895412E9, 0.0, 2022-02-10 22:17:40.289
74.0, -5111.374570295164, -3668.703576171825, -4731.12669362148, -8884.818420984557, -2064.9882632479985, 369.76490852414474, -3691.859983427523, -2070.5761993618253, -13650.858539445228, -5925.156882423983, -4562.751002639652, -3853.1278196725634, 661.0528422657064, -2339.1547607367947, -3394.9394100832237, -4133.642212586667, 0.0015, 0.07275000000000001, 0.97825, 192.0, 0.0, 0.0, 0.0, 0.0, 0.0, 0.0, 0.0, 0.0, 0.0, 1.644491860289548E9, 0.0, 2022-02-10 22:17:40.289
76.0, -5093.381416008641, -3650.397497462928, -4713.4688155017875, -8871.697946989292, -2045.6093008052471, 393.9271442803317, -3660.947520845833, -2048.7608967734454, -13649.450379544543, -5920.954754466386, -4559.062964804526, -3838.4650753098817, 666.7525371018097, -2329.7670280655657, -3396.2581630060868, -4135.72092482101, -0.00125, 0.07237500000000001, 0.979125, 192.0, 127.5, 112.0, 1.0, 32.0, 15.0, 80.0, 0.0, 0.0, 0.0, 1.6444918602895548E9, 0.0, 2022-02-10 22:17:40.289
78.0, -5099.885773645136, -3647.178846261364, -4709.557260222109, -8874.894246446402, -2045.4751903385152, 390.5743826120356, -3678.53834373216, -2054.6170538207357, -13639.190928839556, -5904.436815313914, -4547.127133265392, -3830.2172816058737, 685.192726277438, -2303.8390044974094, -3381.9083430657797, -4125.90850900513, -0.00125, 0.07237500000000001, 0.979125, 192.0, 0.0, 0.0, 0.0, 0.0, 0.0, 0.0, 0.0, 0.0, 0.0, 1.6444918602895615E9, 0.0, 2022-02-10 22:17:40.289
80.0, -5099.617552711672, -3645.636575893948, -4716.2851353031565, -8878.001138925689, -2043.865864737733, 399.35861818297127, -3670.670529683892, -2051.7560305304564, -13653.786617968872, -5916.193832897406, -4554.302043235546, -3833.167711873974, 669.9264848144633, -2322.6144698398675, -3399.2309450186426, -4141.107695234739, -0.00125, 0.07237500000000001, 0.979125, 192.0, 0.0, 0.0, 0.0, 0.0, 0.0, 0.0, 0.0, 0.0, 0.0, 1.6444918602895684E9, 0.0, 2022-02-10 22:17:40.289
82.0, -5093.090843330722, -3631.867901309479, -4698.917829861382, -8866.244121342197, -2022.1846726160852, 411.00387704418625, -3645.43541019385, -2024.9786406729986, -13637.98393463897, -5902.313399590659, -4538.499359905643, -3814.9286883984437, 691.2947525137369, -2305.627144053834, -3384.1435175113106, -4125.081494460284, -0.00125, 0.07237500000000001, 0.979125, 192.0, 0.0, 0.0, 0.0, 0.0, 0.0, 0.0, 0.0, 0.0, 0.0, 1.644491860289575E9, 0.0, 2022-02-10 22:17:40.289
84.0, -5114.436759285541, -3644.3178229710848, -4716.508652747709, -8885.310159362574, -2032.064143665331, 398.33043793802716, -3653.8620178535007, -2031.0136116759315, -13652.289051090367, -5912.237574128816, -4553.765601368618, -3823.3776478025497, 682.711682642899, -2318.881728515831, -3385.5740291564503, -4130.915299763119, -0.00125, 0.07237500000000001, 0.979125, 192.0, 0.0, 0.0, 0.0, 0.0, 0.0, 0.0, 0.0, 0.0, 0.0, 1.644491860289582E9, 0.0, 2022-02-10 22:17:40.289
86.0, -5102.545631235317, -3638.796942090624, -4700.102472317514, -8875.453040057784, -2011.2770213218955, 418.29054573661637, -3645.1671892603863, -2026.2750418514065, -13659.620423271708, -5917.333771864626, -4545.674269875797, -3833.9276711854545, 681.1470605310275, -2309.2928301445045, -3390.245543747609, -4139.699535334055, 3.75E-4, 0.0741875, 0.9805625, 192.0, 0.0, 8.0, 1.0, 48.0, 15.0, 88.0, 0.0, 0.0, 0.0, 1.6444918602895887E9, 0.0, 2022-02-10 22:17:40.289
88.0, -5103.596163224717, -3633.276061210163, -4698.023760083171, -8875.363633079962, -2001.3081432948284, 422.9397085833202, -3649.168151517886, -2015.5909080017698, -13647.818702199305, -5903.565097280157, -4538.633470372376, -3815.487482009826, 703.8340811531641, -2287.9022107007754, -3373.414680172763, -4122.108712447728, 3.75E-4, 0.0741875, 0.9805625, 192.0, 0.0, 0.0, 0.0, 0.0, 0.0, 0.0, 0.0, 0.0, 0.0, 1.6444918602895956E9, 0.0, 2022-02-10 22:17:40.289
90.0, -5114.34735230772, -3641.009764791699, -4707.322085776578, -8883.365557594963, -1991.4957274789488, 432.2827377656386, -3641.9038345699114, -2022.6987627385574, -13661.721487250506, -5920.954754466386, -4548.9376245662725, -3832.452456051404, 691.2724007692815, -2293.758367748066, -3390.5361164255282, -4136.592642854767, 3.75E-4, 0.0741875, 0.9805625, 192.0, 0.0, 0.0, 0.0, 0.0, 0.0, 0.0, 0.0, 0.0, 0.0, 1.6444918602896025E9, 0.0, 2022-02-10 22:17:40.289
92.0, -5104.892564403125, -3622.726037827258, -4688.703082645307, -8871.04974640009, -1968.6298929011696, 442.0504500926078, -3629.7668373306797, -2003.2080415735295, -13648.064571388313, -5907.186079881916, -4527.0999702334375, -3816.47095876586, 714.5852702361668, -2275.8099169504544, -3372.386499927819, -4125.6626398161225, 3.75E-4, 0.0741875, 0.9805625, 192.0, 0.0, 0.0, 0.0, 0.0, 0.0, 0.0, 0.0, 0.0, 0.0, 1.6444918602896092E9, 0.0, 2022-02-10 22:17:40.289
94.0, -5115.710808719494, -3626.0340960066437, -4707.031513098659, -8886.271284374152, -1978.554067439326, 435.2331680337391, -3629.9680030307777, -2009.5335852543815, -13660.290975605367, -5909.041274671707, -4537.4711796607, -3825.277546081251, 712.1936335794489, -2278.805050707466, -3377.4379941747184, -4132.591680597267, 3.75E-4, 0.0741875, 0.9805625, 192.0, 0.0, 0.0, 0.0, 0.0, 0.0, 0.0, 0.0, 0.0, 0.0, 1.644491860289616E9, 0.0, 2022-02-10 22:17:40.289
96.0, -5092.19677355251, -3607.6609620643812, -4691.07236755757, -8875.542447035605, -1959.1080497632088, 453.40513627590377, -3627.017572762677, -2009.220660832007, -13661.632080272686, -5910.985876439318, -4533.425513914289, -3816.47095876586, 713.7359039468652, -2277.30748382896, -3380.544886654006, -4142.58291036879, 3.75E-4, 0.0741875, 0.9805625, 192.0, 0.0, 0.0, 1.0, 32.0, 15.0, 96.0, 0.0, 0.0, 0.0, 1.6444918602896225E9, 0.0, 2022-02-10 22:17:40.289
98.0, -5107.48536675994, -3610.14200569892, -4688.703082645307, -8880.482182560228, -1959.8009538413232, 454.1874473318395, -3616.624011590959, -1994.1555850691302, -13651.216167356512, -5899.45237630038, -4519.008638740616, -3806.747949927801, 733.2713286008035, -2250.083059082396, -3363.892837034802, -4128.680125317589, 3.75E-4, 0.0741875, 0.9805625, 192.0, 0.0, 0.0, 0.0, 0.0, 0.0, 0.0, 0.0, 0.0, 0.0, 1.6444918602896292E9, 0.0, 2022-02-10 22:17:40.289
100.0, -5110.905183661603, -3618.9709447587666, -4694.6262949259635, -8881.242141871708, -1957.1857997400523, 455.4391450213367, -3625.676468095359, -2014.8533004347446, -13665.767152996918, -5910.427082827936, -4529.960993523717, -3817.588545988625, 720.061447627717, -2273.5300390160132, -3378.6896918642155, -4141.845302801765, 3.75E-4, 0.0741875, 0.9805625, 192.0, 0.0, 0.0, 0.0, 0.0, 0.0, 0.0, 0.0, 0.0, 0.0, 1.644491860289636E9, 0.0, 2022-02-10 22:17:40.289
102.0, -5095.05779684279, -3599.368464871462, -4675.44849818331, -8867.272301587142, -1938.0750582307649, 467.9337701718534, -3617.987468002733, -1992.5015559794374, -13653.160769124124, -5898.580658266623, -4509.665609558298, -3799.9977231022986, 741.8767502160968, -2253.122896328318, -3372.4982586500955, -4132.859901530731, 3.75E-4, 0.0741875, 0.9805625, 192.0, 0.0, 0.0, 0.0, 0.0, 0.0, 0.0, 0.0, 0.0, 0.0, 1.6444918602896447E9, 0.0, 2022-02-10 22:17:40.289
104.0, -5114.526166263362, -3606.47631960825, -4691.87703035796, -8881.845638972001, -1945.9652240234882, 465.8327061930545, -3614.7688168011687, -1989.327608266784, -13664.358993096232, -5901.151108878984, -4522.316696920001, -3807.9325923839324, 731.706706488932, -2255.536884729491, -3377.19212498571, -4135.743276565466, 3.75E-4, 0.0741875, 0.9805625, 192.0, 0.0, 0.0, 0.0, 0.0, 0.0, 0.0, 0.0, 0.0, 0.0, 1.6444918607684858E9, 0.0, 2022-02-10 22:17:40.768
106.0, -5097.851764899703, -3584.951589697789, -4676.20845749479, -8873.173162123343, -1921.2441946559186, 493.16888966189504, -3605.1352149409313, -1986.2430675319515, -13666.817684986316, -5903.2298211133275, -4515.946449750239, -3800.601220202592, 736.28881410227, -2252.9440823726754, -3379.2708372200536, -4146.606224370745, 0.0011875, 0.06909375000000001, 0.98428125, 192.0, 0.0, 8.0, 1.0, 0.0, 15.0, 112.0, 0.0, 0.0, 0.0, 1.6444918607686667E9, 0.0, 2022-02-10 22:17:40.768
108.0, -5100.131642834144, -3583.4316710748285, -4672.453364426299, -8869.172199865843, -1922.3841336231392, 491.38075010547044, -3620.6249738484594, -1985.6619221761134, -13652.490216790464, -5877.838239412098, -4504.122376933382, -3784.8655921060554, 756.8077155122419, -2221.897509324254, -3362.5964358563947, -4132.479921874991, 0.0011875, 0.06909375000000001, 0.98428125, 192.0, 0.0, 0.0, 0.0, 0.0, 0.0, 0.0, 0.0, 0.0, 0.0, 1.6444918607686741E9, 0.0, 2022-02-10 22:17:40.768
110.0, -5099.662256200583, -3594.2946188801075, -4681.148193019413, -8878.716394748259, -1922.004153967399, 494.9793809627749, -3600.933086983334, -1972.8543726032226, -13667.868216975716, -5892.031597141218, -4512.548984593032, -3794.745063155301, 738.1887123809711, -2240.315346755427, -3381.483659921129, -4146.986204026485, 0.0011875, 0.06909375000000001, 0.98428125, 192.0, 0.0, 0.0, 0.0, 0.0, 0.0, 0.0, 0.0, 0.0, 0.0, 1.6444918607686813E9, 0.0, 2022-02-10 22:17:40.768
112.0, -5094.007264853391, -3577.1061273939763, -4658.975262519749, -8866.378231808929, -1894.6679704985584, 508.7927590361547, -3589.3548833554846, -1966.908808578111, -13661.140341894668, -5883.314416803649, -4495.628714040365, -3782.0939757935976, 757.0088812123396, -2229.988840817075, -3368.8772760483357, -4138.559596366835, 0.0011875, 0.06909375000000001, 0.98428125, 192.0, 0.0, 0.0, 0.0, 0.0, 0.0, 0.0, 0.0, 0.0, 0.0, 1.644491860768688E9, 0.0, 2022-02-10 22:17:40.768
114.0, -5112.849785429214, -3588.147889154898, -4671.603998136998, -8882.493839561206, -1899.9876856789215, 497.0804449415738, -3582.2246768742416, -1975.804802871323, -13668.404658842643, -5886.845992427587, -4499.763786764596, -3790.3194177531504, 758.7076137909429, -2222.0316197909856, -3365.5915696134057, -4143.6781458471, 0.0011875, 0.06909375000000001, 0.98428125, 192.0, 0.0, 0.0, 0.0, 0.0, 0.0, 0.0, 0.0, 0.0, 0.0, 1.6444918607686949E9, 0.0, 2022-02-10 22:17:40.768
116.0, -5096.510660232385, -3577.888438449912, -4659.377593919944, -8874.536618535116, -1878.5076592573714, 512.234927682272, -3573.7086622367697, -1955.777639839368, -13673.791429256373, -5891.718672718844, -4498.93677221975, -3786.1619932844633, 757.6570818015435, -2227.396038460259, -3374.934598795724, -4151.456552917547, 0.002, 0.064, 0.986, 192.0, 0.0, 8.0, 1.0, 0.0, 15.0, 104.0, 0.0, 0.0, 0.0, 1.6444918607687025E9, 0.0, 2022-02-10 22:17:40.768
118.0, -5094.8342793982365, -3571.3840808134178, -4652.202683949791, -8873.463734801262, -1883.4250430375391, 520.1697969639059, -3591.5230025676497, -1953.0507270158205, -13659.866292460716, -5873.569056221135, -4485.078690657459, -3771.588655899603, 782.6910355914874, -2196.48357587857, -3359.8248195439364, -4134.536282364879, 0.002, 0.064, 0.986, 192.0, 0.0, 0.0, 0.0, 0.0, 0.0, 0.0, 0.0, 0.0, 0.0, 1.6444918607687097E9, 0.0, 2022-02-10 22:17:40.768
120.0, -5098.00822711089, -3569.6853482348142, -4657.187122963324, -8877.017662169656, -1879.6028947356815, 531.9715180363081, -3597.0662351925657, -1961.6561486311136, -13670.461019332532, -5884.253190070772, -4491.806565738508, -3776.2154670018517, 770.5316866078003, -2208.3523521843376, -3379.7625755980703, -4149.422544172114, 0.002, 0.064, 0.986, 192.0, 0.0, 0.0, 0.0, 0.0, 0.0, 0.0, 0.0, 0.0, 0.0, 1.6444918607687166E9, 0.0, 2022-02-10 22:17:40.768
122.0, -5085.24538102691, -3553.502685249172, -4644.82660827954, -8862.936063162811, -1860.8274293932236, 540.9569193073415, -3565.080888877021, -1928.8214360262677, -13659.531016293886, -5870.506867230758, -4472.31584457348, -3759.272844704729, 791.1623467400487, -2197.064721234408, -3364.138706223811, -4139.476017889502, 0.002, 0.064, 0.986, 192.0, 0.0, 0.0, 0.0, 0.0, 0.0, 0.0, 0.0, 0.0, 0.0, 1.6444918607687235E9, 0.0, 2022-02-10 22:17:40.768
124.0, -5102.657389957594, -3555.7825631836135, -4660.271663698157, -8870.42389755534, -1874.8196214222457, 535.9277768048975, -3564.499743521183, -1948.2674537023847, -13671.46684783302, -5867.1317538180065, -4479.334292332446, -3765.1513534964747, 785.3955966705796, -2192.3708548987934, -3370.0172150155563, -4143.722849336011, 0.002, 0.064, 0.986, 192.0, 0.0, 0.0, 0.0, 0.0, 0.0, 0.0, 0.0, 0.0, 0.0, 1.6444918607687304E9, 0.0, 2022-02-10 22:17:40.768
126.0, -5077.914008845569, -3539.711658920248, -4638.434009365322, -8858.979804394223, -1851.5514554442711, 553.0268613132073, -3550.216978814242, -1937.4715611304714, -13670.438667588076, -5863.868399127531, -4468.024309638061, -3758.1552574819634, 787.6307711161103, -2181.9325902381647, -3376.923904052246, -4152.730602351499, -0.002, 0.07, 0.984, 192.0, 127.5, 120.0, 1.0, 24.0, 15.0, 96.0, 0.0, 0.0, 0.0, 1.644491860768737E9, 0.0, 2022-02-10 22:17:40.768
128.0, -5081.5126397028735, -3537.409429241351, -4633.606032562975, -8864.031298641123, -1842.0296123063104, 547.8636083440314, -3574.669787248348, -1947.1722182240749, -13658.61459477122, -5851.954919332853, -4459.016556622571, -3748.2534346882626, 816.3527627411798, -2167.8509912313216, -3361.232979444621, -4143.231110957993, -0.002, 0.07, 0.984, 192.0, 0.0, 0.0, 0.0, 0.0, 0.0, 0.0, 0.0, 0.0, 0.0, 1.6444918607687438E9, 0.0, 2022-02-10 22:17:40.768
130.0, -5082.406709481086, -3538.6164234419375, -4643.1502274453915, -8872.256740600675, -1843.7730483738244, 552.6468816574671, -3581.6882350073142, -1957.0069857844098, -13669.969280954514, -5860.627396181512, -4463.97864389165, -3754.891902791489, 802.4946811788894, -2173.4389273451484, -3380.47783142064, -4165.962835069041, -0.002, 0.07, 0.984, 192.0, 0.0, 0.0, 0.0, 0.0, 0.0, 0.0, 0.0, 0.0, 0.0, 1.6444918607687507E9, 0.0, 2022-02-10 22:17:40.768
132.0, -5087.05587232779, -3535.7554001516583, -4631.035581950615, -8865.014775397156, -1826.9198330545228, 559.039480571685, -3540.7845426541026, -1888.2977233287959, -13665.051897174348, -5853.564244933635, -4452.35573677489, -3742.7996090411675, 820.3090215097692, -2163.9394359516427, -3365.390403913308, -4151.568311639823, -0.002, 0.07, 0.984, 192.0, 0.0, 0.0, 0.0, 0.0, 0.0, 0.0, 0.0, 0.0, 0.0, 1.6444918607687573E9, 0.0, 2022-02-10 22:17:40.768
134.0, -5102.612686468683, -3544.673746189326, -4647.307651914079, -8880.90686570488, -1836.9557663149556, 554.4350212138917, -3544.1373043223984, -1927.1227034476644, -13681.838057260282, -5857.967538591331, -4467.510219515589, -3749.5945393555808, 813.0447045617944, -2164.319415607383, -3367.133839980822, -4151.613015128733, -0.002, 0.07, 0.984, 192.0, 0.0, 0.0, 0.0, 0.0, 0.0, 0.0, 0.0, 0.0, 0.0, 1.6444918607687707E9, 0.0, 2022-02-10 22:17:40.768
136.0, -5086.38531999413, -3534.3919437398845, -4637.986974476215, -8873.843714457002, -1820.16960622902, 571.6905679333887, -3538.504664719661, -1922.5182440898711, -13688.878856763704, -5864.203675294361, -4463.464553769178, -3749.5051323777598, 805.3110009802582, -2164.47587781857, -3375.2028197291875, -4169.226189759515, 0.002, 0.074, 0.984, 192.0, 0.0, 8.0, 1.0, 40.0, 15.0, 96.0, 0.0, 0.0, 0.0, 1.6444918607687778E9, 0.0, 2022-02-10 22:17:40.768
