%OpenBCI Raw EEG Data
%Number of channels = 16
%Sample Rate = 125 Hz
%Board = OpenBCI_GUI$BoardCytonSerialDaisy
Sample Index, EXG Channel 0, EXG Channel 1, EXG Channel 2, EXG Channel 3, EXG Channel 4, EXG Channel 5, EXG Channel 6, EXG Channel 7, EXG Channel 8, EXG Channel 9, EXG Channel 10, EXG Channel 11, EXG Channel 12, EXG Channel 13, EXG Channel 14, EXG Channel 15, Accel Channel 0, Accel Channel 1, Accel Channel 2, Other, Other, Other, Other, Other, Other, Other, Analog Channel 0, Analog Channel 1, Analog Channel 2, Timestamp, Other, Timestamp (Formatted)
230.0, -8538.344030182843, -7651.829141596454, -5141.281204376364, -11711.665893991696, -7197.954618686988, -2936.5498347937864, -7336.624841287714, -4337.311308063425, -7929.326049009092, -10308.825708487715, -6788.984750388236, -4850.283843312722, -5399.756777257536, -7402.94246708661, -8922.48111039175, -13080.576131412523, 0.0, 0.0, 0.0, 192.0, 0.0, 0.0, 0.0, 0.0, 0.0, 0.0, 0.0, 0.0, 0.0, 1.644588569401488E9, 0.0, 2022-02-12 01:09:29.401
232.0, -8529.671553334183, -7666.983624337152, -5131.401733327119, -11718.438472561655, -7199.563944287771, -2937.7344772499177, -7326.655963260647, -4331.924537649696, -7927.269688519203, -10314.346589368175, -6786.883686409436, -4859.425706794943, -5395.577001044393, -7412.9560486025875, -8927.107921493998, -13065.175779482815, 0.008, 0.24, 0.9480000000000001, 192.0, 0.0, 32.0, 3.5, 64.0, 14.5, 80.0, 0.0, 0.0, 0.0, 1.644588569401493E9, 0.0, 2022-02-12 01:09:29.401
0.0, -3411.8820323803466, -3308.9969526525683, -2036.6015477897583, -5041.346554916687, -3168.9632736400695, -1368.8878856763704, -3269.166144033211, -1967.6017126562253, -3973.35785309766, -5164.415259887607, -3394.7605961275813, -2428.271165880104, -2705.902183759473, -3707.3273905905953, -4465.185638092236, -6557.9571196981815, 0.01, 0.23800000000000002, 0.9440000000000001, 192.0, 0.0, 40.0, 3.5, 56.0, 14.5, 64.0, 0.0, 0.0, 0.0, 1.644588569514844E9, 0.0, 2022-02-12 01:09:29.514
2.0, -6802.351093572509, -6623.805358863517, -4068.6209879661787, -10069.259711415734, -6317.7652737814515, -2726.0411055137047, -6525.1447588377905, -3922.977021095398, -5681.947551005787, -9181.157848973018, -5503.737092463624, -4452.936882130728, -4408.30044845348, -7194.110118640676, -7390.7160628695565, -11254.75153383631, 0.01, 0.23800000000000002, 0.9440000000000001, 192.0, 0.0, 0.0, 0.0, 0.0, 0.0, 0.0, 0.0, 0.0, 0.0, 1.644588569522516E9, 0.0, 2022-02-12 01:09:29.522
4.0, -6771.058651335079, -6612.338913957944, -4047.4315342225477, -10071.070202716613, -6317.094721447793, -2723.068323501149, -6514.259459288056, -3920.6300879275905, -5681.813440539056, -9186.231694964374, -5490.393101023806, -4431.278041753536, -4397.035169248005, -7179.201505088986, -7378.55671388587, -11277.885589347552, 0.01, 0.23800000000000002, 0.9440000000000001, 192.0, 0.0, 0.0, 0.0, 0.0, 0.0, 0.0, 0.0, 0.0, 0.0, 1.644588569528951E9, 0.0, 2022-02-12 01:09:29.528
6.0, -6794.885610924436, -6593.719910826673, -4052.1477523026174, -10059.80492351114, -6304.667151530642, -2721.749570578286, -6512.985409854104, -3918.819596626711, -5668.983539221709, -9192.244314222851, -5485.363958521361, -4423.432579449723, -4388.094471465883, -7175.558170742771, -7368.230207947518, -11269.950720065919, 0.01, 0.23800000000000002, 0.9440000000000001, 192.0, 0.0, 0.0, 0.0, 0.0, 0.0, 0.0, 0.0, 0.0, 0.0, 1.64458856953702E9, 0.0, 2022-02-12 01:09:29.537
8.0, -6770.365747256965, -6581.694672309718, -4038.0214498068635, -10056.362754865022, -6290.272628101424, -2708.5620413496545, -6500.557839936953, -3909.878898844588, -5655.706603015256, -9161.220092918884, -5480.357167763373, -4429.534605686022, -4356.24323561707, -7175.84874342069, -7360.183579943608, -11236.333696405138, 0.012, 0.23600000000000002, 0.9400000000000001, 192.0, 0.0, 48.0, 3.5, 48.0, 14.5, 48.0, 0.0, 0.0, 0.0, 1.644588569544986E9, 0.0, 2022-02-12 01:09:29.544
10.0, -6782.972131129758, -6575.749108284606, -4034.6239846496564, -10061.257786900735, -6290.272628101424, -2708.8302622831184, -6501.8989446042715, -3913.254012257339, -5659.685213528302, -9168.05972672221, -5473.338720004406, -4431.121579542349, -4380.651340562265, -7161.677737436025, -7353.411001373649, -11278.243217258838, 0.012, 0.23600000000000002, 0.9400000000000001, 192.0, 0.0, 0.0, 0.0, 0.0, 0.0, 0.0, 0.0, 0.0, 0.0, 1.644588569552324E9, 0.0, 2022-02-12 01:09:29.552
12.0, -6766.118915810456, -6573.625692561352, -4030.8912433256205, -10042.907004702927, -6272.011252881438, -2695.329808632113, -6492.399453210766, -3901.519346418303, -5635.120646371919, -9150.37949685806, -5457.468981441139, -4427.2547277515805, -4373.409375358746, -7163.555283970271, -7343.4644750910375, -11220.93334447543, 0.012, 0.23600000000000002, 0.9400000000000001, 192.0, 0.0, 0.0, 0.0, 0.0, 0.0, 0.0, 0.0, 0.0, 0.0, 1.644588569559364E9, 0.0, 2022-02-12 01:09:29.559
14.0, -6751.09854353649, -6574.497410595109, -4023.4928159109136, -10045.544510548652, -6272.793563937374, -2693.8322417536074, -6483.078775772903, -3885.493145643848, -5633.690134726779, -9150.133627669053, -5446.002536535566, -4423.477282938634, -4366.457982833145, -7163.599987459182, -7335.8872337206885, -11242.592184852623, 0.012, 0.23600000000000002, 0.9400000000000001, 192.0, 0.0, 0.0, 0.0, 0.0, 0.0, 0.0, 0.0, 0.0, 0.0, 1.644588569573912E9, 0.0, 2022-02-12 01:09:29.573
16.0, -6773.517343225163, -6583.594570588419, -4018.12839724164, -10034.234527854267, -6253.034621838882, -2685.584448049599, -6481.536505405486, -3885.6719595994905, -5628.102198612953, -9140.880005464554, -5444.0355830234985, -4409.909774054262, -4360.937101952684, -7162.124772325132, -7325.739541737979, -11233.6514870705, 0.01, 0.23500000000000001, 0.9420000000000001, 192.0, 0.0, 32.0, 3.5, 40.0, 14.5, 64.0, 0.0, 0.0, 0.0, 1.64458856958207E9, 0.0, 2022-02-12 01:09:29.582
18.0, -6761.916787852859, -6555.1407998968125, -4006.1702139580507, -10024.89149867195, -6245.591490935265, -2676.3755293340123, -6474.383947179788, -3879.5475816187363, -5611.427797249294, -9138.466017063382, -5432.859710795845, -4403.897154795784, -4337.758342952531, -7148.51255995185, -7317.9834864119875, -11195.765280218755, 0.01, 0.23500000000000001, 0.9420000000000001, 192.0, 0.0, 0.0, 0.0, 0.0, 0.0, 0.0, 0.0, 0.0, 0.0, 1.64458856958997E9, 0.0, 2022-02-12 01:09:29.589
20.0, -6738.693325363794, -6539.986317156115, -4003.488004623414, -10025.18207134987, -6243.579833934287, -2671.882828698496, -6468.1478104767575, -3885.0684624991973, -5614.355875772939, -9144.411581088494, -5423.226108935608, -4395.269381436036, -4346.453171545645, -7134.006277800355, -7308.081663618286, -11237.138359205528, 0.01, 0.23500000000000001, 0.9420000000000001, 192.0, 0.0, 0.0, 0.0, 0.0, 0.0, 0.0, 0.0, 0.0, 0.0, 1.644588569596779E9, 0.0, 2022-02-12 01:09:29.596
22.0, -6711.558307595052, -6520.808520413461, -3995.4637283639586, -10007.747710674728, -6220.669295867598, -2656.4154215354233, -6457.75424930504, -3861.5767790766695, -5598.128509298385, -9110.571039983159, -5419.269850167018, -4414.201308989681, -4333.2209388281035, -7134.296850478274, -7301.599657726248, -11176.811000920654, 0.01, 0.23500000000000001, 0.9420000000000001, 192.0, 0.0, 0.0, 0.0, 0.0, 0.0, 0.0, 0.0, 0.0, 0.0, 1.644588569604614E9, 0.0, 2022-02-12 01:09:29.604
24.0, -6718.599107098474, -6533.213738586157, -3980.2421903898944, -10008.261800797201, -6222.524490657389, -2650.1792848323926, -6447.919481744705, -3857.2181889078847, -5587.623189404391, -9103.686702690924, -5391.196059131153, -4383.15473594126, -4324.637868957266, -7117.242469458875, -7290.580247709781, -11197.97810291983, 0.01, 0.23500000000000001, 0.9420000000000001, 192.0, 0.0, 0.0, 0.0, 0.0, 0.0, 0.0, 0.0, 0.0, 0.0, 1.644588569612815E9, 0.0, 2022-02-12 01:09:29.612
26.0, -6730.624345615429, -6533.05727637497, -3985.6960160369895, -9997.532963458654, -6202.564382858799, -2645.708935941331, -6440.8563304968275, -3853.1948749059293, -5579.353043955928, -9102.949095123899, -5381.405995059728, -4368.044956689472, -4310.310400761414, -7108.972324010411, -7281.483087716471, -11192.770146461744, 0.008, 0.23450000000000001, 0.9470000000000001, 192.0, 0.0, 24.0, 3.5, 40.0, 14.5, 96.0, 0.0, 0.0, 0.0, 1.644588569619895E9, 0.0, 2022-02-12 01:09:29.619
28.0, -6705.9927232256805, -6499.507307947553, -3981.940922968498, -9992.839097123038, -6196.775281044875, -2636.164741058915, -6430.6415832807525, -3844.589453290636, -5567.014881016598, -9083.391318725506, -5384.691701494658, -4373.118802680827, -4301.257944257015, -7113.800300812758, -7275.358709735717, -11156.336802999593, 0.008, 0.23450000000000001, 0.9470000000000001, 192.0, 0.0, 0.0, 0.0, 0.0, 0.0, 0.0, 0.0, 0.0, 0.0, 1.644588569626274E9, 0.0, 2022-02-12 01:09:29.626
30.0, -6692.939304463781, -6489.650188642763, -3975.458917076459, -9995.297789013122, -6194.875382766174, -2634.354249758035, -6434.240214138057, -3850.557369060203, -5564.086802492953, -9070.159086007963, -5375.862762434812, -4367.217942144625, -4297.301685488425, -7105.954838508945, -7267.356785220717, -11196.525239530236, 0.008, 0.23450000000000001, 0.9470000000000001, 192.0, 0.0, 0.0, 0.0, 0.0, 0.0, 0.0, 0.0, 0.0, 0.0, 1.644588569634234E9, 0.0, 2022-02-12 01:09:29.634
32.0, -6683.819792726015, -6491.818307854928, -3969.222780373428, -9985.015986563682, -6174.803516245308, -2621.099665296038, -6423.198452377135, -3833.368877574072, -5551.122790708875, -9072.506019175771, -5386.703358495636, -4379.310235894947, -4313.394941496246, -7104.457271630439, -7257.34320370474, -11143.506901682247, 0.008, 0.23450000000000001, 0.9470000000000001, 192.0, 0.0, 0.0, 0.0, 0.0, 0.0, 0.0, 0.0, 0.0, 0.0, 1.644588569642465E9, 0.0, 2022-02-12 01:09:29.642
34.0, -6680.668196757817, -6492.287694488489, -3956.549341267269, -9988.122879042969, -6177.619836046677, -2614.32708672608, -6412.469615038588, -3832.072476395664, -5558.342404167939, -9068.37094645154, -5362.786991928458, -4364.222808387614, -4295.3570837208135, -7093.773137780802, -7247.731953588957, -11163.958747858853, 0.008, 0.23450000000000001, 0.9470000000000001, 192.0, 0.0, 0.0, 0.0, 0.0, 0.0, 0.0, 0.0, 0.0, 0.0, 1.644588569649435E9, 0.0, 2022-02-12 01:09:29.649
36.0, -6690.949999207259, -6484.3304734624, -3956.3034720782607, -9975.36003295899, -6159.6266817601545, -2613.388313458957, -6414.928306928672, -3828.719714727368, -5539.365773125383, -9070.963748808355, -5345.710259164603, -4364.334567109891, -4292.987798808551, -7084.452460342939, -7237.070171483776, -11159.510750712247, 0.009000000000000001, 0.23625000000000002, 0.9495, 192.0, 0.0, 40.0, 3.5, 56.0, 14.5, 96.0, 0.0, 0.0, 0.0, 1.644588569656946E9, 0.0, 2022-02-12 01:09:29.656
38.0, -6679.550609535052, -6458.715374316618, -3947.2510155738614, -9961.703117096797, -6143.68988796352, -2598.8373278185522, -6398.164498587192, -3812.648810464002, -5526.893499719322, -9029.993001221777, -5344.413857986196, -4356.556160039444, -4258.7896297919315, -7083.290169631264, -7228.263584168385, -11122.049227005153, 0.009000000000000001, 0.23625000000000002, 0.9495, 192.0, 0.0, 0.0, 0.0, 0.0, 0.0, 0.0, 0.0, 0.0, 0.0, 1.644588569664908E9, 0.0, 2022-02-12 01:09:29.664
40.0, -6659.255225569633, -6465.197380208658, -3943.2724050608167, -9965.525265398654, -6141.6111757291765, -2595.8421940615412, -6394.923495641172, -3808.066702850664, -5538.203482413707, -9044.11930371753, -5336.501340449016, -4333.444456272657, -4271.03838575344, -7071.086117158666, -7215.545441573316, -11159.846026879077, 0.009000000000000001, 0.23625000000000002, 0.9495, 192.0, 0.0, 0.0, 0.0, 0.0, 0.0, 0.0, 0.0, 0.0, 0.0, 1.644588569673051E9, 0.0, 2022-02-12 01:09:29.673
42.0, -6647.162931819312, -6454.669708570208, -3941.7077829489454, -9949.54376811311, -6119.572355696244, -2586.543868368133, -6385.982797859049, -3818.9967058893094, -5518.399836826306, -9022.169890662419, -5341.262262017997, -4341.982822654584, -4264.846952539319, -7073.433050326473, -7206.47063332446, -11107.028854731185, 0.009000000000000001, 0.23625000000000002, 0.9495, 192.0, 0.0, 0.0, 0.0, 0.0, 0.0, 0.0, 0.0, 0.0, 0.0, 1.644588569679419E9, 0.0, 2022-02-12 01:09:29.679
44.0, -6658.003527880136, -6436.967126961605, -3924.1840152959844, -9955.869311793962, -6127.127245322138, -2579.659531075899, -6377.422079732666, -3789.8723828640445, -5515.650572258302, -9016.671361526414, -5323.783197853947, -4334.80791268443, -4259.41547863668, -7064.201779866431, -7197.28406635333, -11132.465139921325, 0.009000000000000001, 0.23625000000000002, 0.9495, 192.0, 0.0, 0.0, 0.0, 0.0, 0.0, 0.0, 0.0, 0.0, 0.0, 1.644588569694588E9, 0.0, 2022-02-12 01:09:29.694
46.0, -6641.88792012786, -6445.863121254817, -3924.4298844849927, -9943.017058732159, -6110.832823614219, -2572.685786805843, -6374.851629120306, -3790.5429351977036, -5512.52132803456, -9019.890012727978, -5313.300229704408, -4325.487235246567, -4252.93347274464, -7053.808218694713, -7193.059586651277, -11127.190128229873, 0.0105, 0.240125, 0.95075, 192.0, 0.0, 48.0, 3.5, 80.0, 14.5, 96.0, 0.0, 0.0, 0.0, 1.644588569702001E9, 0.0, 2022-02-12 01:09:29.702
48.0, -6624.654725152818, -6418.392827319244, -3911.3988174675487, -9938.032619718626, -6096.5277071628225, -2561.8898942339297, -6364.234550504035, -3786.0502345621867, -5487.889705644811, -9000.689864240869, -5302.750206321502, -4319.295802032448, -4239.656536538188, -7043.548767989728, -7184.23064759143, -11087.24756088824, 0.0105, 0.240125, 0.95075, 192.0, 0.0, 0.0, 0.0, 0.0, 0.0, 0.0, 0.0, 0.0, 0.0, 1.644588569709161E9, 0.0, 2022-02-12 01:09:29.709
50.0, -6615.043475037036, -6416.917612185194, -3912.270535501306, -9945.431047133332, -6098.449957185979, -2563.2757023901586, -6366.961463327582, -3786.0502345621867, -5489.208458567675, -9002.053320652643, -5298.749244064003, -4324.280241045981, -4234.448580080102, -7035.4127330079955, -7174.708804453469, -11133.49332016627, 0.0105, 0.240125, 0.95075, 192.0, 0.0, 0.0, 0.0, 0.0, 0.0, 0.0, 0.0, 0.0, 0.0, 1.64458856971736E9, 0.0, 2022-02-12 01:09:29.717
52.0, -6621.011390806603, -6418.169309874691, -3905.788529609267, -9920.464148576755, -6071.024366739317, -2550.6246150284546, -6354.01980328796, -3775.9695978128434, -5478.054938084476, -8980.05920410862, -5303.197241210609, -4326.2918980469585, -4206.799472188887, -7039.279584798764, -7170.327862540229, -11079.200932884329, 0.0105, 0.240125, 0.95075, 192.0, 0.0, 0.0, 0.0, 0.0, 0.0, 0.0, 0.0, 0.0, 0.0, 1.644588569725185E9, 0.0, 2022-02-12 01:09:29.725
54.0, -6619.223251250178, -6415.509452284509, -3887.0801195001745, -9925.113311423458, -6075.002977252362, -2546.109562648483, -6352.030498031438, -3765.978368041321, -5472.17642929273, -8982.808468676623, -5273.46942108505, -4297.65931339971, -4218.847062450297, -7026.963773603889, -7160.403688002073, -11098.982226727276, 0.0105, 0.240125, 0.95075, 192.0, 0.0, 0.0, 0.0, 0.0, 0.0, 0.0, 0.0, 0.0, 0.0, 1.644588569731866E9, 0.0, 2022-02-12 01:09:29.731
56.0, -6637.462274725709, -6405.428815535166, -3895.1267475040854, -9923.794558500596, -6062.86598001313, -2540.9910131682177, -6345.146160739203, -3765.665443618947, -5475.350377005384, -8977.354643029528, -5263.858170969269, -4307.4493774711345, -4218.712951983565, -7023.3204392576745, -7154.32401351023, -11101.306808150626, 0.01025, 0.2390625, 0.950375, 192.0, 0.0, 40.0, 3.5, 56.0, 14.5, 88.0, 0.0, 0.0, 0.0, 1.644588569739734E9, 0.0, 2022-02-12 01:09:29.739
58.0, -6594.368111415877, -6374.046966319915, -3880.1510787190296, -9914.965619440749, -6047.666793783521, -2524.428370526835, -6332.405666399678, -3759.138734237997, -5467.996653079588, -8963.116581811499, -5270.720156517048, -4312.612630440311, -4204.698408210088, -7015.899660098513, -7145.517426194839, -11060.470171030782, 0.01025, 0.2390625, 0.950375, 192.0, 0.0, 0.0, 0.0, 0.0, 0.0, 0.0, 0.0, 0.0, 0.0, 1.644588569746892E9, 0.0, 2022-02-12 01:09:29.746
60.0, -6568.663605292274, -6387.569771715376, -3873.132630960063, -9915.032674674116, -6042.883520470085, -2521.3214780475473, -6325.431922129622, -3751.405030656461, -5459.8829698423115, -8954.622918918481, -5259.320766844841, -4296.340560476847, -4184.112451566751, -7010.199965262409, -7133.805112100257, -11099.116337194007, 0.01025, 0.2390625, 0.950375, 192.0, 0.0, 0.0, 0.0, 0.0, 0.0, 0.0, 0.0, 0.0, 0.0, 1.644588569754957E9, 0.0, 2022-02-12 01:09:29.754
62.0, -6589.473079380165, -6382.942960613127, -3866.7623837903006, -9898.782956455107, -6026.276174339792, -2512.201966309782, -6327.980020997527, -3751.1815132119077, -5437.777094576013, -8945.682221136358, -5263.031156424422, -4297.011112810506, -4199.602210474278, -7008.948267572912, -7126.943126552478, -11051.797694182122, 0.01025, 0.2390625, 0.950375, 192.0, 0.0, 0.0, 0.0, 0.0, 0.0, 0.0, 0.0, 0.0, 0.0, 1.644588569761461E9, 0.0, 2022-02-12 01:09:29.761
64.0, -6604.962838287693, -6370.0013005735045, -3851.0938109271306, -9904.259133846657, -6030.679467997488, -2508.8268528970307, -6309.450424844078, -3741.4585043738493, -5446.2037022356635, -8944.207006002309, -5234.309164799352, -4286.863420827797, -4189.901553380675, -7005.975485560356, -7120.997562527366, -11069.299110090627, 0.01025, 0.2390625, 0.950375, 192.0, 0.0, 0.0, 0.0, 0.0, 0.0, 0.0, 0.0, 0.0, 0.0, 1.644588569769354E9, 0.0, 2022-02-12 01:09:29.769
66.0, -6594.390463160332, -6355.025631788449, -3851.697308027424, -9889.864610417439, -6020.777645203787, -2507.3069342740696, -6323.509672106466, -3751.494437634282, -5441.3310219444065, -8925.967982526778, -5223.759141416448, -4280.359063191302, -4183.6877684221, -6998.510002912284, -7116.907193292045, -11070.416697313392, 0.010125, 0.23753125000000003, 0.9471875000000001, 192.0, 0.0, 40.0, 3.5, 48.0, 14.5, 64.0, 0.0, 0.0, 0.0, 1.644588569777694E9, 0.0, 2022-02-12 01:09:29.777
68.0, -6563.790925001017, -6343.782704327429, -3838.353316587605, -9883.092031847482, -6007.52306074179, -2492.8900591003967, -6300.263857872947, -3729.1650449234303, -5434.960774774644, -8915.507366121694, -5225.212004806042, -4282.5048306590115, -4171.126088038217, -6992.4973836538065, -7112.682713589992, -11028.060141570586, 0.010125, 0.23753125000000003, 0.9471875000000001, 192.0, 0.0, 0.0, 0.0, 0.0, 0.0, 0.0, 0.0, 0.0, 0.0, 1.644588569784006E9, 0.0, 2022-02-12 01:09:29.784
70.0, -6542.668526490752, -6355.651480633197, -3831.178406617452, -9888.836430172496, -6008.573592731189, -2494.365274234447, -6298.296904360879, -3723.8453297430674, -5434.089056740887, -8928.33726743904, -5214.8184436343245, -4265.673967084166, -4163.079460034306, -6982.752023071293, -7100.322198906208, -11070.6625665024, 0.010125, 0.23753125000000003, 0.9471875000000001, 192.0, 0.0, 0.0, 0.0, 0.0, 0.0, 0.0, 0.0, 0.0, 0.0, 1.644588569792112E9, 0.0, 2022-02-12 01:09:29.792
72.0, -6547.9211864377485, -6341.547529881898, -3829.6137845055805, -9870.128020063403, -5987.071214565184, -2480.708358372254, -6295.838212470796, -3718.369152351517, -5410.530318084993, -8908.600677085004, -5209.789301131881, -4270.077260741861, -4159.458477432547, -6983.333168427131, -7090.018044712311, -11017.666580398867, 0.010125, 0.23753125000000003, 0.9471875000000001, 192.0, 0.0, 0.0, 0.0, 0.0, 0.0, 0.0, 0.0, 0.0, 0.0, 1.644588569800103E9, 0.0, 2022-02-12 01:09:29.800
74.0, -6561.332233110933, -6338.664154847164, -3820.0919413676193, -9881.125078335415, -5994.782566402265, -2477.199134492771, -6292.7536717359635, -3713.3176581046177, -5426.444760137172, -8896.888362990423, -5206.391835974674, -4257.694394313621, -4151.881236062198, -6976.962921257368, -7086.575876066194, -11039.906566131898, 0.010125, 0.23753125000000003, 0.9471875000000001, 192.0, 0.0, 0.0, 0.0, 0.0, 0.0, 0.0, 0.0, 0.0, 0.0, 1.644588569807567E9, 0.0, 2022-02-12 01:09:29.807
76.0, -6560.639329032819, -6313.96547722405, -3816.9626971438765, -9872.094973575471, -5969.011005045296, -2463.2963494415703, -6282.963607664538, -3710.568393536615, -5424.701324069658, -8901.314008392574, -5205.721283641014, -4267.998548507518, -4160.218436744027, -6972.179647943932, -7079.535076562772, -11040.778284165655, 0.0060625, 0.23776562500000004, 0.94759375, 192.0, 0.0, 8.0, 3.5, 56.0, 14.5, 80.0, 0.0, 0.0, 0.0, 1.644588569821717E9, 0.0, 2022-02-12 01:09:29.821
78.0, -6545.730715481129, -6307.01408469845, -3804.13279582653, -9868.786915396086, -5960.271472963271, -2452.8357330364865, -6271.363052292234, -3697.3808643079838, -5412.184347174686, -8882.918522705857, -5201.36269347223, -4258.297891413915, -4148.0814395047955, -6961.47316234984, -7067.77805897928, -10999.159335989874, 0.0060625, 0.23776562500000004, 0.94759375, 192.0, 0.0, 0.0, 0.0, 0.0, 0.0, 0.0, 0.0, 0.0, 0.0, 1.644588569829618E9, 0.0, 2022-02-12 01:09:29.829
80.0, -6563.209779645179, -6318.01114297046, -3799.7518539132902, -9874.978348610204, -5963.2219032313715, -2462.8046110635532, -6274.402889538156, -3698.1631753639194, -5421.952059501656, -8896.597790312504, -5173.244198947454, -4243.724554029054, -4137.397305655159, -6953.895920979491, -7064.715869988903, -11046.790903424133, 0.0060625, 0.23776562500000004, 0.94759375, 192.0, 0.0, 0.0, 0.0, 0.0, 0.0, 0.0, 0.0, 0.0, 0.0, 1.644588569836897E9, 0.0, 2022-02-12 01:09:29.836
82.0, -6533.146683352791, -6310.791529511396, -3803.5740022151476, -9851.173740765304, -5941.987745998829, -2452.5451603585675, -6266.780944678896, -3689.6918642153582, -5400.382626102284, -8864.679499230326, -5176.7757745713925, -4251.190036677127, -4119.381799624181, -6961.227293160831, -7060.916073431501, -10999.584019134525, 0.0060625, 0.23776562500000004, 0.94759375, 192.0, 0.0, 0.0, 0.0, 0.0, 0.0, 0.0, 0.0, 0.0, 0.0, 1.644588569844405E9, 0.0, 2022-02-12 01:09:29.844
84.0, -6523.356619281366, -6291.166697879637, -3787.1007665515863, -9850.771409365107, -5942.971222754863, -2439.2905758965703, -6259.293110286369, -3682.1593263339196, -5394.772338244002, -8861.080868373021, -5171.746632068948, -4219.6964287395995, -4119.448854857547, -6941.4907028067955, -7051.617747738093, -11015.431405953337, 0.0060625, 0.23776562500000004, 0.94759375, 192.0, 0.0, 0.0, 0.0, 0.0, 0.0, 0.0, 0.0, 0.0, 0.0, 1.644588569852811E9, 0.0, 2022-02-12 01:09:29.852
86.0, -6535.404209542777, -6287.746880977975, -3789.9394380974104, -9844.557624406532, -5931.08009470464, -2433.300308382548, -6261.282415542891, -3679.2312478102745, -5395.979332444588, -8865.886493430913, -5166.382213399675, -4222.959783430074, -4129.708305562533, -6939.680211505915, -7042.833512167158, -11017.823042610054, 0.002, 0.234, 0.9460000000000001, 192.0, 0.0, 8.0, 3.5, 40.0, 14.5, 72.0, 0.0, 0.0, 0.0, 1.644588569860279E9, 0.0, 2022-02-12 01:09:29.860
88.0, -6526.374104782833, -6277.353319806257, -3780.618760659547, -9846.010487796128, -5919.971277710352, -2421.498587310146, -6242.752819389441, -3667.049547082132, -5389.49732655255, -8851.804894424069, -5161.286015663864, -4230.6487835227, -4120.432331613581, -6942.720048751838, -7035.368029519085, -10975.868818267443, 0.002, 0.234, 0.9460000000000001, 192.0, 0.0, 0.0, 0.0, 0.0, 0.0, 0.0, 0.0, 0.0, 0.0, 1.644588569866946E9, 0.0, 2022-02-12 01:09:29.866
90.0, -6520.540299479998, -6273.486468015489, -3779.814097859156, -9857.76750537962, -5929.046085959207, -2430.1487124143496, -6254.308671272835, -3676.1914105643527, -5404.338884870874, -8862.600786995983, -5161.017794730401, -4247.8149232643755, -4115.492596088958, -6938.786141727704, -7032.127026573065, -11027.501347959203, 0.002, 0.234, 0.9460000000000001, 192.0, 0.0, 0.0, 0.0, 0.0, 0.0, 0.0, 0.0, 0.0, 0.0, 1.64458856987397E9, 0.0, 2022-02-12 01:09:29.873
92.0, -6516.941668622693, -6283.634159998198, -3779.1658972699524, -9837.919156303305, -5908.080149660129, -2416.625907018889, -6252.833456138785, -3677.2195908092967, -5387.35155908484, -8843.758266420158, -5154.1781609270765, -4230.961707945074, -4109.748197763944, -6935.589842270594, -7029.668334682982, -10981.143829958895, 0.002, 0.234, 0.9460000000000001, 192.0, 0.0, 0.0, 0.0, 0.0, 0.0, 0.0, 0.0, 0.0, 0.0, 1.644588569882179E9, 0.0, 2022-02-12 01:09:29.882
94.0, -6502.591848682386, -6269.641967969176, -3757.0376702591984, -9838.94733654825, -5906.582582781623, -2413.2507936061374, -6236.963717575517, -3666.7813261486685, -5382.098899137843, -8831.665972669838, -5142.0635154323, -4213.057960636373, -4079.7298049604665, -6926.2915165771865, -7019.140663044533, -10998.757004589677, 0.002, 0.234, 0.9460000000000001, 192.0, 0.0, 0.0, 0.0, 0.0, 0.0, 0.0, 0.0, 0.0, 0.0, 1.644588569890045E9, 0.0, 2022-02-12 01:09:29.890
96.0, -6521.054389602469, -6257.236749796481, -3758.2893679486956, -9830.543080633055, -5893.439757041902, -2412.5131860391125, -6240.584700177276, -3669.7094046723137, -5375.035747889966, -8847.80393216657, -5132.6981345055265, -4215.136672870716, -4107.2895058738595, -6920.211842085343, -7012.904526341502, -11002.422690680349, 0.002, 0.234, 0.9440000000000001, 192.0, 0.0, 8.0, 3.5, 40.0, 14.5, 64.0, 0.0, 0.0, 0.0, 1.644588569896565E9, 0.0, 2022-02-12 01:09:29.896
98.0, -6475.792107080473, -6226.8383773372625, -3742.7549055522572, -9827.011505009115, -5881.6380359695, -2393.335389296459, -6229.788807605363, -3640.33921245804, -5360.82003841639, -8823.574641177016, -5129.010096670401, -4213.840271692308, -4094.549011534335, -6918.51310950674, -7007.2942384832195, -10964.178855917318, 0.002, 0.234, 0.9440000000000001, 192.0, 0.0, 0.0, 0.0, 0.0, 0.0, 0.0, 0.0, 0.0, 0.0, 1.644588569904795E9, 0.0, 2022-02-12 01:09:29.904
100.0, -6508.157433051758, -6255.7168311735195, -3744.0960102195754, -9836.108665002426, -5885.59429473809, -2400.7785202000764, -6233.454493696034, -3653.996128320233, -5370.8336199323685, -8834.594051193482, -5125.411465813097, -4213.92967867013, -4077.8075549373098, -6913.886298404491, -7005.461395437885, -11011.028112295642, 0.002, 0.234, 0.9440000000000001, 192.0, 0.0, 0.0, 0.0, 0.0, 0.0, 0.0, 0.0, 0.0, 0.0, 1.644588569912574E9, 0.0, 2022-02-12 01:09:29.912
102.0, -6519.690933190695, -6269.351395291257, -3747.493475376782, -9820.954182261728, -5871.825620153621, -2395.2129358307047, -6232.783941362374, -3648.5870061620485, -5358.160180826209, -8826.36860923393, -5142.152922410121, -4208.051169878384, -4092.1573748776173, -6919.027199629212, -7011.5187181852725, -10968.604501319469, 0.002, 0.234, 0.9440000000000001, 192.0, 0.0, 0.0, 0.0, 0.0, 0.0, 0.0, 0.0, 0.0, 0.0, 1.644588569919223E9, 0.0, 2022-02-12 01:09:29.919
104.0, -6499.976694581115, -6246.597319435754, -3731.556681580148, -9825.871566041895, -5871.266826542238, -2390.0049793726184, -6226.123121514693, -3641.725020614269, -5368.352576297829, -8819.081940541499, -5109.474672016463, -4197.50114649548, -4080.4450607830363, -6905.012655855734, -7005.1037675266, -10985.100088727486, 0.002, 0.234, 0.9440000000000001, 192.0, 0.0, 0.0, 0.0, 0.0, 0.0, 0.0, 0.0, 0.0, 0.0, 1.644588569927165E9, 0.0, 2022-02-12 01:09:29.927
106.0, -6490.700720632162, -6231.5322436728775, -3730.21557691283, -9821.222403195192, -5853.094858300074, -2383.008883358107, -6216.713037099009, -3638.2157967347857, -5362.004680872522, -8808.308399714042, -5097.494136988418, -4197.165870328649, -4055.567569204279, -6902.911591876936, -6994.509040654784, -10992.900847542387, 0.008, 0.232, 0.9420000000000001, 192.0, 0.0, 32.0, 3.5, 32.0, 14.5, 56.0, 0.0, 0.0, 0.0, 1.644588569942496E9, 0.0, 2022-02-12 01:09:29.942
108.0, -6468.3266244324, -6207.481766638967, -3713.205899382341, -9813.4663478692, -5840.890805827476, -2369.351967495915, -6200.731539813464, -3617.629840091448, -5340.636413173248, -8806.922591557812, -5096.7118259324825, -4204.251373320982, -4073.828944424265, -6898.731815663793, -6986.3953574175075, -10948.420876076327, 0.008, 0.232, 0.9420000000000001, 192.0, 0.0, 0.0, 0.0, 0.0, 0.0, 0.0, 0.0, 0.0, 0.0, 1.644588569948795E9, 0.0, 2022-02-12 01:09:29.948
110.0, -6478.228447226102, -6228.224185493492, -3715.552832550148, -9816.573240348487, -5842.410724450437, -2371.2518657746155, -6192.394339131634, -3614.5229476121604, -5349.845331888835, -8813.717521872226, -5099.326980033753, -4193.187259815605, -4063.703604186011, -6893.41210048343, -6973.744270055803, -10993.236123709217, 0.008, 0.232, 0.9420000000000001, 192.0, 0.0, 0.0, 0.0, 0.0, 0.0, 0.0, 0.0, 0.0, 0.0, 1.644588569956843E9, 0.0, 2022-02-12 01:09:29.956
112.0, -6492.734729377596, -6212.287391696857, -3706.3886173234723, -9803.028083208572, -5816.303886926638, -2356.723231878666, -6184.973559972473, -3605.895174252412, -5329.415837456684, -8787.387166903874, -5108.558250493795, -4191.466175492546, -4048.1467900451175, -6888.874696359003, -6969.586845587117, -10943.794064974078, 0.008, 0.232, 0.9420000000000001, 192.0, 0.0, 0.0, 0.0, 0.0, 0.0, 0.0, 0.0, 0.0, 0.0, 1.644588569965E9, 0.0, 2022-02-12 01:09:29.965
114.0, -6479.077813515403, -6220.42342667859, -3685.82501242459, -9808.526612344576, -5819.567241617113, -2353.1916562547276, -6179.31856862528, -3598.4743950932498, -5335.2049392706085, -8789.778803560592, -5080.998549580401, -4176.982245085507, -4048.8843976121425, -6881.02923405519, -6960.579092571627, -10960.40141110437, 0.008, 0.232, 0.9420000000000001, 192.0, 0.0, 0.0, 0.0, 0.0, 0.0, 0.0, 0.0, 0.0, 0.0, 1.644588569972061E9, 0.0, 2022-02-12 01:09:29.972
116.0, -6478.1837437371905, -6202.340865414246, -3694.765710206713, -9803.922152986785, -5809.754825801233, -2352.118772520873, -6183.878324494162, -3601.827156761546, -5332.343915980329, -8780.413422633817, -5067.475744184941, -4169.203838015061, -4023.93985080002, -6873.764917107215, -6956.175798913932, -10968.380983874917, 0.008, 0.232, 0.9440000000000001, 192.0, 0.0, 32.0, 3.5, 32.0, 14.5, 64.0, 0.0, 0.0, 0.0, 1.644588569979827E9, 0.0, 2022-02-12 01:09:29.979
118.0, -6455.340260903867, -6191.65673156461, -3685.556791491126, -9794.757937760109, -5799.808299518621, -2343.1557229942946, -6177.016338946383, -3596.9991799592, -5320.363380952284, -8767.11413468291, -5070.582636664229, -4169.136782781695, -4030.108932269685, -6878.905818331936, -6957.829828003625, -10930.40537004535, 0.008, 0.232, 0.9440000000000001, 192.0, 0.0, 0.0, 0.0, 0.0, 0.0, 0.0, 0.0, 0.0, 0.0, 1.644588569987425E9, 0.0, 2022-02-12 01:09:29.987
120.0, -6450.355821890334, -6188.996873974428, -3684.238038568263, -9808.101929199926, -5807.273782166694, -2340.719382848666, -6183.945379727528, -3603.7717585291575, -5319.469311174073, -8763.44844859224, -5067.386337207119, -4168.220361259027, -4050.4937232129246, -6877.296492731153, -6952.890092479002, -10981.099126469986, 0.008, 0.232, 0.9440000000000001, 192.0, 0.0, 0.0, 0.0, 0.0, 0.0, 0.0, 0.0, 0.0, 0.0, 1.644588569994612E9, 0.0, 2022-02-12 01:09:29.994
122.0, -6457.41897313821, -6196.08237696676, -3680.4158902664058, -9793.215667392691, -5793.013369204208, -2323.9779262516413, -6173.373004600168, -3572.3899093139066, -5312.853194815301, -8772.009166718623, -5077.601084423195, -4176.579913685312, -4040.256624252394, -6859.459800655819, -6951.459580833863, -10933.668724735824, 0.008, 0.232, 0.9440000000000001, 192.0, 0.0, 0.0, 0.0, 0.0, 0.0, 0.0, 0.0, 0.0, 0.0, 1.644588570001723E9, 0.0, 2022-02-12 01:09:30.001
124.0, -6466.806705809439, -6199.099862468227, -3668.5247622161824, -9796.255504638613, -5797.550773328635, -2321.6980483172, -6164.320548095769, -3574.2004006147863, -5315.736569850036, -8764.230759648175, -5061.150200504088, -4164.957006568552, -4026.0856182677294, -6864.287777458165, -6944.731705752815, -10948.957317943254, 0.008, 0.232, 0.9440000000000001, 192.0, 0.0, 0.0, 0.0, 0.0, 0.0, 0.0, 0.0, 0.0, 0.0, 1.644588570009319E9, 0.0, 2022-02-12 01:09:30.009
126.0, -6466.493781387065, -6177.418670346578, -3679.767689677202, -9791.829859236463, -5788.2971511241385, -2321.8992140172977, -6171.853085977207, -3586.1138804094653, -5321.7044856196035, -8775.518390598107, -5052.321261444243, -4164.1076402792505, -4019.8941850536094, -6860.108001245022, -6938.003830671768, -10961.004908204664, 0.006, 0.228, 0.9480000000000001, 192.0, 0.0, 24.0, 3.5, 16.0, 14.5, 80.0, 0.0, 0.0, 0.0, 1.644588570017249E9, 0.0, 2022-02-12 01:09:30.017
128.0, -6435.8048362499285, -6160.811324216285, -3662.825067380079, -9782.665644009787, -5769.029947403664, -2310.3210103894485, -6155.178684613548, -3561.571664997538, -5302.347874921307, -8752.429038575774, -5062.558360404773, -4155.993957041974, -4018.84365306421, -6856.889350043458, -6939.210824872354, -10919.676532706802, 0.006, 0.228, 0.9480000000000001, 192.0, 0.0, 0.0, 0.0, 0.0, 0.0, 0.0, 0.0, 0.0, 0.0, 1.644588570024371E9, 0.0, 2022-02-12 01:09:30.024
130.0, -6456.457848126633, -6167.606254530699, -3650.9339393298555, -9789.281760368558, -5763.263197334194, -2306.9682487211526, -6148.808437443786, -3559.8505806744793, -5307.0864447458325, -8751.132637397366, -5040.027801993823, -4135.653869587644, -4020.4082751760816, -6846.920472016392, -6931.901804435469, -10964.536483828602, 0.006, 0.228, 0.9480000000000001, 192.0, 0.0, 0.0, 0.0, 0.0, 0.0, 0.0, 0.0, 0.0, 0.0, 1.644588570031987E9, 0.0, 2022-02-12 01:09:30.031
132.0, -6452.479237613587, -6166.823943474763, -3651.6044916635146, -9777.547094529522, -5747.66167970439, -2301.1120916738623, -6140.292422806314, -3550.6863654478034, -5293.80950853938, -8721.516575994085, -5039.871339782637, -4142.96289002453, -4003.6221150901456, -6860.085649500567, -6928.258470089254, -10920.280029807094, 0.006, 0.228, 0.9480000000000001, 192.0, 0.0, 0.0, 0.0, 0.0, 0.0, 0.0, 0.0, 0.0, 0.0, 1.644588570039992E9, 0.0, 2022-02-12 01:09:30.039
134.0, -6429.680458269175, -6161.951263183506, -3638.4616659237945, -9788.4100423348, -5753.003746629209, -2295.9488387046863, -6135.240928559414, -3550.216978814242, -5287.930999747634, -8741.521387281584, -5027.644935565583, -4131.451741630047, -3993.899106252087, -6839.969079490791, -6924.391618298486, -10936.283878837095, 0.006, 0.228, 0.9480000000000001, 192.0, 0.0, 0.0, 0.0, 0.0, 0.0, 0.0, 0.0, 0.0, 0.0, 1.644588570047899E9, 0.0, 2022-02-12 01:09:30.047
136.0, -6408.401597547722, -6137.520806493856, -3642.5520351591153, -9785.280798111058, -5741.582005212546, -2287.052844411474, -6136.067943104261, -3546.0372026010996, -5289.495621859506, -8729.496148764629, -5031.467083867441, -4140.504198134447, -3985.3607398701597, -6834.8952334994365, -6918.960144395846, -10946.83390222, 0.008, 0.23, 0.9480000000000001, 192.0, 0.0, 32.0, 3.5, 24.0, 14.5, 80.0, 0.0, 0.0, 0.0, 1.644588570053918E9, 0.0, 2022-02-12 01:09:30.053
138.0, -6420.22567036458, -6139.711277450476, -3628.0010495187107, -9776.138934628838, -5728.282717261639, -2278.4250710517254, -6121.539309208311, -3534.5931094399825, -5271.055432683877, -8710.72068342217, -5038.7761043043265, -4130.58002359629, -3990.9263242395314, -6836.996297478235, -6911.293496047676, -10903.15859355433, 0.008, 0.23, 0.9480000000000001, 192.0, 0.0, 0.0, 0.0, 0.0, 0.0, 0.0, 0.0, 0.0, 0.0, 1.644588570069364E9, 0.0, 2022-02-12 01:09:30.069
140.0, -6455.966109748615, -6156.542141025322, -3622.5472238716156, -9788.186524890247, -5731.613127185479, -2282.448385053681, -6123.796835398297, -3542.1703508103315, -5288.355682892285, -8736.514596523595, -5013.116301669634, -4131.7646660524215, -3992.1109666956627, -6831.765989275693, -6904.565620966629, -10954.388791845893, 0.008, 0.23, 0.9480000000000001, 192.0, 0.0, 0.0, 0.0, 0.0, 0.0, 0.0, 0.0, 0.0, 0.0, 1.644588570077546E9, 0.0, 2022-02-12 01:09:30.077
142.0, -6433.971993204594, -6128.423646500546, -3616.914584268878, -9770.819219448475, -5717.285658989627, -2272.6806727267117, -6125.428512743534, -3536.1353798073987, -5280.398461866196, -8719.504918993107, -5015.016199948335, -4132.837549786276, -3982.969103213442, -6830.402532863919, -6905.169118066921, -10913.44039600377, 0.008, 0.23, 0.9480000000000001, 192.0, 0.0, 0.0, 0.0, 0.0, 0.0, 0.0, 0.0, 0.0, 0.0, 1.64458857008401E9, 0.0, 2022-02-12 01:09:30.084
144.0, -6425.791254733951, -6125.003829598883, -3610.074950465554, -9777.301225340512, -5720.392551468915, -2260.9683586321307, -6110.363436980658, -3514.5212429191165, -5273.648235040693, -8693.599247169406, -5004.823804476715, -4106.57425005129, -3975.6600827765565, -6819.740750758738, -6901.928115120902, -10924.102178108953, 0.008, 0.23, 0.9480000000000001, 192.0, 0.0, 0.0, 0.0, 0.0, 0.0, 0.0, 0.0, 0.0, 0.0, 1.64458857009217E9, 0.0, 2022-02-12 01:09:30.092
146.0, -6420.113911642303, -6136.783198926831, -3620.9378982708336, -9776.429507306757, -5711.943592064809, -2263.270588311027, -6119.684114418521, -3518.9468883212676, -5276.75512751998, -8716.196860813721, -5015.463234837441, -4120.409979869125, -3976.732966510411, -6819.114901913989, -6904.565620966629, -10938.831977705, 0.002, 0.234, 0.9500000000000001, 192.0, 0.0, 8.0, 3.5, 40.0, 14.5, 88.0, 0.0, 0.0, 0.0, 1.644588570100117E9, 0.0, 2022-02-12 01:09:30.100
148.0, -6401.606667233309, -6133.989230869917, -3609.1585289428867, -9769.209893847692, -5691.379987165927, -2245.053916579952, -6095.320712962236, -3498.4950421446615, -5267.926188460135, -8707.792604898525, -5020.268859895332, -4128.993049739963, -3961.5784837697133, -6827.92148922938, -6895.3567022510415, -10893.636750416368, 0.002, 0.234, 0.9500000000000001, 192.0, 0.0, 0.0, 0.0, 0.0, 0.0, 0.0, 0.0, 0.0, 0.0, 1.644588570107189E9, 0.0, 2022-02-12 01:09:30.107
150.0, -6433.167330404202, -6134.0339343588275, -3597.893249737412, -9780.072841652971, -5694.531583134125, -2244.897454368765, -6099.232268241914, -3502.3618939354296, -5271.278950128431, -8717.403855014307, -5001.7392637418825, -4109.971715208497, -3955.4094023000484, -6807.11201514149, -6888.472364958807, -10940.731875983702, 0.002, 0.234, 0.9500000000000001, 192.0, 0.0, 0.0, 0.0, 0.0, 0.0, 0.0, 0.0, 0.0, 0.0, 1.644588570114737E9, 0.0, 2022-02-12 01:09:30.114
152.0, -6425.277164611479, -6110.20697476947, -3599.4131683603728, -9763.420792033767, -5681.902847516876, -2243.1763700457063, -6097.980570552418, -3505.826414326002, -5259.656043011671, -8695.320331492465, -5010.501147568363, -4109.435273341569, -3957.5328180233028, -6814.264573367188, -6887.712405647327, -10899.179983041286, 0.002, 0.234, 0.9500000000000001, 192.0, 0.0, 0.0, 0.0, 0.0, 0.0, 0.0, 0.0, 0.0, 0.0, 1.644588570121785E9, 0.0, 2022-02-12 01:09:30.121
154.0, -6412.514318527498, -6120.555832452278, -3583.655188519381, -9771.288606082035, -5679.824135282533, -2237.0296403204966, -6087.229381469415, -3489.7331583181813, -5262.47236281304, -8691.900514590801, -4998.408853818042, -4105.568421550801, -3958.7621639683443, -6809.794224476126, -6883.756146878737, -10913.44039600377, 0.006, 0.23500000000000001, 0.9490000000000001, 192.0, 0.0, 40.0, 3.5, 48.0, 14.5, 80.0, 0.0, 0.0, 0.0, 1.64458857012973E9, 0.0, 2022-02-12 01:09:30.129
156.0, -6411.575545260375, -6119.125320807138, -3593.400549101895, -9775.64719625082, -5677.276036414628, -2242.1928932896726, -6088.771651836831, -3497.2433444551643, -5263.61230178026, -8701.690578662226, -5006.299019610765, -4113.637401299167, -3957.7563354678555, -6810.39772157642, -6877.855286342537, -10928.326657811005, 0.006, 0.23500000000000001, 0.9490000000000001, 192.0, 0.0, 0.0, 0.0, 0.0, 0.0, 0.0, 0.0, 0.0, 0.0, 1.644588570136403E9, 0.0, 2022-02-12 01:09:30.136
158.0, -6428.1158361573025, -6110.832823614219, -3578.9389704393116, -9764.538379256534, -5665.742536275689, -2228.603032660846, -6088.704596603465, -3492.3036089305415, -5263.2993773578855, -8679.204723740188, -5001.649856764061, -4119.359447879726, -3958.717460479434, -6819.1596054029, -6879.017577054212, -10888.808773614022, 0.006, 0.23500000000000001, 0.9490000000000001, 192.0, 0.0, 0.0, 0.0, 0.0, 0.0, 0.0, 0.0, 0.0, 0.0, 1.644588570144394E9, 0.0, 2022-02-12 01:09:30.144
160.0, -6420.695056998141, -6105.401349711579, -3576.882609949423, -9770.305129326001, -5666.636606053902, -2228.960660572131, -6076.098212730672, -3492.3036089305415, -5267.099173915288, -8679.76351735157, -4977.107641352134, -4102.461529071514, -3934.734038678889, -6810.911811698892, -6873.206123495833, -10936.015657903632, 0.006, 0.23500000000000001, 0.9490000000000001, 192.0, 0.0, 0.0, 0.0, 0.0, 0.0, 0.0, 0.0, 0.0, 0.0, 1.644588570152465E9, 0.0, 2022-02-12 01:09:30.152
162.0, -6412.447263294132, -6116.174890539038, -3576.3685198269513, -9761.140914099326, -5655.93012045981, -2220.891680823765, -6076.67935808651, -3482.2676756701085, -5255.766839476448, -8692.146383779811, -4982.069728621213, -4093.0737964002847, -3943.205349827451, -6815.270401867677, -6872.624978139995, -10893.949674838743, 0.006, 0.23500000000000001, 0.9490000000000001, 192.0, 0.0, 0.0, 0.0, 0.0, 0.0, 0.0, 0.0, 0.0, 0.0, 1.644588570159666E9, 0.0, 2022-02-12 01:09:30.159
164.0, -6405.093539368337, -6096.035968784806, -3560.901112663879, -9774.84253345043, -5662.993271707687, -2221.7410471130665, -6076.634654597599, -3492.1024432304434, -5259.767801733948, -8682.736299364125, -4977.532324496785, -4091.732691732966, -3943.16064633854, -6800.384140060442, -6870.769783350204, -10911.093462835965, 0.009000000000000001, 0.23550000000000001, 0.9475, 192.0, 0.0, 48.0, 3.5, 48.0, 14.5, 72.0, 0.0, 0.0, 0.0, 1.644588570167088E9, 0.0, 2022-02-12 01:09:30.167
166.0, -6420.024504664481, -6104.909611333563, -3565.863199932957, -9778.530571285555, -5654.924291959321, -2222.769227358011, -6089.352797192669, -3499.053835756044, -5258.270234855442, -8694.068633802966, -4977.711138452428, -4091.375063821681, -3937.550358480258, -6801.099395883012, -6871.015652539212, -10933.176986357807, 0.009000000000000001, 0.23550000000000001, 0.9475, 192.0, 0.0, 0.0, 0.0, 0.0, 0.0, 0.0, 0.0, 0.0, 0.0, 1.644588570174892E9, 0.0, 2022-02-12 01:09:30.174
168.0, -6399.930286399161, -6082.356701178158, -3555.022603872133, -9773.322614827468, -5642.094390641974, -2206.3406951833604, -6078.132221476105, -3480.434832624773, -5249.441295795596, -8668.47588640164, -4976.370033785109, -4097.320627846793, -3920.3171635052163, -6804.318047084576, -6870.121582761, -10891.915666093311, 0.009000000000000001, 0.23550000000000001, 0.9475, 192.0, 0.0, 0.0, 0.0, 0.0, 0.0, 0.0, 0.0, 0.0, 0.0, 1.644588570189085E9, 0.0, 2022-02-12 01:09:30.189
170.0, -6402.344274800334, -6088.749300092376, -3555.961377139256, -9778.776440474563, -5643.100219142463, -2211.3921894302594, -6066.643424826077, -3480.054852969033, -5261.75710699047, -8664.787848566515, -4970.826801160193, -4093.4090725671144, -3937.34919278016, -6800.294733082621, -6866.567655392606, -10940.061323650041, 0.009000000000000001, 0.23550000000000001, 0.9475, 192.0, 0.0, 0.0, 0.0, 0.0, 0.0, 0.0, 0.0, 0.0, 0.0, 1.644588570196968E9, 0.0, 2022-02-12 01:09:30.196
172.0, -6393.8953153962275, -6092.4149861830465, -3554.41910677184, -9762.705536211197, -5623.385980532883, -2197.176479956684, -6061.547227090267, -3470.35419587543, -5250.938862674101, -8654.550749605984, -4970.022138359802, -4086.457680041514, -3912.3822942235824, -6798.663055737384, -6862.410230923919, -10897.369491740405, 0.009000000000000001, 0.23550000000000001, 0.9475, 192.0, 0.0, 0.0, 0.0, 0.0, 0.0, 0.0, 0.0, 0.0, 0.0, 1.644588570204569E9, 0.0, 2022-02-12 01:09:30.204
174.0, -6397.203373575613, -6072.231360939903, -3538.8846443754014, -9771.400364804313, -5630.896166669866, -2192.884945021265, -6056.853360754652, -3464.9450737172456, -5242.7581242034585, -8667.984148023623, -4960.74616441085, -4069.0680228552847, -3926.575651952702, -6787.800107932104, -6859.683318100371, -10907.450128489749, 0.009000000000000001, 0.23550000000000001, 0.9475, 192.0, 0.0, 0.0, 3.5, 48.0, 14.5, 80.0, 0.0, 0.0, 0.0, 1.644588570212662E9, 0.0, 2022-02-12 01:09:30.212
176.0, -6409.630943492764, -6088.212858225448, -3541.8127228990465, -9769.947501414717, -5630.158559102841, -2193.0637589769076, -6072.611340595644, -3476.120945944899, -5254.112810386755, -8671.605130625383, -4951.917225351003, -4073.80659267981, -3918.193747781962, -6787.777756187649, -6861.694975101349, -10925.130358353897, 0.009000000000000001, 0.23550000000000001, 0.9475, 192.0, 0.0, 0.0, 0.0, 0.0, 0.0, 0.0, 0.0, 0.0, 0.0, 1.644588570219421E9, 0.0, 2022-02-12 01:09:30.219
178.0, -6397.6504084647195, -6071.002014994862, -3532.514397205639, -9765.477152523656, -5612.388922260871, -2179.809174514911, -6048.650270539555, -3457.926625958279, -5244.27804282642, -8655.556578106472, -4951.805466628726, -4067.190476321039, -3905.587363909169, -6782.3015787960985, -6861.672623356894, -10884.517238678603, 0.009000000000000001, 0.23550000000000001, 0.9475, 192.0, 0.0, 0.0, 0.0, 0.0, 0.0, 0.0, 0.0, 0.0, 0.0, 1.64458857022721E9, 0.0, 2022-02-12 01:09:30.227
180.0, -6373.287007008435, -6060.004956722851, -3531.0615338160437, -9777.323577084968, -5615.808739162533, -2172.611912800302, -6047.823255994708, -3444.604986262916, -5259.097249400288, -8663.692613088204, -4957.214588786911, -4067.9504356325197, -3915.779759380789, -6768.0411658336125, -6851.92726277438, -10929.86892817842, 0.009000000000000001, 0.23550000000000001, 0.9475, 192.0, 0.0, 0.0, 0.0, 0.0, 0.0, 0.0, 0.0, 0.0, 0.0, 1.64458857023561E9, 0.0, 2022-02-12 01:09:30.235
182.0, -6406.546402757932, -6053.701764786454, -3529.675725659815, -9761.856169921895, -5597.256791264629, -2169.706186021112, -6048.67262228401, -3453.9033119563237, -5245.194464349087, -8633.473054584629, -4958.578045198685, -4077.09229911474, -3905.430901697982, -6771.393927501908, -6849.759143562215, -10890.552209681537, 0.009000000000000001, 0.23550000000000001, 0.9475, 192.0, 0.0, 0.0, 0.0, 0.0, 0.0, 0.0, 0.0, 0.0, 0.0, 1.644588570241265E9, 0.0, 2022-02-12 01:09:30.241
184.0, -6410.547365015432, -6065.145857947571, -3523.6184029124265, -9775.468382295177, -5610.712541426724, -2170.1085174213076, -6054.86405549813, -3445.610814763405, -5254.381031320218, -8630.254403383065, -4941.970699068392, -4061.960168118497, -3896.7584248493226, -6773.427936247342, -6849.781495306671, -10907.58423895648, 0.009000000000000001, 0.23550000000000001, 0.9475, 192.0, 0.0, 0.0, 3.5, 16.0, 14.5, 72.0, 0.0, 0.0, 0.0, 1.644588570248918E9, 0.0, 2022-02-12 01:09:30.248
186.0, -6422.259679110012, -6077.618131353633, -3529.765132637636, -9775.870713695373, -5606.890393124866, -2169.2367993875505, -6056.451029354457, -3449.9470531877346, -5255.94565343209, -8646.772342535538, -4945.5022746923305, -4060.730822173455, -3907.129634276585, -6774.523171725652, -6851.8602075410145, -10926.046779876564, 0.009000000000000001, 0.23550000000000001, 0.9475, 192.0, 0.0, 0.0, 0.0, 0.0, 0.0, 0.0, 0.0, 0.0, 0.0, 1.644588570258528E9, 0.0, 2022-02-12 01:09:30.258
188.0, -6396.823393919873, -6068.029232982306, -3521.9196703338234, -9766.438277535233, -5594.194602274251, -2157.2562643595056, -6038.10024715665, -3441.5204455280837, -5242.17697884762, -8652.85201702738, -4953.50419920733, -4065.9164268870863, -3903.3745412080934, -6770.81278214607, -6856.464666898807, -10883.82433460049, 0.009000000000000001, 0.23550000000000001, 0.9475, 192.0, 0.0, 0.0, 0.0, 0.0, 0.0, 0.0, 0.0, 0.0, 0.0, 1.644588570264931E9, 0.0, 2022-02-12 01:09:30.264
190.0, -6386.832164148351, -6057.702727043954, -3518.253984243153, -9777.435335807246, -5595.088672052464, -2158.9102934491984, -6032.333497087181, -3443.621509506883, -5258.180827877621, -8656.987089751612, -4944.697611891939, -4048.4597144674917, -3904.872108086599, -6764.666052420861, -6844.97587024878, -10935.367457314427, 0.009000000000000001, 0.23550000000000001, 0.9475, 192.0, 0.0, 0.0, 0.0, 0.0, 0.0, 0.0, 0.0, 0.0, 0.0, 1.644588570271562E9, 0.0, 2022-02-12 01:09:30.271
192.0, -6396.778690430962, -6043.509369314835, -3518.0081150541446, -9768.204065347203, -5580.068299778498, -2147.5332555214472, -6034.993354677362, -3436.9606896592013, -5254.783362720414, -8642.503159344573, -4954.755896896827, -4065.938778631542, -3901.2734772292947, -6762.5202849531515, -6847.054582483123, -10898.375320240893, 0.009000000000000001, 0.23550000000000001, 0.9475, 192.0, 0.0, 0.0, 0.0, 0.0, 0.0, 0.0, 0.0, 0.0, 0.0, 1.644588570279757E9, 0.0, 2022-02-12 01:09:30.279
194.0, -6396.421062519677, -6043.531721059289, -3506.0722835150104, -9778.642330007831, -5582.169363757296, -2139.37486879526, -6025.784435961776, -3422.6332214633494, -5259.365470333752, -8632.266060384043, -4945.614033414607, -4058.830923894754, -3896.937238804965, -6756.90999709487, -6842.360716147508, -10908.970047112709, 0.0085, 0.23375, 0.94475, 192.0, 0.0, 32.0, 3.5, 32.0, 14.5, 56.0, 0.0, 0.0, 0.0, 1.644588570287579E9, 0.0, 2022-02-12 01:09:30.287
196.0, -6408.066321380892, -6060.697860800965, -3518.633963898893, -9781.905684698306, -5582.214067246207, -2141.118304862774, -6038.301412856747, -3431.8197884344804, -5262.673528513137, -8652.0920577159, -4947.69274564895, -4063.3012727858154, -3882.676825842479, -6751.769095870149, -6843.724172559282, -10927.276125821607, 0.0085, 0.23375, 0.94475, 192.0, 0.0, 0.0, 0.0, 0.0, 0.0, 0.0, 0.0, 0.0, 0.0, 1.644588570294746E9, 0.0, 2022-02-12 01:09:30.294
198.0, -6408.021617891982, -6058.14976193306, -3507.771016093614, -9775.31192008399, -5572.178133985774, -2136.5585489938917, -6031.707648242432, -3429.8528349224134, -5253.442258053095, -8641.027944210524, -4952.319556751198, -4053.488856969936, -3905.9226400759985, -6764.777811143138, -6849.312108673109, -10889.278160247584, 0.0085, 0.23375, 0.94475, 192.0, 0.0, 0.0, 0.0, 0.0, 0.0, 0.0, 0.0, 0.0, 0.0, 1.644588570301062E9, 0.0, 2022-02-12 01:09:30.301
200.0, -6384.664044936186, -6052.5618258192335, -3504.507661403139, -9784.118507399382, -5577.2743317215845, -2136.7820664384444, -6026.991430162362, -3429.003468633112, -5262.695880257593, -8634.769455763037, -4943.177693268978, -4048.32560400076, -3896.981942293876, -6760.1733517853445, -6844.998221993234, -10942.564719029036, 0.0085, 0.23375, 0.94475, 192.0, 0.0, 0.0, 0.0, 0.0, 0.0, 0.0, 0.0, 0.0, 0.0, 1.644588570317209E9, 0.0, 2022-02-12 01:09:30.317
202.0, -6394.856440407806, -6038.524930301301, -3505.4911381591724, -9768.896969425317, -5557.448334389727, -2126.120284333263, -6023.728075471888, -3429.4728552666734, -5247.787266705903, -8637.809293008959, -4942.8647688466035, -4049.331432501249, -3885.1131659881075, -6761.357994241476, -6839.589099835051, -10902.622151687403, 0.0085, 0.23375, 0.94475, 192.0, 0.0, 0.0, 0.0, 0.0, 0.0, 0.0, 0.0, 0.0, 0.0, 1.644588570324177E9, 0.0, 2022-02-12 01:09:30.324
204.0, -6418.549289530431, -6041.050677424751, -3498.1374142333766, -9782.978568432161, -5568.95948278421, -2132.512883247481, -6021.492901026357, -3426.835349420947, -5255.968005176545, -8622.587755034894, -4936.6956873769395, -4040.837769608232, -3881.849811297633, -6756.619424416951, -6842.561881847606, -10919.16244258433, 0.01025, 0.234875, 0.942375, 192.0, 0.0, 48.0, 3.5, 48.0, 14.5, 48.0, 0.0, 0.0, 0.0, 1.644588570331786E9, 0.0, 2022-02-12 01:09:30.331
206.0, -6428.473464068587, -6056.071049698717, -3503.859460813935, -9788.030062679061, -5563.885636792856, -2130.0094878684868, -6028.310183085226, -3429.4281517777627, -5273.692938529603, -8650.505083859574, -4957.50516146483, -4061.5354849738465, -3881.201610708429, -6758.720488395749, -6843.500655114729, -10942.341201584482, 0.01025, 0.234875, 0.942375, 192.0, 0.0, 0.0, 0.0, 0.0, 0.0, 0.0, 0.0, 0.0, 0.0, 1.644588570339798E9, 0.0, 2022-02-12 01:09:30.339
208.0, -6404.914725412694, -6054.372317120114, -3499.3667601784186, -9785.83959172244, -5556.330747166961, -2121.1134935752743, -6022.2752120822925, -3406.5623171999837, -5262.405307579674, -8641.56438607745, -4958.131010309578, -4064.7541361754106, -3877.8041455512225, -6757.558197684074, -6842.092495214045, -10897.101270806941, 0.01025, 0.234875, 0.942375, 192.0, 0.0, 0.0, 0.0, 0.0, 0.0, 0.0, 0.0, 0.0, 0.0, 1.644588570347881E9, 0.0, 2022-02-12 01:09:30.347
210.0, -6406.635809735752, -6072.209009195449, -3494.382321164885, -9799.451804095723, -5566.724308338679, -2126.410857011182, -6024.868014439108, -3415.994753360123, -5267.479153571028, -8648.895758258792, -4940.003745556324, -4041.485970197436, -3896.490203915859, -6749.220997002244, -6838.940899245847, -10947.8844342094, 0.01025, 0.234875, 0.942375, 192.0, 0.0, 0.0, 0.0, 0.0, 0.0, 0.0, 0.0, 0.0, 0.0, 1.644588570354301E9, 0.0, 2022-02-12 01:09:30.354
212.0, -6423.399618077233, -6057.166285177027, -3498.4950421446615, -9790.019367935583, -5552.463895376193, -2118.297173773906, -6031.551186031245, -3413.8266341479584, -5267.389746593207, -8639.66448779875, -4950.240844516855, -4047.967976089475, -3890.365825935105, -6758.742840140205, -6843.1653789479, -10917.597820472458, 0.01025, 0.234875, 0.942375, 192.0, 0.0, 0.0, 0.0, 0.0, 0.0, 0.0, 0.0, 0.0, 0.0, 1.644588570362415E9, 0.0, 2022-02-12 01:09:30.362
214.0, -6418.035199407959, -6027.282002840281, -3486.6262658388932, -9796.724891272175, -5548.753505796612, -2109.9599730920763, -6004.773796173787, -3403.4554247206956, -5265.735717503514, -8628.846243482381, -4938.7520478668275, -4041.3518597307043, -3883.3697299205937, -6748.349278968487, -6839.611451579506, -10926.896146165866, 0.009125000000000001, 0.2374375, 0.9411875000000001, 192.0, 0.0, 32.0, 3.5, 64.0, 14.5, 48.0, 0.0, 0.0, 0.0, 1.644588570369402E9, 0.0, 2022-02-12 01:09:30.369
216.0, -6406.814623691395, -6049.544340317767, -3490.4037106518404, -9799.474155840178, -5544.506674350104, -2112.485720215526, -6013.245107322348, -3407.478738722651, -5270.0496041833885, -8646.034734968513, -4933.789960597749, -4044.190531276528, -3884.979055521376, -6742.157845754367, -6831.788341020148, -10947.97384118722, 0.009125000000000001, 0.2374375, 0.9411875000000001, 192.0, 0.0, 0.0, 0.0, 0.0, 0.0, 0.0, 0.0, 0.0, 0.0, 1.644588570376549E9, 0.0, 2022-02-12 01:09:30.376
218.0, -6410.502661526521, -6039.866034968619, -3489.531992618083, -9789.885257468852, -5535.029534701054, -2105.266106756462, -6010.495842754346, -3401.667285164271, -5260.438354067606, -8630.187348149699, -4936.181597254467, -4046.4927609554247, -3872.7079478154124, -6751.590281914507, -6837.376277133975, -10906.489003478171, 0.009125000000000001, 0.2374375, 0.9411875000000001, 192.0, 0.0, 0.0, 0.0, 0.0, 0.0, 0.0, 0.0, 0.0, 0.0, 1.644588570383917E9, 0.0, 2022-02-12 01:09:30.383
220.0, -6421.455016309621, -6066.084631214694, -3480.3007221580415, -9802.089309941448, -5540.036325459043, -2106.6966184016014, -6010.428787520979, -3399.610924674383, -5270.407232094673, -8641.676144799727, -4937.142722266045, -4044.3022899988046, -3869.0199099802867, -6750.830322603027, -6836.549262589128, -10958.143884914385, 0.009125000000000001, 0.2374375, 0.9411875000000001, 192.0, 0.0, 0.0, 0.0, 0.0, 0.0, 0.0, 0.0, 0.0, 0.0, 1.644588570391993E9, 0.0, 2022-02-12 01:09:30.391
222.0, -6436.676554283686, -6054.193503164471, -3483.474669870695, -9793.886219726352, -5525.194767140719, -2101.309847987872, -6013.423921277991, -3403.1425002983215, -5267.143877404199, -8645.1406651903, -4941.322498479188, -4041.195397519517, -3849.6409475375353, -6744.683592877816, -6838.002125978724, -10923.968067642221, 0.009125000000000001, 0.2374375, 0.9411875000000001, 192.0, 0.0, 0.0, 0.0, 0.0, 0.0, 0.0, 0.0, 0.0, 0.0, 1.644588570399934E9, 0.0, 2022-02-12 01:09:30.399
224.0, -6410.055626637415, -6041.922395458508, -3469.2366086526645, -9801.575219818977, -5531.09562767692, -2097.5547549193807, -6006.316066541203, -3394.9170583387686, -5269.088479171811, -8640.71501978815, -4930.459550673909, -4036.4791794394473, -3877.357110662116, -6742.962508554758, -6833.464721854297, -10939.614288760935, 0.004, 0.23600000000000002, 0.9420000000000001, 192.0, 0.0, 16.0, 3.5, 48.0, 14.5, 56.0, 0.0, 0.0, 0.0, 1.644588570406668E9, 0.0, 2022-02-12 01:09:30.406
226.0, -6435.514263572009, -6058.775610777809, -3471.963521476212, -9799.340045373447, -5527.005258441599, -2096.6830368856236, -6020.598831248144, -3403.0530933205005, -5283.95238923459, -8647.152322191278, -4927.822044828182, -4027.449074679503, -3871.0986222146303, -6736.055819518068, -6833.576480576573, -10961.608405304958, 0.004, 0.23600000000000002, 0.9420000000000001, 192.0, 0.0, 0.0, 0.0, 0.0, 0.0, 0.0, 0.0, 0.0, 0.0, 1.644588570414608E9, 0.0, 2022-02-12 01:09:30.414
228.0, -6444.142036931758, -6052.33830837468, -3466.6438062958487, -9800.636446551855, -5522.132578150342, -2095.9230775741435, -6008.1265578420835, -3408.797491645514, -5270.474287328039, -8628.0862841709, -4938.729696122372, -4035.585109661235, -3864.415450622493, -6740.14618875339, -6836.437503866852, -10922.895183908366, 0.004, 0.23600000000000002, 0.9420000000000001, 192.0, 0.0, 0.0, 0.0, 0.0, 0.0, 0.0, 0.0, 0.0, 0.0, 1.644588570422814E9, 0.0, 2022-02-12 01:09:30.422
230.0, -6432.094446670348, -6068.923302760519, -3471.2706173980973, -9825.424531152788, -5537.108246935398, -2099.1417287757076, -6015.077950367684, -3408.9539538567014, -5290.613209082271, -8659.892816530803, -4942.64125140205, -4045.196359777017, -3870.0927937141414, -6738.827435830526, -6840.751390546727, -10978.327510157527, 0.004, 0.23600000000000002, 0.9420000000000001, 192.0, 0.0, 0.0, 0.0, 0.0, 0.0, 0.0, 0.0, 0.0, 0.0, 1.644588570436312E9, 0.0, 2022-02-12 01:09:30.436
232.0, -6438.7999700069395, -6038.368468090113, -3476.54562908955, -9809.420682122789, -5519.673886260258, -2092.0115222944646, -6015.770854445798, -3409.3115817679864, -5276.933941475623, -8656.517703118052, -4945.725792136883, -4045.7551533884, -3853.641909795035, -6741.733162609717, -6847.613376094506, -10944.442265563282, 0.004, 0.23600000000000002, 0.9420000000000001, 192.0, 0.0, 0.0, 0.0, 0.0, 0.0, 0.0, 0.0, 0.0, 0.0, 1.644588570444438E9, 0.0, 2022-02-12 01:09:30.444
234.0, -6410.882641182261, -6047.666793783521, -3453.702146256226, -9816.975571748682, -5520.992639183121, -2081.1038710002745, -6007.791281675253, -3392.838346104425, -5273.603531551782, -8637.965755220146, -4931.867710574593, -4032.6570311375895, -3845.0141364352867, -6742.984860299213, -6845.73582956026, -10948.97966968771, 0.01, 0.23600000000000002, 0.9440000000000001, 192.0, 0.0, 40.0, 3.5, 48.0, 14.5, 64.0, 0.0, 0.0, 0.0, 1.644588570452214E9, 0.0, 2022-02-12 01:09:30.452
236.0, -6447.025411966492, -6058.283872399792, -3460.3406143594525, -9821.781196806574, -5512.431921056738, -2084.8589640687665, -6008.730054942376, -3404.640067176827, -5285.449956113095, -8646.079438457422, -4928.671411117484, -4038.4684846959694, -3858.872217997577, -6730.222014215233, -6838.113884701001, -10979.93683575831, 0.01, 0.23600000000000002, 0.9440000000000001, 192.0, 0.0, 0.0, 0.0, 0.0, 0.0, 0.0, 0.0, 0.0, 0.0, 1.644588570459407E9, 0.0, 2022-02-12 01:09:30.459
238.0, -6420.0692081533925, -6045.744543760365, -3454.6185677788935, -9820.283629928068, -5508.430958799238, -2080.7909465779003, -6005.533755485268, -3396.414625217274, -5273.670586785149, -8639.262156398554, -4936.673335632484, -4036.389772461626, -3858.916921486488, -6734.178272983822, -6835.275213155176, -10937.334410826494, 0.01, 0.23600000000000002, 0.9440000000000001, 192.0, 0.0, 0.0, 0.0, 0.0, 0.0, 0.0, 0.0, 0.0, 0.0, 1.644588570466893E9, 0.0, 2022-02-12 01:09:30.466
240.0, -6442.353897375334, -6052.762991519331, -3450.438791565751, -9832.957069034228, -5520.23267987164, -2083.3390454458054, -6001.8457176501415, -3387.7645001130704, -5283.304188645386, -8650.90741525977, -4942.373030468587, -4025.3927141896147, -3855.854732496111, -6728.210357214255, -6836.97394573378, -10987.022338750641, 0.01, 0.23600000000000002, 0.9440000000000001, 192.0, 0.0, 0.0, 0.0, 0.0, 0.0, 0.0, 0.0, 0.0, 0.0, 1.644588570474853E9, 0.0, 2022-02-12 01:09:30.474
242.0, -6454.289728914468, -6046.884482727585, -3454.082125911966, -9825.357475919423, -5504.966438408665, -2079.9862837775095, -6006.360770030114, -3387.652741390794, -5286.053453213389, -8647.845226269392, -4936.02513504328, -4032.746438115411, -3851.4961423273257, -6726.086941491001, -6839.432637623863, -10956.31104186905, 0.01, 0.23600000000000002, 0.9440000000000001, 192.0, 0.0, 0.0, 0.0, 0.0, 0.0, 0.0, 0.0, 0.0, 0.0, 1.644588570481866E9, 0.0, 2022-02-12 01:09:30.481
244.0, -6418.348123830334, -6037.407343078536, -3444.5602827740054, -9831.392446922357, -5509.503842533093, -2077.639350609702, -5996.928333869974, -3386.8927820793133, -5292.781328294436, -8657.679993829726, -4932.06887627469, -4031.4947404259137, -3837.816874720678, -6731.4066566713645, -6837.599794578528, -10967.285748396605, 0.008, 0.23800000000000002, 0.9460000000000001, 192.0, 0.0, 32.0, 3.5, 56.0, 14.5, 72.0, 0.0, 0.0, 0.0, 1.644588570488577E9, 0.0, 2022-02-12 01:09:30.488
246.0, -6451.272243413001, -6051.9136252300295, -3454.1938846342427, -9837.762694092118, -5508.833290199434, -2076.0747284978306, -6004.170299073494, -3386.9821890571343, -5291.753148049492, -8668.185313723721, -4937.254480988322, -4039.0496300518075, -3858.1569621750073, -6727.1821769693115, -6840.550224846629, -10995.694815599301, 0.008, 0.23800000000000002, 0.9460000000000001, 192.0, 0.0, 0.0, 0.0, 0.0, 0.0, 0.0, 0.0, 0.0, 0.0, 1.64458857049659E9, 0.0, 2022-02-12 01:09:30.496
248.0, -6440.342240374356, -6049.700802528954, -3448.605948520416, -9828.643182354353, -5497.791528438513, -2067.3575481602606, -5994.559048957712, -3379.0249680310453, -5284.891162501713, -8643.039601211502, -4940.495483934341, -4041.1506940306062, -3841.594319533625, -6730.959621782258, -6844.998221993234, -10951.237195877695, 0.008, 0.23800000000000002, 0.9460000000000001, 192.0, 0.0, 0.0, 0.0, 0.0, 0.0, 0.0, 0.0, 0.0, 0.0, 1.644588570504613E9, 0.0, 2022-02-12 01:09:30.504
250.0, -6442.219786908601, -6054.305261886748, -3446.616643263894, -9841.13780750487, -5504.51940351956, -2069.168039461141, -5994.491993724346, -3382.8471163329027, -5290.747319549003, -8654.863674028358, -4932.627669886073, -4025.772693845355, -3846.198778891418, -6727.942136280792, -6840.997259735735, -11001.84154532451, 0.008, 0.23800000000000002, 0.9460000000000001, 192.0, 0.0, 0.0, 0.0, 0.0, 0.0, 0.0, 0.0, 0.0, 0.0, 1.644588570512137E9, 0.0, 2022-02-12 01:09:30.512
252.0, -6458.447153383155, -6049.611395551133, -3444.1132478848995, -9832.599441122942, -5493.343531291906, -2064.8541527812663, -6001.532793227768, -3384.7917181005146, -5283.013615967467, -8649.253386170076, -4943.69178339145, -4035.2051300054945, -3833.23476710734, -6727.942136280792, -6844.327669659576, -10970.280882153616, 0.008, 0.23800000000000002, 0.9460000000000001, 192.0, 0.0, 0.0, 0.0, 0.0, 0.0, 0.0, 0.0, 0.0, 0.0, 1.644588570519246E9, 0.0, 2022-02-12 01:09:30.519
254.0, -6454.334432403378, -6050.0360786957835, -3430.8139599339916, -9844.982307551183, -5499.132633105831, -2055.2429026654845, -5989.999293088829, -3374.308749950975, -5293.965970750567, -8643.71015354516, -4931.375972196576, -4028.164330502073, -3848.389249848038, -6720.230784443711, -6843.858283026014, -10979.020414235642, 0.008, 0.23800000000000002, 0.9460000000000001, 192.0, 0.0, 0.0, 3.5, 48.0, 14.5, 64.0, 0.0, 0.0, 0.0, 1.644588570527569E9, 0.0, 2022-02-12 01:09:30.527
0.0, -6458.380098149789, -6053.657061297544, -3441.9227769282793, -9846.815150596518, -5496.338665048917, -2057.768649788934, -5994.246124535337, -3379.8519825758917, -5296.849345785302, -8660.093982230901, -4942.194216512945, -4026.5326531568353, -3856.3688226185827, -6720.543708866086, -6843.858283026014, -11004.590809892514, 0.008, 0.23800000000000002, 0.9460000000000001, 192.0, 0.0, 0.0, 0.0, 0.0, 0.0, 0.0, 0.0, 0.0, 0.0, 1.644588570535381E9, 0.0, 2022-02-12 01:09:30.535
2.0, -6453.663880069719, -6043.2858518702815, -3438.145332115332, -9844.870548828907, -5487.8226504114455, -2052.806562519856, -5995.721339669388, -3378.801450586492, -5277.492735087006, -8655.780095551027, -4943.244748502344, -4033.729914871444, -3847.9198632144767, -6720.029618743613, -6846.406381893919, -10966.97282397423, 0.008, 0.23800000000000002, 0.9460000000000001, 192.0, 0.0, 0.0, 0.0, 0.0, 0.0, 0.0, 0.0, 0.0, 0.0, 1.644588570541808E9, 0.0, 2022-02-12 01:09:30.541
4.0, -6458.268339427512, -6043.934052459485, -3437.9888699041453, -9859.33212749149, -5495.936333648722, -2051.7336787860013, -5994.1567175575165, -3378.4661744196624, -5300.313866175874, -8664.340813677409, -4935.131065265067, -4026.1526735010953, -3837.5486537872143, -6717.258002431155, -6852.508408130218, -11021.37696997845, 0.008, 0.23800000000000002, 0.9460000000000001, 192.0, 0.0, 0.0, 0.0, 0.0, 0.0, 0.0, 0.0, 0.0, 0.0, 1.644588570548959E9, 0.0, 2022-02-12 01:09:30.548
6.0, -6457.709545816129, -6053.746468275365, -3448.583596775961, -9852.179569265792, -5484.872220143345, -2051.778382274912, -5994.201421046427, -3383.2717994775535, -5297.922229519157, -8660.585720608917, -4949.302071249732, -4034.8922055831204, -3833.525339785259, -6720.163729210345, -6855.592948865051, -10991.73855683071, 0.008, 0.23800000000000002, 0.9460000000000001, 192.0, 0.0, 0.0, 0.0, 0.0, 0.0, 0.0, 0.0, 0.0, 0.0, 1.644588570564837E9, 0.0, 2022-02-12 01:09:30.564
8.0, -6485.738633363085, -6063.558884091245, -3441.386335061352, -9867.311700262035, -5496.428072026739, -2051.845437508278, -5993.6649791795, -3376.7450900966037, -5307.689941846125, -8652.717906560649, -4947.69274564895, -4032.478217181947, -3839.940290443932, -6714.218165185233, -6862.589044879562, -11001.282751713128, 0.002, 0.232, 0.9440000000000001, 192.0, 0.0, 8.0, 3.5, 32.0, 14.5, 64.0, 0.0, 0.0, 0.0, 1.644588570571479E9, 0.0, 2022-02-12 01:09:30.571
10.0, -6495.752214879062, -6076.254674941859, -3454.126829400877, -9867.848142128962, -5494.1034906033865, -2059.087402711797, -6002.382159517069, -3378.5332296530282, -5318.441130929128, -8672.409793425775, -4945.1669985255, -4020.676496109545, -3857.0170232077867, -6721.5495373665735, -6866.1206205035, -11032.932821861843, 0.002, 0.232, 0.9440000000000001, 192.0, 0.0, 0.0, 0.0, 0.0, 0.0, 0.0, 0.0, 0.0, 0.0, 1.644588570579415E9, 0.0, 2022-02-12 01:09:30.579
12.0, -6472.394641923266, -6055.020517709318, -3443.308585084508, -9864.987118838682, -5486.995635866599, -2049.0738211958196, -5997.665941437, -3369.9054562932797, -5309.366322680274, -8672.05216551449, -4961.349661511143, -4037.3732492176596, -3856.0782499406637, -6727.495101391685, -6866.969986792802, -10990.12923122993, 0.002, 0.232, 0.9440000000000001, 192.0, 0.0, 0.0, 0.0, 0.0, 0.0, 0.0, 0.0, 0.0, 0.0, 1.644588570587452E9, 0.0, 2022-02-12 01:09:30.587
14.0, -6468.416031410222, -6050.840741496175, -3441.0734106389777, -9880.298063790568, -5494.259952814574, -2052.247768908473, -5993.374406501581, -3371.0453952605008, -5320.050456529911, -8673.661491115272, -4950.129085794579, -4043.139999287129, -3851.5631975606916, -6724.90229903487, -6865.047736769645, -11039.258365542695, 0.002, 0.232, 0.9440000000000001, 192.0, 0.0, 0.0, 0.0, 0.0, 0.0, 0.0, 0.0, 0.0, 0.0, 1.644588570594125E9, 0.0, 2022-02-12 01:09:30.594
16.0, -6498.188555024691, -6069.213875438438, -3443.643861251338, -9874.106630576449, -5485.140441076808, -2050.526684585415, -6001.085758338661, -3375.4710406626514, -5315.803625083402, -8676.47781091664, -4957.54986495374, -4037.7532288733996, -3849.9315202154544, -6730.33377293751, -6867.55113214864, -11009.172917505852, 0.002, 0.232, 0.9440000000000001, 192.0, 0.0, 0.0, 0.0, 0.0, 0.0, 0.0, 0.0, 0.0, 0.0, 1.644588570602107E9, 0.0, 2022-02-12 01:09:30.602
18.0, -6497.361540479844, -6077.9757592649175, -3434.904329169313, -9880.834505657496, -5489.722548690146, -2043.8211612488226, -5993.106185568116, -3371.023043516045, -5322.6432588867265, -8668.744107335104, -4953.057164318224, -4027.6278886351456, -3845.885854469044, -6720.409598399353, -6868.534608904673, -11015.498461186704, 0.008, 0.23, 0.9440000000000001, 192.0, 0.0, 32.0, 3.5, 24.0, 14.5, 64.0, 0.0, 0.0, 0.0, 1.64458857061002E9, 0.0, 2022-02-12 01:09:30.610
20.0, -6502.770662638029, -6076.522895875322, -3448.3600793314076, -9890.177534839813, -5488.403795767284, -2047.1068676837526, -6002.7844909172645, -3372.1406307388106, -5335.450808459617, -8671.918055047758, -4957.12518180909, -4033.1711212600617, -3824.696400725413, -6720.029618743613, -6875.351890963542, -11047.32734529106, 0.008, 0.23, 0.9440000000000001, 192.0, 0.0, 0.0, 0.0, 0.0, 0.0, 0.0, 0.0, 0.0, 0.0, 1.644588570617066E9, 0.0, 2022-02-12 01:09:30.617
22.0, -6492.488860188587, -6055.713421787432, -3440.514617027595, -9890.021072628626, -5483.933446876222, -2044.6928792825795, -5997.777700159276, -3367.513819636562, -5325.705447877103, -8674.376746937842, -4967.027004602791, -4049.2196737789723, -3871.545657103736, -6729.864386303948, -6873.74256536276, -11005.618990137458, 0.008, 0.23, 0.9440000000000001, 192.0, 0.0, 0.0, 0.0, 0.0, 0.0, 0.0, 0.0, 0.0, 0.0, 1.644588570623795E9, 0.0, 2022-02-12 01:09:30.623
24.0, -6499.797880625472, -6084.502468645867, -3443.710916484704, -9906.226087358724, -5502.172470351752, -2055.6005305767694, -6008.953572386929, -3382.5341919105285, -5343.050401574422, -8700.416529228274, -4969.798620915249, -4039.295499240816, -3869.891628014044, -6733.977107283725, -6880.045757299156, -11063.599415254525, 0.008, 0.23, 0.9440000000000001, 192.0, 0.0, 0.0, 0.0, 0.0, 0.0, 0.0, 0.0, 0.0, 0.0, 1.644588570631724E9, 0.0, 2022-02-12 01:09:30.631
26.0, -6509.923220863727, -6080.725023832921, -3455.087954412455, -9899.408805299856, -5490.1695835792525, -2052.6724520531243, -6013.356866044625, -3386.959837312679, -5347.67721267667, -8706.317389764476, -4986.428318789997, -4057.1098395716954, -3868.4164128799935, -6742.604880643473, -6887.93592309188, -11041.337077777038, 0.008, 0.23, 0.9440000000000001, 192.0, 0.0, 0.0, 0.0, 0.0, 0.0, 0.0, 0.0, 0.0, 0.0, 1.644588570639835E9, 0.0, 2022-02-12 01:09:30.639
28.0, -6518.752159923573, -6086.670587858032, -3437.7877042040473, -9910.29410484959, -5492.672978958247, -2048.02328920642, -6005.243182807349, -3385.350511711897, -5350.649994689226, -8687.139593021822, -4979.074594864202, -4049.3984877346147, -3846.042316680231, -6740.772037598138, -6889.142917292466, -11047.930842391354, 0.004, 0.23800000000000002, 0.9480000000000001, 192.0, 0.0, 16.0, 3.5, 56.0, 14.5, 80.0, 0.0, 0.0, 0.0, 1.644588570646823E9, 0.0, 2022-02-12 01:09:30.646
30.0, -6543.607299757874, -6098.002922296872, -3451.1763991327766, -9920.330038110023, -5499.46790927266, -2054.840571265289, -6021.984639404373, -3378.421470930752, -5358.24958780403, -8694.895648347814, -4976.593551229662, -4060.730822173455, -3866.583569834658, -6739.185063741811, -6894.328522006098, -11078.150400894929, 0.004, 0.23800000000000002, 0.9480000000000001, 192.0, 0.0, 0.0, 0.0, 0.0, 0.0, 0.0, 0.0, 0.0, 0.0, 1.644588570654334E9, 0.0, 2022-02-12 01:09:30.654
32.0, -6549.217587616156, -6104.864907844652, -3453.545684045039, -9912.037540917105, -5490.214287068163, -2049.185579918096, -6010.138214843061, -3371.2689127050535, -5362.429364017173, -8710.810090399991, -4987.300036823754, -4053.064173825285, -3866.8741425125772, -6741.844921331993, -6903.023350599212, -11037.336115519538, 0.004, 0.23800000000000002, 0.9480000000000001, 192.0, 0.0, 0.0, 0.0, 0.0, 0.0, 0.0, 0.0, 0.0, 0.0, 1.64458857066229E9, 0.0, 2022-02-12 01:09:30.662
34.0, -6535.515968265053, -6099.098157775183, -3456.674928268782, -9933.115235938458, -5504.18412735273, -2057.6345393222023, -6013.982714889374, -3377.3485871968974, -5379.215524103109, -8731.373695298875, -4991.636275248084, -4043.452923709503, -3870.0480902252307, -6736.1899299848, -6906.644333200972, -11091.33793012356, 0.004, 0.23800000000000002, 0.9480000000000001, 192.0, 0.0, 0.0, 0.0, 0.0, 0.0, 0.0, 0.0, 0.0, 0.0, 1.644588570671018E9, 0.0, 2022-02-12 01:09:30.671
36.0, -6518.6851046902075, -6102.316808976747, -3459.1112684144105, -9930.455378348277, -5489.096699845398, -2057.1428009441856, -6016.173185845993, -3381.2154389876655, -5370.297178065441, -8721.002485871611, -5007.573069044718, -4067.346938532226, -3873.3561484046163, -6745.220034744744, -6910.064150102634, -11066.639252500445, 0.004, 0.23800000000000002, 0.9480000000000001, 192.0, 0.0, 0.0, 0.0, 0.0, 0.0, 0.0, 0.0, 0.0, 0.0, 1.644588570683932E9, 0.0, 2022-02-12 01:09:30.683
38.0, -6558.515913309564, -6106.206012511971, -3442.995660662134, -9942.078285465037, -5498.395025538805, -2055.108792198753, -6018.8106916917195, -3380.7013488651933, -5376.510963024016, -8706.38444499784, -5000.174641630011, -4056.6851564270446, -3868.4164128799935, -6750.495046436196, -6905.772615167215, -11076.943406694343, 0.004, 0.23800000000000002, 0.9480000000000001, 192.0, 0.0, 0.0, 3.5, 40.0, 14.5, 56.0, 0.0, 0.0, 0.0, 1.644588570691998E9, 0.0, 2022-02-12 01:09:30.691
40.0, -6577.894875752316, -6118.7676928958535, -3454.082125911966, -9942.927651754339, -5503.312409318974, -2063.1330684582076, -6035.328630844192, -3402.8072241314917, -5389.519678297005, -8728.91500340879, -4994.586705516184, -4053.7794296478546, -3868.639930324546, -6748.416334201853, -6918.021371128723, -11112.773253056199, 0.004, 0.23800000000000002, 0.9480000000000001, 192.0, 0.0, 0.0, 0.0, 0.0, 0.0, 0.0, 0.0, 0.0, 0.0, 1.644588570699235E9, 0.0, 2022-02-12 01:09:30.699
42.0, -6567.009576202581, -6117.44893997299, -3455.222064879187, -9940.446608119799, -5493.499993503094, -2055.2652544099396, -6027.259651095826, -3390.647875147805, -5383.909390438723, -8717.537965481039, -5014.926792970514, -4065.8270199092653, -3864.4378023669487, -6762.9896715867135, -6927.297345077675, -11070.6625665024, 0.004, 0.23800000000000002, 0.9480000000000001, 192.0, 0.0, 0.0, 0.0, 0.0, 0.0, 0.0, 0.0, 0.0, 0.0, 1.644588570706549E9, 0.0, 2022-02-12 01:09:30.706
44.0, -6554.000860929592, -6103.389692710602, -3452.4951520556397, -9957.478637394743, -5503.80414769699, -2057.1428009441856, -6025.829139450686, -3385.484622178629, -5397.052216178443, -8727.328029552464, -5000.129938141101, -4065.581150720257, -3875.9936542503424, -6746.404677200875, -6925.911536921446, -11122.093930494062, 0.004, 0.23800000000000002, 0.9480000000000001, 192.0, 0.0, 0.0, 0.0, 0.0, 0.0, 0.0, 0.0, 0.0, 0.0, 1.644588570714955E9, 0.0, 2022-02-12 01:09:30.714
46.0, -6566.450782591198, -6127.730742422431, -3455.222064879187, -9950.147265213403, -5493.857621414379, -2055.3323096433055, -6035.5968517776555, -3391.6537036482937, -5389.787899230469, -8732.535986010551, -5010.076464423712, -4073.3148543017933, -3863.007290721809, -6753.579587171029, -6930.359534068052, -11096.612941815012, 0.005, 0.233, 0.9470000000000001, 192.0, 0.0, 24.0, 3.5, 16.0, 14.5, 72.0, 0.0, 0.0, 0.0, 1.644588570722552E9, 0.0, 2022-02-12 01:09:30.722
48.0, -6594.345759671422, -6142.572300740755, -3449.3659078318965, -9963.334794442033, -5501.881897673834, -2051.8230857638223, -6029.941860430463, -3389.642046647316, -5402.930724970189, -8743.73420998266, -5018.793644761282, -4065.1117640866955, -3882.945046775943, -6755.7700581276495, -6932.929984680412, -11098.758709282722, 0.005, 0.233, 0.9470000000000001, 192.0, 0.0, 0.0, 0.0, 0.0, 0.0, 0.0, 0.0, 0.0, 0.0, 1.644588570729221E9, 0.0, 2022-02-12 01:09:30.729
50.0, -6600.8054138190055, -6145.790951942319, -3453.6350910228603, -9968.989785789227, -5503.737092463624, -2051.5325130859032, -6044.023459437306, -3396.9734188286566, -5420.923879256711, -8761.213274146708, -5019.173624417022, -4074.18657233555, -3884.263799698806, -6753.020793559646, -6936.081580648611, -11134.052113777652, 0.005, 0.233, 0.9470000000000001, 192.0, 0.0, 0.0, 0.0, 0.0, 0.0, 0.0, 0.0, 0.0, 0.0, 1.644588570736327E9, 0.0, 2022-02-12 01:09:30.736
52.0, -6595.731567827651, -6121.9416406085065, -3446.638995008349, -9963.513608397676, -5487.956760878177, -2044.1117339267414, -6022.722246971399, -3389.5302879250394, -5407.535184327982, -8736.693410479238, -5034.037534479801, -4066.631682709656, -3861.6438343100353, -6750.71856388075, -6937.4450370603845, -11091.092060934552, 0.005, 0.233, 0.9470000000000001, 192.0, 0.0, 0.0, 0.0, 0.0, 0.0, 0.0, 0.0, 0.0, 0.0, 1.64458857074422E9, 0.0, 2022-02-12 01:09:30.744
54.0, -6566.897817480304, -6116.040780072306, -3443.2415298511423, -9972.990748046726, -5502.9100779187775, -2047.7103647840459, -6025.449159794946, -3382.154212254788, -5412.765492530524, -8746.483474550661, -5011.261106879843, -4054.1147058146844, -3877.0218344952864, -6750.942081325303, -6937.690906249393, -11145.675020894412, 0.005, 0.233, 0.9470000000000001, 192.0, 0.0, 0.0, 0.0, 0.0, 0.0, 0.0, 0.0, 0.0, 0.0, 1.644588570752269E9, 0.0, 2022-02-12 01:09:30.752
56.0, -6592.244695692622, -6137.900786149596, -3455.5349893015614, -9969.88385556744, -5496.18220283773, -2048.3362136287947, -6034.725133743898, -3393.486546693629, -5408.2280884060965, -8742.124884381878, -5013.965667958935, -4076.421746781081, -3886.0519392552305, -6763.257892520177, -6946.408086586963, -11120.059921748629, 0.0055, 0.23550000000000001, 0.9475, 192.0, 0.0, 24.0, 3.5, 56.0, 14.5, 80.0, 0.0, 0.0, 0.0, 1.644588570758959E9, 0.0, 2022-02-12 01:09:30.758
58.0, -6608.293248211533, -6144.651012975099, -3453.6127392784047, -9981.618521406475, -5503.625333741347, -2044.4917135824817, -6038.770799490309, -3388.993846058112, -5414.888908253778, -8732.357172054908, -5017.676057538517, -4073.068985112785, -3877.1782967064737, -6755.188912771811, -6951.593691300594, -11122.272744449705, 0.0055, 0.23550000000000001, 0.9475, 192.0, 0.0, 0.0, 0.0, 0.0, 0.0, 0.0, 0.0, 0.0, 0.0, 1.64458857076688E9, 0.0, 2022-02-12 01:09:30.766
60.0, -6635.048286324535, -6145.165103097571, -3462.2628643826088, -9991.699158155818, -5505.882859931334, -2054.6617573096464, -6037.854377967641, -3400.5720496859612, -5428.277603182507, -8773.752602786137, -5022.012295962846, -4077.09229911474, -3885.850773555133, -6757.468790706253, -6956.37696461403, -11160.896558868475, 0.0055, 0.23550000000000001, 0.9475, 192.0, 0.0, 0.0, 0.0, 0.0, 0.0, 0.0, 0.0, 0.0, 0.0, 1.64458857077519E9, 0.0, 2022-02-12 01:09:30.775
62.0, -6618.2397744941445, -6136.582033226733, -3447.287195597553, -9984.300730741112, -5493.701159203191, -2045.8775217387108, -6029.137197630072, -3385.2164012451653, -5424.50015836956, -8758.553416556528, -5028.069618710234, -4080.1768398495724, -3867.0976599571304, -6763.861389620471, -6957.9862902148125, -11116.260125191227, 0.0055, 0.23550000000000001, 0.9475, 192.0, 0.0, 0.0, 0.0, 0.0, 0.0, 0.0, 0.0, 0.0, 0.0, 1.644588570782073E9, 0.0, 2022-02-12 01:09:30.782
64.0, -6591.2388671921335, -6144.181626341538, -3447.533064786561, -10002.137422816448, -5508.699179732702, -2048.1126961842415, -6037.295584356259, -3387.5633344129724, -5435.541920130482, -8769.97515797319, -5022.392275618587, -4060.8202291512766, -3879.4134711520046, -6754.764229627161, -6959.975595471335, -11168.518503727735, 0.0055, 0.23550000000000001, 0.9475, 192.0, 0.0, 0.0, 0.0, 0.0, 0.0, 0.0, 0.0, 0.0, 0.0, 1.644588570789527E9, 0.0, 2022-02-12 01:09:30.789
66.0, -6627.0463618095355, -6159.939606182529, -3453.8139049785027, -9994.001387834714, -5501.859545929378, -2049.6996700405684, -6040.156607646538, -3402.449596220207, -5434.960774774644, -8765.191884659755, -5039.156083960067, -4081.1156131166954, -3897.607791138624, -6759.547502940596, -6967.597540330594, -11146.72555288381, 0.00575, 0.23675000000000002, 0.94475, 192.0, 0.0, 24.0, 3.5, 56.0, 14.5, 56.0, 0.0, 0.0, 0.0, 1.644588570796827E9, 0.0, 2022-02-12 01:09:30.796
68.0, -6640.479760227176, -6163.31471959528, -3446.638995008349, -9997.845887881027, -5507.872165187856, -2048.872655495722, -6041.6988780139545, -3399.610924674383, -5432.636193351293, -8761.883826480369, -5023.6886767969945, -4081.8532206837203, -3876.0607094837083, -6767.303558266588, -6971.33028165463, -11155.599195432567, 0.00575, 0.23675000000000002, 0.94475, 192.0, 0.0, 0.0, 0.0, 0.0, 0.0, 0.0, 0.0, 0.0, 0.0, 1.644588570811747E9, 0.0, 2022-02-12 01:09:30.811
70.0, -6643.229024795178, -6157.659728248087, -3458.865399225402, -10011.480451998765, -5517.148139136808, -2058.1486294446745, -6054.260558397837, -3411.747921913615, -5440.191082977186, -8782.64859707935, -5024.292173897287, -4073.9630548909972, -3888.398872423038, -6771.259817035177, -6977.81228754667, -11195.854687196575, 0.00575, 0.23675000000000002, 0.94475, 192.0, 0.0, 0.0, 0.0, 0.0, 0.0, 0.0, 0.0, 0.0, 0.0, 1.644588570819097E9, 0.0, 2022-02-12 01:09:30.819
72.0, -6621.570184417986, -6158.710260237487, -3451.6457857663377, -10005.825460651573, -5510.33085707794, -2052.7171555420346, -6051.4442385964685, -3412.5525847140057, -5436.637155608792, -8772.612663818916, -5036.160950203055, -4080.1768398495724, -3893.696235858946, -6770.678671679339, -6984.853087050091, -11156.023878577218, 0.00575, 0.23675000000000002, 0.94475, 192.0, 0.0, 0.0, 0.0, 0.0, 0.0, 0.0, 0.0, 0.0, 0.0, 1.644588570827069E9, 0.0, 2022-02-12 01:09:30.827
74.0, -6637.641088681351, -6182.380757615657, -3450.3270328434746, -10030.635896996964, -5518.37748508185, -2056.36048988825, -6052.025383952307, -3417.000581860612, -5444.527321401515, -8791.075204739, -5027.220252420932, -4070.6326449671565, -3876.6642065840015, -6765.493066965708, -6986.23889520632, -11212.462033326869, 0.00575, 0.23675000000000002, 0.94475, 192.0, 0.0, 0.0, 0.0, 0.0, 0.0, 0.0, 0.0, 0.0, 0.0, 1.644588570835141E9, 0.0, 2022-02-12 01:09:30.835
76.0, -6660.372812792399, -6167.896827208618, -3465.1685911617988, -10029.60771675202, -5508.18508961023, -2053.9688532315317, -6051.7348112743875, -3403.611886931883, -5447.74597260308, -8785.64373083636, -5042.687659584005, -4091.9785609219743, -3898.01012253882, -6778.814706661071, -6992.273866209253, -11188.746832459788, 0.006875, 0.238375, 0.946375, 192.0, 0.0, 32.0, 3.5, 64.0, 14.5, 80.0, 0.0, 0.0, 0.0, 1.644588570841808E9, 0.0, 2022-02-12 01:09:30.841
78.0, -6660.730440703684, -6169.3720423426685, -3457.121963157888, -10037.833158711572, -5513.2365838571295, -2054.192370676085, -6045.096343171161, -3399.990904330123, -5462.2299030101185, -8794.0256350071, -5052.6341858666165, -4090.324531832282, -3899.7312068618785, -6779.3064450390875, -6996.565401144672, -11190.087937127106, 0.006875, 0.238375, 0.946375, 192.0, 0.0, 0.0, 0.0, 0.0, 0.0, 0.0, 0.0, 0.0, 0.0, 1.644588570849828E9, 0.0, 2022-02-12 01:09:30.849
80.0, -6663.770277949605, -6172.568341799777, -3467.403765607329, -10042.281155858178, -5512.2978105900065, -2056.516952099437, -6054.461724097935, -3412.6643434362823, -5472.2658362705515, -8806.430853179796, -5045.660441596561, -4083.7084154735107, -3892.846869569644, -6769.181104800833, -7000.789880846725, -11228.801158523698, 0.006875, 0.238375, 0.946375, 192.0, 0.0, 0.0, 0.0, 0.0, 0.0, 0.0, 0.0, 0.0, 0.0, 1.644588570857757E9, 0.0, 2022-02-12 01:09:30.857
82.0, -6665.759583206128, -6181.397280859624, -3460.54178005955, -10036.626164510986, -5506.665170987269, -2050.124353185219, -6058.708555544443, -3420.4651022511844, -5459.257120997563, -8791.79046056157, -5052.880055055625, -4089.2963515873375, -3884.0179305097977, -6774.456116492286, -7003.919125070468, -11186.243437080793, 0.006875, 0.238375, 0.946375, 192.0, 0.0, 0.0, 0.0, 0.0, 0.0, 0.0, 0.0, 0.0, 0.0, 1.64458857086394E9, 0.0, 2022-02-12 01:09:30.863
84.0, -6675.951978677747, -6189.220391418981, -3458.2395503806533, -10054.015821697214, -5523.205461884197, -2053.097135197775, -6060.384936378591, -3404.0589218209893, -5476.691481672702, -8808.17428924731, -5046.956842774969, -4076.1088223587067, -3900.558221406725, -6770.8574856349815, -7008.255363494798, -11235.640792327022, 0.006875, 0.238375, 0.946375, 192.0, 0.0, 0.0, 0.0, 0.0, 0.0, 0.0, 0.0, 0.0, 0.0, 1.644588570871651E9, 0.0, 2022-02-12 01:09:30.871
86.0, -6662.295062815555, -6193.17665018757, -3466.8896754848574, -10053.568786808108, -5511.80607221199, -2051.7336787860013, -6061.524875345812, -3409.132767812344, -5481.8323828974235, -8813.941039316778, -5058.758563847371, -4089.832793454265, -3897.071349271697, -6778.322968283054, -7010.267020495775, -11219.480481085835, 0.0074375, 0.2401875, 0.9471875000000001, 192.0, 0.0, 32.0, 3.5, 72.0, 14.5, 80.0, 0.0, 0.0, 0.0, 1.644588570879658E9, 0.0, 2022-02-12 01:09:30.879
88.0, -6656.617719723907, -6158.442039304023, -3452.316338099997, -10058.79909501065, -5507.223964598652, -2045.4081351051493, -6044.67166002651, -3405.4223782327626, -5467.3931559792945, -8806.766129346624, -5052.433020166519, -4086.770604463888, -3892.0198550247974, -6772.757383913682, -7011.250497251809, -11218.720521774356, 0.0074375, 0.2401875, 0.9471875000000001, 192.0, 0.0, 0.0, 0.0, 0.0, 0.0, 0.0, 0.0, 0.0, 0.0, 1.64458857088743E9, 0.0, 2022-02-12 01:09:30.887
90.0, -6690.815888740527, -6193.757795543408, -3462.128753915877, -10072.724231806307, -5511.113168133876, -2052.136010186197, -6056.361622376636, -3409.512747468084, -5477.98788285111, -8814.432777694796, -5052.589482377706, -4096.918296446597, -3899.7088551174234, -6771.282168779632, -7013.351561230607, -11254.505664647302, 0.0074375, 0.2401875, 0.9471875000000001, 192.0, 0.0, 0.0, 0.0, 0.0, 0.0, 0.0, 0.0, 0.0, 0.0, 1.644588570894188E9, 0.0, 2022-02-12 01:09:30.894
92.0, -6706.439758114786, -6210.096920740238, -3466.8896754848574, -10065.348156136055, -5510.777891967045, -2054.5276468429147, -6061.971910234918, -3413.8266341479584, -5488.51555448956, -8808.107234013944, -5069.152125019089, -4101.746273248944, -3901.5416981627586, -6782.972131129758, -7027.008477092801, -11215.345408361603, 0.0074375, 0.2401875, 0.9471875000000001, 192.0, 0.0, 0.0, 0.0, 0.0, 0.0, 0.0, 0.0, 0.0, 0.0, 1.644588570902152E9, 0.0, 2022-02-12 01:09:30.902
94.0, -6692.827545741505, -6211.035694007361, -3466.6214545513935, -10086.068223246124, -5528.56988055347, -2062.3060539133617, -6067.559846348745, -3420.1745295732653, -5510.554374522492, -8826.256850511652, -5069.800325608293, -4083.909581173609, -3895.9314103044762, -6785.140250341922, -7032.4175992509845, -11270.777734610765, 0.0074375, 0.2401875, 0.9471875000000001, 192.0, 0.0, 0.0, 0.0, 0.0, 0.0, 0.0, 0.0, 0.0, 0.0, 1.644588570909987E9, 0.0, 2022-02-12 01:09:30.909
96.0, -6707.289124404088, -6218.434121422068, -3474.7574895331254, -10087.94576978037, -5518.869223459867, -2061.7919637908894, -6078.087517987195, -3426.8577011654024, -5511.157871622786, -8834.0352575821, -5085.200677538, -4106.350732606737, -3912.292887245761, -6789.565895744074, -7034.719828929881, -11252.538711135234, 0.00471875, 0.24209375, 0.9465937500000001, 192.0, 0.0, 8.0, 3.5, 80.0, 14.5, 72.0, 0.0, 0.0, 0.0, 1.644588570917132E9, 0.0, 2022-02-12 01:09:30.917
98.0, -6705.746854036672, -6192.081414709261, -3469.1695534192986, -10094.181906483402, -5517.863394959378, -2057.2992631553725, -6064.4753056139125, -3422.8790906523577, -5512.588383267926, -8834.594051193482, -5083.121965303656, -4107.71418901851, -3915.48918670287, -6789.387081788431, -7036.910299886501, -11253.388077424535, 0.00471875, 0.24209375, 0.9465937500000001, 192.0, 0.0, 0.0, 0.0, 0.0, 0.0, 0.0, 0.0, 0.0, 0.0, 1.644588570931855E9, 0.0, 2022-02-12 01:09:30.931
100.0, -6723.002400756169, -6233.5886041627655, -3473.4387366102624, -10103.81550834364, -5524.054828173498, -2062.708385313557, -6078.422794154024, -3419.0569423505003, -5520.679714760747, -8856.878740415423, -5078.830430368237, -4114.866747244209, -3914.6845239024788, -6785.274360808655, -7036.664430697493, -11290.581380198168, 0.00471875, 0.24209375, 0.9465937500000001, 192.0, 0.0, 0.0, 0.0, 0.0, 0.0, 0.0, 0.0, 0.0, 0.0, 1.644588570939674E9, 0.0, 2022-02-12 01:09:30.939
102.0, -6735.072342762035, -6237.500159442444, -3477.3055884010305, -10104.53076416621, -5523.048999673009, -2062.194295191085, -6074.3994801520685, -3418.7887214170364, -5517.550470537004, -8833.901147115368, -5095.81775615427, -4121.639325814167, -3918.081989059686, -6797.076081881057, -7049.606090737116, -11247.442513399425, 0.00471875, 0.24209375, 0.9465937500000001, 192.0, 0.0, 0.0, 0.0, 0.0, 0.0, 0.0, 0.0, 0.0, 0.0, 1.644588570946496E9, 0.0, 2022-02-12 01:09:30.946
104.0, -6718.532051865108, -6229.989973305461, -3480.345425646952, -10118.90293585097, -5537.041191702032, -2071.4926208844927, -6073.728927818409, -3430.5904424894384, -5538.1811306692525, -8856.677574715326, -5096.488308487929, -4107.6694855296, -3904.045093541753, -6794.05859637959, -7055.506951273317, -11303.970075126896, 0.00471875, 0.24209375, 0.9465937500000001, 192.0, 0.0, 0.0, 0.0, 0.0, 0.0, 0.0, 0.0, 0.0, 0.0, 1.64458857095436E9, 0.0, 2022-02-12 01:09:30.954
106.0, -6737.531034652118, -6255.135685817681, -3489.666103084815, -10117.204203272368, -5527.8546247309005, -2066.508181870959, -6082.893143045086, -3435.6642884807934, -5540.908043492799, -8865.640624241903, -5112.872137173669, -4114.419712355103, -3930.3530967656493, -6799.892401682425, -7068.001576423833, -11283.495877205834, 0.004359375, 0.242046875, 0.9492968750000002, 192.0, 0.0, 16.0, 3.5, 72.0, 14.5, 96.0, 0.0, 0.0, 0.0, 1.644588570962636E9, 0.0, 2022-02-12 01:09:30.962
108.0, -6755.05480230508, -6243.512778700921, -3487.6544460838377, -10132.224575546334, -5536.52710157956, -2066.150553959674, -6077.282855186803, -3426.7906459320366, -5543.0538109605095, -8856.901092159878, -5106.367779537175, -4119.806482768832, -3935.8963293905654, -6802.596962761518, -7072.047242170244, -11284.255836517315, 0.004359375, 0.242046875, 0.9492968750000002, 192.0, 0.0, 0.0, 0.0, 0.0, 0.0, 0.0, 0.0, 0.0, 0.0, 1.644588570969441E9, 0.0, 2022-02-12 01:09:30.969
110.0, -6755.1218575384455, -6239.824740865796, -3490.1354897183764, -10141.500549495286, -5540.840988259433, -2074.5995133637803, -6092.549096649778, -3437.8547594374136, -5557.3812791563605, -8880.750403493692, -5106.881869659647, -4127.115503205718, -3938.489131747381, -6801.971113916768, -7075.534114305272, -11326.366523071114, 0.004359375, 0.242046875, 0.9492968750000002, 192.0, 0.0, 0.0, 0.0, 0.0, 0.0, 0.0, 0.0, 0.0, 0.0, 1.644588570977654E9, 0.0, 2022-02-12 01:09:30.977
112.0, -6776.445421748808, -6261.483581242988, -3490.4037106518404, -10139.645354705495, -5536.236528901641, -2076.1194319867413, -6094.024311783828, -3444.4708757961844, -5556.531912867059, -8865.327699819529, -5109.9217069055685, -4136.503235876946, -3933.459989244937, -6813.124634399967, -7082.776079508792, -11284.345243495136, 0.004359375, 0.242046875, 0.9492968750000002, 192.0, 0.0, 0.0, 0.0, 0.0, 0.0, 0.0, 0.0, 0.0, 0.0, 1.644588570984155E9, 0.0, 2022-02-12 01:09:30.984
114.0, -6751.009136558669, -6243.982165334483, -3494.5611351205275, -10156.63268049153, -5552.374488398372, -2079.963932033054, -6097.108852518661, -3442.8615501954023, -5575.53089565407, -8879.386947081917, -5116.068436630779, -4136.503235876946, -3916.6514774145458, -6818.5784600470615, -7087.626408055593, -11339.509348810834, 0.004359375, 0.242046875, 0.9492968750000002, 192.0, 0.0, 0.0, 0.0, 0.0, 0.0, 0.0, 0.0, 0.0, 0.0, 1.64458857099193E9, 0.0, 2022-02-12 01:09:30.991
116.0, -6756.172389527845, -6253.883988128185, -3503.0324462690887, -10148.429590276432, -5543.567901082981, -2079.159269232663, -6103.792024110798, -3446.5272362860724, -5571.507581652115, -8890.0487291871, -5137.950794452524, -4130.535320107379, -3955.1188296221294, -6823.1605676603995, -7096.522402348805, -11319.437482289968, 0.006, 0.242, 0.9540000000000001, 192.0, 0.0, 24.0, 3.5, 72.0, 14.5, 104.0, 0.0, 0.0, 0.0, 1.644588570999224E9, 0.0, 2022-02-12 01:09:30.999
118.0, -6773.874971136448, -6270.044299369371, -3497.6009723664492, -10161.840636949615, -5555.660194833302, -2087.6305803812243, -6102.361512465658, -3450.639957265849, -5563.840933303944, -8862.578435251527, -5130.462960059996, -4110.597564053245, -3946.044021373275, -6812.051750666113, -7103.250277429853, -11320.420959046001, 0.006, 0.242, 0.9540000000000001, 192.0, 0.0, 0.0, 0.0, 0.0, 0.0, 0.0, 0.0, 0.0, 0.0, 1.644588571006646E9, 0.0, 2022-02-12 01:09:31.006
120.0, -6813.772834989171, -6295.525288048421, -3514.5659464080272, -10176.123401656558, -5566.657253105313, -2099.097025286797, -6119.728817907431, -3463.6933760277484, -5604.766977401612, -8924.425712159362, -5139.582471797761, -4144.236939458482, -3960.840876202688, -6837.868015511992, -7112.682713589992, -11367.829009035708, 0.006, 0.242, 0.9540000000000001, 192.0, 0.0, 0.0, 0.0, 0.0, 0.0, 0.0, 0.0, 0.0, 0.0, 1.64458857101487E9, 0.0, 2022-02-12 01:09:31.014
122.0, -6797.590172003529, -6277.666244228631, -3507.3910364378735, -10175.564608045175, -5560.689337335746, -2099.5217084314477, -6121.025219085839, -3472.4329081097735, -5602.375340744894, -8918.10016847851, -5144.723373022482, -4160.44195418858, -3959.87975119111, -6842.83010278107, -7123.07627476171, -11324.868956192608, 0.006, 0.242, 0.9540000000000001, 192.0, 0.0, 0.0, 0.0, 0.0, 0.0, 0.0, 0.0, 0.0, 0.0, 1.644588571022643E9, 0.0, 2022-02-12 01:09:31.022
124.0, -6792.605732989995, -6292.127822891214, -3504.842937569969, -10194.96592223238, -5572.24518921914, -2104.908478845177, -6122.723951664442, -3468.7225185301922, -5599.022579076598, -8927.420845916373, -5125.791445468837, -4140.995936512463, -3942.266576560328, -6835.565785833095, -7128.284231219796, -11378.535494629801, 0.006, 0.242, 0.9540000000000001, 192.0, 0.0, 0.0, 0.0, 0.0, 0.0, 0.0, 0.0, 0.0, 0.0, 1.644588571029469E9, 0.0, 2022-02-12 01:09:31.029
126.0, -6802.194631361322, -6291.747843235475, -3519.3268679770076, -10194.16125943199, -5567.685433350258, -2104.1708712781515, -6140.761809439875, -3471.4270796092846, -5608.812643148022, -8937.412075687895, -5149.64075680265, -4158.430297187602, -3970.6532920185678, -6849.73679181776, -7137.649612146571, -11365.705593312454, 0.01, 0.24, 0.9580000000000001, 192.0, 0.0, 40.0, 3.5, 64.0, 14.5, 120.0, 0.0, 0.0, 0.0, 1.644588571037185E9, 0.0, 2022-02-12 01:09:31.037
128.0, -6770.81278214607, -6265.328081289302, -3516.3987894533625, -10204.264247925788, -5565.539665882548, -2101.220441010051, -6127.5742802112445, -3467.0461376960443, -5608.8573466369335, -8918.726017323259, -5153.462905104507, -4156.798619842365, -3969.4686495624364, -6849.490922628752, -7139.124827280621, -11362.419886877524, 0.01, 0.24, 0.9580000000000001, 192.0, 0.0, 0.0, 0.0, 0.0, 0.0, 0.0, 0.0, 0.0, 0.0, 1.644588571044484E9, 0.0, 2022-02-12 01:09:31.044
130.0, -6785.140250341922, -6261.684746943087, -3527.664068658837, -10223.196175479434, -5572.535761897059, -2107.523632946448, -6129.87650989014, -3483.362911148419, -5620.212032820229, -8934.193424486331, -5166.225751188487, -4182.972512599529, -3968.97691118442, -6852.486056385763, -7142.388181971095, -11409.179736278027, 0.01, 0.24, 0.9580000000000001, 192.0, 0.0, 0.0, 0.0, 0.0, 0.0, 0.0, 0.0, 0.0, 0.0, 1.644588571059232E9, 0.0, 2022-02-12 01:09:31.059
132.0, -6798.3277795705535, -6298.922753205628, -3528.9828215817, -10217.49648064333, -5570.278235707073, -2102.4944904440035, -6131.485835490923, -3468.1413731743546, -5608.745587914656, -8912.109900964488, -5177.066347249312, -4165.918131580131, -3968.887504206599, -6853.469533141796, -7151.977080342422, -11365.951462501462, 0.01, 0.24, 0.9580000000000001, 192.0, 0.0, 0.0, 0.0, 0.0, 0.0, 0.0, 0.0, 0.0, 0.0, 1.644588571066813E9, 0.0, 2022-02-12 01:09:31.066
134.0, -6814.957477445302, -6308.131671921215, -3533.162597794843, -10230.080512771669, -5587.399671959838, -2113.5809556938357, -6138.280765805336, -3475.1374691888655, -5636.68526848379, -8956.96985208629, -5170.114954723711, -4156.150419253161, -3971.6591205190566, -6859.839780311559, -7158.481437978917, -11417.44988172649, 0.01, 0.24, 0.9580000000000001, 192.0, 0.0, 0.0, 0.0, 0.0, 0.0, 0.0, 0.0, 0.0, 0.0, 1.644588571076523E9, 0.0, 2022-02-12 01:09:31.076
136.0, -6840.885501013458, -6320.469834860544, -3537.2753187746193, -10232.427445939475, -5579.643616633847, -2115.682019672635, -6153.189379357026, -3485.8439547829576, -5639.568643518525, -8960.97081434379, -5178.720376339004, -4177.652797419167, -3967.971082683931, -6878.592893909561, -7164.292891537296, -11403.792965864297, 0.004, 0.234, 0.9520000000000001, 192.0, 0.0, 16.0, 3.5, 40.0, 14.5, 96.0, 0.0, 0.0, 0.0, 1.644588571082352E9, 0.0, 2022-02-12 01:09:31.082
138.0, -6833.799998021126, -6311.506785333966, -3528.647545414871, -10238.30595473122, -5588.539610927059, -2112.284554515428, -6153.256434590392, -3485.016940238111, -5648.1293616449075, -8958.400363731429, -5182.5872281297725, -4178.882143364209, -3986.7241962819335, -6868.579312393584, -7173.568865486249, -11403.412986208557, 0.004, 0.234, 0.9520000000000001, 192.0, 0.0, 0.0, 0.0, 0.0, 0.0, 0.0, 0.0, 0.0, 0.0, 1.6445885710897E9, 0.0, 2022-02-12 01:09:31.089
140.0, -6837.577442834073, -6306.499994575977, -3537.118856563432, -10247.894853102547, -5593.121718540397, -2118.5653947073693, -6160.431344560546, -3499.4338154117845, -5653.270262869628, -8970.984395859767, -5187.146983998655, -4171.662529905144, -3998.7270830544335, -6865.003033280735, -7181.66019697907, -11449.658745486588, 0.004, 0.234, 0.9520000000000001, 192.0, 0.0, 0.0, 0.0, 0.0, 0.0, 0.0, 0.0, 0.0, 0.0, 1.644588571097498E9, 0.0, 2022-02-12 01:09:31.097
142.0, -6847.59102435005, -6310.903288233672, -3535.9565658517563, -10247.537225191263, -5583.599875402436, -2110.4964149590037, -6154.418725302068, -3493.823527553502, -5649.805742479056, -8941.904776323412, -5193.696045124059, -4182.748995154977, -3990.725158539434, -6868.914588560413, -7185.862324936667, -11407.011617065862, 0.004, 0.234, 0.9520000000000001, 192.0, 0.0, 0.0, 0.0, 0.0, 0.0, 0.0, 0.0, 0.0, 0.0, 1.644588571105009E9, 0.0, 2022-02-12 01:09:31.105
144.0, -6847.993355750246, -6337.8371403023175, -3532.7826181391024, -10258.020193340803, -5596.854459864433, -2115.927888861643, -6158.59850151521, -3493.0412164975664, -5663.730879274712, -8963.138933555952, -5187.482260165484, -4174.6353119177, -3986.0536439482744, -6866.142972247955, -7194.914781441067, -11457.683021746043, 0.004, 0.234, 0.9520000000000001, 192.0, 0.0, 0.0, 0.0, 0.0, 0.0, 0.0, 0.0, 0.0, 0.0, 1.644588571111186E9, 0.0, 2022-02-12 01:09:31.111
146.0, -6852.240187196754, -6332.986811755516, -3543.4891037331945, -10250.577062437185, -5590.9535993282325, -2110.9658015925647, -6161.146600383116, -3497.5562688775385, -5660.467524584237, -8978.807506419123, -5191.013835789423, -4175.462326462546, -3986.4112718595593, -6873.161420006922, -7200.726234999447, -11439.488701759423, -0.002, 0.24, 0.9480000000000001, 192.0, 127.5, 120.0, 3.5, 64.0, 14.5, 80.0, 0.0, 0.0, 0.0, 1.64458857111923E9, 0.0, 2022-02-12 01:09:31.119
148.0, -6835.454027110819, -6327.331820408323, -3544.8078566560575, -10268.167885323512, -5598.217916276207, -2108.9094411026767, -6160.833675960741, -3500.9090305458344, -5668.268283399139, -8971.498485982238, -5198.658132393138, -4174.054166561862, -3973.6037222866685, -6869.205161238332, -7206.805909491291, -11436.895899402607, -0.002, 0.24, 0.9480000000000001, 192.0, 0.0, 0.0, 0.0, 0.0, 0.0, 0.0, 0.0, 0.0, 0.0, 1.644588571127141E9, 0.0, 2022-02-12 01:09:31.127
150.0, -6875.3965944524525, -6346.4649136620665, -3561.3257958085296, -10278.047356372757, -5611.047817593553, -2122.6781156871457, -6168.276806864358, -3501.445472412762, -5690.17299296534, -9003.014445664221, -5215.5784029458055, -4189.387463258203, -4002.3033621672826, -6872.826143840092, -7213.198508405508, -11481.040594701839, -0.002, 0.24, 0.9480000000000001, 192.0, 0.0, 0.0, 0.0, 0.0, 0.0, 0.0, 0.0, 0.0, 0.0, 1.64458857113425E9, 0.0, 2022-02-12 01:09:31.134
152.0, -6894.88731561748, -6356.344384711312, -3557.1236678509317, -10274.627539471096, -5603.53763145657, -2126.2543947999948, -6167.181571386048, -3512.308420218041, -5683.042786484098, -8989.44693677985, -5221.32280127082, -4189.298056280381, -4009.5006238818914, -6887.555943436139, -7220.909860242589, -11439.175777337048, -0.002, 0.24, 0.9480000000000001, 192.0, 0.0, 0.0, 0.0, 0.0, 0.0, 0.0, 0.0, 0.0, 0.0, 1.644588571141726E9, 0.0, 2022-02-12 01:09:31.141
154.0, -6890.796946382159, -6362.714631881075, -3557.1907230842976, -10296.755766481849, -5616.322829285005, -2132.870511158766, -6162.040670161327, -3497.8915450443683, -5710.334266464027, -9001.11454738552, -5219.17703380311, -4196.092986594795, -4011.93696402752, -6892.719196405315, -7223.681476555047, -11488.506077349912, -0.002, 0.24, 0.9480000000000001, 192.0, 0.0, 0.0, 0.0, 0.0, 0.0, 0.0, 0.0, 0.0, 0.0, 1.644588571149875E9, 0.0, 2022-02-12 01:09:31.149
156.0, -6906.353760523053, -6374.829277375851, -3571.540543024605, -10297.918057193525, -5605.482233224182, -2127.349630278305, -6169.8414289762295, -3497.802138066547, -5715.27400198865, -9008.937657944878, -5234.286813054898, -4211.985076902518, -4003.040969734308, -6901.279914531698, -7229.135302202142, -11474.491533576434, -0.002, 0.24, 0.9480000000000001, 192.0, 0.0, 0.0, 3.5, 48.0, 14.5, 72.0, 0.0, 0.0, 0.0, 1.644588571157714E9, 0.0, 2022-02-12 01:09:31.157
158.0, -6902.1069290765445, -6374.02461457546, -3559.4929527631944, -10303.953028196458, -5613.752378672645, -2125.807359910889, -6171.763678999386, -3499.7914433230694, -5722.001877069697, -9006.411910821427, -5242.601661992271, -4203.916097154152, -4010.3723419156486, -6894.663798172927, -7230.632869080648, -11468.724783506965, -0.002, 0.24, 0.9480000000000001, 192.0, 0.0, 0.0, 0.0, 0.0, 0.0, 0.0, 0.0, 0.0, 0.0, 1.64458857116443E9, 0.0, 2022-02-12 01:09:31.164
160.0, -6915.920307149924, -6382.272408279468, -3566.8913801779013, -10317.319371380732, -5621.039047365075, -2137.0279356274527, -6183.006606460405, -3520.5562139220497, -5727.969792839264, -9033.725742545814, -5237.281946811909, -4210.711027468566, -4027.7172956129666, -6894.574391195106, -7240.6240988521695, -11518.502118408933, -0.002, 0.24, 0.9480000000000001, 192.0, 0.0, 0.0, 0.0, 0.0, 0.0, 0.0, 0.0, 0.0, 0.0, 1.644588571179403E9, 0.0, 2022-02-12 01:09:31.179
162.0, -6908.70069369086, -6380.841896634329, -3566.9137319223564, -10317.408778358553, -5616.144015329363, -2134.9492233931096, -6179.497382580922, -3513.7836353520916, -5718.515004934669, -9034.64216406848, -5255.409211565163, -4213.035608891918, -4024.677458367045, -6903.157461065944, -7250.525921645871, -11478.961882467494, -0.002, 0.24, 0.9480000000000001, 192.0, 0.0, 0.0, 0.0, 0.0, 0.0, 0.0, 0.0, 0.0, 0.0, 1.64458857118643E9, 0.0, 2022-02-12 01:09:31.186
164.0, -6922.402313041964, -6385.044024591926, -3565.416165043851, -10336.497168123386, -5634.2712800826175, -2141.8559124297994, -6183.833621005252, -3511.6602196288372, -5738.877444133454, -9038.777236792712, -5257.152647632676, -4218.601193261289, -4023.805740333288, -6904.789138411181, -7256.002099037421, -11529.65563889213, -0.002, 0.24, 0.9480000000000001, 192.0, 0.0, 0.0, 0.0, 0.0, 0.0, 0.0, 0.0, 0.0, 0.0, 1.644588571194046E9, 0.0, 2022-02-12 01:09:31.194
166.0, -6929.0854846341, -6397.605704975808, -3579.743633239703, -10329.255202919865, -5629.130378857896, -2147.890883432732, -6197.043501978338, -3529.8098361265465, -5739.436237744837, -9042.040591483188, -5261.734755246014, -4213.862623436764, -4027.538481657324, -6916.5461559946725, -7266.127439275675, -11518.591525386755, 0.008, 0.232, 0.9480000000000001, 192.0, 0.0, 32.0, 3.5, 32.0, 14.5, 80.0, 0.0, 0.0, 0.0, 1.644588571201989E9, 0.0, 2022-02-12 01:09:31.201
168.0, -6947.4809703208175, -6423.824301221884, -3577.9331419388227, -10346.130769983623, -5639.389829562882, -2149.321395077872, -6198.071682223283, -3526.971164580723, -5744.711249436289, -9037.078504214109, -5265.1769238921315, -4228.1453881437055, -4032.5676241597685, -6923.519900264729, -7276.565703936304, -11515.66344686311, 0.008, 0.232, 0.9480000000000001, 192.0, 0.0, 0.0, 0.0, 0.0, 0.0, 0.0, 0.0, 0.0, 0.0, 1.64458857121005E9, 0.0, 2022-02-12 01:09:31.210
170.0, -6965.094144951599, -6419.845690708839, -3586.6503222763927, -10354.870302065649, -5647.749381989167, -2155.758697481, -6208.733464328464, -3540.404562998362, -5771.265121849194, -9078.630397156525, -5272.530647817927, -4239.991812705018, -4043.251758009405, -6922.55877525315, -7281.840715627756, -11568.212398077536, 0.008, 0.232, 0.9480000000000001, 192.0, 0.0, 0.0, 0.0, 0.0, 0.0, 0.0, 0.0, 0.0, 0.0, 1.644588571216842E9, 0.0, 2022-02-12 01:09:31.216
172.0, -6949.425572088429, -6426.953545445627, -3584.795127486602, -10347.293060695298, -5636.439399294782, -2146.61683399878, -6216.042484765349, -3533.0731908170214, -5766.057165391107, -9061.08427775911, -5280.756089777481, -4233.97919344654, -4043.22940626495, -6924.123397365021, -7289.328550020284, -11523.821833589296, 0.008, 0.232, 0.9480000000000001, 192.0, 0.0, 0.0, 0.0, 0.0, 0.0, 0.0, 0.0, 0.0, 0.0, 1.644588571224741E9, 0.0, 2022-02-12 01:09:31.224
174.0, -6950.654918033471, -6409.630943492764, -3578.2013628722866, -10365.532084170829, -5640.663878996835, -2150.5954445118246, -6198.183440945559, -3532.7155629057365, -5771.868618949487, -9070.427306941427, -5271.457764084073, -4225.753751486987, -4046.6045196777013, -6916.814376928137, -7290.200268054041, -11573.129781857704, 0.008, 0.232, 0.9480000000000001, 192.0, 0.0, 0.0, 0.0, 0.0, 0.0, 0.0, 0.0, 0.0, 0.0, 1.644588571231935E9, 0.0, 2022-02-12 01:09:31.231
176.0, -6962.523694339239, -6424.919536700194, -3588.639627532915, -10371.164723773567, -5638.004021406654, -2152.741211979534, -6212.913240541607, -3536.828283885513, -5772.6285782609675, -9073.578902909625, -5285.539363090917, -4237.846045237308, -4044.101124298707, -6919.094254862578, -7292.927180877588, -11563.250310808458, 0.004, 0.234, 0.9560000000000001, 192.0, 0.0, 16.0, 3.5, 40.0, 14.5, 112.0, 0.0, 0.0, 0.0, 1.644588571239711E9, 0.0, 2022-02-12 01:09:31.239
178.0, -6985.568342872661, -6443.22561540909, -3587.253819376686, -10380.038366322324, -5650.096315156975, -2162.28540686195, -6219.261135966914, -3540.091638575988, -5783.178601643873, -9067.633338884514, -5290.836726526824, -4247.233777908537, -4048.8843976121425, -6939.300231850176, -7303.052521115843, -11560.746915429463, 0.004, 0.234, 0.9560000000000001, 192.0, 0.0, 0.0, 0.0, 0.0, 0.0, 0.0, 0.0, 0.0, 0.0, 1.644588571246485E9, 0.0, 2022-02-12 01:09:31.246
180.0, -7006.556630916194, -6461.442287140166, -3603.0565027065877, -10394.2540757959, -5666.346033375983, -2174.1765349121733, -6234.7061913855305, -3561.594016741993, -5809.330142656582, -9105.072510847152, -5294.8823922732345, -4253.782839033943, -4055.254644781905, -6943.99409818579, -7315.703608477546, -11612.357093376768, 0.004, 0.234, 0.9560000000000001, 192.0, 0.0, 0.0, 0.0, 0.0, 0.0, 0.0, 0.0, 0.0, 0.0, 1.644588571254297E9, 0.0, 2022-02-12 01:09:31.254
182.0, -6995.760738344281, -6439.068190940403, -3603.436482362328, -10393.2035438065, -5656.466562326737, -2166.219313886084, -6228.179482004582, -3545.344298522985, -5805.798567032643, -9087.816964127656, -5319.804587340902, -4262.365908904781, -4062.6307204521563, -6958.612139059561, -7328.511158050437, -11569.218226578025, 0.004, 0.234, 0.9560000000000001, 192.0, 0.0, 0.0, 0.0, 0.0, 0.0, 0.0, 0.0, 0.0, 0.0, 1.644588571262498E9, 0.0, 2022-02-12 01:09:31.262
184.0, -7005.14847101551, -6470.9641302781265, -3599.346113127007, -10416.315247573286, -5671.956321234265, -2172.611912800302, -6229.475883182989, -3550.9545863812673, -5816.236831693272, -9107.620609715059, -5317.927040806656, -4262.522371115968, -4059.903807628609, -6948.263281376753, -7326.566556282825, -11618.548526590888, 0.007, 0.233, 0.9520000000000001, 192.0, 0.0, 40.0, 3.5, 32.0, 14.5, 80.0, 0.0, 0.0, 0.0, 1.644588571269294E9, 0.0, 2022-02-12 01:09:31.269
186.0, -7020.43706422294, -6482.408223439244, -3609.2926394096185, -10410.01205563689, -5671.576341578525, -2174.243590145539, -6243.691592656564, -3564.6785574768255, -5816.907384026931, -9121.121063366063, -5319.759883851992, -4262.947054260619, -4083.1719736065834, -6947.860949976558, -7337.563614554837, -11609.116090430749, 0.007, 0.233, 0.9520000000000001, 192.0, 0.0, 0.0, 0.0, 0.0, 0.0, 0.0, 0.0, 0.0, 0.0, 1.644588571276899E9, 0.0, 2022-02-12 01:09:31.276
188.0, -7025.3767997475625, -6492.958246822149, -3605.5822498300377, -10414.72827371696, -5684.562705107058, -2180.5244303374807, -6246.4408572245675, -3560.9681678972447, -5828.574994632601, -9112.51564175077, -5318.57524139586, -4265.22693219506, -4076.645264225634, -6957.449848347885, -7352.74044903999, -11603.192878150092, 0.007, 0.233, 0.9520000000000001, 192.0, 0.0, 0.0, 0.0, 0.0, 0.0, 0.0, 0.0, 0.0, 0.0, 1.644588571284949E9, 0.0, 2022-02-12 01:09:31.284
190.0, -7018.783035133248, -6484.6433978847745, -3618.926241269856, -10430.374494835674, -5689.167164464851, -2182.2008111716286, -6252.788752649874, -3562.6669004758483, -5846.188169263383, -9138.935403696943, -5326.331296721852, -4264.914007772685, -4083.6637119846005, -6956.265205891754, -7361.032946232909, -11649.617451383765, 0.007, 0.233, 0.9520000000000001, 192.0, 0.0, 0.0, 0.0, 0.0, 0.0, 0.0, 0.0, 0.0, 0.0, 1.644588571292114E9, 0.0, 2022-02-12 01:09:31.292
192.0, -7045.292204057241, -6475.166258235724, -3617.5180813691713, -10429.011038423901, -5677.208981181262, -2177.7081105361117, -6242.238729266969, -3559.582359741016, -5837.58274764809, -9124.674990734458, -5353.622776701782, -4288.070415028384, -4086.1447556191392, -6965.071793207145, -7359.736545054501, -11601.91882871614, 0.007, 0.233, 0.9520000000000001, 192.0, 0.0, 0.0, 0.0, 0.0, 0.0, 0.0, 0.0, 0.0, 0.0, 1.644588571306476E9, 0.0, 2022-02-12 01:09:31.306
194.0, -7052.467114027395, -6502.636552171297, -3621.541395371127, -10449.060553200312, -5699.292504703106, -2191.0521019759303, -6255.38155500669, -3566.399641799884, -5860.761506648244, -9146.065610178186, -5347.2972330209295, -4279.2191242240815, -4088.156412620117, -6967.396374630496, -7365.547998612881, -11649.572747894854, 0.0085, 0.2335, 0.9500000000000001, 192.0, 0.0, 40.0, 3.5, 40.0, 14.5, 80.0, 0.0, 0.0, 0.0, 1.644588571314991E9, 0.0, 2022-02-12 01:09:31.314
196.0, -7062.435992054462, -6512.605430198363, -3633.8125030770902, -10448.233538655466, -5692.922257533343, -2193.734311310567, -6265.842171411774, -3576.1002988934874, -5868.919893374431, -9155.632156805057, -5357.53433198146, -4285.008226038007, -4091.4868225439577, -6975.621816590049, -7374.287530694906, -11644.834178070329, 0.0085, 0.2335, 0.9500000000000001, 192.0, 0.0, 0.0, 0.0, 0.0, 0.0, 0.0, 0.0, 0.0, 0.0, 1.644588571321647E9, 0.0, 2022-02-12 01:09:31.321
198.0, -7049.024945381278, -6517.031075600515, -3631.6443838649257, -10460.191721939054, -5697.102033746485, -2185.9112007512094, -6259.248406797458, -3569.6182930014484, -5871.646806197979, -9132.721618738367, -5368.307872808919, -4295.290028487448, -4096.091281901751, -6981.276807937242, -7381.574199387336, -11634.485320387521, 0.0085, 0.2335, 0.9500000000000001, 192.0, 0.0, 0.0, 0.0, 0.0, 0.0, 0.0, 0.0, 0.0, 0.0, 1.644588571329214E9, 0.0, 2022-02-12 01:09:31.329
200.0, -7075.712928260914, -6524.3400960374, -3634.9524420443113, -10475.077983746289, -5707.4732431737475, -2197.399997401237, -6276.168677350125, -3583.722243752747, -5885.884867416009, -9163.388212131049, -5363.435192517662, -4291.959618563606, -4112.273944887394, -6979.041633491712, -7385.910437811665, -11687.660120446697, 0.0085, 0.2335, 0.9500000000000001, 192.0, 0.0, 0.0, 0.0, 0.0, 0.0, 0.0, 0.0, 0.0, 0.0, 1.644588571337503E9, 0.0, 2022-02-12 01:09:31.337
202.0, -7089.92863773449, -6528.497520506087, -3636.0029740337104, -10468.618329598705, -5697.705530846779, -2194.2931049219496, -6272.882970915195, -3576.636740760415, -5877.190038822894, -9159.72252604038, -5367.838486175357, -4307.605839682322, -4102.506232560424, -6979.622778847549, -7397.019254805953, -11645.68354435963, 0.0085, 0.2335, 0.9500000000000001, 192.0, 0.0, 0.0, 0.0, 0.0, 0.0, 0.0, 0.0, 0.0, 0.0, 1.644588571345395E9, 0.0, 2022-02-12 01:09:31.345
204.0, -7104.077291974699, -6547.161227126268, -3644.116657270987, -10492.020606043412, -5721.957173580787, -2211.3027824524384, -6271.944197648072, -3587.589095543515, -5900.16763212295, -9180.934331528466, -5375.907465923723, -4295.714711632098, -4116.073741444796, -6984.786031816725, -7399.477946696037, -11696.869039162284, 0.00825, 0.23275, 0.9510000000000001, 192.0, 0.0, 32.0, 3.5, 32.0, 14.5, 96.0, 0.0, 0.0, 0.0, 1.644588571351965E9, 0.0, 2022-02-12 01:09:31.351
206.0, -7118.807091570747, -6535.963003154159, -3667.049547082132, -10492.64645488816, -5722.158339280884, -2211.4592446636257, -6286.964569922039, -3588.1255374104426, -5912.394036340003, -9189.942084543954, -5410.239745407074, -4327.789464925464, -4130.021229984907, -7003.71795937037, -7418.6557434386905, -11691.817544915384, 0.00825, 0.23275, 0.9510000000000001, 192.0, 0.0, 0.0, 0.0, 0.0, 0.0, 0.0, 0.0, 0.0, 0.0, 1.644588571358962E9, 0.0, 2022-02-12 01:09:31.358
208.0, -7104.256105930342, -6555.9007592082935, -3657.885331855456, -10500.178992769599, -5727.209833527784, -2210.833395818877, -6288.19391586708, -3599.4355201048284, -5916.596164297601, -9182.588360618158, -5411.625553563304, -4323.117950334305, -4131.071761974306, -7007.4730524388615, -7428.311697043383, -11679.41232674269, 0.00825, 0.23275, 0.9510000000000001, 192.0, 0.0, 0.0, 0.0, 0.0, 0.0, 0.0, 0.0, 0.0, 0.0, 1.644588571367227E9, 0.0, 2022-02-12 01:09:31.367
210.0, -7123.568013139727, -6571.032890204536, -3667.5412854601486, -10511.958362097546, -5727.500406205703, -2216.689552866167, -6292.038415913394, -3602.2294881617413, -5933.337620894626, -9209.723378386901, -5402.818966247913, -4315.5183572195, -4116.364314122715, -7002.890944825524, -7429.89867089971, -11731.000152945537, 0.00825, 0.23275, 0.9510000000000001, 192.0, 0.0, 0.0, 0.0, 0.0, 0.0, 0.0, 0.0, 0.0, 0.0, 1.644588571374887E9, 0.0, 2022-02-12 01:09:31.374
212.0, -7122.271611961319, -6563.522704067553, -3667.563637204604, -10509.678484163105, -5718.850281101499, -2210.699285352145, -6294.698273503575, -3600.4413486053168, -5929.4707691038575, -9208.471680697403, -5412.363161130329, -4327.767113181008, -4134.066895731317, -7011.988104818834, -7437.990002392531, -11690.923475137171, 0.00825, 0.23275, 0.9510000000000001, 192.0, 0.0, 0.0, 0.0, 0.0, 0.0, 0.0, 0.0, 0.0, 0.0, 1.644588571381386E9, 0.0, 2022-02-12 01:09:31.381
214.0, -7104.412568141529, -6561.913378466771, -3662.6462534244365, -10526.822272160325, -5735.792903398622, -2208.128834739785, -6295.726453748519, -3601.7824532726354, -5934.1646354394725, -9203.353131217138, -5402.282524380985, -4324.660220701721, -4130.043581729363, -7009.507061184295, -7444.09202862883, -11738.152711171237, 0.009125000000000001, 0.234375, 0.9505000000000001, 192.0, 0.0, 40.0, 3.5, 48.0, 14.5, 88.0, 0.0, 0.0, 0.0, 1.644588571389585E9, 0.0, 2022-02-12 01:09:31.389
216.0, -7132.754580110858, -6569.624730303852, -3676.0349483531654, -10526.755216926958, -5739.726810422756, -2218.7459133560556, -6311.1268056782255, -3610.6113923324815, -5935.192815684416, -9204.716587628913, -5415.112425698331, -4328.638831214766, -4142.560558624335, -7011.250497251809, -7449.635261253747, -11732.207147146124, 0.009125000000000001, 0.234375, 0.9505000000000001, 192.0, 0.0, 0.0, 0.0, 0.0, 0.0, 0.0, 0.0, 0.0, 0.0, 1.644588571397586E9, 0.0, 2022-02-12 01:09:31.397
218.0, -7126.518443407827, -6574.117430939368, -3669.7764599056795, -10526.46464424904, -5747.840493660033, -2219.192948245162, -6310.322142877834, -3616.556956357593, -5939.5067023642905, -9210.751558631844, -5428.054085737955, -4326.314249791414, -4146.494465648469, -7010.5799449181495, -7461.638148026246, -11722.640600519253, 0.009125000000000001, 0.234375, 0.9505000000000001, 192.0, 0.0, 0.0, 0.0, 0.0, 0.0, 0.0, 0.0, 0.0, 0.0, 1.644588571404117E9, 0.0, 2022-02-12 01:09:31.404
220.0, -7150.233644274908, -6588.847230535416, -3686.4508612693385, -10540.166263600144, -5757.831723431555, -2227.8877768382763, -6315.619506313742, -3613.5841743450374, -5950.414353658481, -9233.863262398632, -5423.673143824714, -4331.85748241633, -4153.378802940703, -7007.853032094602, -7468.298967873928, -11773.42376392171, 0.009125000000000001, 0.234375, 0.9505000000000001, 192.0, 0.0, 0.0, 0.0, 0.0, 0.0, 0.0, 0.0, 0.0, 0.0, 1.644588571412395E9, 0.0, 2022-02-12 01:09:31.412
222.0, -7127.881899819601, -6568.037756447525, -3678.6053989655256, -10534.667734464138, -5745.024173858664, -2224.244442492061, -6311.238564400503, -3614.8805755234453, -5948.469751890869, -9220.832195381188, -5434.424332907717, -4349.224787858104, -4153.065878518329, -7023.3204392576745, -7476.993796467042, -11731.13426341227, 0.009125000000000001, 0.234375, 0.9505000000000001, 192.0, 0.0, 0.0, 0.0, 0.0, 0.0, 0.0, 0.0, 0.0, 0.0, 1.644588571427202E9, 0.0, 2022-02-12 01:09:31.427
224.0, -7135.5485481677715, -6594.815146304983, -3682.2263815672854, -10550.04573464939, -5764.246674090228, -2234.4144862192256, -6321.319201149846, -3619.2615174366856, -5956.382269428047, -9225.861337883633, -5439.02879226551, -4324.8837381462745, -4142.068820246318, -7024.10275031361, -7480.52537209098, -11778.743479102073, 0.0085625, 0.2351875, 0.9532500000000002, 192.0, 0.0, 32.0, 3.5, 48.0, 14.5, 112.0, 0.0, 0.0, 0.0, 1.644588571433945E9, 0.0, 2022-02-12 01:09:31.433
226.0, -7180.184981845019, -6626.2640507536, -3693.402253794939, -10558.718211498048, -5758.077592620563, -2240.8741403668096, -6330.326954165334, -3629.7891890751353, -5990.893362867041, -9262.048812156774, -5460.84409485389, -4352.845770459863, -4177.518686952435, -7043.928747645467, -7489.24255242855, -11774.608406377842, 0.0085625, 0.2351875, 0.9532500000000002, 192.0, 0.0, 0.0, 0.0, 0.0, 0.0, 0.0, 0.0, 0.0, 0.0, 1.6445885714418E9, 0.0, 2022-02-12 01:09:31.441
228.0, -7197.507583797883, -6607.890916811338, -3687.0320066251766, -10569.938787214613, -5763.084383378552, -2239.465980466125, -6331.355134410279, -3640.8309508360567, -5985.461888964402, -9260.841817956189, -5455.345565717884, -4369.497820079067, -4163.191218756583, -7042.609994722605, -7497.915029277209, -11767.008813263037, 0.0085625, 0.2351875, 0.9532500000000002, 192.0, 0.0, 0.0, 0.0, 0.0, 0.0, 0.0, 0.0, 0.0, 0.0, 1.644588571449777E9, 0.0, 2022-02-12 01:09:31.449
230.0, -7207.252944380396, -6648.660498697817, -3699.4595765423273, -10583.193371676609, -5775.221380617783, -2249.7254311711113, -6346.420210173155, -3634.237186221741, -6009.177089831483, -9278.343233864694, -5462.520475688038, -4359.573645540911, -4173.92005609513, -7041.0453726107335, -7505.380511925282, -11816.182651064713, 0.0085625, 0.2351875, 0.9532500000000002, 192.0, 0.0, 0.0, 0.0, 0.0, 0.0, 0.0, 0.0, 0.0, 0.0, 1.644588571456852E9, 0.0, 2022-02-12 01:09:31.456
232.0, -7217.601802063204, -6664.396126794354, -3706.343913834562, -10583.595703076804, -5770.326348582072, -2244.6515851797562, -6335.6690210901525, -3629.4315611638503, -6009.892345654052, -9277.940902464497, -5473.651644426781, -4369.408413101246, -4181.631407932211, -7052.4894657718505, -7509.6943986051565, -11778.944644802172, 0.0085625, 0.2351875, 0.9532500000000002, 192.0, 0.0, 0.0, 0.0, 0.0, 0.0, 0.0, 0.0, 0.0, 0.0, 1.644588571464458E9, 0.0, 2022-02-12 01:09:31.464
234.0, -7224.24027016643, -6657.780010435583, -3706.2768586011957, -10599.28662768443, -5787.470136579292, -2252.3852887612925, -6342.463951404567, -3635.086552511043, -6029.248956352349, -9274.40932684056, -5478.412565995761, -4377.902075994262, -4178.971550342029, -7050.343698304141, -7514.477671918592, -11823.826947668427, 0.00728125, 0.23559375, 0.952625, 192.0, 0.0, 24.0, 3.5, 48.0, 14.5, 96.0, 0.0, 0.0, 0.0, 1.644588571472405E9, 0.0, 2022-02-12 01:09:31.472
236.0, -7215.187813662031, -6666.921873917803, -3727.8462920005672, -10592.894028770212, -5788.543020313146, -2260.320158042927, -6364.1898470151245, -3649.123448028976, -6028.24312785186, -9286.680434546523, -5496.785699938024, -4377.410337616246, -4182.413718988147, -7059.820837953191, -7527.911070336231, -11820.787110422507, 0.00728125, 0.23559375, 0.952625, 192.0, 0.0, 0.0, 0.0, 0.0, 0.0, 0.0, 0.0, 0.0, 0.0, 1.644588571479541E9, 0.0, 2022-02-12 01:09:31.479
238.0, -7222.742703287924, -6637.238757281156, -3722.9065564759444, -10603.24288645302, -5791.828726748076, -2261.4824487546025, -6356.0314602889375, -3647.7376398727465, -6026.454988295435, -9290.301417148283, -5507.402778554294, -4385.546372597977, -4183.464250977547, -7068.783887479769, -7539.243404775072, -11810.550011461975, 0.00728125, 0.23559375, 0.952625, 192.0, 0.0, 0.0, 0.0, 0.0, 0.0, 0.0, 0.0, 0.0, 0.0, 1.64458857148682E9, 0.0, 2022-02-12 01:09:31.486
240.0, -7252.202302480019, -6684.51269680413, -3727.2874983891847, -10618.397369193717, -5804.81509027661, -2273.239466338094, -6368.7719546284625, -3663.830895880568, -6048.896139728563, -9314.664818604568, -5502.641856985314, -4384.205267930659, -4205.815995432853, -7062.838323454657, -7545.077210077908, -11866.049392944502, 0.00728125, 0.23559375, 0.952625, 192.0, 0.0, 0.0, 0.0, 0.0, 0.0, 0.0, 0.0, 0.0, 0.0, 1.644588571494223E9, 0.0, 2022-02-12 01:09:31.494
242.0, -7243.686287842547, -6677.382490322887, -3731.0649432021314, -10620.699598872614, -5797.036683206164, -2268.9702831471304, -6362.871094092262, -3662.9815295912663, -6044.6269565376, -9302.661931832068, -5504.854679686389, -4389.145003455282, -4203.603172731778, -7074.148306149043, -7551.1345328252955, -11825.235107569111, 0.00728125, 0.23559375, 0.952625, 192.0, 0.0, 0.0, 0.0, 0.0, 0.0, 0.0, 0.0, 0.0, 0.0, 1.644588571502071E9, 0.0, 2022-02-12 01:09:31.502
244.0, -7257.298500215829, -6695.129775420401, -3731.981364724799, -10637.530462447461, -5816.080369482085, -2285.1529461327727, -6370.582445929343, -3668.5471139606375, -6064.184732935993, -9300.22559168644, -5508.274496588051, -4377.4773928496115, -4195.154213327672, -7073.410698582018, -7557.996518373075, -11873.917206992772, 0.007640625, 0.23579687500000002, 0.9503125000000001, 192.0, 0.0, 32.0, 3.5, 48.0, 14.5, 80.0, 0.0, 0.0, 0.0, 1.644588571510002E9, 0.0, 2022-02-12 01:09:31.510
