%OpenBCI Raw EEG Data
%Number of channels = 16
%Sample Rate = 125 Hz
%Board = OpenBCI_GUI$BoardCytonSerialDaisy
Sample Index, EXG Channel 0, EXG Channel 1, EXG Channel 2, EXG Channel 3, EXG Channel 4, EXG Channel 5, EXG Channel 6, EXG Channel 7, EXG Channel 8, EXG Channel 9, EXG Channel 10, EXG Channel 11, EXG Channel 12, EXG Channel 13, EXG Channel 14, EXG Channel 15, Accel Channel 0, Accel Channel 1, Accel Channel 2, Other, Other, Other, Other, Other, Other, Other, Analog Channel 0, Analog Channel 1, Analog Channel 2, Timestamp, Other, Timestamp (Formatted)
110.0, -9791.785155747551, -9005.428434065394, -5600.96718084421, -13313.905991781474, -7510.655523616734, -3516.0858650309883, -7747.0699247205175, -5089.380453751141, -8964.837666134557, -11245.654373843, -7524.513605179025, -5660.31106237305, -5609.259678037129, -8118.444158845444, -10297.1804496265, -14810.98113190903, 0.0, 0.0, 0.0, 192.0, 0.0, 0.0, 0.0, 0.0, 0.0, 0.0, 0.0, 0.0, 0.0, 1.644588540223951E9, 0.0, 2022-02-12 01:09:00.223
112.0, -9800.4129291073, -8986.720023956303, -5609.818471648511, -13318.801023817185, -7513.6283056292905, -3513.5824696519935, -7748.1875119432825, -5084.641883926616, -8976.170000573398, -11267.223807242372, -7513.941230051664, -5641.289727841584, -5597.614419175914, -8110.106958163615, -10297.001635670858, -14854.902309763707, 0.0, 0.0, 0.0, 192.0, 0.0, 0.0, 0.0, 0.0, 0.0, 0.0, 0.0, 0.0, 0.0, 1.644588540223956E9, 0.0, 2022-02-12 01:09:00.223
0.0, -4960.232074288378, -4609.622610762431, -2837.1516272010363, -6787.6436457209165, -3715.664591272425, -1757.5623700097049, -3838.107447398597, -2549.5517312946, -4476.450917297711, -5621.687247954279, -3756.9929667702877, -2827.6744875519857, -2795.577382514165, -4060.3731942621703, -5148.053782946323, -7397.935676328621, 0.004, 0.23, 0.9480000000000001, 192.0, 0.0, 16.0, 3.5, 24.0, 14.5, 80.0, 0.0, 0.0, 0.0, 1.644588540327889E9, 0.0, 2022-02-12 01:09:00.327
2.0, -9912.551631039576, -9224.341419260672, -5685.255609185173, -13567.508884371387, -7415.772368403956, -3511.0120190396333, -7679.701766932222, -5096.935343377036, -9258.226663854917, -11419.550945705289, -7524.267735990016, -5684.272132429139, -5484.51459223206, -8076.445231013922, -10474.0721552458, -15080.74433574013, 0.004, 0.23, 0.9480000000000001, 192.0, 0.0, 0.0, 0.0, 0.0, 0.0, 0.0, 0.0, 0.0, 0.0, 1.644588540333827E9, 0.0, 2022-02-12 01:09:00.333
4.0, -9899.00647389966, -9203.375482961594, -5679.444155626793, -13571.956881517994, -7410.251487523496, -3510.453225428251, -7659.741659133632, -5086.072395571756, -9252.21404459644, -11401.960122818962, -7532.515529694025, -5693.41399591136, -5489.096699845398, -8081.429670027455, -10470.808800555325, -15056.135065094837, 0.004, 0.23, 0.9480000000000001, 192.0, 0.0, 0.0, 0.0, 0.0, 0.0, 0.0, 0.0, 0.0, 0.0, 1.644588540339924E9, 0.0, 2022-02-12 01:09:00.339
6.0, -9914.38447408491, -9221.770968648312, -5686.060271985563, -13575.957843775494, -7417.649914938202, -3514.4988911746614, -7662.826199868465, -5098.611724211183, -9259.16543712204, -11409.246791511392, -7519.596221398858, -5679.3547486489715, -5499.959647650677, -8073.293635045724, -10469.35593716573, -15103.073728450981, 0.004, 0.23, 0.9480000000000001, 192.0, 0.0, 0.0, 3.5, 32.0, 14.5, 80.0, 0.0, 0.0, 0.0, 1.644588540347719E9, 0.0, 2022-02-12 01:09:00.347
8.0, -9913.24453511769, -9225.21313729443, -5691.715263332756, -13565.54193085932, -7410.854984623788, -3509.022713783111, -7664.860208613898, -5084.731290904438, -9250.090628873186, -11408.039797310807, -7531.174425026707, -5684.897981273888, -5506.37459830935, -8079.708585704397, -10472.97691976749, -15049.764817925075, 0.004, 0.23, 0.9480000000000001, 192.0, 0.0, 0.0, 0.0, 0.0, 0.0, 0.0, 0.0, 0.0, 0.0, 1.644588540354128E9, 0.0, 2022-02-12 01:09:00.354
10.0, -9897.91123842135, -9197.116994514108, -5688.295446431094, -13580.361137433189, -7422.142615573718, -3513.2024899962535, -7667.050679570518, -5084.396014737608, -9257.243187098884, -11409.626771167133, -7530.1238930373065, -5674.4820683577145, -5497.411548782772, -8074.4559257574, -10475.346204679752, -15084.03004217506, 0.004, 0.23, 0.9480000000000001, 192.0, 0.0, 0.0, 0.0, 0.0, 0.0, 0.0, 0.0, 0.0, 0.0, 1.644588540362206E9, 0.0, 2022-02-12 01:09:00.362
12.0, -9903.968561168738, -9213.187898777473, -5699.158394236373, -13566.994794248914, -7418.521632971959, -3518.3880947098846, -7676.907798875309, -5085.603008938195, -9249.464780028437, -11414.901782858586, -7533.7001721501565, -5678.103050959475, -5482.771156164546, -8078.680405459453, -10474.78741106837, -15077.279815349559, 0.004, 0.23, 0.9480000000000001, 192.0, 0.0, 0.0, 0.0, 0.0, 0.0, 0.0, 0.0, 0.0, 0.0, 1.644588540370233E9, 0.0, 2022-02-12 01:09:00.370
14.0, -9880.610988212942, -9208.851660353144, -5679.824135282533, -13566.100724470703, -7411.950220102099, -3509.5591556500385, -7655.807752109498, -5087.994645594913, -9249.397724795072, -11407.056320554771, -7531.353238982349, -5679.019472482142, -5505.592287253415, -8081.206152582902, -10478.453097159041, -15055.464512761178, 0.004, 0.23, 0.9480000000000001, 192.0, 0.0, 0.0, 0.0, 0.0, 0.0, 0.0, 0.0, 0.0, 0.0, 1.64458854037684E9, 0.0, 2022-02-12 01:09:00.376
16.0, -9876.721784677718, -9198.994541048354, -5683.802745795578, -13575.175532719557, -7417.493452727014, -3515.281202230597, -7657.79705736602, -5086.094747316211, -9249.397724795072, -11413.44891946899, -7519.283296976483, -5674.571475335536, -5491.845964413401, -8074.880608902051, -10470.87585578869, -15097.530495826066, 0.003, 0.232, 0.9480000000000001, 192.0, 0.0, 8.0, 3.5, 40.0, 14.5, 80.0, 0.0, 0.0, 0.0, 1.644588540393295E9, 0.0, 2022-02-12 01:09:00.393
18.0, -9907.120157136937, -9210.662151654024, -5689.614199353958, -13559.73047730094, -7412.509013713481, -3515.3706092084185, -7664.748449891621, -5079.612741424173, -9238.937108389988, -11389.532552901812, -7530.481520948591, -5680.114707960452, -5497.009217382577, -8084.335396806646, -10469.892379032657, -15048.758989424587, 0.003, 0.232, 0.9480000000000001, 192.0, 0.0, 0.0, 0.0, 0.0, 0.0, 0.0, 0.0, 0.0, 0.0, 1.644588540399804E9, 0.0, 2022-02-12 01:09:00.399
20.0, -9904.236782102202, -9197.742843358856, -5683.020434739642, -13570.615776850675, -7426.054170853397, -3522.143187778376, -7670.6493104278225, -5085.938285105024, -9250.761181206844, -11404.150593775583, -7527.978125569597, -5669.207056666262, -5495.712816204169, -8082.927236905961, -10472.127553478189, -15085.259388120103, 0.003, 0.232, 0.9480000000000001, 192.0, 0.0, 0.0, 0.0, 0.0, 0.0, 0.0, 0.0, 0.0, 0.0, 1.644588540406446E9, 0.0, 2022-02-12 01:09:00.406
22.0, -9902.62745650142, -9224.20730879394, -5695.760929079167, -13568.224140193957, -7416.577031204347, -3529.340449492985, -7676.438412241747, -5095.81775615427, -9253.823370197222, -11418.031027082328, -7527.44168370267, -5677.164277692352, -5493.030606869532, -8084.223638084369, -10472.284015689376, -15083.091268907938, 0.003, 0.232, 0.9480000000000001, 192.0, 0.0, 0.0, 0.0, 0.0, 0.0, 0.0, 0.0, 0.0, 0.0, 1.644588540414626E9, 0.0, 2022-02-12 01:09:00.414
24.0, -9885.237799315191, -9210.572744676203, -5685.210905696262, -13564.603157592197, -7406.742263644012, -3520.243289499675, -7655.807752109498, -5075.7011861444935, -9252.25874808535, -11409.783233378319, -7538.818721630421, -5680.4723358717365, -5496.964513893666, -8088.4034142975115, -10473.491009889962, -15057.565576739977, 0.003, 0.232, 0.9480000000000001, 192.0, 0.0, 0.0, 0.0, 0.0, 0.0, 0.0, 0.0, 0.0, 0.0, 1.644588540422423E9, 0.0, 2022-02-12 01:09:00.422
26.0, -9903.67798849082, -9210.751558631844, -5686.194382452296, -13569.028802994348, -7412.978400347042, -3523.6631064013372, -7657.864112599387, -5081.356177491686, -9249.30831781725, -11432.805530167287, -7521.473767933103, -5676.605484080968, -5485.252199799085, -8080.625007227065, -10468.461867387517, -15099.318635382491, 0.0035, 0.23500000000000001, 0.9490000000000001, 192.0, 0.0, 16.0, 3.5, 56.0, 14.5, 88.0, 0.0, 0.0, 0.0, 1.644588540429646E9, 0.0, 2022-02-12 01:09:00.429
28.0, -9897.10657562096, -9208.91871558651, -5685.903809774377, -13558.389372633621, -7405.468214210059, -3520.0644755440326, -7658.46760969968, -5085.446546727007, -9241.038172368786, -11410.11850954515, -7533.230785516595, -5675.353786391472, -5498.640894727814, -8086.749385207819, -10471.59111161126, -15050.994163870117, 0.0035, 0.23500000000000001, 0.9490000000000001, 192.0, 0.0, 0.0, 0.0, 0.0, 0.0, 0.0, 0.0, 0.0, 0.0, 1.644588540437114E9, 0.0, 2022-02-12 01:09:00.437
30.0, -9871.290310775079, -9206.460023696425, -5682.975731250731, -13571.398087906611, -7414.788891647922, -3523.081961045499, -7656.858284098898, -5083.233724025932, -9245.240300326384, -11405.961085076462, -7529.4756924481035, -5679.153582948874, -5497.657417971781, -8085.318873562679, -10470.361765666219, -15085.058222420004, 0.0035, 0.23500000000000001, 0.9490000000000001, 192.0, 0.0, 0.0, 0.0, 0.0, 0.0, 0.0, 0.0, 0.0, 0.0, 1.644588540444074E9, 0.0, 2022-02-12 01:09:00.444
32.0, -9883.829639414507, -9203.420186450505, -5687.021396997142, -13560.53514010133, -7412.866641624766, -3530.569795438027, -7672.638615684345, -5086.608837438684, -9242.87101541412, -11419.97562884994, -7539.265756519528, -5683.4004143953825, -5484.1793160652305, -8091.733824221352, -10470.384117410675, -15082.979510185662, 0.0035, 0.23500000000000001, 0.9490000000000001, 192.0, 0.0, 0.0, 0.0, 0.0, 0.0, 0.0, 0.0, 0.0, 0.0, 1.644588540452114E9, 0.0, 2022-02-12 01:09:00.452
34.0, -9880.231008557203, -9210.259820253828, -5675.957283491764, -13558.456427866988, -7412.285496268928, -3524.8924523463793, -7657.953519577208, -5079.188058279522, -9237.327782789205, -11404.709387386965, -7529.274526748005, -5676.963111992253, -5492.583571980425, -8085.765908451785, -10471.457001144528, -15054.905719149796, 0.0035, 0.23500000000000001, 0.9490000000000001, 192.0, 0.0, 0.0, 0.0, 0.0, 0.0, 0.0, 0.0, 0.0, 0.0, 1.64458854045917E9, 0.0, 2022-02-12 01:09:00.459
36.0, -9900.794613456084, -9208.091701041663, -5678.684196315312, -13565.787800048329, -7420.220365550562, -3535.487179218195, -7668.28002551556, -5088.016997339368, -9245.083838115197, -11425.094178330206, -7518.6797998761895, -5674.370309635438, -5497.478604016138, -8074.344167035123, -10471.769925566903, -15102.917266239796, 0.00475, 0.23650000000000002, 0.9475, 192.0, 0.0, 24.0, 3.5, 56.0, 14.5, 72.0, 0.0, 0.0, 0.0, 1.644588540466776E9, 0.0, 2022-02-12 01:09:00.466
38.0, -9890.557514495555, -9203.241372494862, -5678.907713759865, -13549.918061485061, -7406.339932243816, -3529.407504726351, -7662.80384812401, -5080.216238524466, -9228.58825070718, -11411.906649101575, -7521.6749336332, -5676.426670125326, -5485.431013754727, -8087.129364863559, -10473.759230823425, -15053.162283082282, 0.00475, 0.23650000000000002, 0.9475, 192.0, 0.0, 0.0, 0.0, 0.0, 0.0, 0.0, 0.0, 0.0, 0.0, 1.644588540474785E9, 0.0, 2022-02-12 01:09:00.474
40.0, -9871.290310775079, -9208.516384186314, -5670.88343750041, -13567.665346582575, -7417.292287026917, -3536.314193763041, -7662.043888812529, -5089.693378173516, -9238.44537001197, -11412.420739224046, -7516.4446254306595, -5670.16818167784, -5467.46021121266, -8085.005949140304, -10472.507533133929, -15089.372109099879, 0.00475, 0.23650000000000002, 0.9475, 192.0, 0.0, 0.0, 0.0, 0.0, 0.0, 0.0, 0.0, 0.0, 0.0, 1.64458854048169E9, 0.0, 2022-02-12 01:09:00.481
42.0, -9897.777127954618, -9218.440558724471, -5677.320739903538, -13566.3018901708, -7415.0124090924755, -3538.2587955306526, -7672.884484873353, -5091.81679389677, -9244.234471825896, -11417.338123004214, -7517.942192309165, -5687.446080141793, -5497.500955760594, -8092.359673066101, -10472.798105811848, -15091.428469589768, 0.00475, 0.23650000000000002, 0.9475, 192.0, 0.0, 0.0, 0.0, 0.0, 0.0, 0.0, 0.0, 0.0, 0.0, 1.644588540489421E9, 0.0, 2022-02-12 01:09:00.489
44.0, -9879.00166261216, -9200.827384093689, -5666.547199076081, -13557.025916221848, -7413.358380002783, -3539.711658920248, -7662.625034168367, -5082.272599014354, -9237.417189767026, -11406.5422304323, -7511.147261994751, -5687.177859208329, -5487.75559517808, -8090.325664320668, -10468.841847043259, -15061.11950410837, 0.00475, 0.23650000000000002, 0.9475, 192.0, 0.0, 0.0, 0.0, 0.0, 0.0, 0.0, 0.0, 0.0, 0.0, 1.644588540497442E9, 0.0, 2022-02-12 01:09:00.497
46.0, -9885.774241182118, -9216.16068079003, -5675.689062558301, -13568.335898916233, -7420.5332899729365, -3544.4278770003175, -7665.530760947557, -5081.155011791589, -9251.699954473968, -11432.447902256, -7519.193889998662, -5679.93589400481, -5489.454327756683, -8106.664789517497, -10469.26653018791, -15106.582952330466, 0.005375, 0.23925000000000002, 0.94875, 192.0, 0.0, 24.0, 3.5, 72.0, 14.5, 88.0, 0.0, 0.0, 0.0, 1.644588540511745E9, 0.0, 2022-02-12 01:09:00.511
48.0, -9897.799479699073, -9222.665038426523, -5673.699757301779, -13553.49434059791, -7406.474042710548, -3533.855501872957, -7662.759144635099, -5085.044215326812, -9239.920585146021, -11412.532497946322, -7528.5369191809805, -5689.882420287421, -5491.667150457758, -8098.707568491408, -10468.64068134316, -15053.385800526834, 0.005375, 0.23925000000000002, 0.94875, 192.0, 0.0, 0.0, 0.0, 0.0, 0.0, 0.0, 0.0, 0.0, 0.0, 1.644588540519653E9, 0.0, 2022-02-12 01:09:00.519
50.0, -9877.81702015603, -9216.741826145868, -5673.565646835047, -13564.200826192002, -7416.04058933742, -3532.246176272175, -7658.579368421957, -5079.6350931686275, -9248.146027105573, -11420.82499513924, -7525.094750534863, -5676.292559658595, -5479.150173562786, -8086.771736952274, -10469.780620310381, -15087.405155587812, 0.005375, 0.23925000000000002, 0.94875, 192.0, 0.0, 0.0, 0.0, 0.0, 0.0, 0.0, 0.0, 0.0, 0.0, 1.644588540527724E9, 0.0, 2022-02-12 01:09:00.527
52.0, -9890.66927321783, -9207.8234801082, -5671.330472389516, -13557.405895877588, -7409.178603789641, -3536.6494699298705, -7666.760106892599, -5084.999511837901, -9248.570710250224, -11425.049474841295, -7519.7750353545, -5677.052518970075, -5488.0014643670875, -8092.672597488475, -10469.44534414355, -15079.60439677291, 0.005375, 0.23925000000000002, 0.94875, 192.0, 0.0, 0.0, 0.0, 0.0, 0.0, 0.0, 0.0, 0.0, 0.0, 1.644588540534336E9, 0.0, 2022-02-12 01:09:00.534
54.0, -9885.975406882217, -9219.669904669512, -5662.16625716284, -13556.86945401066, -7406.116414799263, -3533.989612339689, -7660.300452745016, -5084.463069970974, -9233.125654831607, -11408.442128711002, -7516.042294030463, -5676.426670125326, -5487.0626910999645, -8098.305237091213, -10467.50074237594, -15055.240995316624, 0.005375, 0.23925000000000002, 0.94875, 192.0, 0.0, 0.0, 0.0, 0.0, 0.0, 0.0, 0.0, 0.0, 0.0, 1.644588540542306E9, 0.0, 2022-02-12 01:09:00.542
56.0, -9880.163953323836, -9209.991599320365, -5672.157486934363, -13570.839294295229, -7420.309772528383, -3542.930310121812, -7665.866037114387, -5090.028654340345, -9251.454085284959, -11427.418759753557, -7512.354256195338, -5683.489821373203, -5494.908153403778, -8095.265399845291, -10459.811742283315, -15105.08538545196, 0.0056875, 0.239625, 0.946375, 192.0, 0.0, 24.0, 3.5, 64.0, 14.5, 64.0, 0.0, 0.0, 0.0, 1.644588540549346E9, 0.0, 2022-02-12 01:09:00.549
58.0, -9876.162991066336, -9205.364788218116, -5673.699757301779, -13555.461294109977, -7410.4973567125035, -3543.310289777552, -7665.553112692012, -5092.621456697161, -9237.148968833562, -11423.21663179596, -7525.921765079709, -5698.1972692247955, -5502.060711629476, -8107.670618017986, -10464.729126063481, -15055.643326716821, 0.0056875, 0.239625, 0.946375, 192.0, 0.0, 0.0, 0.0, 0.0, 0.0, 0.0, 0.0, 0.0, 0.0, 1.644588540556986E9, 0.0, 2022-02-12 01:09:00.556
60.0, -9880.946264379772, -9227.895346629066, -5667.2624548986505, -13562.502093613399, -7422.164967318174, -3545.478408989717, -7667.542417948534, -5094.141375320122, -9248.727172461411, -11418.031027082328, -7516.6234393863015, -5674.593827079992, -5488.828478911934, -8100.853335959117, -10462.78452429587, -15086.622844531876, 0.0056875, 0.239625, 0.946375, 192.0, 0.0, 0.0, 0.0, 0.0, 0.0, 0.0, 0.0, 0.0, 0.0, 1.644588540564037E9, 0.0, 2022-02-12 01:09:00.564
62.0, -9904.48265129121, -9228.387085007082, -5672.224542167729, -13558.25526216689, -7411.681999168635, -3545.7913334120913, -7669.621130182878, -5099.237573055932, -9253.286928330293, -11438.974611636952, -7512.957753295631, -5683.020434739642, -5467.8625426128565, -8109.3022953632235, -10463.477428373984, -15083.717117752687, 0.0056875, 0.239625, 0.946375, 192.0, 0.0, 0.0, 0.0, 0.0, 0.0, 0.0, 0.0, 0.0, 0.0, 1.644588540571941E9, 0.0, 2022-02-12 01:09:00.571
64.0, -9885.10368884846, -9211.422110965505, -5660.936911217798, -13553.471988853455, -7410.385597990227, -3539.957528109256, -7665.731926647655, -5095.281314287343, -9244.614451481635, -11416.68992241501, -7512.287200961972, -5678.080699215019, -5496.003388882088, -8102.686179004452, -10467.478390631484, -15056.515044750578, 0.0056875, 0.239625, 0.946375, 192.0, 0.0, 0.0, 0.0, 0.0, 0.0, 0.0, 0.0, 0.0, 0.0, 1.644588540578899E9, 0.0, 2022-02-12 01:09:00.578
66.0, -9882.689700447287, -9217.412378479527, -5664.647300797379, -13563.3514599027, -7416.375865504249, -3544.919615378334, -7671.252807528116, -5102.545631235317, -9249.531835261803, -11433.923117390052, -7501.603067112335, -5673.006853223665, -5481.251237541585, -8092.873763188573, -10465.377326652686, -15100.4138708608, 0.008843750000000001, 0.2388125, 0.9451875000000001, 192.0, 0.0, 48.0, 3.5, 56.0, 14.5, 64.0, 0.0, 0.0, 0.0, 1.644588540586739E9, 0.0, 2022-02-12 01:09:00.586
68.0, -9880.655691701853, -9211.511517943325, -5668.961187477254, -13558.054096466793, -7405.244696765506, -3542.8856066329013, -7675.56669420799, -5094.72252067596, -9241.105227602153, -11420.489718972412, -7510.186136983173, -5682.126364961429, -5479.41839449625, -8100.65217025902, -10467.321928420297, -15052.424675515256, 0.008843750000000001, 0.2388125, 0.9451875000000001, 192.0, 0.0, 0.0, 0.0, 0.0, 0.0, 0.0, 0.0, 0.0, 0.0, 1.644588540594644E9, 0.0, 2022-02-12 01:09:00.594
70.0, -9862.818999626517, -9197.832250336678, -5665.764888020145, -13570.615776850675, -7415.481795726037, -3543.287938033097, -7662.46857195718, -5090.654503185094, -9249.68829747299, -11421.629657939633, -7511.035503272475, -5685.03209174062, -5481.005368352577, -8098.774623724774, -10460.951681250535, -15082.577178785466, 0.008843750000000001, 0.2388125, 0.9451875000000001, 192.0, 0.0, 0.0, 0.0, 0.0, 0.0, 0.0, 0.0, 0.0, 0.0, 1.644588540602708E9, 0.0, 2022-02-12 01:09:00.602
72.0, -9856.51580769012, -9200.53681141577, -5681.209943438762, -13563.284404669334, -7412.08433056883, -3549.278205547119, -7671.56573195049, -5103.797328924815, -9241.485207257892, -11416.712274159465, -7519.372703954305, -5695.313894190061, -5471.7964496369905, -8105.547202294732, -10466.003175497435, -15081.772515985074, 0.008843750000000001, 0.2388125, 0.9451875000000001, 192.0, 0.0, 0.0, 0.0, 0.0, 0.0, 0.0, 0.0, 0.0, 0.0, 1.644588540609218E9, 0.0, 2022-02-12 01:09:00.609
74.0, -9873.503133476155, -9215.02074182281, -5664.177914163818, -13560.266919167867, -7408.351589244794, -3543.220882799731, -7664.815505124987, -5102.8138521687815, -9236.836044411188, -11411.25844851237, -7523.865404589821, -5685.277960929628, -5484.872220143345, -8103.0214551712825, -10470.764097066414, -15056.69385870622, 0.008843750000000001, 0.2388125, 0.9451875000000001, 192.0, 0.0, 0.0, 0.0, 0.0, 0.0, 0.0, 0.0, 0.0, 0.0, 1.64458854061723E9, 0.0, 2022-02-12 01:09:00.617
76.0, -9889.90931390635, -9237.7301141894, -5664.557893819559, -13571.845122795716, -7413.1348625582295, -3546.663051445848, -7661.462743456691, -5084.016035081868, -9247.944861405476, -11439.55575699279, -7513.740064351567, -5690.93295227682, -5486.816821910957, -8094.326626578168, -10468.126591220689, -15104.459536607212, 0.009421875, 0.23840625000000001, 0.94559375, 192.0, 0.0, 40.0, 3.5, 56.0, 14.5, 72.0, 0.0, 0.0, 0.0, 1.644588540625241E9, 0.0, 2022-02-12 01:09:00.625
78.0, -9908.416558315344, -9225.794282650266, -5664.893169986388, -13559.194035434013, -7403.724778142546, -3541.9021298768675, -7666.402478981314, -5087.458203727985, -9249.330669561705, -11430.995038866406, -7508.9344392936755, -5674.102088701974, -5478.121993317842, -8105.1895743834475, -10464.013870240911, -15053.274041804558, 0.009421875, 0.23840625000000001, 0.94559375, 192.0, 0.0, 0.0, 0.0, 0.0, 0.0, 0.0, 0.0, 0.0, 0.0, 1.644588540638923E9, 0.0, 2022-02-12 01:09:00.638
80.0, -9878.062889345038, -9209.924544086998, -5654.745478003679, -13568.134733216135, -7408.865679367266, -3542.9750136107227, -7659.875769600364, -5091.0791863297445, -9250.269442828829, -11423.551907962788, -7494.1375844642625, -5671.911617745354, -5473.9422171047, -8092.203210854914, -10463.1198004627, -15085.952292198217, 0.009421875, 0.23840625000000001, 0.94559375, 192.0, 0.0, 0.0, 0.0, 0.0, 0.0, 0.0, 0.0, 0.0, 0.0, 1.644588540646764E9, 0.0, 2022-02-12 01:09:00.646
82.0, -9868.04930782906, -9210.952724331943, -5664.893169986388, -13559.484608111932, -7403.367150231261, -3543.0420688440886, -7663.787324880043, -5097.270619543865, -9238.981811878897, -11422.009637595373, -7498.183250210674, -5668.4918008436925, -5469.762440891557, -8100.272190603279, -10460.906977761624, -15085.41585033129, 0.009421875, 0.23840625000000001, 0.94559375, 192.0, 0.0, 0.0, 0.0, 0.0, 0.0, 0.0, 0.0, 0.0, 0.0, 1.644588540654822E9, 0.0, 2022-02-12 01:09:00.654
84.0, -9866.931720606295, -9207.801128363744, -5656.265396626639, -13555.327183643245, -7407.65868516668, -3545.1654845673424, -7664.390821980336, -5101.472747501462, -9227.87299488461, -11402.384805963613, -7503.212392713117, -5675.912580002854, -5473.517533960049, -8103.0214551712825, -10463.477428373984, -15056.850320917407, 0.009421875, 0.23840625000000001, 0.94559375, 192.0, 0.0, 0.0, 0.0, 0.0, 0.0, 0.0, 0.0, 0.0, 0.0, 1.644588540662008E9, 0.0, 2022-02-12 01:09:00.662
86.0, -9879.091069589982, -9223.737922160379, -5663.574417063524, -13565.743096559418, -7417.7169701715675, -3553.6144439714485, -7670.917531361286, -5105.63017197015, -9241.01582062433, -11425.742378919409, -7489.041386728452, -5674.415013124349, -5473.025795582032, -8101.881516204062, -10466.271396430899, -15104.459536607212, 0.012, 0.23600000000000002, 0.9520000000000001, 192.0, 0.0, 48.0, 3.5, 48.0, 14.5, 96.0, 0.0, 0.0, 0.0, 1.644588540669521E9, 0.0, 2022-02-12 01:09:00.669
88.0, -9861.723764148208, -9205.476546940392, -5663.55206531907, -13554.701334798496, -7401.0425688079085, -3546.4171822568396, -7664.480228958158, -5102.612686468683, -9227.761236162334, -11422.657838184577, -7505.179346225184, -5681.858144027966, -5479.977188107632, -8114.912583221506, -10470.473524388495, -15057.230300573148, 0.012, 0.23600000000000002, 0.9520000000000001, 192.0, 0.0, 0.0, 0.0, 0.0, 0.0, 0.0, 0.0, 0.0, 0.0, 1.64458854067749E9, 0.0, 2022-02-12 01:09:00.677
90.0, -9847.28453723008, -9199.173355003995, -5648.911672700843, -13561.87624476865, -7403.925943842643, -3545.0760775895214, -7648.945766561719, -5094.3648927646755, -9236.746637433367, -11419.863870127663, -7492.215334441106, -5668.067117699042, -5456.597263407381, -8102.239144115347, -10465.623195841694, -15085.4605538202, 0.012, 0.23600000000000002, 0.9520000000000001, 192.0, 0.0, 0.0, 0.0, 0.0, 0.0, 0.0, 0.0, 0.0, 0.0, 1.644588540684627E9, 0.0, 2022-02-12 01:09:00.684
92.0, -9850.704354131742, -9215.713645900923, -5659.416992594837, -13554.343706887212, -7400.41671996316, -3550.485199747706, -7665.75427839211, -5114.749683707915, -9233.550337976258, -11418.142785804605, -7487.297950660939, -5668.022414210131, -5450.8975685712785, -8095.041882400737, -10464.036221985367, -15082.063088662993, 0.012, 0.23600000000000002, 0.9520000000000001, 192.0, 0.0, 0.0, 0.0, 0.0, 0.0, 0.0, 0.0, 0.0, 0.0, 1.644588540691339E9, 0.0, 2022-02-12 01:09:00.691
94.0, -9851.821941354507, -9194.7700613463, -5649.559873290047, -13556.400067377099, -7401.467251952559, -3546.595996212482, -7654.734868375644, -5102.456224257497, -9208.359921975127, -11402.071881541238, -7495.031654242475, -5670.570513078036, -5465.0462228114875, -8094.907771934006, -10465.846713286248, -15056.447989517212, 0.012, 0.23600000000000002, 0.9520000000000001, 192.0, 0.0, 0.0, 0.0, 0.0, 0.0, 0.0, 0.0, 0.0, 0.0, 1.644588540700512E9, 0.0, 2022-02-12 01:09:00.700
96.0, -9879.873380645917, -9226.598945450658, -5653.560835547547, -13565.229006436946, -7412.129034057741, -3551.446324759284, -7661.03806031204, -5101.897430646113, -9238.06539035623, -11422.948410862495, -7484.772203537489, -5661.674518784824, -5461.581702420915, -8097.813498713196, -10466.204341197532, -15101.866734250396, 0.006, 0.232, 0.9460000000000001, 192.0, 0.0, 24.0, 3.5, 32.0, 14.5, 72.0, 0.0, 0.0, 0.0, 1.644588540707093E9, 0.0, 2022-02-12 01:09:00.707
98.0, -9880.588636468487, -9192.937218300965, -5656.734783260201, -13548.755770773385, -7397.89097283971, -3544.673746189326, -7658.266443999582, -5090.632151440639, -9230.197576307963, -11396.975683805429, -7491.142450707252, -5683.042786484098, -5461.671109398736, -8097.187649868447, -10466.427858642086, -15051.664716203775, 0.006, 0.232, 0.9460000000000001, 192.0, 0.0, 0.0, 0.0, 0.0, 0.0, 0.0, 0.0, 0.0, 0.0, 1.644588540714393E9, 0.0, 2022-02-12 01:09:00.714
100.0, -9853.744191377664, -9210.505689442836, -5653.538483803092, -13554.276651653845, -7408.038664822419, -3547.4230107573285, -7657.864112599387, -5091.5485729633065, -9233.773855420812, -11411.571372934744, -7482.849953514333, -5662.769754263134, -5441.755705089057, -8093.141984122037, -10466.919597020102, -15078.062126405493, 0.006, 0.232, 0.9460000000000001, 192.0, 0.0, 0.0, 0.0, 0.0, 0.0, 0.0, 0.0, 0.0, 0.0, 1.644588540721775E9, 0.0, 2022-02-12 01:09:00.721
102.0, -9850.27967098709, -9209.410453964527, -5660.5122280731475, -13554.187244676024, -7409.782100889934, -3557.7718684401357, -7674.784383152054, -5110.145224350122, -9232.566861220224, -11421.719064917454, -7492.036520485463, -5684.294484173594, -5462.833400110412, -8100.585115025654, -10473.625120356694, -15082.532475296555, 0.006, 0.232, 0.9460000000000001, 192.0, 0.0, 0.0, 0.0, 0.0, 0.0, 0.0, 0.0, 0.0, 0.0, 1.64458854073009E9, 0.0, 2022-02-12 01:09:00.730
104.0, -9859.399182724856, -9219.088759313674, -5655.706603015256, -13553.762561531374, -7403.009522319976, -3551.89335964839, -7658.691127144233, -5093.739043919926, -9228.297678029261, -11401.267218740848, -7506.140471236762, -5661.696870529279, -5461.179371020719, -8104.362559838601, -10475.480315146484, -15054.011649371583, 0.006, 0.232, 0.9460000000000001, 192.0, 0.0, 0.0, 0.0, 0.0, 0.0, 0.0, 0.0, 0.0, 0.0, 1.644588540737818E9, 0.0, 2022-02-12 01:09:00.737
106.0, -9877.682909689298, -9225.660172183534, -5651.92915820231, -13568.313547171778, -7410.27383926795, -3557.4812957622166, -7658.557016677501, -5099.125814333655, -9239.16062583454, -11416.198184036994, -7494.428157142182, -5659.752268761667, -5459.03360355301, -8095.131289378559, -10468.886550532168, -15106.851173263929, 0.004, 0.23600000000000002, 0.9460000000000001, 192.0, 0.0, 16.0, 3.5, 48.0, 14.5, 72.0, 0.0, 0.0, 0.0, 1.644588540744524E9, 0.0, 2022-02-12 01:09:00.744
108.0, -9865.501208961155, -9204.91775332901, -5655.1701611483295, -13552.399105119599, -7394.493507682504, -3544.919615378334, -7658.489961444136, -5090.363930507175, -9226.73305591739, -11412.35368399068, -7487.05208147193, -5683.243952184195, -5449.735277859602, -8100.115728392092, -10469.311233676819, -15056.023306372561, 0.004, 0.23600000000000002, 0.9460000000000001, 192.0, 0.0, 0.0, 0.0, 0.0, 0.0, 0.0, 0.0, 0.0, 0.0, 1.644588540759398E9, 0.0, 2022-02-12 01:09:00.759
110.0, -9862.148447292859, -9207.957590574932, -5648.4199343228265, -13559.126980200646, -7410.139728801219, -3548.0041561131666, -7661.37333647887, -5089.805136895792, -9233.460930998437, -11406.139899032105, -7480.301854646427, -5657.40533559386, -5455.546731417982, -8093.1643358664915, -10469.378288910186, -15084.812353230996, 0.004, 0.23600000000000002, 0.9460000000000001, 192.0, 0.0, 0.0, 0.0, 0.0, 0.0, 0.0, 0.0, 0.0, 0.0, 1.644588540767623E9, 0.0, 2022-02-12 01:09:00.767
112.0, -9857.253415257146, -9204.761291117822, -5656.824190238022, -13557.54000634432, -7401.310789741372, -3549.9040543918677, -7662.334461490448, -5104.8702126586695, -9235.383181021594, -11415.885259614619, -7488.9743314950865, -5670.414050866849, -5461.246426254085, -8098.50640279131, -10469.69121333256, -15086.5110858096, 0.004, 0.23600000000000002, 0.9460000000000001, 192.0, 0.0, 0.0, 0.0, 0.0, 0.0, 0.0, 0.0, 0.0, 0.0, 1.644588540774094E9, 0.0, 2022-02-12 01:09:00.774
114.0, -9846.099894773948, -9216.004218578842, -5650.744515746179, -13547.861700995172, -7402.026045563942, -3544.0702490890326, -7654.51135093109, -5085.982988593935, -9228.364733262628, -11401.758957118864, -7500.038445000464, -5671.93396948981, -5455.479676184616, -8092.3373213216455, -10467.612501098216, -15054.12340809386, 0.004, 0.23600000000000002, 0.9460000000000001, 192.0, 0.0, 0.0, 0.0, 0.0, 0.0, 0.0, 0.0, 0.0, 0.0, 1.644588540782218E9, 0.0, 2022-02-12 01:09:00.782
116.0, -9853.654784399841, -9205.25302949584, -5653.337318102994, -13559.998698234403, -7407.949257844599, -3551.759249181658, -7658.914644588786, -5093.537878219829, -9233.63974495408, -11412.01840782385, -7488.192020439151, -5648.531693045104, -5446.6730888692255, -8100.115728392092, -10472.351070922741, -15106.47119360819, 0.004, 0.226, 0.9460000000000001, 192.0, 0.0, 16.0, 3.5, 8.0, 14.5, 72.0, 0.0, 0.0, 0.0, 1.644588540789974E9, 0.0, 2022-02-12 01:09:00.789
118.0, -9865.724726405708, -9191.976093289388, -5654.790181492589, -13547.593480061709, -7393.867658837755, -3549.836999158502, -7652.790266608032, -5093.068491586268, -9222.150948304052, -11397.042739038794, -7482.313511647405, -5671.330472389516, -5442.806237078457, -8100.2051353699135, -10462.561006851318, -15056.783265684042, 0.004, 0.226, 0.9460000000000001, 192.0, 0.0, 0.0, 0.0, 0.0, 0.0, 0.0, 0.0, 0.0, 0.0, 1.64458854079679E9, 0.0, 2022-02-12 01:09:00.796
120.0, -9857.722801890708, -9211.243297009862, -5651.2362541241955, -13555.215424920969, -7409.200955534096, -3549.546426480583, -7655.114848031384, -5092.576753208251, -9242.915718903032, -11386.649177867077, -7484.772203537489, -5658.277053627617, -5459.435934953205, -8096.517097534788, -10463.231559184977, -15082.621882274376, 0.004, 0.226, 0.9460000000000001, 192.0, 0.0, 0.0, 0.0, 0.0, 0.0, 0.0, 0.0, 0.0, 0.0, 1.644588540804644E9, 0.0, 2022-02-12 01:09:00.804
122.0, -9846.99396455216, -9214.998390078354, -5664.2673211416395, -13553.360230131178, -7404.931772343132, -3550.507551492161, -7663.586159179946, -5090.676854929549, -9249.97887015091, -11420.377960250134, -7496.551572865435, -5662.278015885117, -5468.264874013052, -8101.009798170305, -10467.009003997922, -15085.371146842379, 0.004, 0.226, 0.9460000000000001, 192.0, 0.0, 0.0, 0.0, 0.0, 0.0, 0.0, 0.0, 0.0, 0.0, 1.644588540811766E9, 0.0, 2022-02-12 01:09:00.811
124.0, -9855.3758687229, -9198.234581736873, -5656.131286159907, -13548.420494606555, -7398.069786795353, -3541.5221502211275, -7652.723211374666, -5075.723537888949, -9224.095550071663, -11395.791041349297, -7493.176459452684, -5667.843600254489, -5458.31834773044, -8104.4296150719665, -10463.745649307448, -15050.323611536458, 0.004, 0.226, 0.9460000000000001, 192.0, 0.0, 0.0, 0.0, 0.0, 0.0, 0.0, 0.0, 0.0, 0.0, 1.64458854081985E9, 0.0, 2022-02-12 01:09:00.819
126.0, -9856.605214667943, -9211.153890032041, -5655.974823948721, -13557.2494336664, -7406.831670621833, -3543.734972922203, -7660.389859722836, -5090.319227018264, -9232.008067608842, -11403.97177981994, -7473.484572587558, -5654.387850092394, -5450.517588915538, -8096.606504512609, -10462.44924812904, -15100.547981327532, 0.008, 0.23, 0.9520000000000001, 192.0, 0.0, 32.0, 3.5, 24.0, 14.5, 96.0, 0.0, 0.0, 0.0, 1.64458854082654E9, 0.0, 2022-02-12 01:09:00.826
128.0, -9870.485647974689, -9196.871125325099, -5661.294539129083, -13544.643049793607, -7396.169888516652, -3545.567815967538, -7657.640595154834, -5092.375587508152, -9229.21409955193, -11394.427584937524, -7492.416500141204, -5662.456829840759, -5446.0248882800215, -8092.359673066101, -10467.634852842672, -15057.006783128594, 0.008, 0.23, 0.9520000000000001, 192.0, 0.0, 0.0, 0.0, 0.0, 0.0, 0.0, 0.0, 0.0, 0.0, 1.644588540834616E9, 0.0, 2022-02-12 01:09:00.834
130.0, -9860.76263913663, -9204.090738784163, -5648.934024445299, -13553.96372723147, -7405.602324676791, -3543.869083388935, -7652.879673585853, -5085.111270560178, -9241.909890402543, -11392.147707003083, -7479.7654127795, -5649.40341107886, -5455.189103506697, -8092.560838766199, -10467.59014935376, -15085.192332886736, 0.008, 0.23, 0.9520000000000001, 192.0, 0.0, 0.0, 0.0, 0.0, 0.0, 0.0, 0.0, 0.0, 0.0, 1.644588540842381E9, 0.0, 2022-02-12 01:09:00.842
132.0, -9844.512920917621, -9199.262761981818, -5658.1652949053405, -13552.957898730981, -7392.951237315087, -3540.672783931826, -7654.310185230993, -5084.328959504242, -9235.45023625496, -11404.619980409143, -7478.156087178718, -5661.518056573636, -5464.755650133568, -8088.068138130682, -10456.280166659375, -15084.521780553077, 0.008, 0.23, 0.9520000000000001, 192.0, 0.0, 0.0, 0.0, 0.0, 0.0, 0.0, 0.0, 0.0, 0.0, 1.644588540849611E9, 0.0, 2022-02-12 01:09:00.849
134.0, -9833.13588298987, -9189.316235699205, -5651.683289013301, -13546.945279472504, -7396.371054216749, -3537.767057152636, -7650.622147395868, -5086.810003138781, -9227.11303557313, -11389.286683712804, -7490.226029184584, -5661.227483895717, -5448.707097614658, -8090.035091642749, -10459.096486460745, -15048.267251046569, 0.008, 0.23, 0.9520000000000001, 192.0, 0.0, 0.0, 0.0, 0.0, 0.0, 0.0, 0.0, 0.0, 0.0, 1.644588540856982E9, 0.0, 2022-02-12 01:09:00.856
136.0, -9849.899691331351, -9191.685520611469, -5658.701736772267, -13552.980250475437, -7410.519708456959, -3548.898225891379, -7664.927263847264, -5099.125814333655, -9240.345268290672, -11416.578163692733, -7477.418479611693, -5659.3946408503825, -5453.17744650572, -8089.163373608992, -10464.080925474278, -15104.07955695147, 0.004, 0.232, 0.9520000000000001, 192.0, 0.0, 16.0, 3.5, 32.0, 14.5, 96.0, 0.0, 0.0, 0.0, 1.644588540865096E9, 0.0, 2022-02-12 01:09:00.865
138.0, -9866.417630483822, -9195.664131124513, -5657.7853152496, -13540.329163113734, -7396.840440850311, -3543.287938033097, -7656.925339332264, -5086.072395571756, -9227.649477440058, -11385.911570300052, -7493.176459452684, -5666.390736864893, -5466.364975734351, -8102.708530748908, -10466.427858642086, -15055.576271483455, 0.004, 0.232, 0.9520000000000001, 192.0, 0.0, 0.0, 0.0, 0.0, 0.0, 0.0, 0.0, 0.0, 0.0, 1.644588540873526E9, 0.0, 2022-02-12 01:09:00.873
140.0, -9862.550778693054, -9218.217041279917, -5654.521960559126, -13557.115323199669, -7409.402121234193, -3543.7796764111135, -7652.030307296552, -5083.591351937217, -9237.841872911677, -11401.982474563418, -7482.805250025422, -5655.527789059614, -5454.138571517297, -8097.813498713196, -10462.15867545112, -15083.180675885758, 0.004, 0.232, 0.9520000000000001, 192.0, 0.0, 0.0, 0.0, 0.0, 0.0, 0.0, 0.0, 0.0, 0.0, 1.644588540886978E9, 0.0, 2022-02-12 01:09:00.886
142.0, -9856.404048967845, -9211.332703987682, -5662.657995540857, -13555.64010806562, -7404.149461287197, -3548.473542746728, -7660.0769353004625, -5097.6505991996055, -9242.580442736202, -11423.149576562593, -7483.609912825813, -5665.429611853316, -5451.389306949295, -8095.421862056478, -10464.63971908566, -15090.22147538918, 0.004, 0.232, 0.9520000000000001, 192.0, 0.0, 0.0, 0.0, 0.0, 0.0, 0.0, 0.0, 0.0, 0.0, 1.644588540894591E9, 0.0, 2022-02-12 01:09:00.894
144.0, -9850.458484942734, -9194.05480552373, -5654.45490532576, -13550.409799863077, -7401.154327530186, -3541.0974670764767, -7646.576481649457, -5082.183192036533, -9236.031381610797, -11397.802698350275, -7479.5865988238575, -5666.904826987366, -5443.543844645482, -8095.488917289844, -10464.617367341205, -15054.995126127616, 0.004, 0.232, 0.9520000000000001, 192.0, 0.0, 0.0, 0.0, 0.0, 0.0, 0.0, 0.0, 0.0, 0.0, 1.644588540901716E9, 0.0, 2022-02-12 01:09:00.901
146.0, -9863.556607193543, -9194.993578790854, -5660.422821095326, -13558.523483100354, -7418.633391694235, -3548.920577635834, -7657.618243410378, -5091.682683430038, -9246.112018360142, -11400.730776873921, -7470.6011975528245, -5657.695908271779, -5461.805219865468, -8085.967074151883, -10466.69607957555, -15106.292379652547, 0.01, 0.23800000000000002, 0.9540000000000001, 192.0, 0.0, 40.0, 3.5, 56.0, 14.5, 104.0, 0.0, 0.0, 0.0, 1.644588540909128E9, 0.0, 2022-02-12 01:09:00.909
148.0, -9856.739325134675, -9205.722416129402, -5666.837771754, -13546.431189350033, -7404.015350820465, -3544.0478973445774, -7651.538568918535, -5087.189982794522, -9232.343343775672, -11402.5412681748, -7487.163840194206, -5662.233312396206, -5465.135629789309, -8091.331492821157, -10466.316099919808, -15059.845454674418, 0.01, 0.23800000000000002, 0.9540000000000001, 192.0, 0.0, 0.0, 0.0, 0.0, 0.0, 0.0, 0.0, 0.0, 0.0, 1.644588540917192E9, 0.0, 2022-02-12 01:09:00.917
150.0, -9844.110589517426, -9201.296770727251, -5656.2877483710945, -13565.385468648134, -7412.08433056883, -3543.377345010918, -7646.509426416091, -5083.501944959396, -9239.808826423745, -11394.516991915345, -7487.476764616581, -5655.21486463724, -5459.100658786376, -8087.889324175039, -10463.902111518635, -15086.734603254154, 0.01, 0.23800000000000002, 0.9540000000000001, 192.0, 0.0, 0.0, 0.0, 0.0, 0.0, 0.0, 0.0, 0.0, 0.0, 1.644588540925241E9, 0.0, 2022-02-12 01:09:00.925
152.0, -9867.803438640052, -9199.374520704094, -5668.536504332603, -13561.988003490926, -7407.546926444403, -3551.535731737105, -7655.89715908732, -5091.77209040786, -9243.809788681245, -11407.5927624217, -7488.169668694695, -5670.615216566946, -5440.682821355203, -8098.819327213684, -10462.15867545112, -15092.32253936798, 0.01, 0.23800000000000002, 0.9540000000000001, 192.0, 0.0, 0.0, 0.0, 0.0, 0.0, 0.0, 0.0, 0.0, 0.0, 1.644588540931938E9, 0.0, 2022-02-12 01:09:00.931
154.0, -9853.073639044003, -9215.311314500728, -5663.619120552436, -13563.44086688052, -7404.46238570957, -3545.7466299231805, -7651.784438107543, -5091.526221218851, -9246.760218949345, -11407.033968810318, -7491.209505940617, -5673.923274746332, -5447.500103414071, -8100.227487114369, -10465.73495456397, -15061.991222142127, 0.009000000000000001, 0.23800000000000002, 0.9520000000000001, 192.0, 0.0, 32.0, 3.5, 56.0, 14.5, 88.0, 0.0, 0.0, 0.0, 1.644588540938879E9, 0.0, 2022-02-12 01:09:00.938
156.0, -9865.94824385026, -9218.038227324276, -5665.228446153217, -13569.386430905633, -7414.654781181191, -3550.8428276589907, -7656.210083509694, -5093.135546819633, -9259.16543712204, -11426.390579508612, -7484.973369237587, -5662.12155367393, -5462.833400110412, -8093.700777733419, -10461.532826606373, -15112.617923333399, 0.009000000000000001, 0.23800000000000002, 0.9520000000000001, 192.0, 0.0, 0.0, 0.0, 0.0, 0.0, 0.0, 0.0, 0.0, 0.0, 1.644588540947004E9, 0.0, 2022-02-12 01:09:00.947
158.0, -9853.900653588851, -9201.810860849722, -5667.642434554391, -13556.10949469918, -7401.646065908202, -3547.735935179703, -7654.824275353465, -5089.6710264290605, -9248.660117228046, -11406.45282345448, -7490.360139651316, -5673.5432950905915, -5459.74885937558, -8098.12642313557, -10465.958472008524, -15066.483922777645, 0.009000000000000001, 0.23800000000000002, 0.9520000000000001, 192.0, 0.0, 0.0, 0.0, 0.0, 0.0, 0.0, 0.0, 0.0, 0.0, 1.644588540954962E9, 0.0, 2022-02-12 01:09:00.954
160.0, -9841.42838018279, -9196.938180558465, -5662.345071118483, -13569.453486138998, -7414.99005734802, -3553.3238712935295, -7655.316013731482, -5099.349331778209, -9247.319012560727, -11391.700672113977, -7493.154107708229, -5657.74061176069, -5443.0968097563755, -8095.757138223307, -10467.59014935376, -15097.731661526164, 0.009000000000000001, 0.23800000000000002, 0.9520000000000001, 192.0, 0.0, 0.0, 0.0, 0.0, 0.0, 0.0, 0.0, 0.0, 0.0, 1.644588540961327E9, 0.0, 2022-02-12 01:09:00.961
162.0, -9864.76360139413, -9217.479433712893, -5670.101126444474, -13568.581768105241, -7410.095025312308, -3557.8836271624123, -7658.288795744038, -5096.085977087734, -9250.627070740113, -11428.759864420876, -7500.261962445017, -5677.208981181262, -5474.880990371823, -8105.837774972651, -10470.272358688399, -15109.287513409558, 0.009000000000000001, 0.23800000000000002, 0.9520000000000001, 192.0, 0.0, 0.0, 0.0, 0.0, 0.0, 0.0, 0.0, 0.0, 0.0, 1.644588540969635E9, 0.0, 2022-02-12 01:09:00.969
164.0, -9867.62462468441, -9205.320084729205, -5663.373251363427, -13561.116285457168, -7404.864717109766, -3547.17714156832, -7641.815560080477, -5077.28816000082, -9247.698992216468, -11396.461593682956, -7492.304741418928, -5669.028242710619, -5458.407754708262, -8109.637571530053, -10469.825323799292, -15071.021326902071, 0.009500000000000001, 0.24, 0.9500000000000001, 192.0, 0.0, 40.0, 3.5, 72.0, 14.5, 80.0, 0.0, 0.0, 0.0, 1.644588540977501E9, 0.0, 2022-02-12 01:09:00.977
166.0, -9857.342822234968, -9203.10726202813, -5664.803763008566, -13571.420439651065, -7414.699484670101, -3550.529903236616, -7645.570653148968, -5091.123889818656, -9260.126562133619, -11421.607306195177, -7478.312549389905, -5667.59773106548, -5446.941309802689, -8096.986484168349, -10470.004137754935, -15119.61401934791, 0.009500000000000001, 0.24, 0.9500000000000001, 192.0, 0.0, 0.0, 0.0, 0.0, 0.0, 0.0, 0.0, 0.0, 0.0, 1.644588540984795E9, 0.0, 2022-02-12 01:09:00.984
168.0, -9860.025031569605, -9206.214154507417, -5671.352824133972, -13561.853893024194, -7403.456557209081, -3546.79716191258, -7648.051696783507, -5089.380453751141, -9243.452160769959, -11412.01840782385, -7490.360139651316, -5680.137059704907, -5449.243539481586, -8097.947609179928, -10473.334547678774, -15068.495579778622, 0.009500000000000001, 0.24, 0.9500000000000001, 192.0, 0.0, 0.0, 0.0, 0.0, 0.0, 0.0, 0.0, 0.0, 0.0, 1.644588540992516E9, 0.0, 2022-02-12 01:09:00.992
170.0, -9863.400144982355, -9225.883689628088, -5658.589978049991, -13570.72753557295, -7412.307848013384, -3556.117839350443, -7640.586214135435, -5097.427081755052, -9254.002184152863, -11412.219573523947, -7496.573924609891, -5668.3800421214155, -5461.447591954183, -8096.114766134592, -10467.433687142575, -15093.395423101834, 0.009500000000000001, 0.24, 0.9500000000000001, 192.0, 0.0, 0.0, 0.0, 0.0, 0.0, 0.0, 0.0, 0.0, 0.0, 1.644588541007136E9, 0.0, 2022-02-12 01:09:01.007
172.0, -9868.876322373906, -9217.948820346453, -5669.497629344181, -13568.805285549795, -7410.430301479138, -3561.0575748750657, -7642.8213885809655, -5099.930477134047, -9256.662041743046, -11428.268126042858, -7486.560343093914, -5669.005890966165, -5458.407754708262, -8103.759062738307, -10467.858370287226, -15104.012501718105, 0.009500000000000001, 0.24, 0.9500000000000001, 192.0, 0.0, 0.0, 0.0, 0.0, 0.0, 0.0, 0.0, 0.0, 0.0, 1.644588541013865E9, 0.0, 2022-02-12 01:09:01.013
174.0, -9832.241813211658, -9197.228753236384, -5667.530675832114, -13563.463218624976, -7409.6703421676575, -3554.508513749661, -7641.7038013582, -5097.315323032775, -9242.491035758381, -11409.313846744759, -7490.270732673494, -5675.085565458008, -5454.8314755954125, -8107.380045340067, -10472.619291856205, -15069.277890834557, 0.00875, 0.241, 0.9510000000000001, 192.0, 0.0, 32.0, 3.5, 72.0, 14.5, 96.0, 0.0, 0.0, 0.0, 1.644588541021817E9, 0.0, 2022-02-12 01:09:01.021
176.0, -9839.394371437356, -9213.545526688758, -5662.993271707687, -13571.509846628887, -7415.481795726037, -3560.0964498634876, -7645.972984549164, -5103.685570202538, -9240.546433990768, -11418.58982069371, -7481.665311058201, -5652.64441402488, -5438.9840887765995, -8095.399510312022, -10472.373422667197, -15116.797699546541, 0.00875, 0.241, 0.9510000000000001, 192.0, 0.0, 0.0, 0.0, 0.0, 0.0, 0.0, 0.0, 0.0, 0.0, 1.644588541029876E9, 0.0, 2022-02-12 01:09:01.029
178.0, -9886.24362781568, -9230.644611197069, -5672.917446245843, -13566.704221570995, -7414.051284080897, -3563.0468801315883, -7650.6892026292335, -5102.590334724228, -9250.939995162487, -11422.657838184577, -7487.677930316679, -5658.768792005634, -5439.609937621348, -8105.636609272553, -10473.222788956498, -15071.736582724641, 0.00875, 0.241, 0.9510000000000001, 192.0, 0.0, 0.0, 0.0, 0.0, 0.0, 0.0, 0.0, 0.0, 0.0, 1.644588541036757E9, 0.0, 2022-02-12 01:09:01.036
180.0, -9859.063906558027, -9205.543602173759, -5662.859161240955, -13578.572997876765, -7420.7121039285785, -3568.388947056407, -7636.965231533674, -5104.53493649184, -9262.942881934987, -11423.238983540414, -7493.645846086246, -5678.103050959475, -5463.07926929942, -8112.431539586966, -10469.780620310381, -15097.32933012597, 0.00875, 0.241, 0.9510000000000001, 192.0, 0.0, 0.0, 0.0, 0.0, 0.0, 0.0, 0.0, 0.0, 0.0, 1.644588541044646E9, 0.0, 2022-02-12 01:09:01.044
182.0, -9868.04930782906, -9232.812730409232, -5673.878571257422, -13578.595349621219, -7424.42249350816, -3585.8456594760014, -7655.047792798018, -5119.510605276895, -9262.83112321271, -11439.466350014967, -7494.249343186539, -5688.988350509209, -5459.0559552974655, -8117.393626856045, -10464.818533041303, -15106.918228497296, 0.00875, 0.241, 0.9510000000000001, 192.0, 0.0, 0.0, 0.0, 0.0, 0.0, 0.0, 0.0, 0.0, 0.0, 1.644588541052314E9, 0.0, 2022-02-12 01:09:01.052
184.0, -9856.582862923487, -9226.308372772739, -5664.826114753022, -13577.678928098552, -7422.634353951736, -3583.2081536302753, -7651.1585892627945, -5115.174366852566, -9255.365640564638, -11439.533405248334, -7490.248380929039, -5679.891190515899, -5444.84024582389, -8124.076798448182, -10467.612501098216, -15072.384783313846, 0.009375000000000001, 0.2405, 0.9515, 192.0, 0.0, 40.0, 3.5, 64.0, 14.5, 96.0, 0.0, 0.0, 0.0, 1.644588541059481E9, 0.0, 2022-02-12 01:09:01.059
186.0, -9841.003697038139, -9225.950744861453, -5670.436402611304, -13584.138582246136, -7435.061923868886, -3590.47247057825, -7656.008917809596, -5127.065494902789, -9265.423925569527, -11436.73943719142, -7494.852840286832, -5677.588960837003, -5463.101621043876, -8129.910603751016, -10469.44534414355, -15124.106719983427, 0.009375000000000001, 0.2405, 0.9515, 192.0, 0.0, 0.0, 0.0, 0.0, 0.0, 0.0, 0.0, 0.0, 0.0, 1.64458854106661E9, 0.0, 2022-02-12 01:09:01.066
188.0, -9873.257264287146, -9239.182977578996, -5677.857181770466, -13571.331032673244, -7425.428322008649, -3586.695025765303, -7658.46760969968, -5129.412428070596, -9246.559053249246, -11425.854137641685, -7510.744930594556, -5681.053481227575, -5462.721641388135, -8126.5578420827205, -10476.97788202499, -15075.446972304222, 0.009375000000000001, 0.2405, 0.9515, 192.0, 0.0, 0.0, 0.0, 0.0, 0.0, 0.0, 0.0, 0.0, 0.0, 1.644588541074265E9, 0.0, 2022-02-12 01:09:01.074
190.0, -9864.987118838682, -9217.814709879722, -5668.223579910228, -13578.036556009836, -7429.831615666344, -3582.6493600188924, -7652.834970096943, -5115.82256744177, -9257.489056287892, -11440.874509915651, -7493.243514686051, -5672.269245656639, -5432.166806717731, -8123.585060070165, -10470.69704183305, -15093.998920202128, 0.009375000000000001, 0.2405, 0.9515, 192.0, 0.0, 0.0, 0.0, 0.0, 0.0, 0.0, 0.0, 0.0, 0.0, 1.644588541082007E9, 0.0, 2022-02-12 01:09:01.082
192.0, -9856.627566412399, -9231.806901908743, -5672.202190423273, -13569.252320438902, -7427.551737731903, -3592.528831068138, -7648.834007839443, -5128.831282714758, -9263.032288912807, -11428.11166383167, -7481.19592442464, -5670.704623544768, -5469.829496124923, -8118.287696634257, -10468.528922620884, -15100.235056905158, 0.009375000000000001, 0.2405, 0.9515, 192.0, 0.0, 0.0, 0.0, 0.0, 0.0, 0.0, 0.0, 0.0, 0.0, 1.644588541091532E9, 0.0, 2022-02-12 01:09:01.091
194.0, -9852.872473343907, -9233.170358320518, -5668.223579910228, -13563.664384325075, -7429.406932521693, -3600.1060724384874, -7652.343231718926, -5134.77684673987, -9259.299547588773, -11425.384751008123, -7487.141488449752, -5668.178876421318, -5465.202685022675, -8132.861034019117, -10473.423954656597, -15066.975661155662, 0.0106875, 0.23925000000000002, 0.9537500000000001, 192.0, 0.0, 48.0, 3.5, 56.0, 14.5, 112.0, 0.0, 0.0, 0.0, 1.644588541097656E9, 0.0, 2022-02-12 01:09:01.097
196.0, -9855.152351278348, -9241.418152024526, -5670.279940400117, -13574.057945496792, -7444.337897817839, -3613.9418022563223, -7663.049717313018, -5147.740858523948, -9264.507504046858, -11439.913384904074, -7485.822735526888, -5659.953434461765, -5463.727469888624, -8125.350847882134, -10472.954568023035, -15122.586801360465, 0.0106875, 0.23925000000000002, 0.9537500000000001, 192.0, 0.0, 0.0, 0.0, 0.0, 0.0, 0.0, 0.0, 0.0, 0.0, 1.644588541104771E9, 0.0, 2022-02-12 01:09:01.104
198.0, -9858.013374568627, -9233.349172276161, -5673.40918462386, -13564.312584914278, -7435.66542096918, -3616.8475290355123, -7662.446220212725, -5152.25591090392, -9253.152817863562, -11431.576184222244, -7492.461203630114, -5671.688100300801, -5460.799391364979, -8144.618051602609, -10474.295672690354, -15078.531513039055, 0.0106875, 0.23925000000000002, 0.9537500000000001, 192.0, 0.0, 0.0, 0.0, 0.0, 0.0, 0.0, 0.0, 0.0, 0.0, 1.644588541112721E9, 0.0, 2022-02-12 01:09:01.112
200.0, -9830.788949822063, -9231.046942597264, -5661.540408318092, -13569.721707072462, -7446.953051919109, -3614.344133656518, -7654.131371275351, -5148.746687024437, -9256.25971034285, -11435.487739501923, -7485.174534937684, -5667.038937454097, -5452.775115105524, -8136.884348021073, -10473.200437212043, -15098.066937692993, 0.0106875, 0.23925000000000002, 0.9537500000000001, 192.0, 0.0, 0.0, 0.0, 0.0, 0.0, 0.0, 0.0, 0.0, 0.0, 1.644588541119803E9, 0.0, 2022-02-12 01:09:01.119
202.0, -9870.977386352704, -9248.21308233894, -5674.750289291178, -13566.234834937435, -7448.0035839085085, -3616.1099214684873, -7662.84855161292, -5151.0042132144235, -9258.427829555016, -11442.036800627327, -7482.358215136316, -5667.865951998943, -5471.304711258974, -8133.0174962303045, -10475.92735003559, -15104.101908695926, 0.0106875, 0.23925000000000002, 0.9537500000000001, 192.0, 0.0, 0.0, 0.0, 0.0, 0.0, 0.0, 0.0, 0.0, 0.0, 1.644588541134188E9, 0.0, 2022-02-12 01:09:01.134
204.0, -9848.983269808683, -9245.97790789341, -5664.513190330647, -13560.736305801429, -7443.8908629287325, -3615.215851690275, -7651.9185485742755, -5148.657280046616, -9250.023573639819, -11417.06990207075, -7487.946151250143, -5664.535542075103, -5455.054993039965, -8148.104923737636, -10477.26845470291, -15065.142818110326, 0.01034375, 0.23762500000000003, 0.951875, 192.0, 0.0, 40.0, 3.5, 48.0, 14.5, 88.0, 0.0, 0.0, 0.0, 1.644588541142542E9, 0.0, 2022-02-12 01:09:01.142
206.0, -9857.543987935065, -9237.059561855742, -5660.802800751067, -13572.470971640465, -7453.8150374668885, -3630.571500131071, -7653.058487541496, -5158.201474929032, -9258.047849899274, -11438.415818025567, -7483.833430270366, -5654.209036136751, -5452.909225572255, -8144.752162069341, -10470.115896477211, -15116.03774023506, 0.01034375, 0.23762500000000003, 0.951875, 192.0, 0.0, 0.0, 0.0, 0.0, 0.0, 0.0, 0.0, 0.0, 0.0, 1.644588541148866E9, 0.0, 2022-02-12 01:09:01.148
208.0, -9857.14165653487, -9253.085762630197, -5662.948568218776, -13562.345631402211, -7452.451581055115, -3639.9592328023, -7661.507446945602, -5159.5202278518955, -9247.095495116175, -11438.59463198121, -7482.335863391861, -5674.996158480187, -5455.144400017786, -8145.489769636366, -10470.764097066414, -15069.188483856737, 0.01034375, 0.23762500000000003, 0.951875, 192.0, 0.0, 0.0, 0.0, 0.0, 0.0, 0.0, 0.0, 0.0, 0.0, 1.644588541157092E9, 0.0, 2022-02-12 01:09:01.157
210.0, -9845.250528484647, -9283.46178334496, -5660.154600161863, -13568.648823338608, -7468.924816718676, -3650.8445323520345, -7652.946728819219, -5171.16548671311, -9260.886521445098, -11455.604309511698, -7488.572000094891, -5671.106954944963, -5472.377594992829, -8160.0184035323155, -10466.584320853271, -15094.244789391136, 0.01034375, 0.23762500000000003, 0.951875, 192.0, 0.0, 0.0, 0.0, 0.0, 0.0, 0.0, 0.0, 0.0, 0.0, 1.644588541166147E9, 0.0, 2022-02-12 01:09:01.166
212.0, -9840.914290060316, -9257.98079466591, -5672.783335779111, -13564.401991892099, -7470.645901041735, -3655.5160469431935, -7663.943787091231, -5171.992501257957, -9262.719364490435, -11465.372021838668, -7491.187154196162, -5671.911617745354, -5477.160868306264, -8163.61703438962, -10472.30636743383, -15105.13008894087, 0.01034375, 0.23762500000000003, 0.951875, 192.0, 0.0, 0.0, 0.0, 0.0, 0.0, 0.0, 0.0, 0.0, 0.0, 1.644588541171973E9, 0.0, 2022-02-12 01:09:01.171
214.0, -9850.480836687188, -9247.855454427654, -5661.853332740466, -13561.608023835186, -7470.24356964154, -3652.9455963308333, -7654.064316041985, -5162.0459749753445, -9254.985660908898, -11432.559660978277, -7497.177421710185, -5686.060271985563, -5474.411603738261, -8168.869694336617, -10474.340376179263, -15063.645251231821, 0.010171875, 0.23481250000000004, 0.9529375, 192.0, 0.0, 40.0, 3.5, 32.0, 14.5, 104.0, 0.0, 0.0, 0.0, 1.644588541180511E9, 0.0, 2022-02-12 01:09:01.180
216.0, -9858.99685132466, -9273.112925662152, -5666.860123498455, -13566.190131448524, -7476.211485411106, -3662.3109772576067, -7652.27617648556, -5171.053727990834, -9266.697975003479, -11444.294326817313, -7485.420404126693, -5671.956321234265, -5449.690574370691, -8165.405173946045, -10468.372460409697, -15111.545039599543, 0.010171875, 0.23481250000000004, 0.9529375, 192.0, 0.0, 0.0, 0.0, 0.0, 0.0, 0.0, 0.0, 0.0, 0.0, 1.644588541188099E9, 0.0, 2022-02-12 01:09:01.188
218.0, -9860.583825180987, -9276.197466396985, -5667.888303743399, -13559.30579415629, -7478.983101723565, -3671.274026784185, -7658.959348077697, -5184.464774664018, -9261.847646456677, -11455.134922878138, -7497.244476943551, -5664.960225219754, -5475.328025260928, -8180.313787497734, -10468.081887731778, -15068.070896633972, 0.010171875, 0.23481250000000004, 0.9529375, 192.0, 0.0, 0.0, 0.0, 0.0, 0.0, 0.0, 0.0, 0.0, 0.0, 1.644588541194821E9, 0.0, 2022-02-12 01:09:01.194
220.0, -9851.061982043026, -9290.54728633729, -5654.589015792491, -13569.49818962791, -7497.356235665827, -3683.5227827456933, -7658.825237610965, -5199.7310161269925, -9264.373393580127, -11465.953167194506, -7496.90920077672, -5675.93493174731, -5479.686615429713, -8181.051395064759, -10469.0206609989, -15090.310882367003, 0.010171875, 0.23481250000000004, 0.9529375, 192.0, 0.0, 0.0, 0.0, 0.0, 0.0, 0.0, 0.0, 0.0, 0.0, 1.644588541201857E9, 0.0, 2022-02-12 01:09:01.201
222.0, -9846.65868838533, -9289.429699114526, -5665.541370575592, -13566.3018901708, -7508.48740440457, -3700.2865910871737, -7673.152705806817, -5212.471510466517, -9269.06725991574, -11474.044498687328, -7493.645846086246, -5684.763870807156, -5496.003388882088, -8188.00278759036, -10474.385079668175, -15103.632522062366, 0.010171875, 0.23481250000000004, 0.9529375, 192.0, 0.0, 0.0, 0.0, 0.0, 0.0, 0.0, 0.0, 0.0, 0.0, 1.644588541209278E9, 0.0, 2022-02-12 01:09:01.209
224.0, -9872.497304975666, -9290.591989826202, -5662.769754263134, -13563.843198280716, -7510.052026516441, -3705.5168992897156, -7665.486057458646, -5205.69893189656, -9263.255806357362, -11460.722858991965, -7499.032616499975, -5689.211867953762, -5470.8576763698675, -8200.85504065216, -10477.179047725087, -15065.12046636587, 0.006, 0.23600000000000002, 0.9500000000000001, 192.0, 0.0, 24.0, 3.5, 48.0, 14.5, 88.0, 0.0, 0.0, 0.0, 1.644588541217191E9, 0.0, 2022-02-12 01:09:01.217
226.0, -9870.083316574493, -9306.260562689373, -5662.747402518678, -13577.187189720535, -7526.972297069108, -3722.4818733312936, -7674.337348262948, -5220.518138470428, -9283.640597300602, -11484.303949392313, -7497.445642643648, -5693.905734289377, -5500.294923817507, -8204.297209298278, -10475.525018635395, -15117.334141413468, 0.006, 0.23600000000000002, 0.9500000000000001, 192.0, 0.0, 0.0, 0.0, 0.0, 0.0, 0.0, 0.0, 0.0, 0.0, 1.644588541225595E9, 0.0, 2022-02-12 01:09:01.225
228.0, -9856.828732112495, -9302.974856254443, -5669.005890966165, -13564.35728840319, -7515.863480074821, -3722.6383355424805, -7666.916569103786, -5221.546318715372, -9270.922454705531, -11460.02995491385, -7516.399921941748, -5709.1719757523515, -5498.260915072074, -8214.221383836435, -10477.000233769446, -15071.669527491276, 0.006, 0.23600000000000002, 0.9500000000000001, 192.0, 0.0, 0.0, 0.0, 0.0, 0.0, 0.0, 0.0, 0.0, 0.0, 1.644588541231956E9, 0.0, 2022-02-12 01:09:01.231
230.0, -9843.261223228124, -9310.596801113701, -5654.656071025857, -13560.736305801429, -7535.890643106776, -3735.758809537746, -7661.798019623521, -5231.783417675903, -9266.385050581104, -11465.886111961141, -7511.840166072866, -5693.07871974453, -5500.473737773149, -8218.557622260765, -10472.395774411652, -15089.305053866514, 0.006, 0.23600000000000002, 0.9500000000000001, 192.0, 0.0, 0.0, 0.0, 0.0, 0.0, 0.0, 0.0, 0.0, 0.0, 1.644588541239835E9, 0.0, 2022-02-12 01:09:01.239
232.0, -9885.349558037467, -9338.335315982738, -5666.010757209153, -13554.477817353943, -7539.131646052796, -3748.119324221531, -7672.795077895532, -5240.455894524562, -9270.877751216622, -11500.218391444492, -7501.603067112335, -5675.376138135927, -5494.058787114476, -8223.162081618557, -10476.21792271351, -15100.212705160702, 0.006, 0.23600000000000002, 0.9500000000000001, 192.0, 0.0, 0.0, 0.0, 0.0, 0.0, 0.0, 0.0, 0.0, 0.0, 1.644588541253841E9, 0.0, 2022-02-12 01:09:01.253
234.0, -9875.157162565847, -9325.863042576677, -5658.522922816625, -13553.516692342364, -7547.11121882334, -3750.4439056448828, -7672.482153473157, -5245.797961449381, -9270.698937260979, -11474.536237065344, -7508.241535215561, -5686.127327218929, -5502.060711629476, -8228.43709331001, -10480.375347182196, -15060.583062241443, 0.006, 0.23600000000000002, 0.9500000000000001, 192.0, 0.0, 0.0, 3.5, 32.0, 14.5, 80.0, 0.0, 0.0, 0.0, 1.644588541262305E9, 0.0, 2022-02-12 01:09:01.262
236.0, -9846.524577918599, -9325.594821643213, -5659.238178639195, -13567.240663437924, -7561.393983530282, -3762.849123817578, -7675.23141804116, -5254.313976086853, -9282.232437399916, -11496.642112331643, -7507.43687241517, -5693.257533700173, -5505.32406631995, -8228.235927609912, -10476.441440158063, -15109.4663273652, 0.006, 0.23600000000000002, 0.9500000000000001, 192.0, 0.0, 0.0, 0.0, 0.0, 0.0, 0.0, 0.0, 0.0, 0.0, 1.644588541269429E9, 0.0, 2022-02-12 01:09:01.269
238.0, -9844.021182539605, -9308.294571434804, -5664.4461350972815, -13551.81795976376, -7556.297785794472, -3766.2018854858743, -7681.37814776637, -5259.298415100386, -9260.528893533814, -11475.832638243752, -7520.177366754695, -5717.017438056164, -5521.238508372129, -8240.81995973825, -10478.944835537057, -15067.489751278134, 0.006, 0.23600000000000002, 0.9500000000000001, 192.0, 0.0, 0.0, 0.0, 0.0, 0.0, 0.0, 0.0, 0.0, 0.0, 1.644588541277577E9, 0.0, 2022-02-12 01:09:01.277
240.0, -9878.889903889883, -9346.270185264371, -5655.527789059614, -13553.717858042462, -7569.30650106746, -3779.657635647969, -7673.33151976246, -5268.730851260526, -9266.02742266982, -11474.871513232174, -7513.874174818298, -5701.594734382002, -5505.055845386487, -8246.989041207915, -10473.915693034613, -15075.715193237686, 0.006, 0.23600000000000002, 0.9500000000000001, 192.0, 0.0, 0.0, 0.0, 0.0, 0.0, 0.0, 0.0, 0.0, 0.0, 1.644588541284073E9, 0.0, 2022-02-12 01:09:01.284
242.0, -9896.503078520665, -9372.28761581035, -5663.060326941053, -13560.311622656778, -7577.755460471566, -3795.2144497888626, -7691.347025793437, -5281.583104322327, -9287.17217292454, -11504.733443824463, -7516.109349263829, -5696.275019201639, -5523.4513310732045, -8255.572111078753, -10473.491009889962, -15094.267141135591, 0.006, 0.23600000000000002, 0.9500000000000001, 192.0, 0.0, 0.0, 0.0, 0.0, 0.0, 0.0, 0.0, 0.0, 0.0, 1.644588541292209E9, 0.0, 2022-02-12 01:09:01.292
244.0, -9872.47495323121, -9364.464505250991, -5662.747402518678, -13559.439904623021, -7584.058652407963, -3799.617743446558, -7687.815450169498, -5273.402365851684, -9274.11875416264, -11501.112461222705, -7517.8527853313435, -5709.887231574921, -5530.134502665342, -8260.891826259116, -10476.128515735689, -15054.346925538413, 0.006, 0.23600000000000002, 0.9520000000000001, 192.0, 0.0, 24.0, 3.5, 48.0, 14.5, 96.0, 0.0, 0.0, 0.0, 1.644588541300026E9, 0.0, 2022-02-12 01:09:01.300
246.0, -9862.304909504046, -9355.590862702235, -5664.468486841737, -13572.560378618286, -7595.770966502544, -3817.074455866153, -7690.8999909043305, -5288.512145103472, -9281.047794943786, -11517.429234675079, -7527.821663358411, -5711.764778109166, -5541.779761526556, -8262.881131515638, -10479.078946003789, -15103.99014997365, 0.006, 0.23600000000000002, 0.9520000000000001, 192.0, 0.0, 0.0, 0.0, 0.0, 0.0, 0.0, 0.0, 0.0, 0.0, 1.644588541307148E9, 0.0, 2022-02-12 01:09:01.307
248.0, -9856.962842579227, -9348.170083543073, -5672.984501479209, -13558.389372633621, -7587.098489653885, -3816.2921448102175, -7683.054528600518, -5286.008749724478, -9273.001166939875, -11498.050272232327, -7539.310460008438, -5743.794827913622, -5518.556299037493, -8282.64007361413, -10481.425879171597, -15057.74439069562, 0.006, 0.23600000000000002, 0.9520000000000001, 192.0, 0.0, 0.0, 0.0, 0.0, 0.0, 0.0, 0.0, 0.0, 0.0, 1.644588541313826E9, 0.0, 2022-02-12 01:09:01.313
250.0, -9874.173685809814, -9374.701604211523, -5664.043803697086, -13556.891805755116, -7606.566859074457, -3830.820778706167, -7683.836839656454, -5300.0456452424105, -9270.564826794247, -11503.481746134967, -7522.9042795782425, -5718.202080512296, -5536.772970768568, -8279.309663690288, -10479.995367526457, -15072.787114714041, 0.006, 0.23600000000000002, 0.9520000000000001, 192.0, 0.0, 0.0, 0.0, 0.0, 0.0, 0.0, 0.0, 0.0, 0.0, 1.644588541321856E9, 0.0, 2022-02-12 01:09:01.321
252.0, -9895.474898275721, -9395.175802132584, -5667.485972343204, -13556.288308654823, -7620.916679014765, -3847.6739940254683, -7699.259543330615, -5311.221517470064, -9279.237303642905, -11532.360199971225, -7525.407674957237, -5711.250687986695, -5554.587311099447, -8297.235762743445, -10482.275245460898, -15090.199123644725, 0.006, 0.23600000000000002, 0.9520000000000001, 192.0, 0.0, 0.0, 0.0, 0.0, 0.0, 0.0, 0.0, 0.0, 0.0, 1.644588541329793E9, 0.0, 2022-02-12 01:09:01.329
254.0, -9870.977386352704, -9393.544124787346, -5664.110858930452, -13555.170721432058, -7625.834062794932, -3853.23957839484, -7700.310075320015, -5323.067942031377, -9281.7406990219, -11524.447682434045, -7546.977108356608, -5731.635478929935, -5559.817619301989, -8317.575850197774, -10489.874838575703, -15050.189501069726, 0.006, 0.23600000000000002, 0.9540000000000001, 192.0, 0.0, 24.0, 3.5, 48.0, 14.5, 104.0, 0.0, 0.0, 0.0, 1.644588541336995E9, 0.0, 2022-02-12 01:09:01.336
0.0, -9879.359290523445, -9387.933836929064, -5663.2167891522395, -13564.737268058929, -7641.614394380378, -3870.1151454585965, -7704.62396199989, -5334.869663103779, -9281.114850177151, -11536.159996528626, -7548.87700663531, -5737.2904702771275, -5565.584369371459, -8312.300838506322, -10491.819440343314, -15100.726795283175, 0.006, 0.23600000000000002, 0.9540000000000001, 192.0, 0.0, 0.0, 0.0, 0.0, 0.0, 0.0, 0.0, 0.0, 0.0, 1.644588541344517E9, 0.0, 2022-02-12 01:09:01.344
2.0, -9896.547782009577, -9395.511078299412, -5671.822210767533, -13557.517654599866, -7641.301469958004, -3879.1899537074514, -7709.071959146495, -5343.0727533188765, -9279.617283298647, -11537.18817677357, -7546.4406664896815, -5759.798676943622, -5561.717517580691, -8331.41158001561, -10492.914675821625, -15060.516007008078, 0.006, 0.23600000000000002, 0.9540000000000001, 192.0, 0.0, 0.0, 0.0, 0.0, 0.0, 0.0, 0.0, 0.0, 0.0, 1.64458854135249E9, 0.0, 2022-02-12 01:09:01.352
4.0, -9861.14261879237, -9394.795822476843, -5661.115725173441, -13562.278576168845, -7659.987528322641, -3889.404700923527, -7707.820261456998, -5353.309852279407, -9282.74652752239, -11529.990915058961, -7542.372648998815, -5746.409982014893, -5579.174230000285, -8332.953850383026, -10493.831097344291, -15073.502370536611, 0.006, 0.23600000000000002, 0.9540000000000001, 192.0, 0.0, 0.0, 0.0, 0.0, 0.0, 0.0, 0.0, 0.0, 0.0, 1.64458854136041E9, 0.0, 2022-02-12 01:09:01.360
6.0, -9885.640130715386, -9411.514927329414, -5672.6045218234685, -13557.562358088775, -7670.984586594652, -3907.420206954504, -7719.554927296034, -5363.636358217759, -9280.064318187753, -11543.111389054226, -7544.652526933257, -5753.808409429599, -5589.456032449727, -8342.229824331978, -10492.154716510144, -15084.79000148654, 0.006, 0.23600000000000002, 0.9540000000000001, 192.0, 0.0, 0.0, 0.0, 0.0, 0.0, 0.0, 0.0, 0.0, 0.0, 1.644588541367105E9, 0.0, 2022-02-12 01:09:01.367
8.0, -9885.81894467103, -9424.009552479929, -5667.955358976765, -13544.464235837966, -7674.8737901298755, -3915.6903524029676, -7716.716255750211, -5363.614006473304, -9277.873847231132, -11546.933537356084, -7564.187951587195, -5748.600452971513, -5569.540628140048, -8362.167580386113, -10495.485126433985, -15042.88048063284, 0.006, 0.23600000000000002, 0.9540000000000001, 192.0, 0.0, 0.0, 3.5, 56.0, 14.5, 88.0, 0.0, 0.0, 0.0, 1.644588541382053E9, 0.0, 2022-02-12 01:09:01.382
10.0, -9897.307741321058, -9441.712134088533, -5666.994233965187, -13556.042439465815, -7700.511241020113, -3931.11305607713, -7728.517976822613, -5375.68394847917, -9287.842725258199, -11564.546711986866, -7544.54076821098, -5746.23116805925, -5600.184869788274, -8358.948929184548, -10494.166373511121, -15091.786097501052, 0.006, 0.23600000000000002, 0.9540000000000001, 192.0, 0.0, 0.0, 0.0, 0.0, 0.0, 0.0, 0.0, 0.0, 0.0, 1.644588541388995E9, 0.0, 2022-02-12 01:09:01.388
12.0, -9893.574999997021, -9435.006610751941, -5672.828039268022, -13539.926831713537, -7701.38295905387, -3942.266576560328, -7737.659840304833, -5388.9161811967115, -9280.913684477055, -11562.24448230797, -7556.320137538927, -5768.493505536736, -5612.724198427702, -8376.94208347107, -10499.17316426911, -15050.480073747645, 0.006, 0.23600000000000002, 0.9540000000000001, 192.0, 0.0, 0.0, 0.0, 0.0, 0.0, 0.0, 0.0, 0.0, 0.0, 1.644588541396698E9, 0.0, 2022-02-12 01:09:01.396
14.0, -9881.99679636917, -9426.602354836745, -5665.586074064502, -13546.431189350033, -7714.52578479359, -3948.100381863163, -7728.182700655783, -5387.0386346624655, -9285.786364768312, -11569.19587483357, -7567.83128593341, -5774.148496883929, -5593.836974362966, -8382.954702729548, -10495.082795033788, -15063.712306465186, 0.006, 0.23600000000000002, 0.9540000000000001, 192.0, 0.0, 0.0, 0.0, 0.0, 0.0, 0.0, 0.0, 0.0, 0.0, 1.644588541404556E9, 0.0, 2022-02-12 01:09:01.404
16.0, -9894.491421519688, -9445.891910301676, -5675.532600347114, -13546.989982961415, -7729.255584389638, -3964.97594892692, -7741.303174651048, -5405.836451749379, -9291.530763093324, -11571.587511490288, -7573.151001113773, -5784.832630733566, -5618.759169430634, -8391.336606900288, -10498.74848112446, -15078.93384443925, 0.006, 0.23600000000000002, 0.9540000000000001, 192.0, 0.0, 0.0, 0.0, 0.0, 0.0, 0.0, 0.0, 0.0, 0.0, 1.644588541412724E9, 0.0, 2022-02-12 01:09:01.412
18.0, -9896.503078520665, -9456.576044151312, -5677.812478281556, -13534.517709555354, -7735.558776326035, -3971.815582730244, -7743.24777641866, -5409.211565162131, -9283.372376367137, -11562.95973813054, -7579.029509905519, -5782.61980803249, -5617.775692674601, -8399.718511071029, -10497.586190412783, -15033.872727617352, 0.002, 0.23800000000000002, 0.9440000000000001, 192.0, 0.0, 8.0, 3.5, 56.0, 14.5, 64.0, 0.0, 0.0, 0.0, 1.644588541419325E9, 0.0, 2022-02-12 01:09:01.419
20.0, -9893.574999997021, -9467.461343701047, -5678.46067887076, -13543.748980015396, -7761.48679989419, -3995.5978388306903, -7755.1165527244275, -5425.573042103415, -9294.905876506076, -11600.06363392635, -7581.421146562237, -5769.14170612594, -5635.679439983302, -8405.127633229213, -10502.972960826512, -15084.544132297533, 0.002, 0.23800000000000002, 0.9440000000000001, 192.0, 0.0, 0.0, 0.0, 0.0, 0.0, 0.0, 0.0, 0.0, 0.0, 1.644588541427332E9, 0.0, 2022-02-12 01:09:01.427
22.0, -9897.53125876561, -9459.705288375055, -5686.999045252686, -13533.4448258215, -7761.6879655942885, -4007.6901325810118, -7761.464448149735, -5433.373800918317, -9286.501620590881, -11597.783755991908, -7594.429861835225, -5798.109566940018, -5644.776599976612, -8424.90892707216, -10506.616295172727, -15045.696800434209, 0.002, 0.23800000000000002, 0.9440000000000001, 192.0, 0.0, 0.0, 0.0, 0.0, 0.0, 0.0, 0.0, 0.0, 0.0, 1.644588541434295E9, 0.0, 2022-02-12 01:09:01.434
24.0, -9890.155183095358, -9459.325308719315, -5670.458754355759, -13537.19991888999, -7772.953244799763, -4016.8543478076876, -7755.25066319116, -5434.334925929896, -9287.283931646816, -11582.785735462396, -7594.295751368493, -5797.349607628537, -5654.7007745147675, -8435.86128185526, -10504.738748638481, -15055.68803020573, 0.002, 0.23800000000000002, 0.9440000000000001, 192.0, 0.0, 0.0, 0.0, 0.0, 0.0, 0.0, 0.0, 0.0, 0.0, 1.644588541442445E9, 0.0, 2022-02-12 01:09:01.442
26.0, -9904.147375124381, -9471.328195491815, -5679.198286437784, -13534.048322921792, -7778.071794280028, -4025.9515078009977, -7765.264244707138, -5444.549673145971, -9291.016672970853, -11596.308540857857, -7585.913847197753, -5797.707235539822, -5646.229463366207, -8443.438523225608, -10501.967132326023, -15068.964966412184, 0.002, 0.23800000000000002, 0.9440000000000001, 192.0, 0.0, 0.0, 0.0, 0.0, 0.0, 0.0, 0.0, 0.0, 0.0, 1.644588541449116E9, 0.0, 2022-02-12 01:09:01.449
28.0, -9898.58179075501, -9466.276701244915, -5674.102088701974, -13524.973514672938, -7785.358462972458, -4031.3159264702713, -7765.197189473772, -5456.217283751641, -9279.6396350431, -11589.513610543443, -7586.494992553591, -5796.075558194585, -5650.990384935187, -8441.806845880372, -10501.855373603747, -15023.903849590284, 0.006, 0.23, 0.9420000000000001, 192.0, 0.0, 24.0, 3.5, 24.0, 14.5, 56.0, 0.0, 0.0, 0.0, 1.644588541457164E9, 0.0, 2022-02-12 01:09:01.457
30.0, -9888.501154005666, -9475.619730427234, -5676.896056758887, -13536.261145622868, -7802.859878880964, -4044.905787099098, -7766.270073207626, -5459.637100653303, -9287.46274560246, -11605.673921784632, -7584.393928574793, -5799.473023351792, -5661.182780406807, -8446.120732560246, -10499.396681713662, -15073.70353623671, 0.006, 0.23, 0.9420000000000001, 192.0, 0.0, 0.0, 0.0, 0.0, 0.0, 0.0, 0.0, 0.0, 0.0, 1.64458854146513E9, 0.0, 2022-02-12 01:09:01.465
32.0, -9892.747985452173, -9483.465192731046, -5686.373196407938, -13519.3408750702, -7806.950248116285, -4059.0097378503965, -7781.49161118169, -5470.678862414225, -9281.472478088437, -11605.5398113179, -7608.7796817755325, -5819.030799750185, -5675.577303836025, -8471.020575883458, -10502.101242792754, -15028.932992092728, 0.006, 0.23, 0.9420000000000001, 192.0, 0.0, 0.0, 0.0, 0.0, 0.0, 0.0, 0.0, 0.0, 0.0, 1.644588541472474E9, 0.0, 2022-02-12 01:09:01.472
34.0, -9903.275657090624, -9480.82768688532, -5679.868838771444, -13523.96768617245, -7825.323382058547, -4068.643339710634, -7782.519791426635, -5478.0772898289315, -9276.935073964009, -11609.29490438639, -7615.440501623214, -5810.6041920905345, -5664.9155217308435, -8479.760107965483, -10504.22465851601, -15040.399436998301, 0.006, 0.23, 0.9420000000000001, 192.0, 0.0, 0.0, 0.0, 0.0, 0.0, 0.0, 0.0, 0.0, 0.0, 1.644588541479586E9, 0.0, 2022-02-12 01:09:01.479
36.0, -9922.587564300009, -9503.425300529636, -5683.936856262309, -13524.571183272743, -7841.126065388449, -4084.490726529447, -7798.21071603426, -5491.555391735482, -9285.898123490588, -11626.639858083709, -7611.7748155325435, -5815.9462590153535, -5687.826059797533, -8481.257674843988, -10496.155678767644, -15056.358582539391, 0.008, 0.231, 0.9430000000000001, 192.0, 0.0, 40.0, 3.5, 32.0, 14.5, 64.0, 0.0, 0.0, 0.0, 1.644588541487875E9, 0.0, 2022-02-12 01:09:01.487
38.0, -9915.122081651936, -9495.848059159287, -5679.198286437784, -13518.491508780899, -7847.250443369204, -4088.5587440203126, -7796.936666600307, -5494.8634499148675, -9283.595893811691, -11608.669055541643, -7611.573649832446, -5829.334953944082, -5691.55880112157, -8497.149765151711, -10503.26353350443, -15014.091433774405, 0.008, 0.231, 0.9430000000000001, 192.0, 0.0, 0.0, 0.0, 0.0, 0.0, 0.0, 0.0, 0.0, 0.0, 1.644588541501268E9, 0.0, 2022-02-12 01:09:01.501
40.0, -9897.62066574343, -9496.987998126508, -5677.2983881590835, -13525.19703211749, -7865.914149989385, -4100.248706370438, -7798.97067534574, -5500.831365684434, -9290.36847238165, -11627.600983095286, -7604.689312540211, -5833.872358068509, -5708.32260946305, -8490.556000537395, -10499.843716602769, -15061.253614575102, 0.008, 0.231, 0.9430000000000001, 192.0, 0.0, 0.0, 0.0, 0.0, 0.0, 0.0, 0.0, 0.0, 0.0, 1.6445885415093E9, 0.0, 2022-02-12 01:09:01.509
42.0, -9898.447680288278, -9507.78389069842, -5686.641417341401, -13518.066825636248, -7859.678013286354, -4110.530508819879, -7807.6431521944, -5515.181185624741, -9281.517181577346, -11622.862413270763, -7626.772836062055, -5840.399067449459, -5714.111711276974, -8508.213878657089, -10501.006007314445, -15024.462643201667, 0.008, 0.231, 0.9430000000000001, 192.0, 0.0, 0.0, 0.0, 0.0, 0.0, 0.0, 0.0, 0.0, 0.0, 1.644588541518997E9, 0.0, 2022-02-12 01:09:01.518
44.0, -9876.185342810792, -9498.150288838184, -5682.238123683706, -13521.86662219365, -7877.961740250796, -4121.48286360298, -7805.877364382431, -5523.406627584294, -9279.706690276467, -11626.751616805985, -7633.612469865378, -5839.639108137979, -5694.710397089768, -8513.041855459434, -10501.341283481275, -15033.939782850717, 0.008, 0.231, 0.9430000000000001, 192.0, 0.0, 0.0, 0.0, 0.0, 0.0, 0.0, 0.0, 0.0, 0.0, 1.644588541524905E9, 0.0, 2022-02-12 01:09:01.524
46.0, -9929.91893648135, -9520.45732980458, -5692.452870899781, -13518.91619192555, -7897.385406182458, -4144.371049925215, -7828.743198960209, -5543.8584737609, -9281.472478088437, -11650.489169417522, -7635.534719888535, -5846.143465774473, -5730.853167873999, -8526.54230911044, -10505.454004461051, -15051.93293713724, 0.008, 0.2335, 0.9435, 192.0, 0.0, 32.0, 3.5, 48.0, 14.5, 64.0, 0.0, 0.0, 0.0, 1.64458854153178E9, 0.0, 2022-02-12 01:09:01.531
48.0, -9919.72654100973, -9489.5895707118, -5689.167164464851, -13506.399215030577, -7897.921848049385, -4145.958023781541, -7828.340867560014, -5548.3958778853275, -9279.21495189845, -11629.903212774183, -7628.516272129568, -5860.8509136260645, -5744.241862802728, -8545.854216319825, -10510.304333007853, -15007.363558693358, 0.008, 0.2335, 0.9435, 192.0, 0.0, 0.0, 0.0, 0.0, 0.0, 0.0, 0.0, 0.0, 0.0, 1.644588541539899E9, 0.0, 2022-02-12 01:09:01.539
50.0, -9908.036578659605, -9512.075425633839, -5681.880495772421, -13521.285476837813, -7921.324124494091, -4167.058070547351, -7838.555614776089, -5562.723346081179, -9286.83689675771, -11631.669000586153, -7621.833100537432, -5845.897596585464, -5739.570348211569, -8535.483006892564, -10510.058463818845, -15053.899890649307, 0.008, 0.2335, 0.9435, 192.0, 0.0, 0.0, 0.0, 0.0, 0.0, 0.0, 0.0, 0.0, 0.0, 1.644588541548191E9, 0.0, 2022-02-12 01:09:01.548
52.0, -9921.022942188138, -9547.659402806688, -5695.760929079167, -13507.405043531066, -7925.213328029315, -4179.239771275494, -7847.608071280489, -5569.048889762032, -9283.819411256243, -11657.127637520747, -7643.849568825909, -5865.2542072837605, -5754.925996652365, -8555.912501324714, -10515.646399932672, -15018.4947274321, 0.008, 0.2335, 0.9435, 192.0, 0.0, 0.0, 0.0, 0.0, 0.0, 0.0, 0.0, 0.0, 0.0, 1.64458854155416E9, 0.0, 2022-02-12 01:09:01.554
54.0, -9911.72461649473, -9518.870355948253, -5689.435385398315, -13513.887049423105, -7940.591328214566, -4189.521573724935, -7844.03179216764, -5573.67570086428, -9292.670702060544, -11653.976041552549, -7649.705725873199, -5867.824657896121, -5742.498426735214, -8563.355632228331, -10515.378178999208, -15027.301314747492, 0.008, 0.2335, 0.9435, 192.0, 0.0, 0.0, 0.0, 0.0, 0.0, 0.0, 0.0, 0.0, 0.0, 1.644588541561488E9, 0.0, 2022-02-12 01:09:01.561
56.0, -9901.19694485628, -9526.604059529789, -5698.152565735885, -13512.747110455884, -7948.615604474021, -4206.933582655619, -7857.286376629637, -5599.91664885481, -9292.625998571635, -11644.901233303695, -7655.8524555984095, -5880.520448746735, -5781.055185920619, -8569.770582887004, -10512.718321409026, -15049.071913846961, 0.008, 0.23375, 0.94475, 192.0, 0.0, 32.0, 3.5, 40.0, 14.5, 72.0, 0.0, 0.0, 0.0, 1.644588541569637E9, 0.0, 2022-02-12 01:09:01.569
58.0, -9912.506927550665, -9510.913134922164, -5699.918353547854, -13500.900685894572, -7962.585444758588, -4217.21538510506, -7855.453533584301, -5591.333578983972, -9280.60076005468, -11650.466817673067, -7679.858229143409, -5885.683701715911, -5783.513877810702, -8583.047519093458, -10515.959324355046, -15002.915561546752, 0.008, 0.23375, 0.94475, 192.0, 0.0, 0.0, 0.0, 0.0, 0.0, 0.0, 0.0, 0.0, 0.0, 1.64458854157745E9, 0.0, 2022-02-12 01:09:01.577
60.0, -9923.459282333766, -9548.240548162526, -5699.4266151698375, -13508.187354587002, -7977.583465288099, -4227.02780092094, -7859.722716775265, -5600.698959910746, -9297.811603285267, -11670.538684193933, -7660.345156233926, -5883.11325110355, -5797.304904139627, -8594.491612254575, -10516.585173199794, -15046.099131834404, 0.008, 0.23375, 0.94475, 192.0, 0.0, 0.0, 0.0, 0.0, 0.0, 0.0, 0.0, 0.0, 0.0, 1.644588541584204E9, 0.0, 2022-02-12 01:09:01.584
62.0, -9926.72263702424, -9546.385353372736, -5703.919315805354, -13496.922075381528, -7969.469782050823, -4230.402914333691, -7865.690632544832, -5608.522070470103, -9285.719309534945, -11666.269501002967, -7672.839781384442, -5902.2910478462045, -5777.009520174208, -8595.095109354867, -10509.007931829445, -15001.999140024083, 0.008, 0.23375, 0.94475, 192.0, 0.0, 0.0, 0.0, 0.0, 0.0, 0.0, 0.0, 0.0, 0.0, 1.644588541593263E9, 0.0, 2022-02-12 01:09:01.593
64.0, -9912.305761850568, -9527.162853141172, -5691.134117976919, -13499.358415527156, -7984.847782236074, -4237.667231281666, -7858.783943508142, -5615.093483339963, -9279.17024840954, -11654.11015201928, -7668.570598193479, -5886.644826727489, -5811.520613613202, -8598.716091956627, -10508.516193451429, -15008.145869749293, 0.008, 0.23375, 0.94475, 192.0, 0.0, 0.0, 0.0, 0.0, 0.0, 0.0, 0.0, 0.0, 0.0, 1.644588541600107E9, 0.0, 2022-02-12 01:09:01.600
66.0, -9913.758625240163, -9531.677905521145, -5705.84156582851, -13493.725775924418, -7993.274389895724, -4245.6021005633, -7869.043394213128, -5619.0720938530085, -9283.595893811691, -11667.811771370385, -7668.056508071007, -5894.155012864472, -5808.994866489753, -8599.923086157214, -10507.465661462029, -15025.244954257603, 0.009000000000000001, 0.235875, 0.9473750000000001, 192.0, 0.0, 40.0, 3.5, 56.0, 14.5, 88.0, 0.0, 0.0, 0.0, 1.644588541607184E9, 0.0, 2022-02-12 01:09:01.607
68.0, -9898.559439010554, -9526.022914173951, -5696.923219790843, -13487.19906654347, -7997.990607975795, -4256.17447569066, -7867.903455245907, -5629.845634680466, -9277.002129197375, -11647.270518215957, -7683.56861872299, -5904.012132169263, -5808.525479856191, -8613.55765027495, -10510.281981263397, -14975.735840289099, 0.009000000000000001, 0.235875, 0.9473750000000001, 192.0, 0.0, 0.0, 0.0, 0.0, 0.0, 0.0, 0.0, 0.0, 0.0, 1.644588541614907E9, 0.0, 2022-02-12 01:09:01.614
70.0, -9905.332017580511, -9531.722609010054, -5698.264324458161, -13491.982339856904, -8021.996381520794, -4271.463068898091, -7875.793621038631, -5631.745532959168, -9276.17511465253, -11666.940053336628, -7690.296493804038, -5909.868289216553, -5820.193090461861, -8619.592621277883, -10505.096376549767, -15025.35671297988, 0.009000000000000001, 0.235875, 0.9473750000000001, 192.0, 0.0, 0.0, 0.0, 0.0, 0.0, 0.0, 0.0, 0.0, 0.0, 1.644588541630272E9, 0.0, 2022-02-12 01:09:01.630
72.0, -9926.610878301964, -9546.430056861647, -5705.998028039698, -13478.057203061247, -8025.393846678001, -4277.788612578942, -7888.8917432894405, -5641.468541797226, -9274.40932684056, -11675.41136448519, -7686.653159457823, -5908.974219438341, -5835.414628435926, -8630.56732780544, -10511.310161508341, -14984.609482837855, 0.009000000000000001, 0.235875, 0.9473750000000001, 192.0, 0.0, 0.0, 0.0, 0.0, 0.0, 0.0, 0.0, 0.0, 0.0, 1.64458854163628E9, 0.0, 2022-02-12 01:09:01.636
74.0, -9905.600238513976, -9537.690524779622, -5697.191440724307, -13481.275854262813, -8032.30053571469, -4282.683644614654, -7876.017138483184, -5642.988460420187, -9271.16832389454, -11664.3025474909, -7681.489906488647, -5910.047103172195, -5826.406875420436, -8640.80442676597, -10506.12455679471, -14988.655148584265, 0.009000000000000001, 0.235875, 0.9473750000000001, 192.0, 0.0, 0.0, 0.0, 0.0, 0.0, 0.0, 0.0, 0.0, 0.0, 1.644588541644634E9, 0.0, 2022-02-12 01:09:01.644
76.0, -9893.396186041378, -9530.02387643145, -5710.155452508385, -13487.266121776835, -8048.460846955878, -4299.7603773785095, -7894.256161958714, -5660.26635888414, -9271.570655294736, -11674.964329596083, -7689.76005193711, -5925.715676035366, -5847.238701252782, -8641.743200033094, -10505.766928883426, -15009.35286394988, 0.0085, 0.2379375, 0.9486875000000001, 192.0, 0.0, 32.0, 3.5, 64.0, 14.5, 88.0, 0.0, 0.0, 0.0, 1.644588541652388E9, 0.0, 2022-02-12 01:09:01.652
78.0, -9899.408805299856, -9530.068579920362, -5707.205022240284, -13472.692784391975, -8058.273262771758, -4309.438682727657, -7895.194935225837, -5666.1448676758855, -9260.059506900252, -11654.177207252647, -7703.864002688409, -5933.561138339179, -5859.040422325185, -8661.502142131585, -10513.478280720507, -14962.995345949574, 0.0085, 0.2379375, 0.9486875000000001, 192.0, 0.0, 0.0, 0.0, 0.0, 0.0, 0.0, 0.0, 0.0, 0.0, 1.644588541659519E9, 0.0, 2022-02-12 01:09:01.659
80.0, -9918.117215408947, -9554.566091843379, -5717.397417711904, -13478.884217606095, -8079.865047915584, -4323.676743945688, -7903.956819052318, -5670.50345784467, -9275.504562318869, -11685.69316693463, -7698.633694485867, -5928.375533625547, -5865.701242172867, -8665.078421244434, -10508.002103328956, -15011.185706995215, 0.0085, 0.2379375, 0.9486875000000001, 192.0, 0.0, 0.0, 0.0, 0.0, 0.0, 0.0, 0.0, 0.0, 0.0, 1.644588541667297E9, 0.0, 2022-02-12 01:09:01.667
82.0, -9922.565212555553, -9563.529141369956, -5718.515004934669, -13463.014479042826, -8078.50159150381, -4329.1082178483275, -7906.951952809329, -5686.596713852491, -9267.815562226244, -11675.07608831836, -7709.451938802235, -5928.308478392181, -5859.576864192112, -8676.90249406129, -10513.992370842978, -14970.885511742295, 0.0085, 0.2379375, 0.9486875000000001, 192.0, 0.0, 0.0, 0.0, 0.0, 0.0, 0.0, 0.0, 0.0, 0.0, 1.644588541675086E9, 0.0, 2022-02-12 01:09:01.675
84.0, -9908.260096104157, -9535.634164289733, -5708.613182140968, -13466.322537222211, -8097.612333013098, -4335.3890580402685, -7905.722606864287, -5680.762908549656, -9265.938015691998, -11691.795193170929, -7706.657970745322, -5937.942080252419, -5886.35425404957, -8674.689671360216, -10510.639609174683, -14974.73001178861, 0.0085, 0.2379375, 0.9486875000000001, 192.0, 0.0, 0.0, 0.0, 0.0, 0.0, 0.0, 0.0, 0.0, 0.0, 1.644588541682178E9, 0.0, 2022-02-12 01:09:01.682
86.0, -9911.501099050176, -9539.344553869314, -5723.186519525829, -13464.601452899153, -8113.191498898447, -4351.86229370383, -7922.4640634613115, -5702.89113556041, -9269.40253608257, -11686.296664034924, -7707.28381959007, -5932.376495883048, -5903.051007157685, -8685.217342998665, -10511.846603375268, -14994.958340520661, 0.00625, 0.23796875, 0.9493437500000002, 192.0, 0.0, 16.0, 3.5, 56.0, 14.5, 88.0, 0.0, 0.0, 0.0, 1.644588541689101E9, 0.0, 2022-02-12 01:09:01.689
88.0, -9888.881133661405, -9517.864527447764, -5719.543185179614, -13462.053354031248, -8112.476243075877, -4356.153828639249, -7920.698275649343, -5704.03107452763, -9242.222814824918, -11675.50077146301, -7722.7735784975985, -5956.069345005673, -5893.998550653285, -8686.156116265789, -10511.55603069735, -14944.19752886266, 0.00625, 0.23796875, 0.9493437500000002, 192.0, 0.0, 0.0, 0.0, 0.0, 0.0, 0.0, 0.0, 0.0, 0.0, 1.644588541696755E9, 0.0, 2022-02-12 01:09:01.696
90.0, -9894.089090119493, -9548.106437695795, -5711.965943809265, -13463.372106954112, -8135.118560209104, -4370.123668923816, -7929.437807731368, -5710.93776356432, -9262.7864197238, -11691.012882114994, -7715.710427249722, -5950.392001914025, -5911.2764491172375, -8693.979226825146, -10508.247972517966, -14989.795087551485, 0.00625, 0.23796875, 0.9493437500000002, 192.0, 0.0, 0.0, 0.0, 0.0, 0.0, 0.0, 0.0, 0.0, 0.0, 1.644588541704817E9, 0.0, 2022-02-12 01:09:01.704
92.0, -9886.936531893794, -9545.759504527987, -5716.793920611611, -13448.128217235591, -8130.625859573586, -4379.243180661581, -7934.891633378463, -5720.303144491094, -9242.73690494739, -11690.387033270245, -7717.118587150406, -5947.419219901469, -5921.021809699751, -8700.885915861836, -10509.343207996275, -14947.05855215294, 0.00625, 0.23796875, 0.9493437500000002, 192.0, 0.0, 0.0, 0.0, 0.0, 0.0, 0.0, 0.0, 0.0, 0.0, 1.644588541711519E9, 0.0, 2022-02-12 01:09:01.711
94.0, -9900.235819844702, -9544.999545216508, -5705.260420472672, -13453.246766715858, -8137.912528266017, -4381.925389996218, -7929.326049009092, -5722.605374169991, -9242.312221802738, -11678.652367431208, -7715.24104061616, -5941.048972731706, -5920.418312599459, -8706.362093253385, -10501.721263137015, -14954.099351656361, 0.00625, 0.23796875, 0.9493437500000002, 192.0, 0.0, 0.0, 0.0, 0.0, 0.0, 0.0, 0.0, 0.0, 0.0, 1.644588541719341E9, 0.0, 2022-02-12 01:09:01.719
96.0, -9903.409767557356, -9524.435940317624, -5719.431426457337, -13453.246766715858, -8146.674412092497, -4394.10709072436, -7940.278403792192, -5735.144702809418, -9248.235434083395, -11690.69995769262, -7710.48011904718, -5949.140304224527, -5919.2560218877825, -8715.861584646891, -10499.106109035743, -14974.260625155048, 0.008125, 0.239984375, 0.946671875, 192.0, 0.0, 40.0, 3.5, 72.0, 14.5, 64.0, 0.0, 0.0, 0.0, 1.644588541727252E9, 0.0, 2022-02-12 01:09:01.727
98.0, -9878.375813767412, -9521.731379238532, -5719.364371223971, -13443.926089277995, -8152.888197051072, -4392.3860064013015, -7939.920775880907, -5734.921185364865, -9237.819521167221, -11668.12469579276, -7725.254622132137, -5966.239388732838, -5914.517452063257, -8726.880994663357, -10503.665864904628, -14922.76220593002, 0.008125, 0.239984375, 0.946671875, 192.0, 0.0, 0.0, 0.0, 0.0, 0.0, 0.0, 0.0, 0.0, 0.0, 1.644588541735551E9, 0.0, 2022-02-12 01:09:01.735
100.0, -9883.024976614115, -9535.410646845181, -5715.855147344488, -13448.061162002226, -8168.579121658698, -4405.908811796762, -7942.37946777099, -5743.3924965134265, -9239.652364212558, -11699.104213607814, -7723.019447686607, -5967.982824800351, -5942.166559954472, -8721.29305854953, -10498.301446235353, -14968.113895429839, 0.008125, 0.239984375, 0.946671875, 192.0, 0.0, 0.0, 0.0, 0.0, 0.0, 0.0, 0.0, 0.0, 0.0, 1.644588541750488E9, 0.0, 2022-02-12 01:09:01.750
102.0, -9904.370892568933, -9560.288138423937, -5726.762798638678, -13428.391626881556, -8173.0494705497595, -4415.251840979081, -7952.750677198253, -5745.605319214502, -9234.310297287739, -11700.735890953052, -7732.027200702096, -5959.17623748496, -5959.377403185058, -8740.20263435872, -10499.731957880493, -14925.466767009113, 0.008125, 0.239984375, 0.946671875, 192.0, 0.0, 0.0, 0.0, 0.0, 0.0, 0.0, 0.0, 0.0, 0.0, 1.644588541758372E9, 0.0, 2022-02-12 01:09:01.758
104.0, -9886.489497004688, -9543.278460893449, -5718.693818890312, -13432.504347861332, -8182.928941599005, -4421.756198615575, -7948.637956218477, -5757.451743775814, -9232.276288542305, -11695.88556240625, -7727.221575644205, -5953.431839159946, -5962.640757875533, -8737.520425024084, -10496.647417145661, -14923.365703030313, 0.008125, 0.239984375, 0.946671875, 192.0, 0.0, 0.0, 0.0, 0.0, 0.0, 0.0, 0.0, 0.0, 0.0, 1.644588541766733E9, 0.0, 2022-02-12 01:09:01.766
106.0, -9886.914180149339, -9515.182318113128, -5730.18261554034, -13435.097150218147, -8193.590723704187, -4434.675506910742, -7965.424116304412, -5770.639273004445, -9225.749579161356, -11697.517239751487, -7731.066075690517, -5970.195647501427, -5955.264682205282, -8742.124884381878, -10494.859277589236, -14947.706752742142, 0.008, 0.244, 0.9440000000000001, 192.0, 0.0, 32.0, 3.5, 80.0, 14.5, 64.0, 0.0, 0.0, 0.0, 1.644588541772741E9, 0.0, 2022-02-12 01:09:01.772
108.0, -9875.380680010401, -9514.914097179664, -5725.041714315619, -13420.568516322199, -8194.104813826658, -4431.792131876008, -7960.707898224342, -5756.065935619586, -9214.216079022417, -11676.372489496767, -7736.34108738197, -5980.097470295128, -5953.700060093411, -8754.06071592101, -10493.607579899739, -14894.777821871976, 0.008, 0.244, 0.9440000000000001, 192.0, 0.0, 0.0, 0.0, 0.0, 0.0, 0.0, 0.0, 0.0, 0.0, 1.644588541779554E9, 0.0, 2022-02-12 01:09:01.779
110.0, -9865.680022916797, -9531.253222376494, -5722.426560214349, -13425.262382657813, -8207.538212244299, -4438.564710445966, -7958.316261567625, -5764.157267112407, -9225.68252392799, -11699.774765941474, -7730.619040801412, -5959.556217140701, -5977.951702827419, -8744.53887278305, -10488.019643785912, -14938.833110193385, 0.008, 0.244, 0.9440000000000001, 192.0, 0.0, 0.0, 0.0, 0.0, 0.0, 0.0, 0.0, 0.0, 0.0, 1.644588541787546E9, 0.0, 2022-02-12 01:09:01.787
112.0, -9868.742211907174, -9538.249318391005, -5732.529548708147, -13412.3654261071, -8201.078558096715, -4441.358678502879, -7967.726345983308, -5764.537246768146, -9213.366712733115, -11701.764071197997, -7740.185587428283, -5963.624234631567, -5983.85256336362, -8759.045154934545, -10485.002158284446, -14896.387147472758, 0.008, 0.244, 0.9440000000000001, 192.0, 0.0, 0.0, 0.0, 0.0, 0.0, 0.0, 0.0, 0.0, 0.0, 1.64458854179485E9, 0.0, 2022-02-12 01:09:01.794
114.0, -9859.309775747035, -9517.998637914496, -5723.253574759195, -13416.455795342423, -8216.300096070778, -4444.286757026524, -7963.926549425906, -5764.403136301415, -9209.008122564332, -11684.575579711865, -7733.368305369414, -5973.481353936357, -5974.308368481204, -8756.92173921129, -10488.779603097391, -14900.030481818972, 0.008, 0.244, 0.9440000000000001, 192.0, 0.0, 0.0, 0.0, 0.0, 0.0, 0.0, 0.0, 0.0, 0.0, 1.64458854180135E9, 0.0, 2022-02-12 01:09:01.801
116.0, -9869.926854363306, -9508.052111631885, -5731.166092296373, -13407.582152793664, -8217.998828649383, -4454.546207731511, -7969.112154139538, -5776.7636509852, -9210.72920688739, -11694.4103472722, -7730.328468123493, -5967.08875502214, -5990.5133832113015, -8758.598120045439, -10485.538600151373, -14917.174269816194, 0.006, 0.242, 0.9460000000000001, 192.0, 0.0, 24.0, 3.5, 72.0, 14.5, 72.0, 0.0, 0.0, 0.0, 1.644588541809316E9, 0.0, 2022-02-12 01:09:01.809
118.0, -9861.276729259102, -9502.754748195977, -5728.729752150745, -13400.630760268064, -8215.987171648405, -4450.388783262823, -7964.217122103825, -5781.412813831904, -9190.545581644248, -11682.340405266334, -7737.346915882459, -5972.028490546762, -5975.358900470603, -8764.990718959656, -10482.185838483078, -14863.194806956626, 0.006, 0.242, 0.9460000000000001, 192.0, 0.0, 0.0, 0.0, 0.0, 0.0, 0.0, 0.0, 0.0, 0.0, 1.644588541817283E9, 0.0, 2022-02-12 01:09:01.817
120.0, -9858.058078057538, -9511.40487330018, -5728.059199817086, -13406.755138248818, -8235.38848583561, -4468.158420104793, -7975.370642587023, -5798.377787873482, -9198.458099181425, -11684.530876222954, -7728.808549500532, -5971.022662046274, -6009.020627620295, -8755.893558966347, -10480.1741814821, -14910.222877290593, 0.006, 0.242, 0.9460000000000001, 192.0, 0.0, 0.0, 0.0, 0.0, 0.0, 0.0, 0.0, 0.0, 0.0, 1.644588541825331E9, 0.0, 2022-02-12 01:09:01.825
122.0, -9851.419609954311, -9515.83051870233, -5737.111656321485, -13387.331472317157, -8232.594517778698, -4472.137030617837, -7985.3842241030015, -5793.4604040933145, -9192.221962478396, -11689.023576858472, -7746.511131109135, -5980.633912162056, -6012.462796266413, -8779.318187155508, -10486.052690273846, -14871.979042527562, 0.006, 0.242, 0.9460000000000001, 192.0, 0.0, 0.0, 0.0, 0.0, 0.0, 0.0, 0.0, 0.0, 0.0, 1.64458854183274E9, 0.0, 2022-02-12 01:09:01.832
124.0, -9848.893862830862, -9494.439899258603, -5725.220528271262, -13389.968978162882, -8246.944337719004, -4481.591818522432, -7988.424061348923, -5811.520613613202, -9180.733165828367, -11688.97887336956, -7748.142808454372, -5966.2170369883825, -6009.288848553759, -8784.16851570231, -10481.06825126031, -14875.890597807242, 0.006, 0.242, 0.9460000000000001, 192.0, 0.0, 0.0, 0.0, 0.0, 0.0, 0.0, 0.0, 0.0, 0.0, 1.644588541840647E9, 0.0, 2022-02-12 01:09:01.840
126.0, -9865.367098494424, -9510.957838411074, -5732.574252197058, -13386.057422883205, -8254.141599433613, -4493.907629717306, -7997.521221342233, -5810.4253781348925, -9187.550447887237, -11696.712576951097, -7737.9727647272075, -5967.558141655701, -6024.800959205742, -8780.994567989655, -10479.101297748244, -14900.991606830552, 0.01, 0.244, 0.9440000000000001, 192.0, 0.0, 40.0, 3.5, 80.0, 14.5, 64.0, 0.0, 0.0, 0.0, 1.644588541847335E9, 0.0, 2022-02-12 01:09:01.847
128.0, -9856.202883267748, -9496.78683242641, -5732.4177899858705, -13370.232387808846, -8253.761619777873, -4494.2876093730465, -7996.291875397191, -5808.81605253411, -9179.883799539066, -11683.435640744645, -7744.9018055083525, -5973.190781258439, -6036.200348877949, -8793.064509995522, -10482.878742561192, -14848.755580038498, 0.01, 0.244, 0.9440000000000001, 192.0, 0.0, 0.0, 0.0, 0.0, 0.0, 0.0, 0.0, 0.0, 0.0, 1.644588541854475E9, 0.0, 2022-02-12 01:09:01.854
130.0, -9850.011450053627, -9507.873297676242, -5732.082513819041, -13378.636643724043, -8270.391317652622, -4505.374074622879, -7991.776823017219, -5815.745093315255, -9183.281264696272, -11694.276236805468, -7737.77159902711, -5967.044051533228, -6031.506482542334, -8792.103384983944, -10477.670786103105, -14892.542647426446, 0.01, 0.244, 0.9440000000000001, 192.0, 0.0, 0.0, 0.0, 0.0, 0.0, 0.0, 0.0, 0.0, 0.0, 1.644588541862707E9, 0.0, 2022-02-12 01:09:01.862
132.0, -9832.934717289772, -9496.384501026214, -5743.034868602142, -13367.818399407673, -8267.798515295806, -4505.977571723172, -8001.388073133001, -5828.127959743495, -9169.847866278633, -11693.248056560524, -7751.8308462894975, -5983.293769752237, -6032.445255809457, -8796.529030386095, -10478.006062269935, -14855.684620819644, 0.01, 0.244, 0.9440000000000001, 192.0, 0.0, 0.0, 0.0, 0.0, 0.0, 0.0, 0.0, 0.0, 0.0, 1.644588541876801E9, 0.0, 2022-02-12 01:09:01.876
134.0, -9829.783121321574, -9481.87821887472, -5727.209833527784, -13368.377193019056, -8280.337843935233, -4507.4974903461325, -8002.192735933392, -5822.025933507197, -9162.427087119471, -11668.21410277058, -7749.05922997704, -5986.065386064695, -6046.057468182739, -8797.400748419852, -10475.055632001833, -14851.88482426224, 0.01, 0.244, 0.9440000000000001, 192.0, 0.0, 0.0, 0.0, 0.0, 0.0, 0.0, 0.0, 0.0, 0.0, 1.644588541884096E9, 0.0, 2022-02-12 01:09:01.884
136.0, -9843.127112761393, -9486.169753810138, -5739.749162167212, -13359.682364425942, -8285.858724815695, -4514.024199727082, -8015.424968650934, -5829.91609929992, -9169.087906967152, -11697.763108940497, -7751.853198033953, -5975.13538302605, -6059.7814392782975, -8796.84195480847, -10476.329681435785, -14872.671946605677, 0.006, 0.24, 0.9440000000000001, 192.0, 0.0, 24.0, 3.5, 64.0, 14.5, 64.0, 0.0, 0.0, 0.0, 1.644588541892252E9, 0.0, 2022-02-12 01:09:01.892
138.0, -9844.848197084451, -9475.753840893965, -5737.08930457703, -13348.5511956872, -8282.148335236114, -4516.818167783996, -8011.424006393434, -5843.4165529509255, -9160.974223729876, -11689.917646636683, -7761.084468493995, -5985.148964542028, -6062.5977590796665, -8802.161669988833, -10470.272358688399, -14820.07829190234, 0.006, 0.24, 0.9440000000000001, 192.0, 0.0, 0.0, 0.0, 0.0, 0.0, 0.0, 0.0, 0.0, 0.0, 1.644588541900126E9, 0.0, 2022-02-12 01:09:01.900
140.0, -9829.80547306603, -9495.468079503546, -5734.787074898133, -13352.909785855984, -8295.157050509102, -4525.110664976914, -8010.552288359677, -5826.809206820632, -9155.47569459387, -11691.303454792913, -7751.473218378213, -5977.035281304751, -6058.417982866524, -8807.235515980186, -10466.584320853271, -14866.07818199136, 0.006, 0.24, 0.9440000000000001, 192.0, 0.0, 0.0, 0.0, 0.0, 0.0, 0.0, 0.0, 0.0, 0.0, 1.644588541906996E9, 0.0, 2022-02-12 01:09:01.906
142.0, -9818.674304327287, -9479.061899073351, -5739.883272633943, -13333.575526902143, -8290.865515573683, -4523.031952742571, -8015.067340739649, -5830.921927800408, -9151.89941548102, -11682.385108755245, -7753.1719509568165, -5983.070252307684, -6046.772724005309, -8815.528013173105, -10462.02456498439, -14823.431053570635, 0.006, 0.24, 0.9440000000000001, 192.0, 0.0, 0.0, 0.0, 0.0, 0.0, 0.0, 0.0, 0.0, 0.0, 1.64458854191473E9, 0.0, 2022-02-12 01:09:01.914
144.0, -9820.171871205792, -9467.461343701047, -5729.065028317575, -13339.096407782605, -8303.203678513013, -4522.987249253661, -8010.194660448392, -5830.430189422392, -9146.959679956399, -11667.342384736823, -7755.898863780363, -5974.80010685922, -6075.002977252362, -8802.40753917784, -10460.258777172421, -14820.905306447186, 0.006, 0.24, 0.9440000000000001, 192.0, 0.0, 0.0, 0.0, 0.0, 0.0, 0.0, 0.0, 0.0, 0.0, 1.644588541922909E9, 0.0, 2022-02-12 01:09:01.922
146.0, -9826.475063142188, -9473.20574202606, -5739.369182511471, -13338.917593826962, -8309.037483815848, -4534.744266837152, -8019.2024134638805, -5838.275651726205, -9154.067534693186, -11679.993472098527, -7761.352689427458, -5986.08773780915, -6086.290608202292, -8803.12279500041, -10458.560044593816, -14844.195824169616, 0.008, 0.23600000000000002, 0.9420000000000001, 192.0, 0.0, 32.0, 3.5, 48.0, 14.5, 56.0, 0.0, 0.0, 0.0, 1.644588541929916E9, 0.0, 2022-02-12 01:09:01.929
148.0, -9823.524632874089, -9467.886026845697, -5730.3614294959825, -13317.884602294518, -8305.97529482547, -4532.285574947068, -8020.655276853476, -5832.374791190004, -9138.488368807837, -11670.02459407146, -7756.949395769763, -5983.9419703414405, -6087.385843680602, -8811.772920104613, -10457.531864348874, -14790.886913643708, 0.008, 0.23600000000000002, 0.9420000000000001, 192.0, 0.0, 0.0, 0.0, 0.0, 0.0, 0.0, 0.0, 0.0, 0.0, 1.644588541936601E9, 0.0, 2022-02-12 01:09:01.936
150.0, -9813.354589146924, -9455.570215650823, -5732.328383008049, -13327.406445432478, -8316.570021697285, -4535.548929637544, -8016.3190384291465, -5836.733381358788, -9141.036467675742, -11672.103306305804, -7742.91250025183, -5978.264627249793, -6059.5802735782, -8806.989646791179, -10444.657259542617, -14834.182242653638, 0.008, 0.23600000000000002, 0.9420000000000001, 192.0, 0.0, 0.0, 0.0, 0.0, 0.0, 0.0, 0.0, 0.0, 0.0, 1.644588541944454E9, 0.0, 2022-02-12 01:09:01.944
152.0, -9806.492603599145, -9468.690689646088, -5733.445970230815, -13312.341369669602, -8313.97721934047, -4545.540159409065, -8032.099370014593, -5848.177474519905, -9128.09480763612, -11680.708727921097, -7752.411991645336, -5987.2276767763715, -6102.137995021105, -8811.571754404516, -10446.847730499236, -14799.425280025636, 0.008, 0.23600000000000002, 0.9420000000000001, 192.0, 0.0, 0.0, 0.0, 0.0, 0.0, 0.0, 0.0, 0.0, 0.0, 1.644588541952567E9, 0.0, 2022-02-12 01:09:01.952
154.0, -9804.235077409157, -9444.550805634357, -5727.478054461248, -13311.559058613666, -8326.047161346336, -4545.562511153521, -8029.461864168867, -5849.675041398411, -9126.306668079695, -11664.414306213177, -7759.698660337765, -5984.321949997181, -6105.982495067417, -8820.870080097924, -10443.472617086485, -14795.469021257046, 0.008, 0.23600000000000002, 0.9420000000000001, 192.0, 0.0, 0.0, 0.0, 0.0, 0.0, 0.0, 0.0, 0.0, 0.0, 1.644588541958946E9, 0.0, 2022-02-12 01:09:01.958
156.0, -9817.221440937692, -9463.080401787807, -5736.955194110298, -13309.882677779518, -8328.729370680972, -4550.144618766859, -8034.200433993392, -5852.536064688691, -9129.815891959179, -11671.41040222769, -7752.791971301076, -5980.008063317307, -6095.7006926179765, -8819.484271941696, -10439.717524017993, -14820.413568069169, 0.01, 0.23800000000000002, 0.9420000000000001, 192.0, 0.0, 40.0, 3.5, 56.0, 14.5, 56.0, 0.0, 0.0, 0.0, 1.644588541967225E9, 0.0, 2022-02-12 01:09:01.967
158.0, -9802.715158786197, -9445.288413201382, -5728.975621339753, -13293.163572926947, -8325.264850290401, -4548.356479210434, -8030.266526969258, -5847.328108230604, -9109.386397527027, -11658.535797421431, -7749.707430566244, -5981.684444151455, -6099.433433942013, -8822.389998720884, -10435.917727460592, -14764.668317397633, 0.01, 0.23800000000000002, 0.9420000000000001, 192.0, 0.0, 0.0, 0.0, 0.0, 0.0, 0.0, 0.0, 0.0, 0.0, 1.644588541975126E9, 0.0, 2022-02-12 01:09:01.975
160.0, -9796.881353483363, -9433.553747362346, -5730.473188218259, -13300.047910219182, -8346.722524967496, -4559.219427015713, -8036.390904950012, -5850.189131520883, -9121.389284299526, -11675.657233674197, -7745.05826771954, -5975.671824892977, -6094.806622839764, -8827.55325169006, -10427.82639596777, -14805.996692895496, 0.01, 0.23800000000000002, 0.9420000000000001, 192.0, 0.0, 0.0, 0.0, 0.0, 0.0, 0.0, 0.0, 0.0, 0.0, 1.644588541982329E9, 0.0, 2022-02-12 01:09:01.982
162.0, -9797.4624988392, -9450.384610937192, -5734.585909198036, -13289.095555436083, -8339.480559763975, -4563.443906717766, -8044.951623076395, -5858.883960113998, -9110.436929516427, -11671.656271416698, -7756.8152853030315, -5995.743691413843, -6117.091312061705, -8833.498815715173, -10429.30161110182, -14773.296090757382, 0.01, 0.23800000000000002, 0.9420000000000001, 192.0, 0.0, 0.0, 0.0, 0.0, 0.0, 0.0, 0.0, 0.0, 0.0, 1.644588541998969E9, 0.0, 2022-02-12 01:09:01.998
164.0, -9789.773498746574, -9443.477921900501, -5723.566499181569, -13287.687395535399, -8344.777923199883, -4565.075584063004, -8031.987611292317, -5860.448582225869, -9098.769318910756, -11666.425963214155, -7753.797799801565, -5980.119822039584, -6115.504338205378, -8830.056647069056, -10424.1607098771, -14769.272776755426, 0.01, 0.23800000000000002, 0.9420000000000001, 192.0, 0.0, 0.0, 0.0, 0.0, 0.0, 0.0, 0.0, 0.0, 0.0, 1.644588542005015E9, 0.0, 2022-02-12 01:09:02.005
166.0, -9787.806545234507, -9432.927898517597, -5731.166092296373, -13286.279235634713, -8350.27645233589, -4570.775278899107, -8043.766980620263, -5861.6108729375455, -9097.472917732348, -11671.343346994323, -7745.952337497752, -5975.023624303773, -6115.25846901637, -8824.826338866513, -10421.031465653357, -14791.915093888652, 0.008, 0.23800000000000002, 0.9480000000000001, 192.0, 0.0, 32.0, 3.5, 56.0, 14.5, 80.0, 0.0, 0.0, 0.0, 1.644588542012209E9, 0.0, 2022-02-12 01:09:02.012
168.0, -9773.479077038655, -9420.500328600447, -5724.7511416377, -13269.3813168265, -8345.314365066812, -4564.516790451621, -8039.654259640487, -5856.000585079263, -9080.88792334651, -11655.406553197688, -7751.540273611578, -5988.6358366770555, -6105.6248671561325, -8831.822434881024, -10421.232631353454, -14735.208718205538, 0.008, 0.23800000000000002, 0.9480000000000001, 192.0, 0.0, 0.0, 0.0, 0.0, 0.0, 0.0, 0.0, 0.0, 0.0, 1.644588542019942E9, 0.0, 2022-02-12 01:09:02.019
170.0, -9769.008728147594, -9417.169918676605, -5720.303144491094, -13274.253997117758, -8362.122876897201, -4571.71405216623, -8044.772809120752, -5861.208541537349, -9085.8947141045, -11660.636861400231, -7736.877529248897, -5973.749574869821, -6124.802663898786, -8825.27337375562, -10420.20445110851, -14777.699384415077, 0.008, 0.23800000000000002, 0.9480000000000001, 192.0, 0.0, 0.0, 0.0, 0.0, 0.0, 0.0, 0.0, 0.0, 0.0, 1.644588542026803E9, 0.0, 2022-02-12 01:09:02.026
172.0, -9775.98247241765, -9415.158261675628, -5725.46639746027, -13252.058714873638, -8354.769152971407, -4570.104726565448, -8049.1984545229025, -5863.957806105353, -9072.595426153592, -11651.405590940189, -7741.973726984707, -5978.823420861176, -6143.68988796352, -8826.994458078678, -10418.148090618623, -14742.137758986684, 0.008, 0.23800000000000002, 0.9480000000000001, 192.0, 0.0, 0.0, 0.0, 0.0, 0.0, 0.0, 0.0, 0.0, 0.0, 1.644588542034602E9, 0.0, 2022-02-12 01:09:02.034
174.0, -9742.968945857161, -9404.719997015, -5714.491690932714, -13251.254052073247, -8359.351260584745, -4571.915217866328, -8041.755323619285, -5863.421364238426, -9071.209617997363, -11636.63108785523, -7743.3148316520255, -5962.707813108899, -6131.597594213199, -8826.480367956206, -10413.722445216472, -14735.63340135019, 0.008, 0.23700000000000002, 0.9480000000000001, 192.0, 0.0, 32.0, 3.5, 48.0, 14.5, 80.0, 0.0, 0.0, 0.0, 1.644588542042762E9, 0.0, 2022-02-12 01:09:02.042
176.0, -9758.324594297957, -9398.036825422863, -5720.928993335842, -13250.739961950776, -8369.208379889535, -4577.749023169163, -8065.515227975277, -5882.554457492168, -9062.760658593257, -11650.757390350986, -7746.3099654090365, -5962.506647408802, -6130.368248268158, -8828.380266234906, -10411.442567282029, -14763.930709830609, 0.008, 0.23700000000000002, 0.9480000000000001, 192.0, 0.0, 0.0, 0.0, 0.0, 0.0, 0.0, 0.0, 0.0, 0.0, 1.6445885420497E9, 0.0, 2022-02-12 01:09:02.049
178.0, -9758.615166975876, -9387.307988084316, -5710.356618208482, -13239.295868789659, -8360.379440829687, -4575.9385318682835, -8057.133323804537, -5876.161858577951, -9047.919100274934, -11628.785625551418, -7734.016505958618, -5967.222865488871, -6130.524710479344, -8822.32294348752, -10407.77688119136, -14710.331226626782, 0.008, 0.23700000000000002, 0.9480000000000001, 192.0, 0.0, 0.0, 0.0, 0.0, 0.0, 0.0, 0.0, 0.0, 0.0, 1.644588542056498E9, 0.0, 2022-02-12 01:09:02.056
180.0, -9745.36058251388, -9395.801650977332, -5708.747292607701, -13240.927546134895, -8367.956682200036, -4582.040558104582, -8054.205245280892, -5874.396070765981, -9059.094972502586, -11649.550396150398, -7723.444130831258, -5973.660167892, -6143.064039118772, -8828.447321468273, -10401.25017181041, -14751.145512002173, 0.008, 0.23700000000000002, 0.9480000000000001, 192.0, 0.0, 0.0, 0.0, 0.0, 0.0, 0.0, 0.0, 0.0, 0.0, 1.644588542064239E9, 0.0, 2022-02-12 01:09:02.064
182.0, -9728.283849750025, -9382.122383370684, -5721.644249158412, -13217.838194112563, -8357.719583239506, -4570.551761454554, -8059.2343877833355, -5862.996681093774, -9042.197053694374, -11634.038285498416, -7732.094255935462, -5962.685461364444, -6137.364344282669, -8826.927402845313, -10400.512564243385, -14709.280694637382, 0.008, 0.23700000000000002, 0.9480000000000001, 192.0, 0.0, 0.0, 0.0, 0.0, 0.0, 0.0, 0.0, 0.0, 0.0, 1.644588542072428E9, 0.0, 2022-02-12 01:09:02.072
184.0, -9723.92525958124, -9376.28857806785, -5706.735635606723, -13216.765310378709, -8365.386231587676, -4568.920084109317, -8050.807780123685, -5855.978233334808, -9027.891937242977, -11614.77108177794, -7735.648183303855, -5945.6534320895, -6140.851216417696, -8815.170385261821, -10388.822601893258, -14695.154392141629, 0.009000000000000001, 0.23750000000000002, 0.9500000000000001, 192.0, 0.0, 40.0, 3.5, 56.0, 14.5, 96.0, 0.0, 0.0, 0.0, 1.644588542079433E9, 0.0, 2022-02-12 01:09:02.079
186.0, -9763.085515866938, -9363.905711639609, -5710.647190886401, -13211.445595198345, -8366.079135665792, -4573.993930100672, -8053.5346929472325, -5862.817867138132, -9040.006582737755, -11631.713704075064, -7729.188529156271, -5958.148057240017, -6143.868701919163, -8822.345295231975, -10382.273540767854, -14722.937610499575, 0.009000000000000001, 0.23750000000000002, 0.9500000000000001, 192.0, 0.0, 0.0, 0.0, 0.0, 0.0, 0.0, 0.0, 0.0, 0.0, 1.644588542087072E9, 0.0, 2022-02-12 01:09:02.087
188.0, -9735.816387631463, -9367.973729130475, -5701.572382637547, -13201.454365426824, -8357.406658817132, -4561.812229372529, -8051.590091179621, -5858.6827944139, -9022.9298499739, -11616.313352145356, -7715.777482483088, -5952.873045548564, -6153.3458415682135, -8826.659181911848, -10378.160819788078, -14663.794894670833, 0.009000000000000001, 0.23750000000000002, 0.9500000000000001, 192.0, 0.0, 0.0, 0.0, 0.0, 0.0, 0.0, 0.0, 0.0, 0.0, 1.644588542095309E9, 0.0, 2022-02-12 01:09:02.095
190.0, -9716.839756588908, -9362.206979061006, -5697.616123868957, -13212.116147532004, -8372.002347946447, -4570.66352017683, -8049.131399289537, -5857.431096724403, -9024.315658130128, -11625.745788305496, -7705.830956200476, -5948.402696657503, -6154.843408446719, -8809.805966592547, -10371.634110407127, -14707.000816702941, 0.009000000000000001, 0.23750000000000002, 0.9500000000000001, 192.0, 0.0, 0.0, 0.0, 0.0, 0.0, 0.0, 0.0, 0.0, 0.0, 1.644588542103201E9, 0.0, 2022-02-12 01:09:02.103
192.0, -9719.186689756714, -9359.748287170922, -5707.920278062854, -13197.006368280217, -8367.241426377466, -4574.776241156607, -8060.419030239467, -5875.625416711023, -9011.888088212978, -11615.262820155958, -7718.0126569286185, -5959.556217140701, -6147.355574054191, -8818.32198123002, -10369.376584217141, -14677.228293088472, 0.009000000000000001, 0.23750000000000002, 0.9500000000000001, 192.0, 0.0, 0.0, 0.0, 0.0, 0.0, 0.0, 0.0, 0.0, 0.0, 1.644588542109776E9, 0.0, 2022-02-12 01:09:02.109
194.0, -9713.73286410962, -9343.051534062808, -5702.064121015564, -13191.016100766195, -8381.367728873221, -4578.240761547179, -8063.883550630039, -5868.048175340674, -9005.249620109751, -11597.359072847257, -7720.404293585336, -5946.838074545632, -6157.682079992543, -8819.730141130703, -10369.398935961597, -14671.305080807815, 0.0105, 0.23675000000000002, 0.9500000000000001, 192.0, 0.0, 48.0, 3.5, 48.0, 14.5, 88.0, 0.0, 0.0, 0.0, 1.64458854212452E9, 0.0, 2022-02-12 01:09:02.124
196.0, -9719.007875801073, -9341.643374162124, -5712.569440909558, -13190.65847285491, -8385.703967297552, -4578.956017369749, -8066.319890775668, -5868.204637551861, -9014.167966147419, -11618.168546935147, -7723.801758742543, -5944.602900100101, -6153.971690412962, -8813.561059661039, -10367.275520238343, -14695.869647964199, 0.0105, 0.23675000000000002, 0.9500000000000001, 192.0, 0.0, 0.0, 0.0, 0.0, 0.0, 0.0, 0.0, 0.0, 0.0, 1.644588542132768E9, 0.0, 2022-02-12 01:09:02.132
198.0, -9711.162413497259, -9337.105970037695, -5695.60446686798, -13172.039469723639, -8373.65637703614, -4568.785973642584, -8059.659070927986, -5862.706108415855, -8990.609227491526, -11588.686595998597, -7720.627811029889, -5946.860426290086, -6154.999870657906, -8816.60089690696, -10365.487380681918, -14638.22449901396, 0.0105, 0.23675000000000002, 0.9500000000000001, 192.0, 0.0, 0.0, 0.0, 0.0, 0.0, 0.0, 0.0, 0.0, 0.0, 1.644588542139139E9, 0.0, 2022-02-12 01:09:02.139
200.0, -9694.197439455682, -9337.150673526607, -5692.7434435777, -13180.354318661013, -8387.916789998626, -4578.240761547179, -8066.141076820026, -5872.563227720646, -9000.421643307405, -11603.885782228206, -7695.638560728856, -5924.061646945674, -6168.41091733109, -8813.851632338958, -10357.463104422462, -14683.799705958332, 0.0105, 0.23675000000000002, 0.9500000000000001, 192.0, 0.0, 0.0, 0.0, 0.0, 0.0, 0.0, 0.0, 0.0, 0.0, 1.644588542147412E9, 0.0, 2022-02-12 01:09:02.147
202.0, -9700.120651736337, -9327.271202477361, -5701.862955315466, -13171.927711001363, -8379.311368383333, -4574.105688822948, -8073.986539123838, -5877.726480689822, -8986.988244889766, -11603.483450828011, -7711.217726614204, -5941.3842488985365, -6162.107725394693, -8815.617420150928, -10356.054944521778, -14651.881414876154, 0.0105, 0.23675000000000002, 0.9500000000000001, 192.0, 0.0, 0.0, 0.0, 0.0, 0.0, 0.0, 0.0, 0.0, 0.0, 1.644588542155254E9, 0.0, 2022-02-12 01:09:02.155
204.0, -9717.130329266827, -9319.872775062655, -5687.714301075256, -13167.770286532676, -8386.575685331307, -4569.881209120895, -8060.2849197727355, -5859.5545124476575, -8989.513992013215, -11586.317311086335, -7715.151633638339, -5933.628193572545, -6153.994042157417, -8815.438606195285, -10348.924738040536, -14639.27503100336, 0.01225, 0.236375, 0.9480000000000001, 192.0, 0.0, 56.0, 3.5, 48.0, 14.5, 72.0, 0.0, 0.0, 0.0, 1.644588542162011E9, 0.0, 2022-02-12 01:09:02.162
206.0, -9691.5375818655, -9328.344086211215, -5693.257533700173, -13167.479713854756, -8393.66118832364, -4577.771374913618, -8069.113858832581, -5873.792573665688, -8991.436242036372, -11605.159831662158, -7710.010732413618, -5935.304574406693, -6182.514868082389, -8810.275353226109, -10343.917947282547, -14667.23706331695, 0.01225, 0.236375, 0.9480000000000001, 192.0, 0.0, 0.0, 0.0, 0.0, 0.0, 0.0, 0.0, 0.0, 0.0, 1.644588542169746E9, 0.0, 2022-02-12 01:09:02.169
208.0, -9686.240218429592, -9305.120623722152, -5692.251705199684, -13153.688687525831, -8394.197630190567, -4574.597427200964, -8071.527847233755, -5861.923797359919, -8965.77643940168, -11587.479601798012, -7719.800796485043, -5939.193777941916, -6180.145583170126, -8820.043065553078, -10346.108418239168, -14614.397539424604, 0.01225, 0.236375, 0.9480000000000001, 192.0, 0.0, 0.0, 0.0, 0.0, 0.0, 0.0, 0.0, 0.0, 0.0, 1.644588542177057E9, 0.0, 2022-02-12 01:09:02.177
210.0, -9678.975901481617, -9295.88935326211, -5682.55104810608, -13154.470998581768, -8406.558144874352, -4575.759717912641, -8082.659015972497, -5878.240570812294, -8980.170962830898, -11573.062726624337, -7691.883467660364, -5927.190891169416, -6163.515885295378, -8808.397806691863, -10345.1919967165, -14657.04466784533, 0.01225, 0.236375, 0.9480000000000001, 192.0, 0.0, 0.0, 0.0, 0.0, 0.0, 0.0, 0.0, 0.0, 0.0, 1.64458854218548E9, 0.0, 2022-02-12 01:09:02.185
212.0, -9683.401546883768, -9282.344196122194, -5683.959208006765, -13138.623611762956, -8395.80695579135, -4569.434174231788, -8085.095356118126, -5877.190038822894, -8958.10979105351, -11554.71194442653, -7682.160458822305, -5921.692362033411, -6166.8462952192185, -8808.800138092058, -10345.974307772436, -14625.528708163347, 0.01225, 0.236375, 0.9480000000000001, 192.0, 0.0, 0.0, 0.0, 0.0, 0.0, 0.0, 0.0, 0.0, 0.0, 1.644588542191623E9, 0.0, 2022-02-12 01:09:02.191
214.0, -9665.475447830611, -9296.381091640127, -5675.465545113748, -13141.797559475608, -8396.991598247481, -4565.880246863395, -8069.73970767733, -5864.740117161288, -8958.892102109445, -11560.635156707187, -7692.397557782836, -5913.981010196329, -6169.46144932049, -8796.573733875006, -10335.13371171161, -14611.044777756308, 0.013125000000000001, 0.2361875, 0.9460000000000001, 192.0, 0.0, 56.0, 3.5, 48.0, 14.5, 64.0, 0.0, 0.0, 0.0, 1.644588542199486E9, 0.0, 2022-02-12 01:09:02.199
216.0, -9665.184875152692, -9298.862135274665, -5681.567571350047, -13141.88696645343, -8396.410452891643, -4571.870514377417, -8073.986539123838, -5868.964596863341, -8964.994128345745, -11579.4329737941, -7695.459746773214, -5909.622420027545, -6187.365196629191, -8799.390053676374, -10328.651705819573, -14639.56560368128, 0.013125000000000001, 0.2361875, 0.9460000000000001, 192.0, 0.0, 0.0, 0.0, 0.0, 0.0, 0.0, 0.0, 0.0, 0.0, 1.644588542207627E9, 0.0, 2022-02-12 01:09:02.207
218.0, -9657.182950637693, -9267.592044781692, -5674.50442010217, -13125.972524401252, -8383.3793858742, -4564.405031729345, -8062.944777362916, -5862.057907826652, -8944.877558335967, -11561.216302063025, -7697.694921218744, -5919.50189107679, -6175.161144156593, -8800.284123454587, -10323.264935405843, -14582.166323920052, 0.013125000000000001, 0.2361875, 0.9460000000000001, 192.0, 0.0, 0.0, 0.0, 0.0, 0.0, 0.0, 0.0, 0.0, 0.0, 1.644588542215394E9, 0.0, 2022-02-12 01:09:02.215
220.0, -9650.656241256744, -9267.189713381495, -5670.8387340115, -13128.006533146685, -8393.258856923445, -4573.323377767012, -8066.655166942498, -5866.818829395632, -8945.972793814277, -11548.676973423599, -7672.079822072962, -5905.867326959054, -6148.361402554679, -8805.805004335047, -10317.56524056974, -14622.779443595344, 0.013125000000000001, 0.2361875, 0.9460000000000001, 192.0, 0.0, 0.0, 0.0, 0.0, 0.0, 0.0, 0.0, 0.0, 0.0, 1.644588542222406E9, 0.0, 2022-02-12 01:09:02.222
222.0, -9651.86323545733, -9262.40644006806, -5674.325606146527, -13111.55564922758, -8384.787545774883, -4565.075584063004, -8071.281978044746, -5858.191056035884, -8934.86397681999, -11541.367952986713, -7687.837801913954, -5910.270620616749, -6188.549839085322, -8809.493042170172, -10313.631333545605, -14591.241132168905, 0.013125000000000001, 0.2361875, 0.9460000000000001, 192.0, 0.0, 0.0, 0.0, 0.0, 0.0, 0.0, 0.0, 0.0, 0.0, 1.644588542230191E9, 0.0, 2022-02-12 01:09:02.230
224.0, -9633.311287559425, -9258.919567933031, -5661.361594362449, -13110.013378860162, -8384.60873181924, -4558.079488048493, -8057.110972060082, -5855.173570534417, -8918.614258600981, -11545.592432688765, -7679.299435532026, -5905.129719392028, -6172.79185924433, -8798.630094364893, -10306.746996253372, -14575.706669772468, 0.0125625, 0.23309375, 0.9450000000000001, 192.0, 0.0, 48.0, 3.5, 24.0, 14.5, 64.0, 0.0, 0.0, 0.0, 1.644588542243687E9, 0.0, 2022-02-12 01:09:02.243
226.0, -9640.128569618293, -9262.585254023703, -5666.636606053902, -13110.572172471544, -8392.588304589784, -4561.745174139163, -8075.014719368783, -5854.592425178579, -8930.840662818035, -11564.4796567535, -7660.456914956202, -5897.3066088326705, -6178.178629658059, -8788.236533193176, -10305.56235379724, -14606.529725376337, 0.0125625, 0.23309375, 0.9450000000000001, 192.0, 0.0, 0.0, 0.0, 0.0, 0.0, 0.0, 0.0, 0.0, 0.0, 1.644588542252037E9, 0.0, 2022-02-12 01:09:02.252
228.0, -9629.779711935487, -9233.818558909721, -5661.383946106905, -13097.764622898654, -8380.674824795107, -4555.441982202767, -8061.558969206688, -5847.976308819808, -8911.506403864194, -11528.448644691545, -7663.049717313018, -5894.155012864472, -6169.997891187417, -8789.957617516235, -10303.975379940914, -14549.868053182132, 0.0125625, 0.23309375, 0.9450000000000001, 192.0, 0.0, 0.0, 0.0, 0.0, 0.0, 0.0, 0.0, 0.0, 0.0, 1.644588542259742E9, 0.0, 2022-02-12 01:09:02.259
230.0, -9618.648543196743, -9236.411361266537, -5653.985518692198, -13102.145564811894, -8396.432804636099, -4560.515828194121, -8062.855370385096, -5843.662422139933, -8912.691046320326, -11529.14154876966, -7656.187731765239, -5889.505850017768, -6161.057193405294, -8784.21321919122, -10295.191144369977, -14590.972911235442, 0.0125625, 0.23309375, 0.9450000000000001, 192.0, 0.0, 0.0, 0.0, 0.0, 0.0, 0.0, 0.0, 0.0, 0.0, 1.644588542267969E9, 0.0, 2022-02-12 01:09:02.267
232.0, -9629.66795321321, -9254.69508823098, -5664.2673211416395, -13084.130058780916, -8390.219019677523, -4560.404069471845, -8069.963225121883, -5846.63520415249, -8907.483089862239, -11541.099732053248, -7658.333499232948, -5891.3163413186485, -6192.662560065099, -8789.64469309386, -10295.816993214727, -14563.413210322049, 0.0125625, 0.23309375, 0.9450000000000001, 192.0, 0.0, 0.0, 0.0, 0.0, 0.0, 0.0, 0.0, 0.0, 0.0, 1.644588542274394E9, 0.0, 2022-02-12 01:09:02.274
234.0, -9610.937191359662, -9221.055712825742, -5649.805742479056, -13086.029957059618, -8395.829307535805, -4557.945377581761, -8064.777620408252, -5851.7314018883, -8905.605543327993, -11517.272772463892, -7656.701821887711, -5888.634131984011, -6177.150449413115, -8784.123812213398, -10294.408833314043, -14554.517216028837, 0.01128125, 0.233546875, 0.9425000000000001, 192.0, 0.0, 40.0, 3.5, 40.0, 14.5, 48.0, 0.0, 0.0, 0.0, 1.644588542282844E9, 0.0, 2022-02-12 01:09:02.282
236.0, -9617.218031551603, -9221.748616903857, -5658.925254216821, -13092.243742018192, -8396.253990680456, -4558.459467704233, -8071.483143744844, -5849.116247787028, -8909.293581163118, -11536.584679673277, -7647.17997874975, -5882.286236558704, -6176.234027890448, -8785.822544792003, -10288.530324522297, -14588.357757134172, 0.01128125, 0.233546875, 0.9425000000000001, 192.0, 0.0, 0.0, 0.0, 0.0, 0.0, 0.0, 0.0, 0.0, 0.0, 1.644588542290428E9, 0.0, 2022-02-12 01:09:02.290
238.0, -9606.310380257413, -9223.49205297137, -5652.599710535969, -13080.039689545596, -8384.966359730526, -4549.585825155476, -8066.163428564481, -5841.740172116777, -8889.66874953136, -11521.653714377131, -7658.154685277305, -5885.437832526903, -6175.496420323422, -8783.542666857562, -10283.344719808665, -14530.35498027265, 0.01128125, 0.233546875, 0.9425000000000001, 192.0, 0.0, 0.0, 0.0, 0.0, 0.0, 0.0, 0.0, 0.0, 0.0, 1.644588542296532E9, 0.0, 2022-02-12 01:09:02.296
240.0, -9596.788537119453, -9219.692256413968, -5647.3023471000615, -13088.980387327718, -8393.482374367997, -4552.5139036791215, -8063.950605863405, -5845.718782629822, -8890.76398500967, -11525.207641745525, -7647.135275260839, -5874.463125999347, -6190.94147574204, -8787.945960515257, -10278.002652883846, -14573.940881960498, 0.01128125, 0.233546875, 0.9425000000000001, 192.0, 0.0, 0.0, 0.0, 0.0, 0.0, 0.0, 0.0, 0.0, 0.0, 1.644588542305557E9, 0.0, 2022-02-12 01:09:02.305
242.0, -9617.37449376279, -9218.172337791008, -5652.733821002701, -13075.6363958879, -8383.80406901885, -4550.703412378241, -8068.420954754467, -5847.8198466086205, -8884.684310517825, -11532.80723486033, -7650.599795651412, -5887.494193016791, -6182.179591915559, -8783.833239535481, -10274.247559815354, -14543.564861245735, 0.01128125, 0.233546875, 0.9425000000000001, 192.0, 0.0, 0.0, 0.0, 0.0, 0.0, 0.0, 0.0, 0.0, 0.0, 1.644588542312065E9, 0.0, 2022-02-12 01:09:02.312
