%OpenBCI Raw EEG Data
%Number of channels = 16
%Sample Rate = 125 Hz
%Board = OpenBCI_GUI$BoardCytonSerialDaisy
Sample Index, EXG Channel 0, EXG Channel 1, EXG Channel 2, EXG Channel 3, EXG Channel 4, EXG Channel 5, EXG Channel 6, EXG Channel 7, EXG Channel 8, EXG Channel 9, EXG Channel 10, EXG Channel 11, EXG Channel 12, EXG Channel 13, EXG Channel 14, EXG Channel 15, Accel Channel 0, Accel Channel 1, Accel Channel 2, Other, Other, Other, Other, Other, Other, Other, Analog Channel 0, Analog Channel 1, Analog Channel 2, Timestamp, Other, Timestamp (Formatted)
74.0, -8961.730773655268, -8874.491915046205, -5341.597538184827, -12842.172425052218, -7550.35222176936, -4045.9786708329525, -7485.420404126693, -5612.344218771961, -9822.94348751825, -12189.121507301512, -6056.741602032376, -5406.708169783136, -5222.440388493585, -8829.296687757575, -10109.112871779547, -15038.521890464055, 0.002, 0.12, 0.47700000000000004, 192.0, 0.0, 16.0, 3.5, 64.0, 14.5, 104.0, 0.0, 0.0, 0.0, 1.644588347771307E9, 0.0, 2022-02-12 01:05:47.771
76.0, -8978.069898852098, -8905.270267161164, -5339.362363739296, -12850.06259084494, -7554.956681127153, -4051.320737757771, -7496.439814143159, -5619.407370019838, -9838.924984803794, -12205.147708075967, -6046.415096094024, -5414.0395419644765, -5221.568670459827, -8825.787463878092, -10112.108005536558, -15074.93288218175, 0.002, 0.12, 0.47700000000000004, 192.0, 0.0, 0.0, 0.0, 0.0, 0.0, 0.0, 0.0, 0.0, 0.0, 1.644588347771312E9, 0.0, 2022-02-12 01:05:47.771
0.0, -4755.646557288952, -4610.181404373813, -2865.1360112590805, -6724.164691467845, -3824.629345492047, -1946.166389723586, -3803.9763336153433, -2780.1546788400033, -4909.739483563839, -6092.169116994038, -3019.02777183387, -2707.2209366823363, -2598.8596795630074, -4412.122596755337, -5054.779953334326, -7517.450453931147, 0.004, 0.179, 0.7155, 192.0, 0.0, 24.0, 3.5, 56.0, 14.5, 104.0, 0.0, 0.0, 0.0, 1.644588347901142E9, 0.0, 2022-02-12 01:05:47.901
2.0, -9490.818916656843, -9207.868183597111, -5723.812368370577, -13446.340077679168, -7643.804865336999, -3887.7059683449233, -7599.235486893116, -5555.637843088847, -10172.100087654602, -12488.947807425, -6385.111079825292, -5564.824410059979, -5161.017794730401, -8490.243076115023, -10690.9734834401, -15668.014069558869, 0.004, 0.179, 0.7155, 192.0, 0.0, 0.0, 0.0, 0.0, 0.0, 0.0, 0.0, 0.0, 0.0, 1.644588347908265E9, 0.0, 2022-02-12 01:05:47.908
4.0, -9518.244507103504, -9224.430826238493, -5723.633554414935, -13456.71128710643, -7653.416115452781, -3893.428014925482, -7611.55129808799, -5561.67281409178, -10177.576265046151, -12494.826316216746, -6375.209257031591, -5558.834142545956, -5157.217998172999, -8485.616265012774, -10692.426346829694, -15712.426985791564, 0.004, 0.179, 0.7155, 192.0, 0.0, 0.0, 0.0, 0.0, 0.0, 0.0, 0.0, 0.0, 0.0, 1.64458834791571E9, 0.0, 2022-02-12 01:05:47.915
6.0, -9506.35337905328, -9215.646590667557, -5733.3565632529935, -13451.3245166927, -7635.825292566454, -3889.136479990063, -7613.071216710951, -5562.790401314545, -10170.714279498372, -12504.348159354706, -6384.038196091437, -5573.586293886458, -5153.261739404409, -8487.180887124645, -10697.366082354318, -15682.38624124363, 0.004, 0.179, 0.7155, 192.0, 0.0, 0.0, 0.0, 0.0, 0.0, 0.0, 0.0, 0.0, 0.0, 1.644588347923751E9, 0.0, 2022-02-12 01:05:47.923
8.0, -9516.299905335893, -9209.052826053241, -5723.208871270284, -13456.979508039894, -7638.172225734262, -3893.942105047954, -7599.146079915296, -5570.300587451528, -10168.300291097199, -12486.422060301551, -6377.489134966032, -5580.090651522953, -5150.266605647398, -8490.086613903835, -10693.007492185532, -15690.410517503085, 0.008, 0.24, 0.9500000000000001, 192.0, 0.0, 32.0, 3.5, 64.0, 14.5, 88.0, 0.0, 0.0, 0.0, 1.644588347930921E9, 0.0, 2022-02-12 01:05:47.930
10.0, -9515.450539046591, -9227.090683828674, -5732.574252197058, -13454.498464405355, -7636.294679200016, -3894.031512025775, -7593.893419968298, -5558.834142545956, -10171.92127369896, -12505.577505299749, -6373.242303519524, -5562.164552469797, -5154.915768494102, -8482.039985899924, -10687.01722467151, -15709.163631101088, 0.008, 0.24, 0.9500000000000001, 192.0, 0.0, 0.0, 0.0, 0.0, 0.0, 0.0, 0.0, 0.0, 0.0, 1.644588347937937E9, 0.0, 2022-02-12 01:05:47.937
12.0, -9507.113338364761, -9223.134425060085, -5729.020324828663, -13446.09420849016, -7631.086722741929, -3886.5660293777028, -7589.221905377139, -5546.965366240188, -10167.182703874434, -12496.882676706635, -6384.954617614105, -5570.38999442935, -5132.9887071834455, -8485.191581868123, -10688.246570616553, -15667.947014325502, 0.008, 0.24, 0.9500000000000001, 192.0, 0.0, 0.0, 0.0, 0.0, 0.0, 0.0, 0.0, 0.0, 0.0, 1.644588347945666E9, 0.0, 2022-02-12 01:05:47.945
14.0, -9511.427225044636, -9209.63397140908, -5723.1418160369185, -13453.827912071696, -7645.101266515407, -3887.2812852002726, -7599.704873526678, -5552.9779854986655, -10172.882398710537, -12497.66498776257, -6367.54260868342, -5546.115999950886, -5153.932291738069, -8474.708613718583, -10689.11828865031, -15708.515430511885, 0.008, 0.24, 0.9500000000000001, 192.0, 0.0, 0.0, 0.0, 0.0, 0.0, 0.0, 0.0, 0.0, 0.0, 1.644588347953465E9, 0.0, 2022-02-12 01:05:47.953
16.0, -9513.841213445809, -9214.238430766873, -5730.227319029251, -13450.206929469936, -7633.768932076566, -3888.398872423038, -7601.31419912746, -5549.736982552646, -10155.045706635203, -12466.238435058409, -6367.095573794315, -5568.8253723174785, -5147.83026550177, -8469.411250282676, -10687.799535727447, -15678.877017364148, 0.008, 0.237, 0.9500000000000001, 192.0, 0.0, 32.0, 3.5, 40.0, 14.5, 88.0, 0.0, 0.0, 0.0, 1.644588347960746E9, 0.0, 2022-02-12 01:05:47.960
18.0, -9518.177451870139, -9233.796207165267, -5726.673391660856, -13450.631612614587, -7639.356868190393, -3890.3434741906494, -7593.446385079192, -5549.781686041557, -10180.280826125245, -12506.069243677764, -6386.921571126172, -5575.776764843079, -5153.038221959856, -8487.113831891278, -10689.945303195156, -15688.220046546467, 0.008, 0.237, 0.9500000000000001, 192.0, 0.0, 0.0, 0.0, 0.0, 0.0, 0.0, 0.0, 0.0, 0.0, 1.644588347968007E9, 0.0, 2022-02-12 01:05:47.968
20.0, -9526.089969407318, -9244.122713103618, -5734.205929542295, -13452.397400426556, -7643.849568825909, -3891.036378268764, -7602.40943460577, -5557.314223922995, -10178.515038313275, -12528.91272651109, -6366.805001116396, -5556.353098911417, -5148.456114346518, -8474.462744529576, -10690.92877995119, -15709.096575867723, 0.008, 0.237, 0.9500000000000001, 192.0, 0.0, 0.0, 0.0, 0.0, 0.0, 0.0, 0.0, 0.0, 0.0, 1.644588347976336E9, 0.0, 2022-02-12 01:05:47.976
22.0, -9542.518501581968, -9237.238375811385, -5733.423618486359, -13449.402266669544, -7624.6494203388, -3877.737090317856, -7589.735995499611, -5551.569825597981, -10173.664709766474, -12511.85834549169, -6383.077071079859, -5576.268503221096, -5144.276338133376, -8481.905875433193, -10690.414689828718, -15667.05294454729, 0.008, 0.237, 0.9500000000000001, 192.0, 0.0, 0.0, 0.0, 0.0, 0.0, 0.0, 0.0, 0.0, 0.0, 1.644588347984184E9, 0.0, 2022-02-12 01:05:47.984
24.0, -9537.668173035167, -9230.644611197069, -5723.901775348399, -13462.478037175899, -7629.365638418871, -3879.7710990632895, -7588.439594321203, -5546.093648206431, -10177.553913301697, -12510.316075124274, -6374.06931806437, -5574.323901453484, -5129.367724581686, -8471.758183450484, -10682.457468802628, -15708.001340389412, 0.008, 0.237, 0.9500000000000001, 192.0, 0.0, 0.0, 0.0, 0.0, 0.0, 0.0, 0.0, 0.0, 0.0, 1.644588347998763E9, 0.0, 2022-02-12 01:05:47.998
26.0, -9524.435940317624, -9235.53964323278, -5729.176787039851, -13441.981487510382, -7622.79422554901, -3884.0179305097977, -7600.55423981598, -5552.866226776388, -10171.161314387478, -12499.743699996914, -6376.4609547210885, -5576.0449857765425, -5147.383230612663, -8475.58033175234, -10685.027919414988, -15680.821619131759, 0.008, 0.2385, 0.9490000000000001, 192.0, 0.0, 32.0, 3.5, 64.0, 14.5, 80.0, 0.0, 0.0, 0.0, 1.64458834800541E9, 0.0, 2022-02-12 01:05:48.005
28.0, -9511.561335511367, -9226.844814639666, -5718.380894467938, -13449.357563180634, -7629.276231441049, -3883.8167648097, -7602.744710772599, -5554.676718077269, -10166.020413162758, -12513.870002492667, -6374.941036098127, -5564.4220786597825, -5148.7243352799815, -8475.043889885414, -10687.35250083834, -15691.237532047931, 0.008, 0.2385, 0.9490000000000001, 192.0, 0.0, 0.0, 0.0, 0.0, 0.0, 0.0, 0.0, 0.0, 0.0, 1.644588348012983E9, 0.0, 2022-02-12 01:05:48.012
30.0, -9529.88976596472, -9242.35692529165, -5731.456664974292, -13453.738505093874, -7631.8466820534095, -3886.543677633247, -7596.933257214219, -5553.514427365592, -10172.77063998826, -12511.165441413576, -6370.694204651619, -5562.611587358902, -5150.691288792049, -8474.127468362745, -10686.771355482502, -15714.170421859077, 0.008, 0.2385, 0.9490000000000001, 192.0, 0.0, 0.0, 0.0, 0.0, 0.0, 0.0, 0.0, 0.0, 0.0, 1.644588348021332E9, 0.0, 2022-02-12 01:05:48.021
32.0, -9530.917946209664, -9222.888555871077, -5725.756970138189, -13443.5237578778, -7621.587231348423, -3875.9042472725214, -7591.479431567125, -5547.747677296124, -10168.367346330566, -12506.963313455977, -6374.650463420208, -5567.841895561444, -5141.750591009926, -8478.083727131334, -10688.514791550017, -15672.90910159458, 0.008, 0.2385, 0.9490000000000001, 192.0, 0.0, 0.0, 0.0, 0.0, 0.0, 0.0, 0.0, 0.0, 0.0, 1.644588348028289E9, 0.0, 2022-02-12 01:05:48.028
34.0, -9522.714855994565, -9226.73305591739, -5723.186519525829, -13457.583005140186, -7633.232490209639, -3878.362939162605, -7590.02656817753, -5541.042153959532, -10173.754116744294, -12509.265543134874, -6364.882751093239, -5568.0654130059975, -5141.817646243292, -8476.250884086, -10686.167858382209, -15711.1082328687, 0.008, 0.2385, 0.9490000000000001, 192.0, 0.0, 0.0, 0.0, 0.0, 0.0, 0.0, 0.0, 0.0, 0.0, 1.644588348035648E9, 0.0, 2022-02-12 01:05:48.035
36.0, -9514.288248334915, -9221.927430859498, -5737.357525510493, -13447.368257924112, -7624.582365105434, -3878.6311600960685, -7593.848716479388, -5545.311337150495, -10170.311948098177, -12516.373397871661, -6367.0061668164935, -5578.458974177715, -5142.622309043683, -8469.120677604757, -10686.92781769369, -15683.615587188673, 0.005, 0.23625000000000002, 0.9465000000000001, 192.0, 0.0, 8.0, 3.5, 40.0, 14.5, 64.0, 0.0, 0.0, 0.0, 1.644588348043579E9, 0.0, 2022-02-12 01:05:48.043
38.0, -9506.822765686842, -9202.615523650113, -5723.432388714837, -13452.978545782393, -7628.60567910739, -3878.429994395971, -7591.010044933563, -5549.804037786012, -10163.606424761585, -12506.359816355684, -6377.422079732666, -5573.452183419727, -5134.955660695513, -8470.461782272076, -10692.940436952167, -15692.042194848324, 0.005, 0.23625000000000002, 0.9465000000000001, 192.0, 0.0, 0.0, 0.0, 0.0, 0.0, 0.0, 0.0, 0.0, 0.0, 1.644588348050642E9, 0.0, 2022-02-12 01:05:48.050
40.0, -9522.044303660907, -9245.553224748757, -5729.08738006203, -13451.592737626164, -7630.550280875002, -3885.9625322774095, -7597.447347336692, -5554.117924465886, -10169.373174831055, -12502.0012261869, -6374.918684353672, -5568.311282195006, -5139.515416564395, -8470.059450871879, -10696.539067809472, -15719.087805639245, 0.005, 0.23625000000000002, 0.9465000000000001, 192.0, 0.0, 0.0, 0.0, 0.0, 0.0, 0.0, 0.0, 0.0, 0.0, 1.64458834805766E9, 0.0, 2022-02-12 01:05:48.057
42.0, -9524.257126361981, -9227.694180928967, -5727.790978883622, -13442.942612521962, -7624.381199405337, -3877.334758917661, -7598.967265959653, -5551.703936064713, -10169.216712619867, -12478.263673575364, -6371.185943029635, -5570.077070006975, -5148.791390513348, -8479.268369587466, -10698.64013178827, -15681.514523209873, 0.005, 0.23625000000000002, 0.9465000000000001, 192.0, 0.0, 0.0, 0.0, 0.0, 0.0, 0.0, 0.0, 0.0, 0.0, 1.644588348065231E9, 0.0, 2022-02-12 01:05:48.065
44.0, -9520.278515848937, -9224.184957049485, -5723.410036970382, -13454.721981849907, -7634.372429176859, -3872.976168748876, -7598.386120603815, -5544.372563883372, -10167.719145741361, -12504.90695296609, -6360.278291735446, -5557.828314045467, -5143.941061966546, -8465.209122325077, -10700.674140533703, -15719.981875417458, 0.005, 0.23625000000000002, 0.9465000000000001, 192.0, 0.0, 0.0, 0.0, 0.0, 0.0, 0.0, 0.0, 0.0, 0.0, 1.644588348073206E9, 0.0, 2022-02-12 01:05:48.073
46.0, -9531.499091565502, -9218.708779657934, -5734.384743497938, -13447.122388735103, -7620.112016214373, -3872.0597472262084, -7601.247143894094, -5549.804037786012, -10163.606424761585, -12506.270409377863, -6368.369623228267, -5573.206314230718, -5141.996460198934, -8469.81358168287, -10699.131870166288, -15690.164648314078, 0.006500000000000001, 0.23612500000000003, 0.9432500000000001, 192.0, 0.0, 32.0, 3.5, 48.0, 14.5, 48.0, 0.0, 0.0, 0.0, 1.64458834808139E9, 0.0, 2022-02-12 01:05:48.081
48.0, -9498.932599894119, -9229.39291350757, -5724.058237559586, -13450.698667847952, -7626.6834290842335, -3876.172468205985, -7590.652417022278, -5544.797247028023, -10165.886302696026, -12508.460880334484, -6375.544533198421, -5572.826334574978, -5140.945928209535, -8466.773744436949, -10699.534201566483, -15694.858514649692, 0.006500000000000001, 0.23612500000000003, 0.9432500000000001, 192.0, 0.0, 0.0, 0.0, 0.0, 0.0, 0.0, 0.0, 0.0, 0.0, 1.644588348087845E9, 0.0, 2022-02-12 01:05:48.087
50.0, -9512.522460522945, -9230.845776897166, -5729.4226562288595, -13452.866787060117, -7627.17516746225, -3877.334758917661, -7594.765138002055, -5544.484322605649, -10165.998061418302, -12517.870964750167, -6375.7009954096075, -5568.3559856839165, -5140.945928209535, -8472.764011950972, -10695.73440500908, -15716.405596304608, 0.006500000000000001, 0.23612500000000003, 0.9432500000000001, 192.0, 0.0, 0.0, 0.0, 0.0, 0.0, 0.0, 0.0, 0.0, 0.0, 1.644588348095847E9, 0.0, 2022-02-12 01:05:48.095
52.0, -9527.11814965226, -9226.196614050463, -5725.354638737994, -13444.283717189279, -7618.010952235574, -3871.3891948925493, -7590.473603066636, -5539.611642314392, -10160.901863682493, -12499.408423830084, -6380.707786167596, -5568.914779295299, -5135.939137451546, -8471.311148561377, -10694.527410808494, -15673.914930095068, 0.006500000000000001, 0.23612500000000003, 0.9432500000000001, 192.0, 0.0, 0.0, 0.0, 0.0, 0.0, 0.0, 0.0, 0.0, 0.0, 1.644588348103902E9, 0.0, 2022-02-12 01:05:48.103
54.0, -9529.755655497987, -9220.832195381188, -5716.078664789041, -13454.09613300516, -7624.738827316622, -3877.044186239742, -7590.9876931891085, -5545.2889854060395, -10166.087468396125, -12502.917647709566, -6360.792381857918, -5570.322939195984, -5145.103352678222, -8465.00795662498, -10692.940436952167, -15716.405596304608, 0.006500000000000001, 0.23612500000000003, 0.9432500000000001, 192.0, 0.0, 0.0, 0.0, 0.0, 0.0, 0.0, 0.0, 0.0, 0.0, 1.644588348111001E9, 0.0, 2022-02-12 01:05:48.111
56.0, -9522.021951916451, -9226.867166384121, -5724.348810237505, -13450.788074825774, -7616.625144079345, -3879.234657196362, -7593.938123457208, -5546.585386584447, -10159.828979948637, -12505.733967510936, -6371.722384896563, -5579.9788928006765, -5143.471675332985, -8471.422907283653, -10687.866590960812, -15687.951825613001, 0.00625, 0.2350625, 0.9436250000000002, 192.0, 0.0, 24.0, 3.5, 40.0, 14.5, 64.0, 0.0, 0.0, 0.0, 1.644588348125479E9, 0.0, 2022-02-12 01:05:48.125
58.0, -9510.086120377317, -9212.405587721538, -5711.004818797686, -13455.213720227925, -7620.849623781398, -3877.200648450929, -7589.691292010701, -5545.087819705942, -10154.978651401836, -12492.032348159832, -6377.533838454943, -5577.117869510397, -5144.164579411099, -8469.947692149603, -10689.9229514507, -15694.500886738408, 0.00625, 0.2350625, 0.9436250000000002, 192.0, 0.0, 0.0, 0.0, 0.0, 0.0, 0.0, 0.0, 0.0, 0.0, 1.64458834813352E9, 0.0, 2022-02-12 01:05:48.133
60.0, -9528.705123508587, -9242.535739247292, -5722.024228814153, -13455.012554527826, -7629.879728541342, -3883.2803229427727, -7597.559106058969, -5546.741848795635, -10171.183666131934, -12508.505583823393, -6373.063489563881, -5574.43566017576, -5139.180140397566, -8466.170247336657, -10690.63820727327, -15719.221916105977, 0.00625, 0.2350625, 0.9436250000000002, 192.0, 0.0, 0.0, 0.0, 0.0, 0.0, 0.0, 0.0, 0.0, 0.0, 1.644588348140197E9, 0.0, 2022-02-12 01:05:48.140
62.0, -9513.125957623239, -9230.376390263604, -5722.650077658901, -13446.13891197907, -7625.655248839289, -3876.552447861725, -7599.526059571035, -5553.201502943219, -10156.029183391236, -12495.09453715021, -6375.589236687331, -5572.938093297254, -5135.603861284717, -8469.835933427326, -10699.154221910741, -15679.212293530976, 0.00625, 0.2350625, 0.9436250000000002, 192.0, 0.0, 0.0, 0.0, 0.0, 0.0, 0.0, 0.0, 0.0, 0.0, 1.644588348148032E9, 0.0, 2022-02-12 01:05:48.148
64.0, -9513.55064076789, -9227.224794295405, -5722.404208469893, -13458.81235108523, -7635.244147210616, -3877.737090317856, -7601.761234016566, -5548.172360440774, -10169.261416108779, -12504.28110412134, -6374.292835508923, -5579.062471278009, -5129.837111215247, -8463.689203702117, -10699.467146333116, -15720.138337628645, 0.00625, 0.2350625, 0.9436250000000002, 192.0, 0.0, 0.0, 0.0, 0.0, 0.0, 0.0, 0.0, 0.0, 0.0, 1.644588348156275E9, 0.0, 2022-02-12 01:05:48.156
66.0, -9527.185204885627, -9243.273346814316, -5725.689914904823, -13449.268156202812, -7626.9740017621525, -3878.0276629957752, -7600.330722371426, -5558.1412384678415, -10165.77454397375, -12504.258752376885, -6379.254922778002, -5570.367642684894, -5146.511512578906, -8466.326709547844, -10699.645960288759, -15694.143258827122, 0.005125, 0.23553125000000003, 0.9468125000000001, 192.0, 0.0, 16.0, 3.5, 48.0, 14.5, 88.0, 0.0, 0.0, 0.0, 1.644588348163134E9, 0.0, 2022-02-12 01:05:48.163
68.0, -9530.001524686995, -9225.816634394721, -5718.17972876784, -13457.895929562561, -7632.919565787264, -3875.43486063896, -7590.384196088815, -5546.808904029001, -10165.103991640091, -12505.510450066382, -6375.835105876339, -5581.431756190272, -5144.857483489213, -8466.393764781209, -10702.328169623395, -15699.887657152136, 0.005125, 0.23553125000000003, 0.9468125000000001, 192.0, 0.0, 0.0, 0.0, 0.0, 0.0, 0.0, 0.0, 0.0, 0.0, 1.644588348170896E9, 0.0, 2022-02-12 01:05:48.170
70.0, -9520.211460615572, -9219.938125602976, -5724.281755004139, -13454.878444061094, -7628.069237240463, -3871.858581526111, -7595.212172891162, -5541.62329931537, -10160.611291004574, -12498.827278474246, -6371.923550596661, -5571.574636885481, -5142.5552538103175, -8463.44333451311, -10699.377739355295, -15721.904125440613, 0.005125, 0.23553125000000003, 0.9468125000000001, 192.0, 0.0, 0.0, 0.0, 0.0, 0.0, 0.0, 0.0, 0.0, 0.0, 1.644588348177818E9, 0.0, 2022-02-12 01:05:48.177
72.0, -9501.659512717666, -9202.213192249917, -5720.236089257728, -13439.589850853665, -7614.41232137827, -3858.782811019756, -7584.662149508256, -5537.555281824503, -10139.846520405594, -12480.61060674317, -6375.87980936525, -5564.712651337702, -5134.843901973236, -8459.688241444617, -10698.327207365895, -15677.111229552178, 0.005125, 0.23553125000000003, 0.9468125000000001, 192.0, 0.0, 0.0, 0.0, 0.0, 0.0, 0.0, 0.0, 0.0, 0.0, 1.644588348185803E9, 0.0, 2022-02-12 01:05:48.185
74.0, -9510.399044799691, -9223.961439604931, -5722.828891614544, -13454.654926616542, -7629.656211096789, -3866.583569834658, -7585.31035009746, -5533.733133522646, -10158.979613659336, -12484.589217256214, -6368.682547650641, -5560.063488490998, -5115.82256744177, -8444.824331381838, -10696.203791642642, -15713.276352080866, 0.005125, 0.23553125000000003, 0.9468125000000001, 192.0, 0.0, 0.0, 0.0, 0.0, 0.0, 0.0, 0.0, 0.0, 0.0, 1.644588348192943E9, 0.0, 2022-02-12 01:05:48.192
76.0, -9513.304771578882, -9217.144157546063, -5722.761836381178, -13452.41975217101, -7625.878766283842, -3869.3998896360267, -7591.077100166929, -5543.2326249161515, -10165.416916062464, -12490.646540003603, -6379.366681500278, -5581.565866657003, -5143.4940270774405, -8466.01378512547, -10697.634303287781, -15693.383299515643, 0.006562500000000001, 0.23676562500000004, 0.95140625, 192.0, 0.0, 32.0, 3.5, 56.0, 14.5, 112.0, 0.0, 0.0, 0.0, 1.644588348200697E9, 0.0, 2022-02-12 01:05:48.200
78.0, -9512.164832611661, -9218.30644825774, -5715.922202577854, -13453.716153349418, -7630.885557041831, -3864.0578227112082, -7587.7690419875435, -5540.215139414685, -10165.238102106823, -12494.938074939022, -6373.331710497345, -5565.249093204629, -5137.615518285695, -8463.465686257565, -10698.438966088172, -15694.947921627514, 0.006562500000000001, 0.23676562500000004, 0.95140625, 192.0, 0.0, 0.0, 0.0, 0.0, 0.0, 0.0, 0.0, 0.0, 0.0, 1.644588348208427E9, 0.0, 2022-02-12 01:05:48.208
80.0, -9531.163815398671, -9227.96240186243, -5724.617031170968, -13459.080572018693, -7631.734923331132, -3863.05199421072, -7597.022664192041, -5534.649555045314, -10171.988328932326, -12501.978874442444, -6374.449297720111, -5571.373471185383, -5134.888605462147, -8451.641613440706, -10695.35442535334, -15717.97021841648, 0.006562500000000001, 0.23676562500000004, 0.95140625, 192.0, 0.0, 0.0, 0.0, 0.0, 0.0, 0.0, 0.0, 0.0, 0.0, 1.644588348216418E9, 0.0, 2022-02-12 01:05:48.216
82.0, -9520.07735014884, -9199.933314315476, -5717.486824689726, -13447.859996302128, -7619.910850514276, -3858.9616249753985, -7587.947855943186, -5538.337592880439, -10158.890206681515, -12478.598949742192, -6369.934245340139, -5569.920607795788, -5129.881814704158, -8450.300508773387, -10692.828678229891, -15674.429020217542, 0.006562500000000001, 0.23676562500000004, 0.95140625, 192.0, 0.0, 0.0, 0.0, 0.0, 0.0, 0.0, 0.0, 0.0, 0.0, 1.644588348224553E9, 0.0, 2022-02-12 01:05:48.224
84.0, -9505.16873659715, -9203.867221339611, -5719.900813090899, -13458.410019685034, -7631.690219842222, -3860.2580261538064, -7591.680597267223, -5536.705915535202, -10156.945604913904, -12482.935188166522, -6362.982852814538, -5557.67185183428, -5122.237518100443, -8445.383124993221, -10692.69456776316, -15721.725311484972, 0.006562500000000001, 0.23676562500000004, 0.95140625, 192.0, 0.0, 0.0, 0.0, 0.0, 0.0, 0.0, 0.0, 0.0, 0.0, 1.644588348230938E9, 0.0, 2022-02-12 01:05:48.230
86.0, -9493.21055331356, -9200.492107926859, -5727.32159225006, -13447.390609668568, -7622.995391249108, -3860.459191853904, -7589.624236777335, -5531.609717799392, -10154.911596168471, -12475.983795640923, -6377.109155310292, -5562.656290847814, -5122.796311711826, -8456.022555353948, -10700.40591960024, -15695.171439072066, 0.004, 0.23800000000000002, 0.9540000000000001, 192.0, 0.0, 16.0, 3.5, 56.0, 14.5, 104.0, 0.0, 0.0, 0.0, 1.64458834824615E9, 0.0, 2022-02-12 01:05:48.246
88.0, -9520.926716438142, -9223.000314593353, -5716.726865378245, -13451.369220181612, -7626.370504661859, -3857.531113330259, -7581.577608773424, -5529.821578242967, -10158.353764814588, -12481.95171141049, -6385.7369286700405, -5572.938093297254, -5139.15778865311, -8454.90496813118, -10698.058986432432, -15694.523238482863, 0.004, 0.23800000000000002, 0.9540000000000001, 192.0, 0.0, 0.0, 0.0, 0.0, 0.0, 0.0, 0.0, 0.0, 0.0, 1.644588348252942E9, 0.0, 2022-02-12 01:05:48.252
90.0, -9535.79062650092, -9229.974058863409, -5725.756970138189, -13458.499426662855, -7636.294679200016, -3859.9003982425215, -7588.886629210309, -5538.494055091626, -10162.734706727828, -12496.14506913961, -6361.150009769203, -5565.405555415816, -5136.58733804075, -8441.136293546711, -10697.187268398675, -15718.193735861032, 0.004, 0.23800000000000002, 0.9540000000000001, 192.0, 0.0, 0.0, 0.0, 0.0, 0.0, 0.0, 0.0, 0.0, 0.0, 1.644588348260741E9, 0.0, 2022-02-12 01:05:48.260
92.0, -9528.615716530767, -9205.610657407124, -5726.18165328284, -13445.825987556695, -7631.824330308954, -3861.196799420929, -7594.1616409017615, -5541.332726637451, -10154.889244424015, -12482.309339321773, -6368.794306372918, -5564.377375170872, -5135.156826395611, -8446.701877916084, -10699.936532966678, -15680.396935987108, 0.004, 0.23800000000000002, 0.9540000000000001, 192.0, 0.0, 0.0, 0.0, 0.0, 0.0, 0.0, 0.0, 0.0, 0.0, 1.644588348268603E9, 0.0, 2022-02-12 01:05:48.268
94.0, -9505.794585441898, -9208.091701041663, -5722.158339280884, -13459.929938307994, -7640.072124012962, -3859.1851424199517, -7592.194687389695, -5540.326898136962, -10162.533541027731, -12482.286987577318, -6374.918684353672, -5555.9731192556765, -5138.174311897077, -8442.835026125316, -10702.395224856762, -15724.340465586241, 0.004, 0.23800000000000002, 0.9540000000000001, 192.0, 0.0, 0.0, 0.0, 0.0, 0.0, 0.0, 0.0, 0.0, 0.0, 1.644588348275566E9, 0.0, 2022-02-12 01:05:48.275
96.0, -9506.576896497834, -9202.704930627935, -5730.987278340731, -13447.927051535495, -7635.154740232795, -3855.5418080737363, -7601.6941787832, -5539.365773125383, -10152.609366489574, -12468.026574614832, -6376.058623320892, -5563.416250159294, -5124.115064634689, -8441.583328435818, -10698.282503876986, -15695.886694894636, 0.002, 0.24, 0.9520000000000001, 192.0, 0.0, 8.0, 3.5, 64.0, 14.5, 96.0, 0.0, 0.0, 0.0, 1.644588348283314E9, 0.0, 2022-02-12 01:05:48.283
98.0, -9504.989922641507, -9206.951762074443, -5719.073798546052, -13452.03977251527, -7643.961327548186, -3854.0889446841416, -7600.643646793801, -5542.606776071403, -10155.939776413416, -12469.099458348688, -6372.124716296758, -5568.534799639559, -5146.198588156532, -8440.108113301769, -10703.602219057348, -15696.132564083644, 0.002, 0.24, 0.9520000000000001, 192.0, 0.0, 0.0, 0.0, 0.0, 0.0, 0.0, 0.0, 0.0, 0.0, 1.644588348291394E9, 0.0, 2022-02-12 01:05:48.291
100.0, -9529.621545031256, -9215.043093567265, -5721.241917758217, -13458.052391773748, -7642.486112414135, -3861.196799420929, -7595.793318246999, -5542.852645260411, -10158.644337492507, -12494.37928132764, -6361.954672569594, -5555.52608436657, -5143.091695677244, -8436.084799299813, -10698.796593999457, -15723.871078952681, 0.002, 0.24, 0.9520000000000001, 192.0, 0.0, 0.0, 0.0, 0.0, 0.0, 0.0, 0.0, 0.0, 0.0, 1.644588348298346E9, 0.0, 2022-02-12 01:05:48.298
102.0, -9516.523422780445, -9193.54071540126, -5718.470301445759, -13445.110731734125, -7628.069237240463, -3851.42908709396, -7586.9420274426975, -5535.5436248235255, -10144.853311163582, -12473.189827584009, -6364.0110330594825, -5561.717517580691, -5131.669954260583, -8438.1411597897, -10694.035672430477, -15680.911026109581, 0.002, 0.24, 0.9520000000000001, 192.0, 0.0, 0.0, 0.0, 0.0, 0.0, 0.0, 0.0, 0.0, 0.0, 1.644588348306306E9, 0.0, 2022-02-12 01:05:48.306
104.0, -9514.578821012834, -9185.494087397348, -5720.683124146834, -13455.593699883664, -7635.646478610812, -3854.4465725954265, -7586.830268720421, -5542.852645260411, -10158.823151448149, -12470.060583360266, -6370.046004062415, -5550.832218030956, -5131.044105415834, -8430.42980795262, -10697.366082354318, -15720.898296940124, 0.002, 0.24, 0.9520000000000001, 192.0, 0.0, 0.0, 0.0, 0.0, 0.0, 0.0, 0.0, 0.0, 0.0, 1.644588348314525E9, 0.0, 2022-02-12 01:05:48.314
106.0, -9505.369902297247, -9203.554296917237, -5725.980487582742, -13449.648135858553, -7627.510443629079, -3852.5466743167253, -7591.546486800491, -5533.151988166808, -10151.089447866612, -12468.138333337109, -6381.31128326789, -5558.9682530126875, -5119.220032598977, -8438.43173246762, -10699.310684121929, -15697.384261773142, 0.006, 0.23800000000000002, 0.9440000000000001, 192.0, 0.0, 24.0, 3.5, 56.0, 14.5, 64.0, 0.0, 0.0, 0.0, 1.644588348321026E9, 0.0, 2022-02-12 01:05:48.321
108.0, -9503.291190062904, -9217.926468601998, -5710.17780425284, -13453.492635904866, -7632.070199497963, -3850.5350173157476, -7588.014911176552, -5525.99942994111, -10150.843578677604, -12472.072240361244, -6370.537742440431, -5558.074183234476, -5144.276338133376, -8439.951651090581, -10701.992893456567, -15697.496020495419, 0.006, 0.23800000000000002, 0.9440000000000001, 192.0, 0.0, 0.0, 0.0, 0.0, 0.0, 0.0, 0.0, 0.0, 0.0, 1.644588348328393E9, 0.0, 2022-02-12 01:05:48.328
110.0, -9517.819823958853, -9197.608732892124, -5711.384798453427, -13456.867749317616, -7633.187786720728, -3852.5466743167253, -7595.614504291357, -5539.8575115034, -10154.86689267956, -12473.770972939847, -6360.814733602373, -5560.62228210238, -5138.219015385987, -8433.871976598737, -10697.83546898788, -15724.273410352876, 0.006, 0.23800000000000002, 0.9440000000000001, 192.0, 0.0, 0.0, 0.0, 0.0, 0.0, 0.0, 0.0, 0.0, 0.0, 1.644588348335939E9, 0.0, 2022-02-12 01:05:48.335
112.0, -9516.702236736088, -9189.204476976929, -5709.574307152547, -13452.062124259726, -7621.833100537432, -3843.874197468066, -7588.953684443675, -5529.151025909308, -10137.05255234868, -12465.143199580098, -6368.25786450599, -5563.460953648205, -5132.9887071834455, -8437.023572566935, -10694.72857650859, -15678.854665619692, 0.006, 0.23800000000000002, 0.9440000000000001, 192.0, 0.0, 0.0, 0.0, 0.0, 0.0, 0.0, 0.0, 0.0, 0.0, 1.644588348343636E9, 0.0, 2022-02-12 01:05:48.343
114.0, -9523.787739728421, -9216.20538427894, -5707.763815851667, -13465.763743610829, -7630.572632619457, -3852.7701917612785, -7587.8808007098205, -5530.894461976822, -10146.820264675649, -12471.580501983226, -6357.171399256158, -5557.761258812101, -5133.569852539284, -8425.847700339282, -10691.219352629108, -15717.277314338366, 0.006, 0.23800000000000002, 0.9440000000000001, 192.0, 0.0, 0.0, 0.0, 0.0, 0.0, 0.0, 0.0, 0.0, 0.0, 1.644588348351576E9, 0.0, 2022-02-12 01:05:48.351
116.0, -9521.50786179398, -9219.669904669512, -5720.996048569209, -13456.152493495047, -7626.392856406314, -3853.038412694742, -7592.507611812069, -5530.38037185435, -10148.608404232074, -12477.593121241704, -6370.4036319737, -5565.807886816012, -5132.675782761072, -8444.064372070357, -10695.533239308983, -15699.239456562933, 0.006, 0.24, 0.9460000000000001, 192.0, 0.0, 24.0, 3.5, 64.0, 14.5, 72.0, 0.0, 0.0, 0.0, 1.644588348357794E9, 0.0, 2022-02-12 01:05:48.357
118.0, -9507.850945931787, -9207.287038241273, -5712.100054275997, -13456.197196983958, -7629.589155863423, -3848.3445463591274, -7593.178164145728, -5529.531005565048, -10146.686154208917, -12451.46393197345, -6376.192733787624, -5557.29187217854, -5141.571777054283, -8439.594023179296, -10699.869477733313, -15694.746755927416, 0.006, 0.24, 0.9460000000000001, 192.0, 0.0, 0.0, 0.0, 0.0, 0.0, 0.0, 0.0, 0.0, 0.0, 1.644588348373351E9, 0.0, 2022-02-12 01:05:48.373
120.0, -9518.624486759245, -9202.01202654982, -5719.5655369240685, -13462.545092409266, -7627.89042328482, -3853.23957839484, -7595.1004141688845, -5536.705915535202, -10150.105971110579, -12475.425002029539, -6360.367698713267, -5564.757354826612, -5147.338527123753, -8435.838930110804, -10698.908352721734, -15721.412387062597, 0.006, 0.24, 0.9460000000000001, 192.0, 0.0, 0.0, 0.0, 0.0, 0.0, 0.0, 0.0, 0.0, 0.0, 1.644588348380238E9, 0.0, 2022-02-12 01:05:48.380
122.0, -9515.919925680153, -9201.386177705072, -5715.206946755284, -13453.067952760215, -7621.251955181594, -3847.651642281013, -7587.724338498633, -5529.240432887129, -10142.215805317855, -12476.52023750785, -6363.83221910384, -5572.803982830523, -5140.767114253893, -8436.643592911196, -10699.958884711134, -15682.430944732541, 0.006, 0.24, 0.9460000000000001, 192.0, 0.0, 0.0, 0.0, 0.0, 0.0, 0.0, 0.0, 0.0, 0.0, 1.644588348387941E9, 0.0, 2022-02-12 01:05:48.387
124.0, -9517.663361747665, -9222.486224470882, -5711.6977228758005, -13464.467342432421, -7631.779626820044, -3851.652604538513, -7585.220943119639, -5526.088836918931, -10151.424724033443, -12463.243301301396, -6366.983815072038, -5566.813715316501, -5146.533864323362, -8432.396761464686, -10700.897657978256, -15721.121814384678, 0.006, 0.24, 0.9460000000000001, 192.0, 0.0, 0.0, 0.0, 0.0, 0.0, 0.0, 0.0, 0.0, 0.0, 1.644588348397265E9, 0.0, 2022-02-12 01:05:48.397
126.0, -9524.391236828713, -9221.458044225938, -5716.704513633789, -13451.95036553745, -7623.822405793954, -3848.5680638036806, -7591.971169945142, -5531.8555869884, -10142.126398340035, -12464.852626902179, -6360.367698713267, -5561.471648391682, -5135.782675240359, -8433.089665542802, -10699.198925399653, -15697.652482706606, 0.008, 0.24, 0.9480000000000001, 192.0, 0.0, 32.0, 3.5, 64.0, 14.5, 80.0, 0.0, 0.0, 0.0, 1.644588348404075E9, 0.0, 2022-02-12 01:05:48.404
128.0, -9498.6420272162, -9195.418261935505, -5705.573344895047, -13456.599528384153, -7618.949725502697, -3840.7896567332336, -7581.465850051147, -5521.238508372129, -10140.002982616781, -12454.481417474917, -6362.088783036325, -5555.101401221919, -5115.375532552664, -8430.675677141628, -10699.869477733313, -15693.360947771187, 0.008, 0.24, 0.9480000000000001, 192.0, 0.0, 0.0, 0.0, 0.0, 0.0, 0.0, 0.0, 0.0, 0.0, 1.644588348410613E9, 0.0, 2022-02-12 01:05:48.410
130.0, -9495.6915969481, -9193.652474123535, -5707.450891429293, -13462.835665087185, -7622.9283360157415, -3842.890720712033, -7580.0129866615525, -5525.99942994111, -10133.185700557911, -12470.641728716104, -6359.272463234957, -5566.232569960663, -5135.82737872927, -8428.686371885105, -10690.057061917432, -15718.417253305586, 0.008, 0.24, 0.9480000000000001, 192.0, 0.0, 0.0, 0.0, 0.0, 0.0, 0.0, 0.0, 0.0, 0.0, 1.644588348418765E9, 0.0, 2022-02-12 01:05:48.418
132.0, -9514.534117523923, -9198.100471270141, -5712.36827520946, -13454.4761126609, -7614.367617889359, -3838.8003514767115, -7582.516382040547, -5525.910022963289, -10135.130302325524, -12469.971176382443, -6368.7719546284625, -5560.868151291389, -5129.434779815052, -8425.512424172453, -10691.286407862473, -15675.39014522912, 0.008, 0.24, 0.9480000000000001, 192.0, 0.0, 0.0, 0.0, 0.0, 0.0, 0.0, 0.0, 0.0, 0.0, 1.644588348425409E9, 0.0, 2022-02-12 01:05:48.425
134.0, -9512.678922734132, -9216.227736023395, -5710.960115308776, -13471.66460414703, -7624.448254638703, -3840.7896567332336, -7581.219980862139, -5527.295831119518, -10152.67642172294, -12476.631996230126, -6367.743774383518, -5566.679604849769, -5134.978012439968, -8427.412322451153, -10694.72857650859, -15716.673817238072, 0.008, 0.24, 0.9480000000000001, 192.0, 0.0, 0.0, 0.0, 0.0, 0.0, 0.0, 0.0, 0.0, 0.0, 1.644588348433591E9, 0.0, 2022-02-12 01:05:48.433
136.0, -9524.79356822891, -9221.435692481482, -5716.950382822798, -13463.707383120942, -7619.217946436161, -3839.8061799772004, -7588.484297810113, -5529.307488120496, -10143.780427429727, -12474.240359573409, -6363.698108637108, -5570.702918851724, -5134.687439762049, -8428.306392229366, -10694.370948597307, -15692.91391288208, 0.006, 0.23800000000000002, 0.9480000000000001, 192.0, 0.0, 24.0, 3.5, 56.0, 14.5, 80.0, 0.0, 0.0, 0.0, 1.644588348440056E9, 0.0, 2022-02-12 01:05:48.440
138.0, -9507.560373253868, -9192.400776434039, -5708.8814030744325, -13459.393496441067, -7613.495899855602, -3831.3348688286387, -7577.777812216022, -5517.148139136808, -10143.19928207389, -12459.935243122012, -6366.536780182932, -5568.132468239363, -5120.561137266295, -8431.010953308458, -10697.790765498969, -15689.67290993606, 0.006, 0.23800000000000002, 0.9480000000000001, 192.0, 0.0, 0.0, 0.0, 0.0, 0.0, 0.0, 0.0, 0.0, 0.0, 1.644588348448225E9, 0.0, 2022-02-12 01:05:48.448
140.0, -9508.92382966564, -9200.670921882502, -5713.776435110144, -13460.734601108385, -7616.580440590435, -3831.04429615072, -7580.16944887274, -5520.992639183121, -10136.203186059378, -12467.80305717028, -6360.859437091284, -5563.371546670383, -5134.262756617398, -8423.791339849395, -10693.052195674443, -15710.616494490683, 0.006, 0.23800000000000002, 0.9480000000000001, 192.0, 0.0, 0.0, 0.0, 0.0, 0.0, 0.0, 0.0, 0.0, 0.0, 1.644588348456121E9, 0.0, 2022-02-12 01:05:48.456
142.0, -9502.307713306871, -9187.416337420504, -5705.550993150591, -13446.608298612631, -7606.924486985742, -3824.1823106029406, -7562.7574399420555, -5506.553412264992, -10121.361627741055, -12461.432810000517, -6361.574692913854, -5563.282139692562, -5134.754494995415, -8424.28307822741, -10693.946265452656, -15670.003374815391, 0.006, 0.23800000000000002, 0.9480000000000001, 192.0, 0.0, 0.0, 0.0, 0.0, 0.0, 0.0, 0.0, 0.0, 0.0, 1.644588348463284E9, 0.0, 2022-02-12 01:05:48.463
144.0, -9488.628445700222, -9205.387139962571, -5702.064121015564, -13455.928976050494, -7618.0556557244845, -3828.3173833271726, -7569.351204556371, -5507.402778554294, -10132.537499968708, -12469.255920559874, -6348.409515429677, -5546.42892437326, -5127.512529791896, -8424.931278816615, -10694.63916953077, -15706.302607810809, 0.006, 0.23800000000000002, 0.9480000000000001, 192.0, 0.0, 0.0, 0.0, 0.0, 0.0, 0.0, 0.0, 0.0, 0.0, 1.644588348472143E9, 0.0, 2022-02-12 01:05:48.472
146.0, -9514.534117523923, -9201.63204689408, -5710.2895629751165, -13455.23607197238, -7609.159661431273, -3827.3115548266837, -7577.174315115728, -5520.210328127186, -10133.29745928019, -12470.03823161581, -6353.617471887765, -5557.068354733987, -5129.948869937524, -8425.110092772256, -10698.55072481045, -15688.48826747993, 0.002, 0.244, 0.9480000000000001, 192.0, 0.0, 8.0, 3.5, 80.0, 14.5, 80.0, 0.0, 0.0, 0.0, 1.644588348478849E9, 0.0, 2022-02-12 01:05:48.478
148.0, -9521.26199260497, -9191.909038056021, -5704.925144305843, -13456.465417917421, -7610.143138187306, -3826.395133304016, -7571.452268535169, -5514.041246657521, -10140.450017505887, -12456.448370986984, -6361.30647198039, -5573.9886252866545, -5115.889622675136, -8424.685409627606, -10694.706224764137, -15686.074279078757, 0.002, 0.244, 0.9480000000000001, 192.0, 0.0, 0.0, 0.0, 0.0, 0.0, 0.0, 0.0, 0.0, 0.0, 1.644588348492826E9, 0.0, 2022-02-12 01:05:48.492
150.0, -9520.524385037945, -9208.53873593077, -5711.094225775508, -13460.868711575116, -7617.273344668549, -3835.0899618971307, -7578.895399438787, -5520.9032322053, -10147.937851898414, -12474.37447004014, -6359.272463234957, -5571.10525025192, -5138.554291552817, -8426.562956161852, -10691.35346309584, -15712.024654391367, 0.002, 0.244, 0.9480000000000001, 192.0, 0.0, 0.0, 0.0, 0.0, 0.0, 0.0, 0.0, 0.0, 0.0, 1.644588348500438E9, 0.0, 2022-02-12 01:05:48.500
152.0, -9507.649780231688, -9210.595096420659, -5711.451853686793, -13448.552900380242, -7610.634876565323, -3826.7751129597564, -7576.615521504345, -5517.863394959378, -10138.706581438373, -12442.858510358157, -6362.580521414343, -5564.2432647041405, -5140.342431109242, -8430.318049230344, -10695.376777097796, -15674.093744050711, 0.002, 0.244, 0.9480000000000001, 192.0, 0.0, 0.0, 0.0, 0.0, 0.0, 0.0, 0.0, 0.0, 0.0, 1.644588348508541E9, 0.0, 2022-02-12 01:05:48.508
154.0, -9523.11718739476, -9213.836099366677, -5706.199193739795, -13461.583967397686, -7622.235431937627, -3831.200758361907, -7576.280245337516, -5523.183110139741, -10147.513168753763, -12471.46874326095, -6355.249149233002, -5558.00712800111, -5140.074210175778, -8416.66113336815, -10696.40495734274, -15709.811831690293, 0.002, 0.244, 0.9480000000000001, 192.0, 0.0, 0.0, 0.0, 0.0, 0.0, 0.0, 0.0, 0.0, 0.0, 1.644588348515559E9, 0.0, 2022-02-12 01:05:48.515
156.0, -9518.535079781423, -9198.05576778123, -5720.057275302086, -13454.297298705256, -7615.440501623214, -3826.2833745817397, -7580.25885585056, -5520.992639183121, -10137.00784885977, -12468.317147292752, -6354.466838177066, -5554.699069821724, -5132.139340894144, -8415.14121474519, -10693.610989285826, -15690.499924480908, 0.006, 0.242, 0.9440000000000001, 192.0, 0.0, 24.0, 3.5, 72.0, 14.5, 64.0, 0.0, 0.0, 0.0, 1.644588348522952E9, 0.0, 2022-02-12 01:05:48.522
158.0, -9503.872335418742, -9187.952779287432, -5712.792958354111, -13466.43429594449, -7622.190728448717, -3826.66335423748, -7575.11795462584, -5518.086912403931, -10131.755188912772, -12464.047964101788, -6361.887617336228, -5567.573674627981, -5122.729256478459, -8416.214098479044, -10696.851992231846, -15687.258921534887, 0.006, 0.242, 0.9440000000000001, 192.0, 0.0, 0.0, 0.0, 0.0, 0.0, 0.0, 0.0, 0.0, 0.0, 1.644588348531029E9, 0.0, 2022-02-12 01:05:48.531
160.0, -9503.671169718644, -9198.525154414792, -5714.983429310731, -13461.449856930954, -7615.954591745686, -3828.9655839163765, -7578.805992460966, -5521.864357216878, -10136.896090137494, -12464.047964101788, -6357.484323678533, -5560.152895468819, -5137.839035730247, -8412.66017111065, -10696.8743439763, -15716.897334682624, 0.006, 0.242, 0.9440000000000001, 192.0, 0.0, 0.0, 0.0, 0.0, 0.0, 0.0, 0.0, 0.0, 0.0, 1.644588348539047E9, 0.0, 2022-02-12 01:05:48.539
162.0, -9514.26589659046, -9228.990582107375, -5716.2798304891385, -13455.079609761193, -7614.367617889359, -3828.2503280938067, -7581.8905331957985, -5518.533947293037, -10129.698828422885, -12461.164589067053, -6364.391012715222, -5559.8623227909, -5133.547500794828, -8420.818557836837, -10695.913218964723, -15671.43388646053, 0.006, 0.242, 0.9440000000000001, 192.0, 0.0, 0.0, 0.0, 0.0, 0.0, 0.0, 0.0, 0.0, 0.0, 1.644588348545362E9, 0.0, 2022-02-12 01:05:48.545
164.0, -9511.628390744734, -9213.25495401084, -5709.484900174725, -13462.813313342729, -7621.8107487929765, -3831.2901653397284, -7587.009082676063, -5522.736075250635, -10148.071962365148, -12472.072240361244, -6360.54651266891, -5558.09653497893, -5136.721448507482, -8416.728188601517, -10703.110480679332, -15709.476555523463, 0.004, 0.24, 0.9460000000000001, 192.0, 0.0, 8.0, 3.5, 56.0, 14.5, 80.0, 0.0, 0.0, 0.0, 1.644588348552581E9, 0.0, 2022-02-12 01:05:48.552
166.0, -9535.03066718944, -9198.234581736873, -5716.36923746696, -13454.207891727436, -7610.41135912077, -3830.0608193946864, -7575.229713348117, -5525.887671218833, -10137.410180259965, -12469.121810093142, -6362.200541758602, -5562.790401314545, -5131.669954260583, -8416.325857201322, -10703.892791735267, -15693.942093127025, 0.004, 0.24, 0.9460000000000001, 192.0, 0.0, 0.0, 0.0, 0.0, 0.0, 0.0, 0.0, 0.0, 0.0, 1.644588348560752E9, 0.0, 2022-02-12 01:05:48.560
168.0, -9506.442786031103, -9201.900267827543, -5710.267211230661, -13454.587871383175, -7611.372484132348, -3827.1550926154964, -7566.847809177377, -5517.125787392353, -10136.024372103737, -12458.258862287863, -6358.668966134664, -5565.67377634928, -5122.371628567174, -8409.083891997801, -10707.69258829267, -15687.571845957262, 0.004, 0.24, 0.9460000000000001, 192.0, 0.0, 0.0, 0.0, 0.0, 0.0, 0.0, 0.0, 0.0, 0.0, 1.644588348568609E9, 0.0, 2022-02-12 01:05:48.568
170.0, -9516.344608824804, -9205.230677751384, -5716.860975844977, -13460.824008086207, -7619.463815625169, -3830.5078542837928, -7571.720489468634, -5524.054828173498, -10143.087523351613, -12466.32784203623, -6360.390050457722, -5564.2432647041405, -5138.710753764004, -8404.792357062383, -10707.849050503857, -15716.472651537973, 0.004, 0.24, 0.9460000000000001, 192.0, 0.0, 0.0, 0.0, 0.0, 0.0, 0.0, 0.0, 0.0, 0.0, 1.64458834857535E9, 0.0, 2022-02-12 01:05:48.575
172.0, -9508.387387798713, -9212.24912551035, -5716.5704031670575, -13448.508196891333, -7603.9070014842755, -3821.9918396463204, -7568.144210355785, -5513.8847844463335, -10130.570546456642, -12448.55820519426, -6369.420155217666, -5559.750564068623, -5139.7389340089485, -8410.156775731657, -10707.78199527049, -15672.685584150027, 0.004, 0.24, 0.9460000000000001, 192.0, 0.0, 0.0, 0.0, 0.0, 0.0, 0.0, 0.0, 0.0, 0.0, 1.644588348583254E9, 0.0, 2022-02-12 01:05:48.583
174.0, -9503.961742396563, -9208.24816325285, -5713.709379876778, -13459.169978996513, -7613.741769044611, -3825.94809841491, -7566.579588243912, -5512.990714668121, -10130.43643598991, -12459.935243122012, -6359.11600102377, -5551.145142453331, -5129.323021092775, -8405.70877858505, -10702.708149279137, -15709.454203779007, 0.003, 0.24, 0.9500000000000001, 192.0, 0.0, 8.0, 3.5, 64.0, 14.5, 104.0, 0.0, 0.0, 0.0, 1.644588348591333E9, 0.0, 2022-02-12 01:05:48.591
176.0, -9522.491338550013, -9211.064483054219, -5716.793920611611, -13454.386705683079, -7600.21896364915, -3818.3485053001054, -7564.746745198578, -5511.560203022981, -10131.95635461287, -12463.0421356013, -6358.892483579217, -5565.114982737897, -5121.29874483332, -8400.254952937956, -10697.075509676399, -15689.58350295824, 0.003, 0.24, 0.9500000000000001, 192.0, 0.0, 0.0, 0.0, 0.0, 0.0, 0.0, 0.0, 0.0, 0.0, 1.644588348598454E9, 0.0, 2022-02-12 01:05:48.598
178.0, -9510.846079688798, -9210.617448165112, -5712.480033931736, -13446.854167801639, -7599.101376426384, -3818.683781466935, -7554.822570660422, -5513.035418157032, -10134.43739824741, -12460.449333244484, -6358.825428345851, -5560.4881716356485, -5114.950849408013, -8400.098490726768, -10698.751890510546, -15683.01209008838, 0.003, 0.24, 0.9500000000000001, 192.0, 0.0, 0.0, 0.0, 0.0, 0.0, 0.0, 0.0, 0.0, 0.0, 1.644588348604967E9, 0.0, 2022-02-12 01:05:48.604
180.0, -9514.422358801647, -9207.555259174736, -5709.619010641457, -13452.933842293483, -7610.098434698396, -3823.1764821024517, -7565.193780087684, -5509.637952999825, -10140.2935552947, -12475.737926451913, -6356.567902155865, -5549.66992731928, -5127.9372129365465, -8398.667979081629, -10699.02011144401, -15715.913857926591, 0.003, 0.24, 0.9500000000000001, 192.0, 0.0, 0.0, 0.0, 0.0, 0.0, 0.0, 0.0, 0.0, 0.0, 1.644588348621045E9, 0.0, 2022-02-12 01:05:48.621
182.0, -9495.602189970277, -9183.080098996175, -5716.1010165334965, -13447.658830602031, -7602.275324139038, -3815.912165154477, -7560.8798934078095, -5511.984886167632, -10128.692999922396, -12452.916795363046, -6360.144181268714, -5563.773878070579, -5127.1101983917, -8399.09266222628, -10704.11630917982, -15674.406668473086, 0.003, 0.24, 0.9500000000000001, 192.0, 0.0, 0.0, 0.0, 0.0, 0.0, 0.0, 0.0, 0.0, 0.0, 1.644588348627671E9, 0.0, 2022-02-12 01:05:48.627
184.0, -9483.822820642332, -9196.357035202627, -5717.911507834377, -13460.354621452645, -7607.1927079192055, -3817.9908773888205, -7563.852675420365, -5511.04611290051, -10127.083674321613, -12446.993583082389, -6355.271500977457, -5546.853607517911, -5124.673858246071, -8399.09266222628, -10705.345655124862, -15711.018825890878, 0.0055, 0.243, 0.9510000000000001, 192.0, 0.0, 32.0, 3.5, 88.0, 14.5, 96.0, 0.0, 0.0, 0.0, 1.644588348635483E9, 0.0, 2022-02-12 01:05:48.635
186.0, -9534.74009451152, -9221.793320392766, -5726.4275224718485, -13457.292432462267, -7606.41039686327, -3829.1891013609293, -7575.408527303759, -5522.199633383708, -10135.756151170273, -12433.694295131481, -6360.144181268714, -5563.259787948106, -5118.974163409968, -8405.686426840595, -10711.671198805714, -15697.786593173338, 0.0055, 0.243, 0.9510000000000001, 192.0, 0.0, 0.0, 0.0, 0.0, 0.0, 0.0, 0.0, 0.0, 0.0, 1.644588348643652E9, 0.0, 2022-02-12 01:05:48.643
188.0, -9514.042379145907, -9206.951762074443, -5713.619972898958, -13457.962984795928, -7605.493975340602, -3824.048200136209, -7564.076192864918, -5513.840080957423, -10137.924270382437, -12469.635900215615, -6358.534855667932, -5562.030442003065, -5137.727277007971, -8404.479432640008, -10714.755739540547, -15694.031500104846, 0.0055, 0.243, 0.9510000000000001, 192.0, 0.0, 0.0, 0.0, 0.0, 0.0, 0.0, 0.0, 0.0, 0.0, 1.644588348650733E9, 0.0, 2022-02-12 01:05:48.650
190.0, -9519.205632115083, -9208.091701041663, -5720.794882869111, -13464.869673832616, -7607.148004430295, -3826.0598571371866, -7570.312329567949, -5516.2317176141405, -10145.143883841502, -12484.700975978492, -6347.895425307206, -5559.839971046445, -5134.0615909173, -8399.1820692041, -10713.660504062236, -15725.838032464748, 0.0055, 0.243, 0.9510000000000001, 192.0, 0.0, 0.0, 0.0, 0.0, 0.0, 0.0, 0.0, 0.0, 0.0, 1.644588348658119E9, 0.0, 2022-02-12 01:05:48.658
192.0, -9507.135690109217, -9189.651511866035, -5722.963002081276, -13449.268156202812, -7594.183992646217, -3819.5778512451475, -7571.429916790715, -5520.23267987164, -10126.793101643694, -12458.594138454693, -6349.549454396899, -5557.068354733987, -5125.433817557552, -8401.260781438445, -10712.185288928187, -15681.827447632248, 0.0055, 0.243, 0.9510000000000001, 192.0, 0.0, 0.0, 0.0, 0.0, 0.0, 0.0, 0.0, 0.0, 0.0, 1.644588348666305E9, 0.0, 2022-02-12 01:05:48.666
194.0, -9507.649780231688, -9214.707817400435, -5721.532490436136, -13461.695726119964, -7604.532850329024, -3819.5778512451475, -7569.954701656664, -5507.581592509937, -10134.057418591668, -12458.884711132612, -6346.800189828896, -5546.563034839993, -5125.098541390722, -8397.03630173639, -10713.906373251244, -15720.272448095377, 0.00675, 0.2435, 0.9475, 192.0, 0.0, 32.0, 3.5, 80.0, 14.5, 64.0, 0.0, 0.0, 0.0, 1.644588348673275E9, 0.0, 2022-02-12 01:05:48.673
196.0, -9522.781911227932, -9222.73209365989, -5733.289508019628, -13458.365316196123, -7603.974056717641, -3822.5729850021585, -7573.083945880408, -5509.4814907886375, -10129.341200511599, -12481.795249199302, -6363.698108637108, -5559.996433257632, -5128.518358292385, -8402.110147727746, -10714.442815118173, -15701.318168797276, 0.00675, 0.2435, 0.9475, 192.0, 0.0, 0.0, 0.0, 0.0, 0.0, 0.0, 0.0, 0.0, 0.0, 1.644588348680484E9, 0.0, 2022-02-12 01:05:48.680
198.0, -9510.577858755334, -9212.20442202144, -5728.103903305996, -13464.221473243413, -7605.1363474293175, -3821.2095285903847, -7570.982881901608, -5511.314333833973, -10132.269279035245, -12464.293833290796, -6368.704899395097, -5574.525067153581, -5116.0237331418675, -8410.849679809771, -10719.539012853982, -15699.597084474217, 0.00675, 0.2435, 0.9475, 192.0, 0.0, 0.0, 0.0, 0.0, 0.0, 0.0, 0.0, 0.0, 0.0, 1.644588348687762E9, 0.0, 2022-02-12 01:05:48.687
200.0, -9527.989867686018, -9215.713645900923, -5730.0708568180635, -13471.686955891486, -7610.612524820867, -3826.261022837284, -7569.8652946788425, -5516.8799182033445, -10138.639526205006, -12467.37837402563, -6358.043117289915, -5568.534799639559, -5141.750591009926, -8406.356979174254, -10719.874289020812, -15729.391959833141, 0.00675, 0.2435, 0.9475, 192.0, 0.0, 0.0, 0.0, 0.0, 0.0, 0.0, 0.0, 0.0, 0.0, 1.644588348696104E9, 0.0, 2022-02-12 01:05:48.696
202.0, -9519.876184448742, -9218.641724424568, -5730.3614294959825, -13456.063086517226, -7600.6212950493455, -3825.679877481446, -7573.776849958522, -5521.3949705833165, -10139.131264583024, -12474.732097951424, -6365.9556348270935, -5564.645596104336, -5140.63300378716, -8411.76610133244, -10722.400036144261, -15688.398860502108, 0.00675, 0.2435, 0.9475, 192.0, 0.0, 0.0, 0.0, 0.0, 0.0, 0.0, 0.0, 0.0, 0.0, 1.64458834870389E9, 0.0, 2022-02-12 01:05:48.703
204.0, -9524.36888508426, -9209.119881286608, -5730.048505073608, -13474.927958837505, -7612.624181821845, -3829.837301950133, -7577.151963371273, -5512.722493734657, -10149.122494354546, -12480.543551509805, -6363.765163870474, -5570.367642684894, -5132.742837994438, -8406.289923940889, -10723.763492556036, -15726.128605142667, 0.0063750000000000005, 0.24075000000000002, 0.94675, 192.0, 0.0, 24.0, 3.5, 56.0, 14.5, 72.0, 0.0, 0.0, 0.0, 1.644588348710822E9, 0.0, 2022-02-12 01:05:48.710
206.0, -9539.165739913671, -9206.236506251873, -5738.072781333063, -13470.547016924265, -7607.460928852669, -3830.0161159057757, -7581.957588429164, -5516.56699378097, -10144.495683252297, -12470.597025227193, -6372.549399441409, -5584.0916137804525, -5123.176291367566, -8414.403607178165, -10722.891774522279, -15712.091709624734, 0.0063750000000000005, 0.24075000000000002, 0.94675, 192.0, 0.0, 0.0, 0.0, 0.0, 0.0, 0.0, 0.0, 0.0, 0.0, 1.644588348718694E9, 0.0, 2022-02-12 01:05:48.718
208.0, -9530.873242720752, -9220.631029681092, -5732.551900452602, -13465.651984888553, -7611.953629488186, -3824.2270140918513, -7580.348262828382, -5516.142310636319, -10149.793046688204, -12469.27827230433, -6372.549399441409, -5579.598913144936, -5144.477503833474, -8417.823424079827, -10725.55163211246, -15705.117965354679, 0.0063750000000000005, 0.24075000000000002, 0.94675, 192.0, 0.0, 0.0, 0.0, 0.0, 0.0, 0.0, 0.0, 0.0, 0.0, 1.644588348726686E9, 0.0, 2022-02-12 01:05:48.726
210.0, -9545.334821383336, -9232.186881564485, -5734.138874308929, -13469.630595401597, -7622.995391249108, -3826.9986304043096, -7590.07127166644, -5517.237546114629, -10154.017526390258, -12483.85160968919, -6364.458067948588, -5563.975043770676, -5144.477503833474, -8405.485261140497, -10728.323248424918, -15736.008076191913, 0.0063750000000000005, 0.24075000000000002, 0.94675, 192.0, 0.0, 0.0, 0.0, 0.0, 0.0, 0.0, 0.0, 0.0, 0.0, 1.644588348740231E9, 0.0, 2022-02-12 01:05:48.740
212.0, -9532.214347388071, -9217.948820346453, -5729.869691117966, -13456.71128710643, -7607.6620945527675, -3823.556461758192, -7583.49985879658, -5520.970287438666, -10144.786255930216, -12477.682528219526, -6375.5221814539655, -5574.793288087045, -5136.564986296295, -8409.977961776014, -10729.127911225309, -15691.125773325655, 0.0063750000000000005, 0.24075000000000002, 0.94675, 192.0, 0.0, 0.0, 0.0, 0.0, 0.0, 0.0, 0.0, 0.0, 0.0, 1.644588348748096E9, 0.0, 2022-02-12 01:05:48.748
214.0, -9486.057995087862, -9199.709796870924, -5720.951345080298, -13472.938653580983, -7612.0653882104625, -3827.4680170378706, -7580.705890739667, -5519.718589749168, -10144.227462318833, -12458.884711132612, -6361.239416747024, -5552.687412820746, -5126.171425124577, -8404.14415647318, -10724.679914078702, -15731.716541256494, 0.0063750000000000005, 0.24075000000000002, 0.94675, 192.0, 0.0, 0.0, 3.5, 40.0, 14.5, 88.0, 0.0, 0.0, 0.0, 1.644588348756388E9, 0.0, 2022-02-12 01:05:48.756
216.0, -9544.306641138392, -9234.958497876942, -5732.686010919334, -13473.09511579217, -7608.042074208507, -3828.3844385605385, -7581.219980862139, -5517.215194370174, -10130.145863311991, -12483.8963131781, -6361.418230702667, -5576.849648576934, -5115.911974419591, -8406.513441385441, -10721.796539043968, -15717.67964573856, 0.0063750000000000005, 0.24075000000000002, 0.94675, 192.0, 0.0, 0.0, 0.0, 0.0, 0.0, 0.0, 0.0, 0.0, 0.0, 1.644588348762689E9, 0.0, 2022-02-12 01:05:48.762
218.0, -9538.048152690906, -9206.30356148524, -5720.526661935647, -13479.510066450843, -7607.6620945527675, -3816.4486070214043, -7576.526114526524, -5513.080121645942, -10143.601613474086, -12473.94978689549, -6362.200541758602, -5584.695110880746, -5135.9838409404565, -8409.2850576979, -10724.076416978409, -15705.162668843588, 0.0063750000000000005, 0.24075000000000002, 0.94675, 192.0, 0.0, 0.0, 0.0, 0.0, 0.0, 0.0, 0.0, 0.0, 0.0, 1.644588348771032E9, 0.0, 2022-02-12 01:05:48.771
220.0, -9540.08216143634, -9220.8768988701, -5727.589813183524, -13484.472153719922, -7615.574612089946, -3821.7683222017677, -7582.35991982936, -5518.422188570761, -10146.730857697828, -12474.66504271806, -6353.952748054594, -5571.798154330034, -5129.770055981881, -8394.555258101853, -10724.210527445142, -15734.957544202513, 0.0063750000000000005, 0.24075000000000002, 0.94675, 192.0, 0.0, 0.0, 0.0, 0.0, 0.0, 0.0, 0.0, 0.0, 0.0, 1.644588348778724E9, 0.0, 2022-02-12 01:05:48.778
222.0, -9515.539946024412, -9205.63300915158, -5729.020324828663, -13463.819141843218, -7609.874917253843, -3820.3825140455383, -7579.945931428187, -5512.767197223568, -10134.884433136516, -12457.70006867648, -6363.765163870474, -5573.72040435319, -5129.5241867928735, -8412.503708899463, -10727.876213535812, -15694.232665804944, 0.0063750000000000005, 0.24075000000000002, 0.94675, 192.0, 0.0, 0.0, 0.0, 0.0, 0.0, 0.0, 0.0, 0.0, 0.0, 1.644588348785882E9, 0.0, 2022-02-12 01:05:48.785
224.0, -9519.473853048547, -9210.036302809274, -5727.098074805507, -13469.876464590605, -7621.8107487929765, -3826.886871682033, -7582.963416929653, -5514.37652282435, -10147.222596075844, -12486.109135879176, -6364.1898470151245, -5573.921570053288, -5131.334678093753, -8410.447348409576, -10729.776111814514, -15732.074169167778, 0.0051875, 0.238375, 0.948375, 192.0, 0.0, 16.0, 3.5, 48.0, 14.5, 88.0, 0.0, 0.0, 0.0, 1.644588348792481E9, 0.0, 2022-02-12 01:05:48.792
226.0, -9539.925699225152, -9229.571727463213, -5732.216624285773, -13467.28366223379, -7614.099396955896, -3828.585604260636, -7587.657283265267, -5521.193804883219, -10139.913575638959, -12481.169400354553, -6367.632015661242, -5566.791363572045, -5119.935288421547, -8408.927429786614, -10727.719751324625, -15719.132509128156, 0.0051875, 0.238375, 0.948375, 192.0, 0.0, 0.0, 0.0, 0.0, 0.0, 0.0, 0.0, 0.0, 0.0, 1.644588348800372E9, 0.0, 2022-02-12 01:05:48.800
228.0, -9540.59625155881, -9216.786529634777, -5724.617031170968, -13471.374031469111, -7612.154795188284, -3818.0579326221864, -7577.911922682753, -5508.006275654588, -10143.713372196362, -12479.314205564762, -6363.988681315027, -5560.666985591291, -5138.576643297272, -8406.826365807816, -10727.004495502055, -15709.789479945837, 0.0051875, 0.238375, 0.948375, 192.0, 0.0, 0.0, 0.0, 0.0, 0.0, 0.0, 0.0, 0.0, 0.0, 1.64458834880851E9, 0.0, 2022-02-12 01:05:48.808
230.0, -9525.330010095837, -9210.997427820854, -5731.568423696569, -13481.901703107562, -7619.776740047543, -3826.4398367929266, -7589.668940266245, -5524.23364212914, -10141.589956473108, -12484.544513767305, -6358.758373112485, -5572.155782241319, -5137.526111307873, -8403.719473328529, -10729.351428669863, -15744.658201296115, 0.0051875, 0.238375, 0.948375, 192.0, 0.0, 0.0, 0.0, 0.0, 0.0, 0.0, 0.0, 0.0, 0.0, 1.644588348816911E9, 0.0, 2022-02-12 01:05:48.816
232.0, -9521.530213538434, -9211.690331898968, -5731.523720207658, -13473.855075103651, -7609.673751553745, -3820.114293112075, -7587.545524542991, -5518.779816482046, -10129.028276089224, -12481.527028265838, -6367.632015661242, -5575.821468331989, -5138.9119194641025, -8414.023627522425, -10729.664353092236, -15707.44254677803, 0.0051875, 0.238375, 0.948375, 192.0, 0.0, 0.0, 0.0, 0.0, 0.0, 0.0, 0.0, 0.0, 0.0, 1.644588348823174E9, 0.0, 2022-02-12 01:05:48.823
234.0, -9526.469949063057, -9205.208326006928, -5726.963964338775, -13482.885179863595, -7620.55905110348, -3825.1210838700636, -7582.382271573815, -5515.337647835929, -10141.947584384392, -12487.025557401843, -6367.788477872429, -5575.352081698427, -5134.709791506504, -8405.194688462578, -10731.564251370937, -15740.21020414951, 0.01, 0.23800000000000002, 0.9560000000000001, 192.0, 0.0, 40.0, 3.5, 56.0, 14.5, 112.0, 0.0, 0.0, 0.0, 1.644588348830989E9, 0.0, 2022-02-12 01:05:48.830
236.0, -9533.555452055389, -9214.998390078354, -5730.584946940536, -13470.703479135453, -7606.768024774555, -3818.750836700301, -7581.868181451343, -5515.7623309805795, -10135.689095936907, -12478.554246253283, -6371.945902341116, -5577.184924743763, -5132.474617060973, -8415.029456022914, -10725.104597223353, -15720.697131240027, 0.01, 0.23800000000000002, 0.9560000000000001, 192.0, 0.0, 0.0, 0.0, 0.0, 0.0, 0.0, 0.0, 0.0, 0.0, 1.644588348838307E9, 0.0, 2022-02-12 01:05:48.838
238.0, -9535.321239867359, -9217.367674990615, -5719.789054368622, -13472.961005325438, -7601.336550871915, -3814.2804878092397, -7578.604826760868, -5514.42122631326, -10137.074904093135, -12472.631033972626, -6362.7816871144405, -5564.265616448595, -5112.112177862189, -8409.419168164632, -10726.937440268688, -15711.264695079888, 0.01, 0.23800000000000002, 0.9560000000000001, 192.0, 0.0, 0.0, 0.0, 0.0, 0.0, 0.0, 0.0, 0.0, 0.0, 1.6445883488458E9, 0.0, 2022-02-12 01:05:48.845
240.0, -9540.663306792178, -9235.941974632977, -5726.874557360954, -13477.81133387224, -7614.166452189262, -3818.9743541448543, -7589.579533288424, -5513.549508279504, -10140.450017505887, -12504.19169714352, -6352.030498031438, -5556.710726822702, -5134.77684673987, -8399.785566304394, -10725.752797812558, -15743.45120709553, 0.01, 0.23800000000000002, 0.9560000000000001, 192.0, 0.0, 0.0, 0.0, 0.0, 0.0, 0.0, 0.0, 0.0, 0.0, 1.644588348852552E9, 0.0, 2022-02-12 01:05:48.852
242.0, -9537.534062568435, -9207.063520796719, -5730.339077751527, -13463.66267963203, -7612.490071355113, -3814.7498744428012, -7590.160678644262, -5522.400799083805, -10142.86400590706, -12495.563923783771, -6362.44641094761, -5549.491113363638, -5140.275375875875, -8404.65824659565, -10732.659486849248, -15705.140317099133, 0.01, 0.23800000000000002, 0.9560000000000001, 192.0, 0.0, 0.0, 0.0, 0.0, 0.0, 0.0, 0.0, 0.0, 0.0, 1.644588348867678E9, 0.0, 2022-02-12 01:05:48.867
244.0, -9521.93254493863, -9198.547506159248, -5728.03684807263, -13477.207836771946, -7623.50948137158, -3815.532185498737, -7588.685463510212, -5521.886708961333, -10140.852348906083, -12475.201484584986, -6352.58929164282, -5550.184017441752, -5134.419218828585, -8392.633008078696, -10734.894661294778, -15739.941983216046, 0.006, 0.23600000000000002, 0.9500000000000001, 192.0, 0.0, 24.0, 3.5, 48.0, 14.5, 88.0, 0.0, 0.0, 0.0, 1.644588348875291E9, 0.0, 2022-02-12 01:05:48.875
246.0, -9516.434015802624, -9204.671884140002, -5730.674353918356, -13474.61503441513, -7613.115920199862, -3813.855804664589, -7586.047957664485, -5518.511595548582, -10131.263450534756, -12491.60766501518, -6357.394916700711, -5573.832163075467, -5131.960526938502, -8402.825403550316, -10729.776111814514, -15724.988666175446, 0.006, 0.23600000000000002, 0.9500000000000001, 192.0, 0.0, 0.0, 0.0, 0.0, 0.0, 0.0, 0.0, 0.0, 0.0, 1.644588348883608E9, 0.0, 2022-02-12 01:05:48.883
248.0, -9530.537966553924, -9215.043093567265, -5725.868728860465, -13467.99891805636, -7611.260725410071, -3815.196909331907, -7579.409489561259, -5520.411493827283, -10121.71925565234, -12477.391955541607, -6366.827352860851, -5564.198561215229, -5118.482425031952, -8409.396816420176, -10728.323248424918, -15714.751567214915, 0.006, 0.23600000000000002, 0.9500000000000001, 192.0, 0.0, 0.0, 0.0, 0.0, 0.0, 0.0, 0.0, 0.0, 0.0, 1.644588348891283E9, 0.0, 2022-02-12 01:05:48.891
250.0, -9553.157931942695, -9245.195596837473, -5734.049467331108, -13479.554769939754, -7621.095492970407, -3823.1764821024517, -7587.567876287446, -5524.9041944628, -10140.517072739252, -12496.882676706635, -6357.059640533882, -5552.106267464908, -5134.195701384032, -8405.887592540694, -10727.451530391161, -15749.73204728747, 0.006, 0.23600000000000002, 0.9500000000000001, 192.0, 0.0, 0.0, 0.0, 0.0, 0.0, 0.0, 0.0, 0.0, 0.0, 1.644588348897892E9, 0.0, 2022-02-12 01:05:48.897
252.0, -9543.636088804733, -9220.206346536439, -5735.479978976247, -13468.46830468992, -7612.333609143926, -3821.075418123653, -7588.640760021301, -5520.255031616096, -10145.881491408527, -12498.38024358514, -6361.194713258114, -5569.227703717674, -5135.156826395611, -8409.732092587006, -10732.771245571525, -15710.840011935237, 0.006, 0.23600000000000002, 0.9500000000000001, 192.0, 0.0, 0.0, 0.0, 0.0, 0.0, 0.0, 0.0, 0.0, 0.0, 1.64458834890617E9, 0.0, 2022-02-12 01:05:48.906
254.0, -9539.501016080501, -9213.836099366677, -5729.3108975065825, -13481.298206007268, -7621.27430692605, -3821.589508246125, -7587.679635009723, -5521.797301983512, -10143.534558240719, -12498.313188351774, -6357.30550972289, -5558.00712800111, -5128.92068969258, -8405.194688462578, -10731.050161248466, -15745.954602474523, 0.008, 0.234, 0.9500000000000001, 192.0, 0.0, 32.0, 3.5, 40.0, 14.5, 88.0, 0.0, 0.0, 0.0, 1.644588348913964E9, 0.0, 2022-02-12 01:05:48.913
0.0, -9535.388295100725, -9193.808936334723, -5734.675316175856, -13475.106772793148, -7613.8311760224315, -3821.2095285903847, -7594.698082768689, -5527.631107286347, -10138.594822716097, -12485.930321923533, -6356.366736455767, -5559.795267557534, -5126.0596664023005, -8405.597019862775, -10729.351428669863, -15733.549384301828, 0.008, 0.234, 0.9500000000000001, 192.0, 0.0, 0.0, 0.0, 0.0, 0.0, 0.0, 0.0, 0.0, 0.0, 1.644588348920919E9, 0.0, 2022-02-12 01:05:48.920
2.0, -9516.366960569258, -9207.935238830476, -5732.283679519139, -13481.946406596471, -7608.377350375337, -3811.75474068579, -7590.272437366538, -5519.383313582339, -10134.504453480775, -12467.199560069987, -6362.424059203156, -5569.987663029154, -5117.811872698292, -8405.060577995846, -10731.02780950401, -15722.149994629623, 0.008, 0.234, 0.9500000000000001, 192.0, 0.0, 0.0, 0.0, 0.0, 0.0, 0.0, 0.0, 0.0, 0.0, 1.644588348927761E9, 0.0, 2022-02-12 01:05:48.927
4.0, -9535.142425911716, -9226.576593706202, -5741.0455633456195, -13482.19227578548, -7610.724283543144, -3815.241612820818, -7592.239390878605, -5517.9975054261095, -10137.901918637983, -12503.878772721146, -6365.285082493435, -5559.884674535355, -5110.145224350122, -8395.874011024716, -10729.999629259066, -15752.481311855474, 0.008, 0.234, 0.9500000000000001, 192.0, 0.0, 0.0, 0.0, 0.0, 0.0, 0.0, 0.0, 0.0, 0.0, 1.644588348935588E9, 0.0, 2022-02-12 01:05:48.935
6.0, -9555.013126732485, -9220.228698280895, -5728.103903305996, -13469.4294297015, -7602.096510183395, -3813.1629005864743, -7587.076137909429, -5511.403740811795, -10133.833901147116, -12485.170362612052, -6356.702012622597, -5553.872055276877, -5129.099503648223, -8397.058653480846, -10728.54676586947, -15708.090747367234, 0.008, 0.234, 0.9500000000000001, 192.0, 0.0, 0.0, 0.0, 0.0, 0.0, 0.0, 0.0, 0.0, 0.0, 1.644588348943594E9, 0.0, 2022-02-12 01:05:48.943
8.0, -9540.79741725891, -9200.827384093689, -5723.231223014739, -13482.23697927439, -7608.7796817755325, -3815.4204267764603, -7579.610655261356, -5510.822595455957, -10148.362535043065, -12496.122717395154, -6344.967346783561, -5551.972156998177, -5121.254041344409, -8399.405586648654, -10729.329076925407, -15741.417198350096, 0.008, 0.23600000000000002, 0.9480000000000001, 192.0, 0.0, 32.0, 3.5, 48.0, 14.5, 80.0, 0.0, 0.0, 0.0, 1.644588348950303E9, 0.0, 2022-02-12 01:05:48.950
10.0, -9538.539891068924, -9211.243297009862, -5729.690877162323, -13475.084421048692, -7598.073196181441, -3809.1619383289744, -7581.465850051147, -5518.064560659476, -10138.52776748273, -12490.154801625587, -6351.069373019859, -5566.813715316501, -5111.978067395457, -8397.37157790322, -10725.238707690085, -15727.335599343252, 0.008, 0.23600000000000002, 0.9480000000000001, 192.0, 0.0, 0.0, 0.0, 0.0, 0.0, 0.0, 0.0, 0.0, 0.0, 1.644588348958193E9, 0.0, 2022-02-12 01:05:48.958
12.0, -9526.268783362959, -9203.062558539219, -5723.007705570186, -13473.676261148008, -7600.665998538256, -3802.5458219702036, -7573.061594135952, -5507.156909365286, -10129.944697611892, -12468.831237415223, -6352.20931198708, -5551.145142453331, -5109.094692360723, -8385.838077764283, -10723.808196044945, -15713.991607903436, 0.008, 0.23600000000000002, 0.9480000000000001, 192.0, 0.0, 0.0, 0.0, 0.0, 0.0, 0.0, 0.0, 0.0, 0.0, 1.644588348966227E9, 0.0, 2022-02-12 01:05:48.966
14.0, -9528.682771764132, -9215.19955577845, -5733.580080697547, -13483.354566497155, -7614.546431845001, -3817.297973310706, -7586.830268720421, -5517.461063559183, -10137.924270382437, -12471.826371172236, -6354.1539137546915, -5546.272462162074, -5111.262811572888, -8398.176240703611, -10725.864556534834, -15750.469654854496, 0.008, 0.23600000000000002, 0.9480000000000001, 192.0, 0.0, 0.0, 0.0, 0.0, 0.0, 0.0, 0.0, 0.0, 0.0, 1.644588348973225E9, 0.0, 2022-02-12 01:05:48.973
16.0, -9540.88682423673, -9200.11212827112, -5728.327420750549, -13470.18938901298, -7598.833155492921, -3808.424330761949, -7584.5950942748905, -5525.395932840816, -10122.412159730455, -12487.539647524316, -6364.145143526214, -5556.889540778344, -5108.401788282608, -8396.477508125008, -10730.334905425896, -15712.650503236116, 0.008, 0.23600000000000002, 0.9480000000000001, 192.0, 0.0, 0.0, 0.0, 0.0, 0.0, 0.0, 0.0, 0.0, 0.0, 1.644588348987902E9, 0.0, 2022-02-12 01:05:48.987
18.0, -9531.230870632038, -9207.48820394137, -5714.692856632812, -13477.051374560759, -7601.180088660728, -3806.2115080608737, -7573.843905191888, -5512.543679779015, -10136.314944781656, -12484.61156900067, -6348.0518875183925, -5551.815694786989, -5117.230727342454, -8384.362862630232, -10724.45639663415, -15743.227689650976, 0.012, 0.23800000000000002, 0.9460000000000001, 192.0, 0.0, 48.0, 3.5, 56.0, 14.5, 72.0, 0.0, 0.0, 0.0, 1.644588348995859E9, 0.0, 2022-02-12 01:05:48.995
20.0, -9537.51171082398, -9213.903154600042, -5722.426560214349, -13473.47509544791, -7596.0391874360075, -3806.815005161167, -7579.521248283536, -5518.712761248679, -10133.252755791278, -12488.634883002625, -6353.751582354496, -5551.234549431151, -5110.301686561309, -8387.201534176056, -10720.567193098927, -15726.955619687513, 0.012, 0.23800000000000002, 0.9460000000000001, 192.0, 0.0, 0.0, 0.0, 0.0, 0.0, 0.0, 0.0, 0.0, 0.0, 1.644588349002826E9, 0.0, 2022-02-12 01:05:49.002
22.0, -9525.084140906829, -9215.221907522906, -5720.0349235576305, -13476.559636182743, -7597.089719425407, -3805.5409557272146, -7574.335643569904, -5514.309467590984, -10131.554023212675, -12476.90021716359, -6355.472666677555, -5554.229683188162, -5108.424140027063, -8403.920639028625, -10724.724617567614, -15718.663122494594, 0.012, 0.23800000000000002, 0.9460000000000001, 192.0, 0.0, 0.0, 0.0, 0.0, 0.0, 0.0, 0.0, 0.0, 0.0, 1.644588349010491E9, 0.0, 2022-02-12 01:05:49.010
24.0, -9532.102588665795, -9215.221907522906, -5721.688952647323, -13485.276816520312, -7607.036245708018, -3813.364066286572, -7584.460983808159, -5519.249203115607, -10136.225537803834, -12500.905990708588, -6341.502826392988, -5550.675755819769, -5102.322113790764, -8389.257894665945, -10724.948135012166, -15754.44826536754, 0.012, 0.23800000000000002, 0.9460000000000001, 192.0, 0.0, 0.0, 0.0, 0.0, 0.0, 0.0, 0.0, 0.0, 0.0, 1.644588349018501E9, 0.0, 2022-02-12 01:05:49.018
26.0, -9537.288193379425, -9194.814764835211, -5723.432388714837, -13467.887159334083, -7597.089719425407, -3810.972429629854, -7583.768079730044, -5527.586403797437, -10134.86208139206, -12479.80594394278, -6357.394916700711, -5553.849703532423, -5108.5135470048845, -8401.774871560916, -10728.859690291845, -15711.264695079888, 0.012, 0.23800000000000002, 0.9460000000000001, 192.0, 0.0, 0.0, 0.0, 0.0, 0.0, 0.0, 0.0, 0.0, 0.0, 1.644588349026496E9, 0.0, 2022-02-12 01:05:49.026
28.0, -9528.213385130572, -9215.691294156468, -5715.206946755284, -13478.23601701689, -7603.862297995365, -3811.665333707969, -7575.408527303759, -5520.635011271836, -10136.963145370859, -12472.116943850155, -6346.599024128798, -5555.771953555579, -5110.480500516952, -8391.00133073346, -10727.898565280268, -15745.127587929677, 0.01, 0.24, 0.9540000000000001, 192.0, 0.0, 40.0, 3.5, 64.0, 14.5, 104.0, 0.0, 0.0, 0.0, 1.644588349033128E9, 0.0, 2022-02-12 01:05:49.033
30.0, -9530.605021787289, -9205.25302949584, -5723.030057314641, -13469.742354123873, -7596.955608958675, -3807.172633072452, -7582.091698895896, -5516.142310636319, -10125.47434872083, -12492.14410688211, -6349.080067763337, -5540.706877792702, -5109.497023760918, -8388.743804543472, -10727.697399580169, -15731.403616834119, 0.01, 0.24, 0.9540000000000001, 192.0, 0.0, 0.0, 0.0, 0.0, 0.0, 0.0, 0.0, 0.0, 0.0, 1.644588349040051E9, 0.0, 2022-02-12 01:05:49.040
32.0, -9523.698332750599, -9195.440613679959, -5712.278868231639, -13473.117467536626, -7588.394890832293, -3804.199851059896, -7580.124745383829, -5516.991676925621, -10125.183776042912, -12477.906045664078, -6347.716611351563, -5557.940072767744, -5105.63017197015, -8390.241371421978, -10729.284373436496, -15719.020750405878, 0.01, 0.24, 0.9540000000000001, 192.0, 0.0, 0.0, 0.0, 0.0, 0.0, 0.0, 0.0, 0.0, 0.0, 1.644588349048066E9, 0.0, 2022-02-12 01:05:49.048
34.0, -9523.02778041694, -9204.8730498401, -5715.922202577854, -13476.917264094027, -7593.513440312558, -3806.300915038695, -7580.616483761845, -5520.724418249657, -10136.426703503932, -12493.127583638143, -6347.917777051661, -5552.463895376193, -5105.429006270052, -8380.339548628277, -10725.015190245533, -15754.537672345361, 0.01, 0.24, 0.9540000000000001, 192.0, 0.0, 0.0, 0.0, 0.0, 0.0, 0.0, 0.0, 0.0, 0.0, 1.644588349055487E9, 0.0, 2022-02-12 01:05:49.055
36.0, -9538.003449201995, -9224.855509383144, -5721.018400313664, -13456.174845239502, -7588.797222232488, -3801.6741039364465, -7576.503762782069, -5515.382351324839, -10132.157520312969, -12483.8963131781, -6353.103381765292, -5543.679659805258, -5099.259924800387, -8393.080042967802, -10726.021018746022, -15706.392014788631, 0.01, 0.24, 0.9540000000000001, 192.0, 0.0, 0.0, 0.0, 0.0, 0.0, 0.0, 0.0, 0.0, 0.0, 1.644588349062828E9, 0.0, 2022-02-12 01:05:49.062
38.0, -9532.46021657708, -9211.600924921147, -5721.51013869168, -13469.831761101696, -7599.995446204597, -3798.947191112899, -7577.531943027013, -5511.80607221199, -10138.751284927284, -12495.362758083673, -6338.641803102709, -5535.923604479266, -5106.792462681826, -8380.317196883821, -10732.45832114915, -15736.812738992303, 0.012, 0.232, 0.9500000000000001, 192.0, 0.0, 48.0, 3.5, 32.0, 14.5, 88.0, 0.0, 0.0, 0.0, 1.644588349070713E9, 0.0, 2022-02-12 01:05:49.070
40.0, -9531.968478199064, -9195.194744490951, -5720.481958446737, -13467.082496533692, -7590.674768766734, -3795.527374211237, -7580.750594228577, -5507.223964598652, -10127.821281888639, -12489.864228947668, -6343.223910716047, -5552.642709331836, -5114.280297074353, -8375.712737526028, -10729.50789088105, -15720.406558562108, 0.012, 0.232, 0.9500000000000001, 192.0, 0.0, 0.0, 0.0, 0.0, 0.0, 0.0, 0.0, 0.0, 0.0, 1.644588349078995E9, 0.0, 2022-02-12 01:05:49.078
42.0, -9504.45348077458, -9184.421203663493, -5708.948458307798, -13464.33323196569, -7586.78556523151, -3800.578868458136, -7570.111163867851, -5514.868261202367, -10120.780482385217, -12446.658306915559, -6350.577634641842, -5543.590252827436, -5109.832299927748, -8387.939141743082, -10726.400998401761, -15705.520296754874, 0.012, 0.232, 0.9500000000000001, 192.0, 0.0, 0.0, 0.0, 0.0, 0.0, 0.0, 0.0, 0.0, 0.0, 1.64458834908535E9, 0.0, 2022-02-12 01:05:49.085
44.0, -9521.351399582793, -9225.816634394721, -5717.665638645368, -13471.99988031386, -7592.686425767712, -3804.7362929268234, -7579.185972116706, -5511.3590373228835, -10125.608459187562, -12487.316130079762, -6340.318183936856, -5541.757409782102, -5105.29489580332, -8381.367728873221, -10724.523451867515, -15747.07218969729, 0.012, 0.232, 0.9500000000000001, 192.0, 0.0, 0.0, 0.0, 0.0, 0.0, 0.0, 0.0, 0.0, 0.0, 1.644588349093475E9, 0.0, 2022-02-12 01:05:49.093
46.0, -9541.736190526031, -9224.54258496077, -5722.828891614544, -13462.120409264615, -7584.572742530435, -3802.724635925846, -7581.510553540058, -5508.475662288149, -10128.894165622492, -12495.228647616941, -6356.836123089329, -5560.823447802478, -5106.345427792719, -8386.75449928695, -10728.636172847293, -15705.028558376856, 0.01, 0.234, 0.9510000000000001, 192.0, 0.0, 32.0, 3.5, 48.0, 14.5, 96.0, 0.0, 0.0, 0.0, 1.644588349100318E9, 0.0, 2022-02-12 01:05:49.100
48.0, -9535.812978245376, -9208.404625464038, -5715.60927815548, -13471.66460414703, -7594.02753043503, -3802.434063247927, -7576.615521504345, -5505.189955853219, -10131.822244146138, -12501.464784319973, -6340.787570570418, -5543.031459216054, -5101.204526567999, -8379.534885827887, -10728.233841447096, -15736.924497714579, 0.01, 0.234, 0.9510000000000001, 192.0, 0.0, 0.0, 0.0, 0.0, 0.0, 0.0, 0.0, 0.0, 0.0, 1.644588349114963E9, 0.0, 2022-02-12 01:05:49.114
50.0, -9533.398989844203, -9196.20057299144, -5724.929955593343, -13471.217569257924, -7588.730166999122, -3796.2873335227173, -7587.322007098438, -5505.927563420244, -10125.29553476519, -12484.410403300573, -6342.463951404567, -5550.340479652939, -5117.342486064731, -8380.317196883821, -10725.059893734444, -15722.552326029818, 0.01, 0.234, 0.9510000000000001, 192.0, 0.0, 0.0, 0.0, 0.0, 0.0, 0.0, 0.0, 0.0, 0.0, 1.644588349123034E9, 0.0, 2022-02-12 01:05:49.123
52.0, -9517.059864647374, -9186.946950786943, -5718.22443225675, -13468.46830468992, -7586.6514547647785, -3797.3825690010276, -7572.5028005245695, -5506.061673886976, -10125.67551442093, -12458.817655899245, -6353.237492232024, -5544.037287716543, -5110.502852261407, -8378.685519538585, -10729.105559480853, -15708.895410167625, 0.01, 0.234, 0.9510000000000001, 192.0, 0.0, 0.0, 0.0, 0.0, 0.0, 0.0, 0.0, 0.0, 0.0, 1.644588349131005E9, 0.0, 2022-02-12 01:05:49.131
54.0, -9532.326106110348, -9227.045980339764, -5717.866804345465, -13469.697650634964, -7595.390986846804, -3804.3116097821726, -7582.449326807181, -5515.605868769392, -10129.76588365625, -12491.920589437555, -6344.16268398317, -5540.2374911591405, -5108.938230149535, -8382.75353702945, -10725.506928623548, -15744.59114606275, 0.01, 0.234, 0.9510000000000001, 192.0, 0.0, 0.0, 0.0, 0.0, 0.0, 0.0, 0.0, 0.0, 0.0, 1.644588349138429E9, 0.0, 2022-02-12 01:05:49.138
56.0, -9540.931527725641, -9219.11111105813, -5720.258441002184, -13458.342964451667, -7582.35991982936, -3801.1153103250635, -7585.466812308648, -5520.031514171543, -10127.642467932996, -12487.561999268772, -6350.845855575306, -5547.032421473554, -5105.719578947971, -8381.546542828864, -10729.776111814514, -15700.960540885992, 0.008, 0.23600000000000002, 0.9515, 192.0, 0.0, 24.0, 3.5, 56.0, 14.5, 96.0, 0.0, 0.0, 0.0, 1.644588349145713E9, 0.0, 2022-02-12 01:05:49.145
58.0, -9548.329955140347, -9227.023628595309, -5716.123368277952, -13473.162171025537, -7594.8098414909655, -3801.9646766143655, -7577.755460471566, -5512.722493734657, -10137.566642471153, -12500.771880241857, -6344.676774105642, -5542.405610371306, -5106.904221404102, -8377.545580571363, -10733.151225227264, -15732.92353545708, 0.008, 0.23600000000000002, 0.9515, 192.0, 0.0, 0.0, 0.0, 0.0, 0.0, 0.0, 0.0, 0.0, 0.0, 1.644588349153556E9, 0.0, 2022-02-12 01:05:49.153
60.0, -9534.717742767065, -9208.695198141957, -5729.355600995494, -13474.52562743731, -7590.719472255644, -3803.2610777927734, -7586.360882086859, -5519.919755449267, -10128.000095844282, -12502.492964564915, -6350.823503830851, -5545.66896506178, -5098.321151533264, -8380.56306607283, -10733.061818249444, -15722.194698118532, 0.008, 0.23600000000000002, 0.9515, 192.0, 0.0, 0.0, 0.0, 0.0, 0.0, 0.0, 0.0, 0.0, 0.0, 1.644588349160945E9, 0.0, 2022-02-12 01:05:49.160
62.0, -9517.238678603015, -9207.39879696355, -5721.174862524851, -13475.732621637897, -7593.31227461246, -3802.0093801032763, -7581.421146562237, -5523.227813628651, -10126.882508621515, -12482.197580599497, -6359.943015568616, -5557.068354733987, -5118.482425031952, -8385.100470197258, -10739.812045074947, -15713.186945103043, 0.008, 0.23600000000000002, 0.9515, 192.0, 0.0, 0.0, 0.0, 0.0, 0.0, 0.0, 0.0, 0.0, 0.0, 1.644588349167152E9, 0.0, 2022-02-12 01:05:49.167
64.0, -9531.923774710152, -9206.191802762962, -5726.271060260661, -13481.678185663008, -7603.616428806356, -3805.2950865382063, -7585.6903297532, -5517.773987981557, -10135.800854659183, -12481.907007921578, -6358.132524267737, -5546.540683095537, -5120.248212843921, -8382.909999240637, -10737.21924271813, -15749.329715887276, 0.008, 0.23600000000000002, 0.9515, 192.0, 0.0, 0.0, 0.0, 0.0, 0.0, 0.0, 0.0, 0.0, 0.0, 1.644588349175304E9, 0.0, 2022-02-12 01:05:49.175
66.0, -9533.711914266576, -9206.72824462989, -5724.058237559586, -13461.89689182006, -7592.619370534346, -3797.069644578653, -7586.673806509234, -5511.76136872308, -10117.606534672563, -12485.57269401225, -6354.243320732513, -5556.107229722408, -5110.100520861211, -8388.676749310107, -10737.196890973675, -15708.761299700893, 0.009000000000000001, 0.23600000000000002, 0.9537500000000001, 192.0, 0.0, 40.0, 3.5, 48.0, 14.5, 112.0, 0.0, 0.0, 0.0, 1.644588349183319E9, 0.0, 2022-02-12 01:05:49.183
68.0, -9528.97334444205, -9212.673808655001, -5718.559708423581, -13480.627653673608, -7599.570763059946, -3800.0647783356644, -7584.572742530435, -5505.838156442423, -10132.090465079602, -12489.730118480937, -6340.541701381409, -5541.936223737744, -5092.979084608446, -8379.780755016895, -10736.526338640017, -15738.287954126354, 0.009000000000000001, 0.23600000000000002, 0.9537500000000001, 192.0, 0.0, 0.0, 0.0, 0.0, 0.0, 0.0, 0.0, 0.0, 0.0, 1.644588349190302E9, 0.0, 2022-02-12 01:05:49.190
70.0, -9547.45823710659, -9221.39098899257, -5722.404208469893, -13478.101906550159, -7591.45707982267, -3800.265944035762, -7578.1354401273065, -5513.325990834951, -10130.928174367926, -12492.61349351567, -6344.363849683267, -5552.352136653917, -5113.25211682941, -8377.32206312681, -10731.474844393117, -15731.425968578575, 0.009000000000000001, 0.23600000000000002, 0.9537500000000001, 192.0, 0.0, 0.0, 0.0, 0.0, 0.0, 0.0, 0.0, 0.0, 0.0, 1.644588349198036E9, 0.0, 2022-02-12 01:05:49.198
72.0, -9533.6001555443, -9201.855564338633, -5714.670504888357, -13471.083458791192, -7587.970207687642, -3794.5215457107483, -7566.557236499458, -5511.3590373228835, -10128.58124120012, -12483.42692654454, -6343.738000838519, -5553.201502943219, -5116.068436630779, -8383.267627151923, -10730.044332747977, -15714.192773603532, 0.009000000000000001, 0.23600000000000002, 0.9537500000000001, 192.0, 0.0, 0.0, 0.0, 0.0, 0.0, 0.0, 0.0, 0.0, 0.0, 1.644588349205864E9, 0.0, 2022-02-12 01:05:49.205
74.0, -9532.661382277178, -9216.54066044577, -5718.716170634767, -13478.23601701689, -7592.2840943675155, -3797.986066101321, -7568.524190011524, -5512.409569312283, -10134.392694758499, -12507.343293111719, -6341.815750815363, -5545.490151106138, -5108.267677815876, -8377.478525337998, -10723.249402433563, -15749.709695543015, 0.009000000000000001, 0.23600000000000002, 0.9537500000000001, 192.0, 0.0, 0.0, 0.0, 0.0, 0.0, 0.0, 0.0, 0.0, 0.0, 1.644588349213932E9, 0.0, 2022-02-12 01:05:49.213
76.0, -9525.754693240488, -9190.858506066621, -5724.818196871066, -13466.09901977766, -7577.219018604639, -3791.9957985872984, -7570.7370127126, -5504.340589563917, -10122.792139386194, -12480.767068954357, -6349.147122996703, -5550.362831397394, -5101.606857968194, -8379.08785093878, -10720.477786121106, -15703.955674643003, 0.009500000000000001, 0.23700000000000002, 0.951875, 192.0, 0.0, 40.0, 3.5, 56.0, 14.5, 88.0, 0.0, 0.0, 0.0, 1.644588349220633E9, 0.0, 2022-02-12 01:05:49.220
78.0, -9507.73918720951, -9206.974113818898, -5716.5704031670575, -13475.084421048692, -7589.35601584387, -3796.8908306230105, -7570.088812123396, -5505.771101209057, -10126.323715010132, -12474.173304340042, -6345.30262295039, -5541.377430126361, -5102.232706812943, -8373.388156102677, -10723.048236733466, -15736.030427936368, 0.009500000000000001, 0.23700000000000002, 0.951875, 192.0, 0.0, 0.0, 0.0, 0.0, 0.0, 0.0, 0.0, 0.0, 0.0, 1.644588349235803E9, 0.0, 2022-02-12 01:05:49.235
80.0, -9546.519463839468, -9211.600924921147, -5728.997973084209, -13474.503275692854, -7581.8905331957985, -3794.0968625660976, -7569.798239445477, -5501.345455806906, -10124.848499876083, -12494.37928132764, -6348.029535773938, -5546.875959262366, -5088.508735717384, -8378.171429416112, -10726.9821437576, -15733.370570346186, 0.009500000000000001, 0.23700000000000002, 0.951875, 192.0, 0.0, 0.0, 0.0, 0.0, 0.0, 0.0, 0.0, 0.0, 0.0, 1.64458834924357E9, 0.0, 2022-02-12 01:05:49.243
82.0, -9530.269745620459, -9189.092718254653, -5715.519871177658, -13465.942557566472, -7581.443498306692, -3785.6479031619915, -7563.025660875519, -5493.120013847353, -10121.808662630161, -12476.453182274483, -6337.9488990245945, -5552.106267464908, -5103.506756246896, -8378.685519538585, -10727.451530391161, -15712.29287532483, 0.009500000000000001, 0.23700000000000002, 0.951875, 192.0, 0.0, 0.0, 0.0, 0.0, 0.0, 0.0, 0.0, 0.0, 0.0, 1.644588349250398E9, 0.0, 2022-02-12 01:05:49.250
84.0, -9545.156007427693, -9211.891497599066, -5727.031019572141, -13472.245749502868, -7592.865239723354, -3787.9948363297985, -7571.273454579527, -5497.143327849309, -10134.86208139206, -12477.257845074875, -6334.774951311941, -5533.800188756012, -5109.362913294186, -8370.504781067943, -10724.568155356426, -15746.893375741647, 0.009500000000000001, 0.23700000000000002, 0.951875, 192.0, 0.0, 0.0, 0.0, 0.0, 0.0, 0.0, 0.0, 0.0, 0.0, 1.644588349258577E9, 0.0, 2022-02-12 01:05:49.258
86.0, -9547.346478384314, -9223.894384371566, -5732.462493474781, -13466.724868622408, -7583.343396585393, -3791.235839275818, -7573.732146469611, -5503.066540129965, -10135.934965125914, -12488.009034157878, -6350.331765452835, -5548.999374985621, -5113.699151718516, -8367.241426377466, -10727.943268769177, -15704.49211650993, 0.009750000000000002, 0.23550000000000001, 0.9499375000000001, 192.0, 0.0, 40.0, 3.5, 40.0, 14.5, 80.0, 0.0, 0.0, 0.0, 1.644588349266247E9, 0.0, 2022-02-12 01:05:49.266
88.0, -9521.194937371605, -9207.53290743028, -5723.186519525829, -13476.492580949376, -7590.6971205111895, -3794.365083499561, -7574.514457525547, -5500.56314475097, -10136.985497115315, -12498.0002639294, -6346.956652040083, -5545.71366855069, -5107.463015015485, -8365.654452521141, -10728.032675747, -15738.265602381898, 0.009750000000000002, 0.23550000000000001, 0.9499375000000001, 192.0, 0.0, 0.0, 0.0, 0.0, 0.0, 0.0, 0.0, 0.0, 0.0, 1.644588349273186E9, 0.0, 2022-02-12 01:05:49.273
90.0, -9529.532138053435, -9218.597020935658, -5728.349772495005, -13473.296281492268, -7589.020739677041, -3799.170708557452, -7582.851658207376, -5506.084025631431, -10133.00688660227, -12499.721348252458, -6343.290965949413, -5551.614529086892, -5104.937267892035, -8366.883798466182, -10727.205661202153, -15731.180099389567, 0.009750000000000002, 0.23550000000000001, 0.9499375000000001, 192.0, 0.0, 0.0, 0.0, 0.0, 0.0, 0.0, 0.0, 0.0, 0.0, 1.644588349280859E9, 0.0, 2022-02-12 01:05:49.280
92.0, -9536.684696279133, -9196.53584915827, -5725.399342226904, -13477.587816427687, -7584.058652407963, -3796.399092244994, -7575.185009859206, -5502.485394774127, -10136.516110481753, -12491.875885948646, -6352.768105598463, -5558.275348934573, -5092.286180530332, -8376.09271718177, -10729.485539136595, -15719.356026572708, 0.009750000000000002, 0.23550000000000001, 0.9499375000000001, 192.0, 0.0, 0.0, 0.0, 0.0, 0.0, 0.0, 0.0, 0.0, 0.0, 1.644588349287734E9, 0.0, 2022-02-12 01:05:49.287
94.0, -9547.525292339957, -9209.052826053241, -5727.500406205703, -13487.780211899306, -7587.8808007098205, -3797.1366998120193, -7579.83417270591, -5501.747787207101, -10140.002982616781, -12496.100365650698, -6346.4649136620665, -5564.913817037799, -5113.140358107133, -8369.968339201014, -10724.165823956231, -15755.387038634664, 0.009750000000000002, 0.23550000000000001, 0.9499375000000001, 192.0, 0.0, 0.0, 0.0, 0.0, 0.0, 0.0, 0.0, 0.0, 0.0, 1.644588349296313E9, 0.0, 2022-02-12 01:05:49.296
96.0, -9540.752713769998, -9225.436654738982, -5737.022249343664, -13477.565464683232, -7575.274416837027, -3797.270810278751, -7580.795297717488, -5505.167604108764, -10131.106988323569, -12479.917702665056, -6349.147122996703, -5563.796229815034, -5105.183137081044, -8373.52226656941, -10724.478748378606, -15712.382282302653, 0.009875000000000002, 0.23375, 0.9509687500000001, 192.0, 0.0, 40.0, 3.5, 32.0, 14.5, 96.0, 0.0, 0.0, 0.0, 1.644588349303079E9, 0.0, 2022-02-12 01:05:49.303
98.0, -9540.372734114258, -9216.25008776785, -5728.215662028273, -13483.846304875173, -7588.417242576747, -3798.7460254128014, -7577.598998260379, -5506.173432609253, -10138.661877949462, -12479.336557309218, -6336.451332146088, -5552.016860487087, -5106.948924893013, -8374.818667747817, -10731.698361837669, -15745.64167805215, 0.009875000000000002, 0.23375, 0.9509687500000001, 192.0, 0.0, 0.0, 0.0, 0.0, 0.0, 0.0, 0.0, 0.0, 0.0, 1.644588349311248E9, 0.0, 2022-02-12 01:05:49.311
100.0, -9534.851853233797, -9187.10341299813, -5729.959098095786, -13477.923092594516, -7582.583437273913, -3801.1600138139743, -7584.706852997167, -5515.04707515801, -10133.185700557911, -12501.353025597695, -6342.0616200043705, -5563.460953648205, -5107.708884204493, -8371.935292713082, -10730.737236826091, -15734.622268035684, 0.009875000000000002, 0.23375, 0.9509687500000001, 192.0, 0.0, 0.0, 0.0, 0.0, 0.0, 0.0, 0.0, 0.0, 0.0, 1.644588349318359E9, 0.0, 2022-02-12 01:05:49.318
102.0, -9518.468024548058, -9206.348264974149, -5724.617031170968, -13476.80550537175, -7578.515419783047, -3792.174612542941, -7578.671881994233, -5497.120976104853, -10125.250831276278, -12469.479438004428, -6352.656346876186, -5559.3705844128835, -5088.53108746184, -8379.289016638877, -10727.987972258088, -15715.243305592932, 0.009875000000000002, 0.23375, 0.9509687500000001, 192.0, 0.0, 0.0, 0.0, 0.0, 0.0, 0.0, 0.0, 0.0, 0.0, 1.644588349325795E9, 0.0, 2022-02-12 01:05:49.325
104.0, -9544.50780683849, -9232.611564709136, -5725.578156182547, -13483.198104285968, -7588.93133269922, -3798.1648800569633, -7583.477507052125, -5493.120013847353, -10137.320773282145, -12494.75926098338, -6340.854625803784, -5547.837084273945, -5101.092767845723, -8373.410507847131, -10730.670181592724, -15751.676649055082, 0.009875000000000002, 0.23375, 0.9509687500000001, 192.0, 0.0, 0.0, 0.0, 0.0, 0.0, 0.0, 0.0, 0.0, 0.0, 1.644588349333076E9, 0.0, 2022-02-12 01:05:49.333
106.0, -9541.84794924831, -9208.426977208494, -5721.644249158412, -13470.85994134664, -7577.353129071371, -3793.8062898881785, -7572.703966224667, -5496.22690632664, -10130.928174367926, -12495.228647616941, -6348.275404962946, -5554.788476799546, -5104.91491614758, -8376.89737998216, -10730.737236826091, -15711.085881124245, 0.008937500000000001, 0.237875, 0.950484375, 192.0, 0.0, 32.0, 3.5, 72.0, 14.5, 88.0, 0.0, 0.0, 0.0, 1.644588349341026E9, 0.0, 2022-02-12 01:05:49.341
108.0, -9534.695391022611, -9197.00523579183, -5712.32357172055, -13482.348737996666, -7587.947855943186, -3796.712016667368, -7571.206399346162, -5494.930505148233, -10133.208052302367, -12475.022670629343, -6335.0208205009485, -5541.936223737744, -5101.5845062237395, -8366.190894388068, -10731.31838218193, -15743.719428028993, 0.008937500000000001, 0.237875, 0.950484375, 192.0, 0.0, 0.0, 0.0, 0.0, 0.0, 0.0, 0.0, 0.0, 0.0, 1.64458834934811E9, 0.0, 2022-02-12 01:05:49.348
110.0, -9537.399952101703, -9216.942991845965, -5720.571365424557, -13475.307938493246, -7581.667015751245, -3796.5108509672705, -7576.682576737711, -5499.579667994937, -10129.631773189518, -12468.808885670769, -6331.019858243449, -5543.299680149517, -5096.2424392989205, -8365.810914732327, -10727.719751324625, -15738.265602381898, 0.008937500000000001, 0.237875, 0.950484375, 192.0, 0.0, 0.0, 0.0, 0.0, 0.0, 0.0, 0.0, 0.0, 0.0, 1.644588349363026E9, 0.0, 2022-02-12 01:05:49.363
112.0, -9529.532138053435, -9201.430881193983, -5715.184595010829, -13472.826894858707, -7569.731184212111, -3785.603199673081, -7560.4105067742485, -5486.36978702185, -10125.541403954197, -12470.015879871355, -6339.82644555884, -5541.66800280428, -5075.969407077958, -8362.569911786308, -10728.859690291845, -15716.472651537973, 0.008937500000000001, 0.237875, 0.950484375, 192.0, 0.0, 0.0, 0.0, 0.0, 0.0, 0.0, 0.0, 0.0, 0.0, 1.644588349370799E9, 0.0, 2022-02-12 01:05:49.370
114.0, -9514.802338457386, -9207.19763126345, -5713.776435110144, -13485.008595586849, -7574.8497336923765, -3788.5983334300918, -7561.103410852363, -5485.967455621655, -10130.123511567535, -12481.23645558792, -6342.441599660111, -5544.529026094559, -5095.907163132091, -8351.930481425581, -10724.143472211776, -15751.430779866074, 0.008937500000000001, 0.237875, 0.950484375, 192.0, 0.0, 0.0, 0.0, 0.0, 0.0, 0.0, 0.0, 0.0, 0.0, 1.644588349378769E9, 0.0, 2022-02-12 01:05:49.378
116.0, -9523.45246356159, -9180.91197978401, -5719.744350879711, -13474.503275692854, -7561.461038763648, -3784.396205472494, -7566.132553354807, -5482.882914886823, -10107.458842689854, -12459.957594866466, -6341.413419415167, -5559.303529179518, -5088.218163039465, -8365.430935076587, -10725.216355945631, -15710.191811346032, 0.004, 0.23800000000000002, 0.9560000000000001, 192.0, 0.0, 16.0, 3.5, 56.0, 14.5, 112.0, 0.0, 0.0, 0.0, 1.644588349385348E9, 0.0, 2022-02-12 01:05:49.385
118.0, -9535.567109056366, -9209.745730131357, -5714.245821743706, -13493.502258479866, -7572.9721871581305, -3786.3408072401057, -7552.632099703801, -5483.575818964937, -10119.707598651363, -12458.70589717697, -6330.684582076619, -5541.489188848637, -5084.105442059689, -8361.742897241462, -10726.959792013144, -15741.886584983658, 0.004, 0.23800000000000002, 0.9560000000000001, 192.0, 0.0, 0.0, 0.0, 0.0, 0.0, 0.0, 0.0, 0.0, 0.0, 1.64458834939335E9, 0.0, 2022-02-12 01:05:49.393
120.0, -9544.977193472052, -9224.028494838298, -5720.928993335842, -13486.975549098916, -7572.815724946943, -3783.323321738639, -7565.171428343228, -5489.811955667968, -10133.76684591375, -12480.61060674317, -6340.96638452606, -5538.918738236277, -5092.755567163893, -8358.479542550987, -10725.417521645728, -15738.086788426255, 0.004, 0.23800000000000002, 0.9560000000000001, 192.0, 0.0, 0.0, 0.0, 0.0, 0.0, 0.0, 0.0, 0.0, 0.0, 1.644588349401505E9, 0.0, 2022-02-12 01:05:49.401
122.0, -9532.191995643616, -9214.350189489149, -5715.3410572220155, -13487.444935732477, -7574.514457525547, -3784.239743261307, -7564.8138004319435, -5491.3989295242945, -10125.47434872083, -12463.288004790307, -6338.01595425796, -5550.429886630761, -5082.585523436728, -8362.435801319576, -10728.680876336202, -15720.093634139734, 0.004, 0.23800000000000002, 0.9560000000000001, 192.0, 0.0, 0.0, 0.0, 0.0, 0.0, 0.0, 0.0, 0.0, 0.0, 1.644588349407978E9, 0.0, 2022-02-12 01:05:49.407
124.0, -9535.723571267554, -9214.417244722516, -5722.605374169991, -13495.871543392128, -7578.40366106077, -3790.0288450752314, -7567.7865824445, -5500.272572073051, -10133.72214242484, -12494.781612727835, -6335.4455036456, -5548.23941567414, -5078.00341582339, -8351.08111513628, -10730.536071125993, -15760.282070670375, 0.004, 0.23800000000000002, 0.9560000000000001, 192.0, 0.0, 0.0, 0.0, 0.0, 0.0, 0.0, 0.0, 0.0, 0.0, 1.644588349415202E9, 0.0, 2022-02-12 01:05:49.415
126.0, -9527.162853141172, -9185.29292169725, -5722.22539451425, -13479.510066450843, -7564.947910898675, -3783.0551008051757, -7564.746745198578, -5484.536943976515, -10125.04966557618, -12475.51440900736, -6351.270538719958, -5560.9575582692105, -5096.510660232385, -8362.03346991938, -10728.680876336202, -15715.288009081843, 0.002, 0.23800000000000002, 0.9560000000000001, 192.0, 0.0, 8.0, 3.5, 56.0, 14.5, 112.0, 0.0, 0.0, 0.0, 1.644588349423237E9, 0.0, 2022-02-12 01:05:49.423
128.0, -9528.414550830668, -9196.91582881401, -5710.624839141946, -13489.52364796682, -7578.157791871762, -3788.3301124966283, -7567.853637677866, -5489.9907696236105, -10127.038970832702, -12479.381260798129, -6341.838102559817, -5544.707840050201, -5092.9567328639905, -8356.065554149813, -10728.926745525212, -15744.1664629181, 0.002, 0.23800000000000002, 0.9560000000000001, 192.0, 0.0, 0.0, 0.0, 0.0, 0.0, 0.0, 0.0, 0.0, 0.0, 1.644588349431029E9, 0.0, 2022-02-12 01:05:49.431
130.0, -9544.373696371758, -9217.77000639081, -5716.346885722504, -13485.455630475955, -7575.386175559303, -3789.134775297019, -7574.648567992279, -5487.8226504114455, -10114.14201428199, -12470.105286849177, -6335.803131556885, -5548.820561029978, -5089.894543873614, -8358.501894295441, -10723.07058847792, -15739.718465771493, 0.002, 0.23800000000000002, 0.9560000000000001, 192.0, 0.0, 0.0, 0.0, 0.0, 0.0, 0.0, 0.0, 0.0, 0.0, 1.64458834943766E9, 0.0, 2022-02-12 01:05:49.437
132.0, -9532.482568321535, -9208.941067330965, -5710.311914719572, -13480.851171118162, -7575.050899392474, -3778.115365280553, -7564.92555915422, -5488.269685300552, -10120.109930051558, -12460.359926266663, -6337.63597460222, -5541.399781870817, -5086.519430460862, -8361.60878677473, -10727.250364691063, -15721.34533182923, 0.002, 0.23800000000000002, 0.9560000000000001, 192.0, 0.0, 0.0, 0.0, 0.0, 0.0, 0.0, 0.0, 0.0, 0.0, 1.644588349445793E9, 0.0, 2022-02-12 01:05:49.445
134.0, -9529.5991932868, -9209.63397140908, -5718.962039823776, -13489.031909588804, -7585.243294864094, -3784.9997025727876, -7564.970262643131, -5485.542772477004, -10132.33633426861, -12450.055772072767, -6330.818692543351, -5543.299680149517, -5080.082128057734, -8349.784713957872, -10725.126948967809, -15754.314154900809, 0.002, 0.23800000000000002, 0.9560000000000001, 192.0, 0.0, 0.0, 0.0, 0.0, 0.0, 0.0, 0.0, 0.0, 0.0, 1.644588349453731E9, 0.0, 2022-02-12 01:05:49.453
136.0, -9540.84212074782, -9196.58055264718, -5721.823063114055, -13477.00667107185, -7577.576646515924, -3785.044406061698, -7565.819628932432, -5489.476679501138, -10133.699790680384, -12481.102345121188, -6348.610681129776, -5556.822485544978, -5106.367779537175, -8352.779847714883, -10732.726542082613, -15713.902200925613, 0.006, 0.242, 0.9560000000000001, 192.0, 0.0, 24.0, 3.5, 72.0, 14.5, 112.0, 0.0, 0.0, 0.0, 1.644588349462075E9, 0.0, 2022-02-12 01:05:49.462
138.0, -9546.564167328379, -9221.458044225938, -5720.7501793802, -13491.28943577879, -7585.176239630729, -3787.547801440692, -7564.478524265114, -5488.783775423023, -10134.303287780678, -12477.146086352597, -6337.568919368854, -5558.7894390570455, -5105.429006270052, -8351.014059902915, -10732.8830042938, -15742.11010242821, 0.006, 0.242, 0.9560000000000001, 192.0, 0.0, 0.0, 0.0, 0.0, 0.0, 0.0, 0.0, 0.0, 0.0, 1.644588349468329E9, 0.0, 2022-02-12 01:05:49.468
140.0, -9563.260920436493, -9223.670866927012, -5727.410999227882, -13491.535304967798, -7578.090736638396, -3792.711054409868, -7571.966358657642, -5496.629237726836, -10138.058380849168, -12489.908932436578, -6340.787570570418, -5555.1461047108305, -5102.791500424326, -8358.524246039897, -10732.480672893606, -15740.59018380525, 0.006, 0.242, 0.9560000000000001, 192.0, 0.0, 0.0, 0.0, 0.0, 0.0, 0.0, 0.0, 0.0, 0.0, 1.644588349483424E9, 0.0, 2022-02-12 01:05:49.483
142.0, -9541.110341681284, -9220.005180836342, -5717.620935156458, -13484.80742988675, -7568.971224900631, -3784.4856124503153, -7561.014003874541, -5488.806127167479, -10133.29745928019, -12477.011975885865, -6342.441599660111, -5558.364755912395, -5098.187041066532, -8356.423182061098, -10730.111387981342, -15719.199564361521, 0.006, 0.242, 0.9560000000000001, 192.0, 0.0, 0.0, 0.0, 0.0, 0.0, 0.0, 0.0, 0.0, 0.0, 1.644588349490642E9, 0.0, 2022-02-12 01:05:49.490
144.0, -9536.014143945473, -9218.999352335853, -5724.482920704237, -13491.870581134628, -7574.827381947921, -3791.36994974255, -7562.198646330673, -5493.678807458736, -10138.974802371837, -12473.458048517472, -6337.524215879944, -5539.164607425286, -5088.441680484018, -8353.070420392802, -10726.088073979387, -15757.979840991478, 0.006, 0.242, 0.9560000000000001, 192.0, 0.0, 0.0, 0.0, 0.0, 0.0, 0.0, 0.0, 0.0, 0.0, 1.644588349498094E9, 0.0, 2022-02-12 01:05:49.498
146.0, -9542.674963793155, -9207.421148708005, -5724.102941048496, -13478.459534461444, -7563.0480126199745, -3780.372891470539, -7561.237521319094, -5483.8887433873115, -10131.665781934951, -12465.389068769106, -6351.091724764315, -5556.666023333791, -5092.330884019242, -8360.871179207705, -10730.401960659261, -15714.840974192737, 0.004, 0.23800000000000002, 0.9500000000000001, 192.0, 0.0, 16.0, 3.5, 56.0, 14.5, 88.0, 0.0, 0.0, 0.0, 1.64458834950592E9, 0.0, 2022-02-12 01:05:49.505
148.0, -9545.759504527987, -9226.218965794917, -5712.882365331932, -13493.614017202142, -7575.699099981678, -3777.9365513249104, -7553.168541570729, -5482.860563142367, -10134.415046502954, -12480.476496276438, -6341.011088014971, -5553.782648299057, -5105.674875459061, -8345.023792388893, -10732.391265915783, -15741.573660561284, 0.004, 0.23800000000000002, 0.9500000000000001, 192.0, 0.0, 0.0, 0.0, 0.0, 0.0, 0.0, 0.0, 0.0, 0.0, 1.644588349513181E9, 0.0, 2022-02-12 01:05:49.513
150.0, -9551.950937742107, -9228.118864073618, -5715.721036877756, -13481.409964729544, -7573.530980769513, -3784.6420746615026, -7567.652471977767, -5495.690464459713, -10138.080732593624, -12487.919627180056, -6333.6126606002645, -5557.090706478442, -5102.00918936839, -8344.800274944339, -10730.22314670362, -15737.796215748336, 0.004, 0.23800000000000002, 0.9500000000000001, 192.0, 0.0, 0.0, 0.0, 0.0, 0.0, 0.0, 0.0, 0.0, 0.0, 1.64458834952056E9, 0.0, 2022-02-12 01:05:49.520
152.0, -9542.965536471074, -9206.39296846306, -5707.27207747365, -13475.531455937798, -7563.0480126199745, -3781.4681269488487, -7561.729259697111, -5496.092795859909, -10131.15169181248, -12477.23549333042, -6330.461064632066, -5557.269520434084, -5096.354198021198, -8352.109295381224, -10731.005457759555, -15719.803061461815, 0.004, 0.23800000000000002, 0.9500000000000001, 192.0, 0.0, 0.0, 0.0, 0.0, 0.0, 0.0, 0.0, 0.0, 0.0, 1.644588349528501E9, 0.0, 2022-02-12 01:05:49.528
154.0, -9543.79255101592, -9209.946895831454, -5711.362446708971, -13491.132973567603, -7569.395908045281, -3785.3126269951617, -7556.789524172488, -5496.740996449113, -10134.884433136516, -12483.203409099986, -6327.532986108421, -5549.267595919085, -5089.402805495597, -8348.421257546099, -10726.155129212753, -15759.946794503547, 0.004, 0.23800000000000002, 0.9500000000000001, 192.0, 0.0, 0.0, 0.0, 0.0, 0.0, 0.0, 0.0, 0.0, 0.0, 1.644588349535736E9, 0.0, 2022-02-12 01:05:49.535
156.0, -9532.594327043811, -9213.836099366677, -5710.602487397491, -13476.693746649475, -7555.269605549527, -3782.920990338444, -7558.845884662376, -5505.301714575496, -10126.457825476864, -12472.98866188391, -6340.318183936856, -5548.597043585425, -5085.133622304634, -8350.61172850272, -10725.641039090282, -15723.178174874565, 0.006, 0.24, 0.9520000000000001, 192.0, 0.0, 24.0, 3.5, 64.0, 14.5, 96.0, 0.0, 0.0, 0.0, 1.644588349543409E9, 0.0, 2022-02-12 01:05:49.543
158.0, -9536.997620701506, -9196.82642183619, -5699.4266151698375, -13480.538246695787, -7565.663166721245, -3779.098842036586, -7553.436762504192, -5482.815859653457, -10133.073941835635, -12443.216138269441, -6330.528119865432, -5538.158778924797, -5096.488308487929, -8348.89064417966, -10723.785844300492, -15746.669858297093, 0.006, 0.24, 0.9520000000000001, 192.0, 0.0, 0.0, 0.0, 0.0, 0.0, 0.0, 0.0, 0.0, 0.0, 1.644588349550318E9, 0.0, 2022-02-12 01:05:49.550
160.0, -9533.93543171113, -9204.604828906635, -5707.383836195927, -13479.152438539559, -7563.405640531259, -3775.1872867569077, -7561.192817830184, -5488.448499256194, -10124.62498243153, -12460.874016389134, -6325.789550040907, -5549.781686041557, -5095.3036660317985, -8346.476655778486, -10721.617725088327, -15738.332657615265, 0.006, 0.24, 0.9520000000000001, 192.0, 0.0, 0.0, 0.0, 0.0, 0.0, 0.0, 0.0, 0.0, 0.0, 1.644588349558133E9, 0.0, 2022-02-12 01:05:49.558
162.0, -9540.909175981185, -9200.849735838145, -5704.791033839111, -13477.766630383328, -7561.7069079526555, -3779.948208325888, -7562.153942841762, -5488.828478911934, -10128.558889455664, -12459.063525088255, -6334.037343744915, -5558.565921612492, -5085.915933360569, -8343.258004576923, -10726.043370490477, -15719.713654483994, 0.006, 0.24, 0.9520000000000001, 192.0, 0.0, 0.0, 0.0, 0.0, 0.0, 0.0, 0.0, 0.0, 0.0, 1.644588349566588E9, 0.0, 2022-02-12 01:05:49.566
164.0, -9530.068579920362, -9224.20730879394, -5708.657885629879, -13484.963892097938, -7569.440611534192, -3782.1610310269634, -7556.9459863836755, -5492.628275469337, -10134.347991269588, -12490.981816170433, -6331.623355343742, -5544.3502121389165, -5080.953846091491, -8344.464998777508, -10725.439873390183, -15761.287899170864, 0.006, 0.24, 0.9520000000000001, 192.0, 0.0, 0.0, 0.0, 0.0, 0.0, 0.0, 0.0, 0.0, 0.0, 1.644588349572812E9, 0.0, 2022-02-12 01:05:49.572
166.0, -9532.594327043811, -9215.624238923101, -5709.864879830466, -13473.89977859256, -7561.773963186021, -3778.27182749174, -7557.102448594863, -5491.935371391221, -10121.428682974421, -12464.964385624455, -6333.366791411257, -5540.058677203498, -5097.918820133069, -8340.84401617575, -10729.306725180952, -15722.418215563086, 0.01, 0.242, 0.9520000000000001, 192.0, 0.0, 40.0, 3.5, 72.0, 14.5, 96.0, 0.0, 0.0, 0.0, 1.644588349580889E9, 0.0, 2022-02-12 01:05:49.580
168.0, -9556.600100588812, -9224.006143093842, -5706.400359439893, -13486.394403743077, -7575.922617426231, -3783.569190927648, -7563.293881808982, -5490.504859746082, -10143.57926172963, -12490.110098136676, -6332.226852444035, -5554.184979699252, -5105.227840569954, -8351.885777936672, -10736.772207829024, -15754.805893278826, 0.01, 0.242, 0.9520000000000001, 192.0, 0.0, 0.0, 0.0, 0.0, 0.0, 0.0, 0.0, 0.0, 0.0, 1.644588349588804E9, 0.0, 2022-02-12 01:05:49.588
170.0, -9553.962594743085, -9214.260782511328, -5707.65205712939, -13479.174790284014, -7573.195704602684, -3782.5186589382483, -7570.066460378941, -5492.9859033806215, -10137.119607582046, -12485.840914945713, -6324.247279673491, -5544.640784816836, -5102.098596346212, -8348.93534766857, -10739.208547974653, -15750.40259962113, 0.01, 0.242, 0.9520000000000001, 192.0, 0.0, 0.0, 0.0, 0.0, 0.0, 0.0, 0.0, 0.0, 0.0, 1.644588349596191E9, 0.0, 2022-02-12 01:05:49.596
172.0, -9527.78870198592, -9199.843907337656, -5697.996103524698, -13472.625729158608, -7563.2268265756165, -3778.6741588919353, -7562.623329475324, -5492.024778369043, -10125.921383609937, -12466.573711225237, -6327.82355878634, -5545.378392383861, -5097.315323032775, -8351.684612236573, -10740.192024730686, -15728.944924944035, 0.01, 0.242, 0.9520000000000001, 192.0, 0.0, 0.0, 0.0, 0.0, 0.0, 0.0, 0.0, 0.0, 0.0, 1.644588349610474E9, 0.0, 2022-02-12 01:05:49.610
174.0, -9525.732341496032, -9190.277360710783, -5701.997065782198, -13491.71411892344, -7568.703003967167, -3780.730519381824, -7556.722468939122, -5486.861525399867, -10129.207090044867, -12456.89540587609, -6329.052904731382, -5549.2228924301735, -5096.53301197684, -8345.403772044632, -10737.88979505179, -15769.714506830516, 0.01, 0.242, 0.9520000000000001, 192.0, 0.0, 0.0, 0.0, 0.0, 0.0, 0.0, 0.0, 0.0, 0.0, 1.644588349618713E9, 0.0, 2022-02-12 01:05:49.618
176.0, -9529.308620608881, -9198.860430581622, -5700.454795414781, -13479.398307728567, -7554.487294493591, -3781.7363478823127, -7561.103410852363, -5491.80126092449, -10109.85047934657, -12470.798190927291, -6332.606832099776, -5550.496941864127, -5078.33869199022, -8345.515530766908, -10732.525376382515, -15728.743759243938, 0.008, 0.23800000000000002, 0.9500000000000001, 192.0, 0.0, 32.0, 3.5, 56.0, 14.5, 88.0, 0.0, 0.0, 0.0, 1.644588349625189E9, 0.0, 2022-02-12 01:05:49.625
178.0, -9527.274611863448, -9190.970264788899, -5691.849373799489, -13485.925017109515, -7567.9206929112315, -3782.295141493695, -7559.807009673955, -5488.448499256194, -10124.736741153805, -12466.640766458604, -6320.112206949259, -5539.924566736766, -5093.917857875569, -8347.638946490162, -10732.45832114915, -15756.616384579705, 0.008, 0.23800000000000002, 0.9500000000000001, 192.0, 0.0, 0.0, 0.0, 0.0, 0.0, 0.0, 0.0, 0.0, 0.0, 1.64458834963308E9, 0.0, 2022-02-12 01:05:49.633
180.0, -9533.823672988854, -9187.014006020308, -5695.559763379069, -13474.995014070872, -7563.360937042348, -3776.528391424226, -7564.478524265114, -5486.32508353294, -10122.300401008177, -12462.013955356355, -6317.742922036997, -5542.204444671207, -5099.349331778209, -8342.02865863188, -10734.045295005477, -15751.229614165977, 0.008, 0.23800000000000002, 0.9500000000000001, 192.0, 0.0, 0.0, 0.0, 0.0, 0.0, 0.0, 0.0, 0.0, 0.0, 1.644588349641065E9, 0.0, 2022-02-12 01:05:49.641
182.0, -9527.274611863448, -9206.124747529597, -5694.732748834223, -13471.508141935843, -7558.152980584262, -3773.17562975593, -7565.998442888074, -5485.341606776907, -10119.685246906907, -12457.61066169866, -6320.91686974965, -5539.9469184812215, -5089.6710264290605, -8341.626327231685, -10736.481635151105, -15727.20148887652, 0.008, 0.23800000000000002, 0.9500000000000001, 192.0, 0.0, 0.0, 0.0, 0.0, 0.0, 0.0, 0.0, 0.0, 0.0, 1.644588349649102E9, 0.0, 2022-02-12 01:05:49.649
184.0, -9526.40289382969, -9225.704875672445, -5705.640400128413, -13486.819086887728, -7569.395908045281, -3780.8646298485555, -7560.4105067742485, -5488.2920370450065, -10134.795026158694, -12487.13731612412, -6326.0354192299155, -5522.959592695188, -5097.918820133069, -8332.864443405204, -10738.023905518521, -15769.133361474678, 0.006, 0.23700000000000002, 0.9510000000000001, 192.0, 0.0, 16.0, 3.5, 48.0, 14.5, 96.0, 0.0, 0.0, 0.0, 1.644588349655692E9, 0.0, 2022-02-12 01:05:49.655
186.0, -9538.606946302289, -9200.313293971216, -5702.757025093678, -13480.918226351527, -7560.052878862964, -3778.8306211031227, -7562.2880533084935, -5491.711853946669, -10137.276069793234, -12488.836048702724, -6341.055791503882, -5538.315241135984, -5102.679741702049, -8343.570928999297, -10738.046257262977, -15731.49302381194, 0.006, 0.23700000000000002, 0.9510000000000001, 192.0, 0.0, 0.0, 0.0, 0.0, 0.0, 0.0, 0.0, 0.0, 0.0, 1.644588349662614E9, 0.0, 2022-02-12 01:05:49.662
188.0, -9524.525347295446, -9184.19768621894, -5696.654998857379, -13492.09409857918, -7565.439649276692, -3779.2329525033183, -7556.6554137057565, -5484.045205598499, -10136.38200001502, -12468.98769962641, -6333.143273966703, -5550.832218030956, -5090.967427607468, -8336.50777775142, -10736.928670040212, -15761.0196782374, 0.006, 0.23700000000000002, 0.9510000000000001, 192.0, 0.0, 0.0, 0.0, 0.0, 0.0, 0.0, 0.0, 0.0, 0.0, 1.644588349670902E9, 0.0, 2022-02-12 01:05:49.670
190.0, -9532.482568321535, -9197.027587536286, -5702.220583226751, -13478.101906550159, -7558.979995129108, -3772.818001844645, -7567.563064999947, -5484.961627121166, -10122.836842875106, -12457.677716932025, -6327.532986108421, -5549.580520341458, -5091.146241563111, -8330.562213726309, -10735.542861883981, -15751.87781475518, 0.006, 0.23700000000000002, 0.9510000000000001, 192.0, 0.0, 0.0, 0.0, 0.0, 0.0, 0.0, 0.0, 0.0, 0.0, 1.644588349678015E9, 0.0, 2022-02-12 01:05:49.678
192.0, -9533.488396822024, -9203.375482961594, -5685.814402796555, -13466.769572111318, -7555.582529971902, -3768.4147081869496, -7558.0635736064405, -5485.810993410468, -10111.728025880817, -12458.482379732417, -6321.274497660935, -5514.667095502269, -5099.774014922859, -8335.546652739842, -10738.515643896539, -15729.63782902215, 0.006, 0.23700000000000002, 0.9510000000000001, 192.0, 0.0, 0.0, 0.0, 0.0, 0.0, 0.0, 0.0, 0.0, 0.0, 1.644588349685478E9, 0.0, 2022-02-12 01:05:49.685
194.0, -9515.629353002234, -9189.048014765742, -5688.988350509209, -13476.358470482644, -7562.01983237503, -3769.040557031698, -7556.633061961301, -5480.379519507828, -10119.595839929085, -12457.70006867648, -6306.947029465084, -5508.475662288149, -5090.207468295988, -8323.633172945163, -10737.576870629415, -15768.283995185377, 0.005, 0.23650000000000002, 0.9525000000000001, 192.0, 0.0, 16.0, 3.5, 48.0, 14.5, 104.0, 0.0, 0.0, 0.0, 1.644588349695641E9, 0.0, 2022-02-12 01:05:49.695
196.0, -9512.813033200864, -9162.516494097292, -5693.659865100368, -13466.389592455578, -7548.944061868676, -3757.1270772370194, -7554.084963093396, -5471.528228703526, -10111.348046225077, -12452.961498851955, -6324.6272593292315, -5519.450368815705, -5085.379491493642, -8327.522376480387, -10735.185233972697, -15719.780709717359, 0.005, 0.23650000000000002, 0.9525000000000001, 192.0, 0.0, 0.0, 0.0, 0.0, 0.0, 0.0, 0.0, 0.0, 0.0, 1.644588349700811E9, 0.0, 2022-02-12 01:05:49.700
198.0, -9515.070559390851, -9182.811878062712, -5689.256571442673, -13477.833685616695, -7559.561140484946, -3767.1183070085417, -7549.7263729246115, -5469.717737402647, -10113.918496837437, -12456.515426220349, -6320.738055794008, -5529.352191609406, -5084.597180437706, -8331.45628350452, -10736.615745617837, -15746.155768174622, 0.005, 0.23650000000000002, 0.9525000000000001, 192.0, 0.0, 0.0, 0.0, 0.0, 0.0, 0.0, 0.0, 0.0, 0.0, 1.64458834970873E9, 0.0, 2022-02-12 01:05:49.708
200.0, -9529.710952009076, -9190.143250244051, -5693.436347655815, -13469.854112846151, -7554.7778671715105, -3765.754850596768, -7552.185064814695, -5468.264874013052, -10117.159499783456, -12454.928452364024, -6316.133596436214, -5521.529081050048, -5075.209447766477, -8326.091864835247, -10733.17357697172, -15744.032352451368, 0.005, 0.23650000000000002, 0.9525000000000001, 192.0, 0.0, 0.0, 0.0, 0.0, 0.0, 0.0, 0.0, 0.0, 0.0, 1.644588349716146E9, 0.0, 2022-02-12 01:05:49.716
202.0, -9508.700312221088, -9182.67776759598, -5687.0437487415975, -13469.563540168232, -7550.754553169555, -3761.2621499612515, -7540.115122808829, -5469.315406002451, -10106.922400822927, -12440.399818468073, -6309.517480077444, -5521.66319151678, -5069.666215141561, -8320.906260121616, -10731.340733926385, -15717.97021841648, 0.005, 0.23650000000000002, 0.9525000000000001, 192.0, 0.0, 0.0, 0.0, 0.0, 0.0, 0.0, 0.0, 0.0, 0.0, 1.644588349730295E9, 0.0, 2022-02-12 01:05:49.730
204.0, -9506.375730797736, -9159.00727021781, -5681.321702161039, -13480.985281584894, -7560.991652130086, -3763.3855656845053, -7547.491198479081, -5472.154077548275, -10111.660970647452, -12458.571786710238, -6299.995636939483, -5512.56603152347, -5086.050043827301, -8314.290143762844, -10724.858728034345, -15758.940966003058, 0.0055, 0.23525000000000001, 0.9492500000000001, 192.0, 0.0, 24.0, 3.5, 40.0, 14.5, 72.0, 0.0, 0.0, 0.0, 1.644588349738412E9, 0.0, 2022-02-12 01:05:49.738
206.0, -9500.07253886134, -9176.531037870769, -5690.441213898804, -13476.04554606027, -7551.089829336385, -3766.023071530232, -7547.692364179178, -5474.121031060342, -10105.693054877884, -12452.626222685127, -6323.017933728449, -5526.133540407842, -5083.904276359592, -8326.918879380093, -10723.651733833758, -15719.356026572708, 0.0055, 0.23525000000000001, 0.9492500000000001, 192.0, 0.0, 0.0, 0.0, 0.0, 0.0, 0.0, 0.0, 0.0, 0.0, 1.644588349746399E9, 0.0, 2022-02-12 01:05:49.746
208.0, -9525.195899629105, -9204.113090528619, -5686.484955130214, -13489.14366831108, -7565.9313876547085, -3773.8908855785, -7550.30751828045, -5478.881952629323, -10118.500604450775, -12457.297737276285, -6325.25310817398, -5533.889595733834, -5083.9713315929575, -8329.265812547901, -10729.485539136595, -15751.78840777736, 0.0055, 0.23525000000000001, 0.9492500000000001, 192.0, 0.0, 0.0, 0.0, 0.0, 0.0, 0.0, 0.0, 0.0, 0.0, 1.644588349752995E9, 0.0, 2022-02-12 01:05:49.752
210.0, -9527.475777563546, -9201.006198049332, -5689.860068542966, -13479.398307728567, -7557.348317783871, -3776.5954466575918, -7552.497989237069, -5480.781850908023, -10118.612363173052, -12465.366717024652, -6312.669076045642, -5527.005258441599, -5077.466973956463, -8331.500986993431, -10732.301858937963, -15754.135340945166, 0.0055, 0.23525000000000001, 0.9492500000000001, 192.0, 0.0, 0.0, 0.0, 0.0, 0.0, 0.0, 0.0, 0.0, 0.0, 1.644588349761109E9, 0.0, 2022-02-12 01:05:49.761
212.0, -9522.133710638727, -9184.57766587468, -5685.389719651905, -13471.485790191387, -7555.649585205268, -3771.879228577522, -7546.306556022949, -5485.699234688192, -10119.819357373639, -12458.571786710238, -6313.786663268407, -5523.2725171175625, -5070.157953519578, -8343.749742954938, -10735.453454906161, -15729.570773788784, 0.0055, 0.23525000000000001, 0.9492500000000001, 192.0, 0.0, 0.0, 0.0, 0.0, 0.0, 0.0, 0.0, 0.0, 0.0, 1.644588349769102E9, 0.0, 2022-02-12 01:05:49.769
214.0, -9509.370864554747, -9163.745840042335, -5687.0437487415975, -13486.684976420996, -7566.668995221734, -3765.5313331522148, -7548.809951401944, -5473.405775237772, -10132.358686013065, -12448.759370894359, -6313.473738846033, -5527.742866008623, -5093.4261194975525, -8323.387303756155, -10737.286297951496, -15767.993422507458, 0.00475, 0.23462500000000003, 0.9476250000000002, 192.0, 0.0, 16.0, 3.5, 40.0, 14.5, 72.0, 0.0, 0.0, 0.0, 1.644588349775678E9, 0.0, 2022-02-12 01:05:49.775
216.0, -9505.012274385963, -9185.069404252697, -5684.585056851513, -13473.139819281081, -7553.906149137753, -3766.0901267635977, -7546.217149045128, -5472.042318825998, -10108.151746767968, -12433.180205009008, -6323.263802917458, -5536.281232390551, -5092.330884019242, -8324.035504345358, -10734.26881245003, -15726.01684642039, 0.00475, 0.23462500000000003, 0.9476250000000002, 192.0, 0.0, 0.0, 0.0, 0.0, 0.0, 0.0, 0.0, 0.0, 0.0, 1.644588349782884E9, 0.0, 2022-02-12 01:05:49.782
218.0, -9526.089969407318, -9209.276343497795, -5685.188553951807, -13485.81325838724, -7567.674823722223, -3770.627530888025, -7547.267681034527, -5472.824629881934, -10127.441302232899, -12464.047964101788, -6309.115148677248, -5525.462988074182, -5092.19677355251, -8328.014114858403, -10735.207585717153, -15751.095503699245, 0.00475, 0.23462500000000003, 0.9476250000000002, 192.0, 0.0, 0.0, 0.0, 0.0, 0.0, 0.0, 0.0, 0.0, 0.0, 1.644588349790844E9, 0.0, 2022-02-12 01:05:49.790
220.0, -9539.03162944694, -9209.835137109178, -5700.275981459139, -13485.545037453776, -7572.726317969123, -3777.9141995804553, -7559.538788740491, -5477.585551450915, -10131.554023212675, -12478.911874164567, -6315.328933635823, -5528.56988055347, -5090.676854929549, -8327.991763113949, -10742.69542010968, -15755.49879735694, 0.00475, 0.23462500000000003, 0.9476250000000002, 192.0, 0.0, 0.0, 0.0, 0.0, 0.0, 0.0, 0.0, 0.0, 0.0, 1.644588349798524E9, 0.0, 2022-02-12 01:05:49.798
222.0, -9530.001524686995, -9188.466869409904, -5695.939743034809, -13489.166020055536, -7567.1607335997505, -3777.757737369268, -7550.463980491636, -5478.457269484672, -10134.884433136516, -12454.012030841355, -6330.751637309985, -5549.468761619182, -5090.498040973907, -8336.17250158459, -10744.282393966007, -15732.320038356787, 0.00475, 0.23462500000000003, 0.9476250000000002, 192.0, 0.0, 0.0, 0.0, 0.0, 0.0, 0.0, 0.0, 0.0, 0.0, 1.644588349805347E9, 0.0, 2022-02-12 01:05:49.805
224.0, -9515.003504157485, -9191.685520611469, -5700.454795414781, -13500.207781816458, -7575.654396492768, -3785.8714206065442, -7554.710811938145, -5483.374653264839, -10142.931061140425, -12464.740868179902, -6334.3949716562, -5535.498921334615, -5104.1549568361, -8339.972298141993, -10743.187158487697, -15778.901073801646, 0.004375, 0.23531250000000004, 0.9478125000000002, 192.0, 0.0, 16.0, 3.5, 48.0, 14.5, 80.0, 0.0, 0.0, 0.0, 1.64458834981345E9, 0.0, 2022-02-12 01:05:49.813
226.0, -9531.78966424342, -9207.622314408101, -5705.908621061876, -13493.122278824125, -7571.608730746357, -3783.300969994184, -7562.265701564039, -5485.051034098988, -10131.978706357326, -12463.958557123966, -6343.8274078163395, -5541.399781870817, -5103.7526254359045, -8343.347411554743, -10745.310574210951, -15736.097483169733, 0.004375, 0.23531250000000004, 0.9478125000000002, 192.0, 0.0, 0.0, 0.0, 0.0, 0.0, 0.0, 0.0, 0.0, 0.0, 1.644588349821418E9, 0.0, 2022-02-12 01:05:49.821
228.0, -9543.41257136018, -9222.218003537417, -5699.963057036764, -13502.822935917728, -7583.097527396385, -3782.6080659160693, -7564.92555915422, -5488.962589378666, -10142.193453573402, -12488.791345213813, -6332.338611166312, -5544.394915627828, -5102.947962635513, -8336.798350429339, -10749.467998679638, -15763.388963149664, 0.004375, 0.23531250000000004, 0.9478125000000002, 192.0, 0.0, 0.0, 0.0, 0.0, 0.0, 0.0, 0.0, 0.0, 0.0, 1.644588349828622E9, 0.0, 2022-02-12 01:05:49.828
230.0, -9550.565129585879, -9222.799148893255, -5709.104920518986, -13499.403119016066, -7579.588303516902, -3786.541972940204, -7567.45130627767, -5490.214287068163, -10153.458732778876, -12492.9487696825, -6334.953765267583, -5545.981889484155, -5095.1025003317, -8338.74295219695, -10752.060801036454, -15766.853483540235, 0.004375, 0.23531250000000004, 0.9478125000000002, 192.0, 0.0, 0.0, 0.0, 0.0, 0.0, 0.0, 0.0, 0.0, 0.0, 1.644588349836018E9, 0.0, 2022-02-12 01:05:49.836
232.0, -9536.975268957052, -9191.663168867013, -5699.516022147658, -13491.043566589782, -7566.154905099262, -3771.655711132969, -7556.186027072195, -5480.781850908023, -10151.938814155916, -12469.479438004428, -6338.373582169245, -5548.23941567414, -5099.036407355834, -8347.638946490162, -10752.351373714373, -15736.656276781116, 0.004375, 0.23531250000000004, 0.9478125000000002, 192.0, 0.0, 0.0, 0.0, 0.0, 0.0, 0.0, 0.0, 0.0, 0.0, 1.644588349843112E9, 0.0, 2022-02-12 01:05:49.843
234.0, -9526.916983952164, -9192.020796778297, -5707.026208284642, -13506.220401074936, -7571.474620279625, -3774.2932169786955, -7552.140361325784, -5478.70313867368, -10149.72599145484, -12473.078068861732, -6333.880881533728, -5544.484322605649, -5104.266715558376, -8336.910109151615, -10744.8858910663, -15771.972033020502, 0.0051875, 0.23465625, 0.9469062500000001, 192.0, 0.0, 24.0, 3.5, 40.0, 14.5, 72.0, 0.0, 0.0, 0.0, 1.644588349857501E9, 0.0, 2022-02-12 01:05:49.857
236.0, -9527.006390929984, -9204.53777367327, -5708.099092018497, -13495.603322458664, -7559.114105595841, -3771.0969175215864, -7554.1296665823065, -5475.171563049742, -10139.891223894505, -12463.623280957137, -6350.465875919566, -5547.52415985157, -5105.183137081044, -8340.88871966466, -10748.998612046076, -15731.604782534218, 0.0051875, 0.23465625, 0.9469062500000001, 192.0, 0.0, 0.0, 0.0, 0.0, 0.0, 0.0, 0.0, 0.0, 0.0, 1.644588349865728E9, 0.0, 2022-02-12 01:05:49.865
238.0, -9537.422303846157, -9217.278268012795, -5700.231277970229, -13501.168906828036, -7564.6349864763015, -3774.0249960452315, -7551.268643292027, -5472.8916851153, -10142.752247184784, -12462.125714078631, -6331.243375688002, -5540.617470814881, -5097.114157332678, -8337.871234163194, -10746.852844578367, -15755.208224679021, 0.0051875, 0.23465625, 0.9469062500000001, 192.0, 0.0, 0.0, 0.0, 0.0, 0.0, 0.0, 0.0, 0.0, 0.0, 1.644588349873454E9, 0.0, 2022-02-12 01:05:49.873
240.0, -9541.84794924831, -9208.784605119778, -5701.7959000821, -13497.905552137561, -7563.807971931455, -3775.0084728012653, -7556.87893115031, -5486.347435277395, -10140.874700650538, -12482.71167072197, -6320.5815935828205, -5546.853607517911, -5092.6661601860715, -8336.239556817956, -10743.723600354624, -15758.181006691577, 0.0051875, 0.23465625, 0.9469062500000001, 192.0, 0.0, 0.0, 0.0, 0.0, 0.0, 0.0, 0.0, 0.0, 0.0, 1.644588349880891E9, 0.0, 2022-02-12 01:05:49.880
