%OpenBCI Raw EEG Data
%Number of channels = 16
%Sample Rate = 125 Hz
%Board = OpenBCI_GUI$BoardCytonSerialDaisy
Sample Index, EXG Channel 0, EXG Channel 1, EXG Channel 2, EXG Channel 3, EXG Channel 4, EXG Channel 5, EXG Channel 6, EXG Channel 7, EXG Channel 8, EXG Channel 9, EXG Channel 10, EXG Channel 11, EXG Channel 12, EXG Channel 13, EXG Channel 14, EXG Channel 15, Accel Channel 0, Accel Channel 1, Accel Channel 2, Other, Other, Other, Other, Other, Other, Other, Analog Channel 0, Analog Channel 1, Analog Channel 2, Timestamp, Other, Timestamp (Formatted)
0.0, -11047.28264180215, -10039.08485640107, -6336.183111212625, -13346.114855541571, -9136.968450184877, -6018.900098669541, -9611.630095437777, -6711.3347901504985, 0.0, 0.0, 0.0, 0.0, 0.0, 0.0, 0.0, 0.0, 0.0, 0.0, 0.0, 192.0, 0.0, 0.0, 0.0, 0.0, 0.0, 0.0, 0.0, 0.0, 0.0, 1.644588229454546E9, 0.0, 2022-02-12 01:03:49.454
46.0, -11053.831702927555, -10052.875882729993, -6344.989698528016, -13350.048762565704, -9135.493235050826, -6019.414188792013, -9607.942057602651, -6717.682685575805, -10010.675789198374, -12135.343210142042, -9293.296550905294, -8575.939664356669, -7468.254264385017, -10637.977497336567, -11072.51776129219, -16020.523431363516, 0.012, 0.23600000000000002, 0.9540000000000001, 192.0, 0.0, 48.0, 3.5, 48.0, 14.5, 104.0, 0.0, 0.0, 0.0, 1.644588229454553E9, 0.0, 2022-02-12 01:03:49.454
0.0, -5245.0380021379, -4665.7478410897065, -2954.408878613577, -6499.0826248029025, -4319.85459564383, -2384.4617467477024, -4399.7844338160085, -3094.889592515182, -5002.409816075542, -6059.4908666003785, -4651.710945571774, -4295.893525587741, -3728.606251312048, -5316.3624186947845, -5534.71661027868, -8010.328770915124, 0.006, 0.23800000000000002, 0.9500000000000001, 192.0, 0.0, 24.0, 3.5, 56.0, 14.5, 88.0, 0.0, 0.0, 0.0, 1.644588229543781E9, 0.0, 2022-02-12 01:03:49.543
2.0, -10490.366576953718, -9311.51322263637, -5906.001437425785, -12998.52287751709, -8642.346697133386, -4772.700938308351, -8800.753510088147, -6192.483746109456, -9134.532110039248, -11170.30664328416, -8163.348813456156, -6908.521879735217, -6237.6342699091765, -9368.621929719679, -10551.90092943918, -15524.046483522236, 0.006, 0.23800000000000002, 0.9500000000000001, 192.0, 0.0, 0.0, 0.0, 0.0, 0.0, 0.0, 0.0, 0.0, 0.0, 1.64458822955001E9, 0.0, 2022-02-12 01:03:49.550
4.0, -10467.232521442476, -9331.786254857332, -5907.320190348648, -13008.178831121782, -8659.579892108428, -4777.081880221592, -8819.998362064167, -6198.4293101345675, -9142.176406642962, -11173.927625885919, -8168.087383280681, -6898.4635947303295, -6236.248461752947, -9367.906673897109, -10555.678374252126, -15560.859806640126, 0.006, 0.23800000000000002, 0.9500000000000001, 192.0, 0.0, 0.0, 0.0, 0.0, 0.0, 0.0, 0.0, 0.0, 0.0, 1.644588229557772E9, 0.0, 2022-02-12 01:03:49.557
6.0, -10490.50068742045, -9324.544289653813, -5904.54857403619, -12987.414060522802, -8646.99585998009, -4776.947769754859, -8807.9284200583, -6196.685874067053, -9124.026790145253, -11175.536951486702, -8165.271063479312, -6890.618132426516, -6242.238729266969, -9376.04270887884, -10554.51608354045, -15536.049370294735, 0.005, 0.24, 0.9480000000000001, 192.0, 0.0, 16.0, 3.5, 72.0, 14.5, 72.0, 0.0, 0.0, 0.0, 1.644588229565674E9, 0.0, 2022-02-12 01:03:49.565
8.0, -10491.350053709753, -9330.959240312486, -5897.038387899207, -12995.773612949088, -8656.316537417953, -4779.920551767415, -8808.487213669683, -6196.060025222305, -9136.610822273591, -11166.886826382497, -8148.820179560206, -6876.357719464031, -6234.259156496425, -9370.253607064917, -10553.599662017783, -15545.437102965965, 0.005, 0.24, 0.9480000000000001, 192.0, 0.0, 0.0, 0.0, 0.0, 0.0, 0.0, 0.0, 0.0, 0.0, 1.644588229572354E9, 0.0, 2022-02-12 01:03:49.572
10.0, -10479.481277403984, -9326.712408865978, -5900.391149567503, -12996.645330982845, -8656.47299962914, -4781.485173879287, -8815.416254450829, -6197.803461289819, -9133.459226305393, -11174.285253797205, -8139.566557355709, -6870.926245561391, -6245.725601401998, -9362.586958716745, -10551.722115483537, -15553.819007136704, 0.005, 0.24, 0.9480000000000001, 192.0, 0.0, 0.0, 0.0, 0.0, 0.0, 0.0, 0.0, 0.0, 0.0, 1.644588229580341E9, 0.0, 2022-02-12 01:03:49.580
12.0, -10462.337489406764, -9316.36355118317, -5906.202603125883, -12991.28091231357, -8649.543958847995, -4773.930284253393, -8805.492079912672, -6193.243705420936, -9124.965563412377, -11166.573901960124, -8151.234167961379, -6877.296492731153, -6227.017191292905, -9371.393546032137, -10555.477208552029, -15527.958038801915, 0.005, 0.24, 0.9480000000000001, 192.0, 0.0, 0.0, 0.0, 0.0, 0.0, 0.0, 0.0, 0.0, 0.0, 1.64458822958839E9, 0.0, 2022-02-12 01:03:49.588
14.0, -10466.606672597727, -9311.93790578102, -5904.772091480743, -13002.210915352216, -8655.355412406376, -4767.381223127988, -8802.184021733286, -6179.475030836467, -9140.500025808815, -11184.969387646841, -8150.541263883265, -6880.090460788067, -6239.958851332528, -9360.351784271215, -10553.689068995604, -15554.333097259176, 0.005, 0.24, 0.9480000000000001, 192.0, 0.0, 0.0, 0.0, 0.0, 0.0, 0.0, 0.0, 0.0, 0.0, 1.644588229594974E9, 0.0, 2022-02-12 01:03:49.594
16.0, -10471.21113195552, -9302.728987065433, -5905.308533347671, -12992.28674081406, -8636.691705786194, -4755.601853800042, -8795.143222229866, -6178.022167446872, -9120.785787199235, -11164.383431003504, -8151.547092383754, -6894.395577239464, -6236.114351286215, -9362.18462731655, -10550.76099047196, -15524.605277133618, 0.0055, 0.239, 0.9500000000000001, 192.0, 0.0, 24.0, 3.5, 56.0, 14.5, 96.0, 0.0, 0.0, 0.0, 1.644588229609994E9, 0.0, 2022-02-12 01:03:49.609
18.0, -10447.920614233091, -9303.377187654638, -5891.45045178538, -12989.828048923977, -8644.246595412087, -4757.971138712303, -8791.209315205731, -6178.536257569344, -9118.28239182024, -11151.218253519328, -8134.090379964159, -6880.2692747437095, -6222.926822057584, -9358.429534248058, -10548.816388704347, -15529.343846958143, 0.0055, 0.239, 0.9500000000000001, 192.0, 0.0, 0.0, 0.0, 0.0, 0.0, 0.0, 0.0, 0.0, 0.0, 1.644588229618692E9, 0.0, 2022-02-12 01:03:49.618
20.0, -10459.252948671932, -9307.93694352352, -5896.3678355655475, -12991.325615802481, -8643.71015354516, -4761.8379905030715, -8796.193754219265, -6190.293275152836, -9123.020961644765, -11173.100611341073, -8132.346943896645, -6857.112867488011, -6223.239746479959, -9345.666688164078, -10546.804731703369, -15541.726713386382, 0.0055, 0.239, 0.9500000000000001, 192.0, 0.0, 0.0, 0.0, 0.0, 0.0, 0.0, 0.0, 0.0, 0.0, 1.644588229624759E9, 0.0, 2022-02-12 01:03:49.624
22.0, -10460.079963216778, -9303.287780676816, -5897.843050699598, -12991.415022780302, -8639.32921163192, -4761.502714336242, -8793.64565535136, -6181.799612259819, -9115.443720274416, -11163.981099603308, -8145.08743823617, -6869.093402516056, -6226.145473259148, -9356.574339458268, -10548.972850915534, -15517.899753797026, 0.0055, 0.239, 0.9500000000000001, 192.0, 0.0, 0.0, 0.0, 0.0, 0.0, 0.0, 0.0, 0.0, 0.0, 1.644588229632553E9, 0.0, 2022-02-12 01:03:49.632
24.0, -10441.058628685312, -9291.08372820422, -5897.26190534376, -13005.161345620316, -8648.694592558693, -4763.380260870488, -8799.211239720731, -6184.973559972473, -9126.686647735434, -11174.128791586018, -8140.214757944913, -6873.943731062857, -6225.698438370042, -9353.512150467892, -10550.269252093942, -15551.784998391271, 0.0055, 0.239, 0.9500000000000001, 192.0, 0.0, 0.0, 0.0, 0.0, 0.0, 0.0, 0.0, 0.0, 0.0, 1.64458822964065E9, 0.0, 2022-02-12 01:03:49.640
26.0, -10437.616460039195, -9282.165382166551, -5891.584562252112, -12986.698804700232, -8636.982278464113, -4759.044022446158, -8797.937190286779, -6191.902600753618, -9104.93840038042, -11143.819826104622, -8141.399400401045, -6874.569579907607, -6231.644002395154, -9354.920310368576, -10546.782379958913, -15523.733559099861, 0.00675, 0.2365, 0.9510000000000001, 192.0, 0.0, 32.0, 3.5, 40.0, 14.5, 96.0, 0.0, 0.0, 0.0, 1.644588229647762E9, 0.0, 2022-02-12 01:03:49.647
28.0, -10453.73206779147, -9277.650329786578, -5891.182230851917, -12990.208028579716, -8645.878272757325, -4750.595063042052, -8797.870135053414, -6190.22621991947, -9096.914124120965, -11123.926773539397, -8124.412074615011, -6865.561826892117, -6193.623685076676, -9342.358629984694, -10550.47041779404, -15527.30983821271, 0.00675, 0.2365, 0.9510000000000001, 192.0, 0.0, 0.0, 0.0, 0.0, 0.0, 0.0, 0.0, 0.0, 0.0, 1.644588229656109E9, 0.0, 2022-02-12 01:03:49.656
30.0, -10492.937027566079, -9318.486966906425, -5901.93341993492, -12996.24299958265, -8649.298089658987, -4756.60768230053, -8794.897353040857, -6191.164993186592, -9135.627345517558, -11168.317338027637, -8135.587946842665, -6871.149763005944, -6237.477807697989, -9348.304194009805, -10547.117656125743, -15539.938573829959, 0.00675, 0.2365, 0.9510000000000001, 192.0, 0.0, 0.0, 0.0, 0.0, 0.0, 0.0, 0.0, 0.0, 0.0, 1.644588229662053E9, 0.0, 2022-02-12 01:03:49.662
32.0, -10495.216905500522, -9333.08265603574, -5900.614667012056, -12988.24107506765, -8639.508025587562, -4749.633938030474, -8785.107288969433, -6187.544010584833, -9129.52531928126, -11178.532085243713, -8145.310955680723, -6866.902931559436, -6233.499197184944, -9346.337240497738, -10544.726019469026, -15513.049425250225, 0.00675, 0.2365, 0.9510000000000001, 192.0, 0.0, 0.0, 0.0, 0.0, 0.0, 0.0, 0.0, 0.0, 0.0, 1.644588229669554E9, 0.0, 2022-02-12 01:03:49.669
34.0, -10451.586300323761, -9312.474347647947, -5904.302704847182, -12992.018519880596, -8645.76651403505, -4747.085839162569, -8787.186001203776, -6177.8210017467745, -9144.635098533046, -11164.249320536772, -8153.290528451268, -6853.156608719422, -6230.437008194567, -9339.162330527584, -10544.524853768928, -15541.83847210866, 0.00675, 0.2365, 0.9510000000000001, 192.0, 0.0, 0.0, 0.0, 0.0, 0.0, 0.0, 0.0, 0.0, 0.0, 1.64458822967753E9, 0.0, 2022-02-12 01:03:49.677
36.0, -10505.006969571945, -9327.98645829993, -5910.672952016945, -12989.023386123585, -8639.731543032116, -4749.879807219482, -8793.377434417896, -6185.241780905936, -9129.52531928126, -11155.465084965836, -8166.1204297686145, -6879.285797987676, -6232.448665195545, -9348.058324820797, -10546.737676470004, -15515.351654929122, 0.007375, 0.23625000000000002, 0.9505000000000001, 192.0, 0.0, 32.0, 3.5, 48.0, 14.5, 88.0, 0.0, 0.0, 0.0, 1.644588229685786E9, 0.0, 2022-02-12 01:03:49.685
38.0, -10515.646399932672, -9331.6521443906, -5898.290085588705, -12997.293531572048, -8639.865653498848, -4753.076106676592, -8791.723405328203, -6186.247609406425, -9149.820703246678, -11164.20461704786, -8155.3245371967005, -6886.3713009800085, -6225.407865692123, -9354.786199901844, -10551.252728849975, -15526.97456204588, 0.007375, 0.23625000000000002, 0.9505000000000001, 192.0, 0.0, 0.0, 0.0, 0.0, 0.0, 0.0, 0.0, 0.0, 0.0, 1.644588229692128E9, 0.0, 2022-02-12 01:03:49.692
40.0, -10504.783452127393, -9338.625888660657, -5901.486385045813, -12997.986435650164, -8639.440970354197, -4755.534798566675, -8792.326902428496, -6187.923990240573, -9148.8595782351, -11155.800361132666, -8143.679278335486, -6869.562789149617, -6227.464226182012, -9344.683211408044, -10540.456836278063, -15539.469187196397, 0.007375, 0.23625000000000002, 0.9505000000000001, 192.0, 0.0, 0.0, 0.0, 0.0, 0.0, 0.0, 0.0, 0.0, 0.0, 1.64458822970069E9, 0.0, 2022-02-12 01:03:49.700
42.0, -10482.208190227531, -9331.540385668324, -5896.837222199109, -12987.883447156364, -8642.972545978135, -4754.216045643812, -8798.630094364893, -6192.751967042919, -9142.444627576426, -11161.835332135599, -8154.631633118586, -6865.74064084776, -6234.952060574539, -9345.84550211972, -10550.001031160478, -15513.02707350577, 0.007375, 0.23625000000000002, 0.9505000000000001, 192.0, 0.0, 0.0, 0.0, 0.0, 0.0, 0.0, 0.0, 0.0, 0.0, 1.644588229708202E9, 0.0, 2022-02-12 01:03:49.708
44.0, -10473.155733723133, -9316.296495949806, -5894.624399498034, -13004.088461886462, -8656.897682773792, -4761.100382936047, -8805.514431657128, -6199.233972934959, -9146.57970030066, -11155.532140199202, -8156.978566286393, -6859.97389077829, -6237.477807697989, -9334.021429302864, -10553.554958528872, -15548.208719278422, 0.007375, 0.23625000000000002, 0.9505000000000001, 192.0, 0.0, 0.0, 0.0, 0.0, 0.0, 0.0, 0.0, 0.0, 0.0, 1.644588229715574E9, 0.0, 2022-02-12 01:03:49.715
46.0, -10472.97691976749, -9295.621132328646, -5896.300780332182, -12993.359624547915, -8643.531339589517, -4760.049850946647, -8801.669931610815, -6199.345731657235, -9144.121008410575, -11157.990832089286, -8154.452819162944, -6870.725079861293, -6226.771322103897, -9345.219653274973, -10556.483037052518, -15527.30983821271, 0.007375, 0.23625000000000002, 0.9505000000000001, 192.0, 0.0, 0.0, 3.5, 56.0, 14.5, 72.0, 0.0, 0.0, 0.0, 1.644588229729947E9, 0.0, 2022-02-12 01:03:49.729
48.0, -10483.616350128217, -9309.769786568855, -5886.35425404957, -12999.863982184408, -8646.101790201878, -4754.216045643812, -8799.613571120926, -6187.074623951272, -9138.108389152098, -11152.626413420012, -8146.89792953705, -6871.1721147503995, -6234.28150824088, -9342.313926495783, -10551.789170716902, -15533.45656793792, 0.007375, 0.23625000000000002, 0.9505000000000001, 192.0, 0.0, 0.0, 0.0, 0.0, 0.0, 0.0, 0.0, 0.0, 0.0, 1.644588229737768E9, 0.0, 2022-02-12 01:03:49.737
50.0, -10487.751422852449, -9323.56081289778, -5897.753643721777, -12998.969912406197, -8646.727639046627, -4758.239359645768, -8799.144184487366, -6192.081414709261, -9137.013153673786, -11170.239588050794, -8143.165188213014, -6867.439373426363, -6221.89864181264, -9339.98934507243, -10549.933975927112, -15545.571213432697, 0.007375, 0.23625000000000002, 0.9505000000000001, 192.0, 0.0, 0.0, 0.0, 0.0, 0.0, 0.0, 0.0, 0.0, 0.0, 1.644588229744885E9, 0.0, 2022-02-12 01:03:49.744
52.0, -10463.92446326309, -9306.975818511943, -5890.891658173998, -12989.693938457243, -8635.127083674322, -4754.752487510739, -8793.31037918453, -6190.5614960862995, -9134.308592594694, -11161.656518179956, -8151.882368550583, -6862.209065223821, -6231.688705884065, -9350.941699855532, -10557.980603931022, -15521.945419543437, 0.007375, 0.23625000000000002, 0.9505000000000001, 192.0, 0.0, 0.0, 0.0, 0.0, 0.0, 0.0, 0.0, 0.0, 0.0, 1.64458822975247E9, 0.0, 2022-02-12 01:03:49.752
54.0, -10456.168407937099, -9300.69497832, -5885.549591249179, -12995.818316437999, -8633.584813306907, -4743.867187961005, -8787.990664004166, -6182.984254715951, -9131.46992104887, -11131.593421887568, -8132.749275296841, -6848.149817961433, -6219.03761852236, -9337.821225860265, -10553.532606784416, -15549.683934412473, 0.007375, 0.23625000000000002, 0.9505000000000001, 192.0, 0.0, 0.0, 0.0, 0.0, 0.0, 0.0, 0.0, 0.0, 0.0, 1.644588229760514E9, 0.0, 2022-02-12 01:03:49.760
56.0, -10468.171294709598, -9286.345158379694, -5893.909143675464, -12990.632711724367, -8623.079493412912, -4748.114019407513, -8790.427004149795, -6187.432251862557, -9123.065665133676, -11146.703201139355, -8138.046638732749, -6856.352908176531, -6200.329208413268, -9322.197356486005, -10550.358659071762, -15524.135890500056, 0.0046875, 0.23712500000000003, 0.94825, 192.0, 0.0, 8.0, 3.5, 56.0, 14.5, 72.0, 0.0, 0.0, 0.0, 1.64458822976762E9, 0.0, 2022-02-12 01:03:49.767
58.0, -10455.140227692154, -9311.803795314288, -5886.108384860562, -12993.85136292593, -8630.366162105342, -4749.678641519385, -8789.845858793959, -6188.840411763241, -9131.022886159764, -11141.294078981171, -8139.834778289173, -6856.576425621084, -6212.5779643747765, -9329.32756296725, -10553.532606784416, -15533.188347004456, 0.0046875, 0.23712500000000003, 0.94825, 192.0, 0.0, 0.0, 0.0, 0.0, 0.0, 0.0, 0.0, 0.0, 0.0, 1.644588229775144E9, 0.0, 2022-02-12 01:03:49.775
60.0, -10471.479352888984, -9306.327617922738, -5891.45045178538, -12996.533572260569, -8637.809293008959, -4756.093592178058, -8800.351178687952, -6195.210658933003, -9139.583604286147, -11157.141465799985, -8134.783284042273, -6852.128428474478, -6227.017191292905, -9326.332429210237, -10552.683240495115, -15549.996858834847, 0.0046875, 0.23712500000000003, 0.94825, 192.0, 0.0, 0.0, 0.0, 0.0, 0.0, 0.0, 0.0, 0.0, 0.0, 1.644588229782046E9, 0.0, 2022-02-12 01:03:49.782
62.0, -10480.777678582392, -9308.495737134903, -5887.158916849961, -12990.431546024269, -8629.472092327129, -4753.724307265796, -8794.182097218287, -6195.255362421914, -9130.933479181944, -11154.861587865542, -8139.857130033628, -6860.465629156307, -6216.377760932179, -9335.518996181368, -10556.795961474892, -15526.304009712221, 0.0046875, 0.23712500000000003, 0.94825, 192.0, 0.0, 0.0, 0.0, 0.0, 0.0, 0.0, 0.0, 0.0, 0.0, 1.644588229790151E9, 0.0, 2022-02-12 01:03:49.790
64.0, -10472.105201733733, -9317.861118061677, -5888.16474535045, -13005.317807831503, -8635.954098219168, -4753.836065988072, -8787.543629115062, -6188.4604321075, -9139.449493819415, -11162.416477491437, -8136.102036965137, -6855.97292852079, -6222.524490657389, -9330.311039723283, -10551.61035676126, -15554.422504236998, 0.0046875, 0.23712500000000003, 0.94825, 192.0, 0.0, 0.0, 0.0, 0.0, 0.0, 0.0, 0.0, 0.0, 0.0, 1.644588229798101E9, 0.0, 2022-02-12 01:03:49.798
66.0, -10473.043975000855, -9316.520013394358, -5896.703111732378, -12998.612284494911, -8625.560537047451, -4750.840932231061, -8787.096594225955, -6187.812231518296, -9130.151168126007, -11166.886826382497, -8140.617089345109, -6865.383012936475, -6222.27862146838, -9334.691981636523, -10552.973813173034, -15529.120329513591, 0.0053437499999999995, 0.2375625, 0.951125, 192.0, 0.0, 24.0, 3.5, 56.0, 14.5, 104.0, 0.0, 0.0, 0.0, 1.644588229804986E9, 0.0, 2022-02-12 01:03:49.804
68.0, -10471.83698080027, -9312.787272070322, -5888.030634883718, -13007.038892154562, -8623.414769579742, -4744.515388550209, -8779.36289064442, -6182.760737271397, -9133.079246649653, -11153.989869831787, -8147.747295826352, -6864.980681536279, -6214.969601031495, -9330.892185079121, -10552.593833517294, -15534.350637716132, 0.0053437499999999995, 0.2375625, 0.951125, 192.0, 0.0, 0.0, 0.0, 0.0, 0.0, 0.0, 0.0, 0.0, 0.0, 1.644588229812723E9, 0.0, 2022-02-12 01:03:49.812
70.0, -10480.35299543774, -9319.962182040475, -5892.21041109686, -13011.285723601071, -8622.386589334797, -4744.984775183771, -8782.916818012813, -6182.783089015853, -9138.510720552293, -11167.624433949522, -8146.719115581408, -6870.50156241674, -6200.1280427131705, -9324.27606872035, -10545.08364738031, -15544.36421923211, 0.0053437499999999995, 0.2375625, 0.951125, 192.0, 0.0, 0.0, 0.0, 0.0, 0.0, 0.0, 0.0, 0.0, 0.0, 1.644588229820916E9, 0.0, 2022-02-12 01:03:49.820
72.0, -10479.973015782001, -9322.353818697193, -5892.456280285869, -13005.250752598138, -8619.458510811151, -4748.695164763351, -8779.854629022435, -6184.4594698500005, -9136.81198797369, -11164.271672281227, -8155.704516852441, -6879.799888110148, -6211.482728896467, -9336.815397359776, -10547.967022415045, -15518.570306130685, 0.0053437499999999995, 0.2375625, 0.951125, 192.0, 0.0, 0.0, 0.0, 0.0, 0.0, 0.0, 0.0, 0.0, 0.0, 1.644588229827345E9, 0.0, 2022-02-12 01:03:49.827
74.0, -10470.920559277602, -9323.359647197682, -5889.327036062126, -13015.912534703319, -8629.740313260592, -4753.299624121145, -8781.955693001235, -6192.751967042919, -9149.418371846483, -11163.712878669845, -8151.591795872664, -6873.697861873849, -6219.797577833841, -9331.920365324064, -10548.592871259794, -15552.433198980476, 0.0053437499999999995, 0.2375625, 0.951125, 192.0, 0.0, 0.0, 0.0, 0.0, 0.0, 0.0, 0.0, 0.0, 0.0, 1.644588229835632E9, 0.0, 2022-02-12 01:03:49.835
76.0, -10471.859332544725, -9323.247888475405, -5892.992722152797, -13006.547153776546, -8622.185423634699, -4750.550359553142, -8797.221934464209, -6194.383644388157, -9144.210415388396, -11172.11713458504, -8158.744354098363, -6884.113774790022, -6221.339848201257, -9332.859138591188, -10550.403362560673, -15534.440044693953, 0.005671875, 0.23678125, 0.9445625, 192.0, 0.0, 24.0, 3.5, 48.0, 14.5, 40.0, 0.0, 0.0, 0.0, 1.644588229843359E9, 0.0, 2022-02-12 01:03:49.843
78.0, -10459.968204494502, -9295.107042206173, -5887.717710461344, -13023.690941773766, -8623.191252135188, -4744.761257739217, -8770.176323673288, -6173.618873789176, -9142.534034554248, -11146.837311606087, -8170.0543367927485, -6894.283818517187, -6222.926822057584, -9340.235214261438, -10547.497635781483, -15535.289410983254, 0.005671875, 0.23678125, 0.9445625, 192.0, 0.0, 0.0, 0.0, 0.0, 0.0, 0.0, 0.0, 0.0, 0.0, 1.644588229856986E9, 0.0, 2022-02-12 01:03:49.856
80.0, -10490.50068742045, -9329.461673433982, -5889.282332573215, -13016.538383548068, -8625.582888791907, -4755.713612522318, -8786.046062236555, -6188.728653040964, -9135.783807728745, -11156.649727421967, -8157.224435475402, -6891.065167315623, -6214.075531253283, -9336.502472937402, -10547.587042759305, -15550.734466401873, 0.005671875, 0.23678125, 0.9445625, 192.0, 0.0, 0.0, 0.0, 0.0, 0.0, 0.0, 0.0, 0.0, 0.0, 1.644588229865176E9, 0.0, 2022-02-12 01:03:49.865
82.0, -10492.959379310534, -9348.460656220992, -5889.908181417964, -13011.397482323348, -8628.220394637632, -4760.899217235949, -8790.136431471878, -6197.870516523185, -9141.14822639802, -11183.628282979524, -8149.6248423605975, -6868.489905415762, -6218.590583633254, -9346.069019564275, -10559.388763831706, -15528.583887646662, 0.005671875, 0.23678125, 0.9445625, 192.0, 0.0, 0.0, 0.0, 0.0, 0.0, 0.0, 0.0, 0.0, 0.0, 1.644588229872986E9, 0.0, 2022-02-12 01:03:49.872
84.0, -10493.786393855382, -9346.001964330908, -5897.373664066036, -13023.95916270723, -8629.60620279386, -4764.4754963487985, -8775.630149320383, -6193.020187976384, -9163.05293596422, -11198.782765720222, -8147.836702804173, -6873.139068262466, -6211.840356807752, -9345.957260841997, -10559.791095231903, -15564.07845784169, 0.005671875, 0.23678125, 0.9445625, 192.0, 0.0, 0.0, 0.0, 0.0, 0.0, 0.0, 0.0, 0.0, 0.0, 1.644588229880431E9, 0.0, 2022-02-12 01:03:49.880
86.0, -10489.539562408872, -9323.247888475405, -5898.379492566525, -13015.95723819223, -8620.419635822731, -4760.295720135656, -8774.691376053259, -6191.32145539778, -9152.011174203299, -11184.589407991101, -8155.257481963335, -6873.3402339625645, -6233.5215489294, -9345.689039908533, -10554.314917840353, -15541.771416875294, 0.008, 0.23600000000000002, 0.9400000000000001, 192.0, 0.0, 32.0, 3.5, 48.0, 14.5, 48.0, 0.0, 0.0, 0.0, 1.644588229887627E9, 0.0, 2022-02-12 01:03:49.887
88.0, -10479.950664037546, -9315.268315704861, -5896.703111732378, -13020.986380694674, -8628.578022548918, -4754.260749132723, -8779.11702145541, -6179.475030836467, -9145.551520055715, -11163.534064714202, -8153.491694151366, -6869.249864727243, -6225.586679647766, -9350.56172019979, -10558.740563242503, -15544.386570976565, 0.008, 0.23600000000000002, 0.9400000000000001, 192.0, 0.0, 0.0, 0.0, 0.0, 0.0, 0.0, 0.0, 0.0, 0.0, 1.644588229895836E9, 0.0, 2022-02-12 01:03:49.895
90.0, -10489.003120541945, -9337.441246204526, -5898.714768733355, -13020.896973716854, -8630.790845249992, -4759.245188146257, -8791.142259972365, -6200.217449690992, -9152.52526432577, -11186.154030102973, -8150.720077838908, -6870.099231016545, -6226.5478046593435, -9336.234252003938, -10560.886330710213, -15562.044449096258, 0.008, 0.23600000000000002, 0.9400000000000001, 192.0, 0.0, 0.0, 0.0, 0.0, 0.0, 0.0, 0.0, 0.0, 0.0, 1.644588229902839E9, 0.0, 2022-02-12 01:03:49.902
92.0, -10498.770832868915, -9335.630754903646, -5901.441681556903, -13021.232249883682, -8627.393380092786, -4759.178132912891, -8787.45422213724, -6196.171783944582, -9151.38532535855, -11176.855704409565, -8148.864883049117, -6879.643425898961, -6228.738275615964, -9342.001002073408, -10564.350851100786, -15538.262192995811, 0.008, 0.23600000000000002, 0.9400000000000001, 192.0, 0.0, 0.0, 0.0, 0.0, 0.0, 0.0, 0.0, 0.0, 0.0, 1.644588229909627E9, 0.0, 2022-02-12 01:03:49.909
94.0, -10481.06825126031, -9330.93688856803, -5900.145280378495, -13035.894994246364, -8637.898699986781, -4758.41817360141, -8792.30455068404, -6199.278676423869, -9168.797334289233, -11188.210390592862, -8148.440199904467, -6882.370338722509, -6226.570156403799, -9337.463597948981, -10564.283795867419, -15571.722754445405, 0.008, 0.23600000000000002, 0.9400000000000001, 192.0, 0.0, 0.0, 0.0, 0.0, 0.0, 0.0, 0.0, 0.0, 0.0, 1.64458822991726E9, 0.0, 2022-02-12 01:03:49.917
96.0, -10478.721318092505, -9333.462635691481, -5910.6282485280335, -13032.966915722718, -8628.309801615453, -4756.697089278351, -8783.073280224, -6194.9647897439945, -9152.10058118112, -11181.057832367163, -8161.538322155277, -6886.84068761357, -6214.835490564763, -9342.716257895978, -10566.541322057405, -15550.868576868605, 0.008, 0.23600000000000002, 0.9440000000000001, 192.0, 0.0, 32.0, 3.5, 48.0, 14.5, 64.0, 0.0, 0.0, 0.0, 1.644588229925585E9, 0.0, 2022-02-12 01:03:49.925
98.0, -10485.113917006722, -9323.091426264218, -5903.632152513523, -13039.985363481685, -8630.522624316529, -4759.289891635167, -8779.005262733133, -6192.6178565761875, -9157.777924272767, -11186.757527203266, -8163.460572178433, -6889.232324270288, -6227.263060481913, -9341.79983637331, -10562.674470266636, -15555.160111804023, 0.008, 0.23600000000000002, 0.9440000000000001, 192.0, 0.0, 0.0, 0.0, 0.0, 0.0, 0.0, 0.0, 0.0, 0.0, 1.64458822993249E9, 0.0, 2022-02-12 01:03:49.932
100.0, -10493.249951988453, -9327.829996088743, -5908.817757227154, -13045.707410062243, -8637.965755220146, -4763.760240526229, -8785.531972114084, -6197.982275245461, -9158.537883584248, -11192.993663906296, -8157.760877342329, -6878.3917282094635, -6231.37578146169, -9339.005868316397, -10557.958252186567, -15569.487579999875, 0.008, 0.23600000000000002, 0.9440000000000001, 192.0, 0.0, 0.0, 0.0, 0.0, 0.0, 0.0, 0.0, 0.0, 0.0, 1.64458822994033E9, 0.0, 2022-02-12 01:03:49.940
102.0, -10494.702815378048, -9347.655993420602, -5909.063626416162, -13032.363418622426, -8635.395304607786, -4769.3258248956, -8792.349254172952, -6204.665446837598, -9162.62825281957, -11183.047137623686, -8162.588854144676, -6883.018539311713, -6237.120179786704, -9355.479103979958, -10564.440258078606, -15544.40892272102, 0.008, 0.23600000000000002, 0.9440000000000001, 192.0, 0.0, 0.0, 0.0, 0.0, 0.0, 0.0, 0.0, 0.0, 0.0, 1.644588229947984E9, 0.0, 2022-02-12 01:03:49.947
104.0, -10501.564800925828, -9352.931005112054, -5903.4086350689695, -13045.752113551154, -8644.559519834462, -4771.628054574497, -8794.718539085216, -6216.891851054651, -9166.62921507707, -11200.213277365361, -8150.429505160989, -6874.569579907607, -6230.749932616942, -9349.801760888311, -10566.049583679389, -15578.2271120819, 0.008, 0.23600000000000002, 0.9440000000000001, 192.0, 0.0, 0.0, 0.0, 0.0, 0.0, 0.0, 0.0, 0.0, 0.0, 1.644588229956089E9, 0.0, 2022-02-12 01:03:49.956
106.0, -10502.83885035978, -9350.718182410978, -5908.773053738243, -13030.798796510553, -8640.066819198944, -4767.627092316997, -8801.871097310914, -6203.36904565919, -9165.802200532222, -11212.327922860137, -8158.833761076184, -6882.6162079115165, -6235.667316397109, -9349.064153321286, -10570.586987803816, -15559.205777550433, 0.008, 0.23600000000000002, 0.9480000000000001, 192.0, 0.0, 32.0, 3.5, 48.0, 14.5, 80.0, 0.0, 0.0, 0.0, 1.644588229962525E9, 0.0, 2022-02-12 01:03:49.962
108.0, -10486.052690273846, -9347.119551553673, -5904.079187402629, -13037.973706480707, -8641.76555177755, -4765.36956612701, -8797.244286208665, -6202.720845069986, -9166.33864239915, -11203.83425996712, -8158.833761076184, -6880.202219510344, -6218.9705632889945, -9345.107894552695, -10571.682223282127, -15560.211606050922, 0.008, 0.23600000000000002, 0.9480000000000001, 192.0, 0.0, 0.0, 0.0, 0.0, 0.0, 0.0, 0.0, 0.0, 0.0, 1.644588229977601E9, 0.0, 2022-02-12 01:03:49.977
110.0, -10494.278132233398, -9322.756150097388, -5908.728350249333, -13043.159311194338, -8645.76651403505, -4766.956539983337, -8798.428928664796, -6202.363217158701, -9169.937273256453, -11201.59908552159, -8161.694784366463, -6882.683263144882, -6232.292202984358, -9340.659897406089, -10565.334327856819, -15577.46715277042, 0.008, 0.23600000000000002, 0.9480000000000001, 192.0, 0.0, 0.0, 0.0, 0.0, 0.0, 0.0, 0.0, 0.0, 0.0, 1.644588229984992E9, 0.0, 2022-02-12 01:03:49.984
112.0, -10487.706719363538, -9339.341144483227, -5906.001437425785, -13033.34689537846, -8636.132912174811, -4767.783554528183, -8798.384225175885, -6207.347656172235, -9156.883854494556, -11183.181248090417, -8169.763764114829, -6888.807641125637, -6241.054086810838, -9348.862987621187, -10568.038888935911, -15550.846225124149, 0.008, 0.23600000000000002, 0.9480000000000001, 192.0, 0.0, 0.0, 0.0, 0.0, 0.0, 0.0, 0.0, 0.0, 0.0, 1.64458822999214E9, 0.0, 2022-02-12 01:03:49.992
114.0, -10503.17412652661, -9354.339165012738, -5902.02282691274, -13044.858043772942, -8641.005592466068, -4767.716499294817, -8803.614533378426, -6206.319475927291, -9168.95379650042, -11191.272579583238, -8154.877502307595, -6875.284835730176, -6230.481711683477, -9344.079714307753, -10568.463572080562, -15581.870446428115, 0.008, 0.23600000000000002, 0.9480000000000001, 192.0, 0.0, 0.0, 0.0, 0.0, 0.0, 0.0, 0.0, 0.0, 0.0, 1.644588230000348E9, 0.0, 2022-02-12 01:03:50.000
116.0, -10520.608487201749, -9361.223502304972, -5911.477614817335, -13038.018409969618, -8629.919127216235, -4769.862266762527, -8796.439623408272, -6212.197984719037, -9178.363880916106, -11213.356103105081, -8157.783229086785, -6899.067091830622, -6228.894737827151, -9356.864912136187, -10568.977662203033, -15562.826760152193, 0.008, 0.23, 0.9500000000000001, 192.0, 0.0, 32.0, 3.5, 24.0, 14.5, 88.0, 0.0, 0.0, 0.0, 1.644588230008213E9, 0.0, 2022-02-12 01:03:50.008
118.0, -10503.442347460074, -9359.413011004091, -5905.710864747866, -13043.941622250275, -8636.311726130454, -4764.386089370977, -8790.404652405341, -6199.770414801886, -9174.295863425239, -11204.728329745332, -8159.906644810038, -6887.421832969408, -6227.911261071117, -9348.438304476536, -10568.798848247392, -15561.12802757359, 0.008, 0.23, 0.9500000000000001, 192.0, 0.0, 0.0, 0.0, 0.0, 0.0, 0.0, 0.0, 0.0, 0.0, 1.644588230014883E9, 0.0, 2022-02-12 01:03:50.014
120.0, -10501.095414292266, -9343.543272440824, -5915.07624567464, -13045.126264706405, -8642.726676789127, -4771.605702830041, -8798.78655657608, -6205.5148131269, -9174.519380869791, -11200.97323667684, -8163.192351244968, -6890.171097537411, -6217.808272577318, -9351.791066144833, -10567.636557535716, -15580.79756269426, 0.008, 0.23, 0.9500000000000001, 192.0, 0.0, 0.0, 0.0, 0.0, 0.0, 0.0, 0.0, 0.0, 0.0, 1.644588230022804E9, 0.0, 2022-02-12 01:03:50.022
122.0, -10504.470527705018, -9349.667650421577, -5906.180251381427, -13033.01161921163, -8637.362258119852, -4767.113002194525, -8799.702978098749, -6210.5216038848885, -9165.712793554401, -11195.698224985388, -8158.789057587273, -6890.238152770777, -6241.054086810838, -9352.439266734036, -10569.42469709214, -15549.773341390293, 0.008, 0.23, 0.9500000000000001, 192.0, 0.0, 0.0, 0.0, 0.0, 0.0, 0.0, 0.0, 0.0, 0.0, 1.644588230029955E9, 0.0, 2022-02-12 01:03:50.029
124.0, -10498.502611935452, -9336.435417704037, -5901.93341993492, -13041.795854782566, -8645.94532799069, -4767.3588713835325, -8798.227762964698, -6209.091092239749, -9175.882837281566, -11199.766242476255, -8155.346888941156, -6864.935978047369, -6232.292202984358, -9341.375153228659, -10567.70361276908, -15581.17754235, 0.008, 0.23, 0.9500000000000001, 192.0, 0.0, 0.0, 0.0, 0.0, 0.0, 0.0, 0.0, 0.0, 0.0, 1.644588230038003E9, 0.0, 2022-02-12 01:03:50.038
126.0, -10499.284922991386, -9355.657917935601, -5911.365856095059, -13039.471273359213, -8630.679086527716, -4767.560037083631, -8795.903181541345, -6211.415673663101, -9166.450401121427, -11217.804100251687, -8160.3760314436, -6872.446164184352, -6229.498234927444, -9345.398467230614, -10566.876598224235, -15562.826760152193, 0.004, 0.232, 0.9460000000000001, 192.0, 0.0, 16.0, 3.5, 32.0, 14.5, 72.0, 0.0, 0.0, 0.0, 1.644588230044503E9, 0.0, 2022-02-12 01:03:50.044
128.0, -10501.296579992364, -9354.965013857487, -5908.236611871316, -13044.969802495218, -8642.838435511403, -4768.185885928379, -8799.12183274291, -6200.396263646635, -9175.882837281566, -11206.427062323935, -8172.021290304815, -6880.023405554701, -6233.5215489294, -9349.064153321286, -10570.877560481735, -15563.385553763575, 0.004, 0.232, 0.9460000000000001, 192.0, 0.0, 0.0, 0.0, 0.0, 0.0, 0.0, 0.0, 0.0, 0.0, 1.644588230052584E9, 0.0, 2022-02-12 01:03:50.052
130.0, -10506.88451610619, -9342.85036836271, -5909.085978160618, -13045.305078662048, -8645.118313445844, -4766.062470205125, -8800.328826943496, -6202.407920647612, -9175.8157820482, -11211.322094359648, -8157.671470364508, -6884.560809679128, -6237.991897820461, -9351.70165916701, -10574.0962116833, -15579.970548149413, 0.004, 0.232, 0.9460000000000001, 192.0, 0.0, 0.0, 0.0, 0.0, 0.0, 0.0, 0.0, 0.0, 0.0, 1.644588230060812E9, 0.0, 2022-02-12 01:03:50.060
132.0, -10502.324760237309, -9343.722086396467, -5908.16955663795, -13029.591802309968, -8634.322420873932, -4762.642653303463, -8793.153916973342, -6200.060987479805, -9164.684613309457, -11198.536896531212, -8153.759915084829, -6889.03115857019, -6223.284449968869, -9348.974746343463, -10574.029156449933, -15548.588698934163, 0.004, 0.232, 0.9460000000000001, 192.0, 0.0, 0.0, 0.0, 0.0, 0.0, 0.0, 0.0, 0.0, 0.0, 1.644588230067647E9, 0.0, 2022-02-12 01:03:50.067
134.0, -10499.17316426911, -9344.437342219037, -5901.374626323536, -13041.639392571378, -8646.481769857619, -4768.498810350753, -8797.691321097771, -6203.726673570475, -9171.568950601692, -11185.88580916951, -8147.300260937245, -6872.043832784157, -6234.929708830084, -9339.587013672235, -10570.676394781638, -15584.642062740573, 0.004, 0.232, 0.9460000000000001, 192.0, 0.0, 0.0, 0.0, 0.0, 0.0, 0.0, 0.0, 0.0, 0.0, 1.64458823007529E9, 0.0, 2022-02-12 01:03:50.075
136.0, -10492.668806632615, -9335.675458392556, -5912.483443317824, -13039.180700681294, -8641.251461655076, -4775.204333687346, -8803.145146744866, -6215.70720859852, -9167.076249966174, -11194.40182380698, -8161.828894833196, -6873.2284752402875, -6236.002592563938, -9345.242005019427, -10567.837723235813, -15571.767457934317, 0.008, 0.226, 0.9480000000000001, 192.0, 0.0, 32.0, 3.5, 8.0, 14.5, 80.0, 0.0, 0.0, 0.0, 1.644588230083066E9, 0.0, 2022-02-12 01:03:50.083
138.0, -10496.200382256555, -9352.32750801176, -5907.186079881916, -13045.349782150959, -8645.207720423665, -4775.249037176256, -8804.910934556834, -6209.4040166621235, -9164.77402028728, -11175.201675319871, -8168.824990847706, -6884.918437590413, -6238.036601309372, -9349.04180157683, -10571.771630259947, -15575.567254491718, 0.008, 0.226, 0.9480000000000001, 192.0, 0.0, 0.0, 0.0, 0.0, 0.0, 0.0, 0.0, 0.0, 0.0, 1.644588230091231E9, 0.0, 2022-02-12 01:03:50.091
140.0, -10506.45983296154, -9353.42274349007, -5920.753588766288, -13047.406142640846, -8657.009441496068, -4779.13824071148, -8808.353103202951, -6211.259211451914, -9174.944064014444, -11213.959600205375, -8153.0893627511705, -6883.532629434184, -6230.213490750014, -9347.655993420602, -10573.626825049738, -15590.27470234331, 0.008, 0.226, 0.9480000000000001, 192.0, 0.0, 0.0, 0.0, 0.0, 0.0, 0.0, 0.0, 0.0, 0.0, 1.644588230104936E9, 0.0, 2022-02-12 01:03:50.104
142.0, -10496.870934590213, -9349.958223099497, -5918.3172486206595, -13040.812378026532, -8652.33792690491, -4777.417156388421, -8807.682550869293, -6211.818005063296, -9174.273511680783, -11217.111196173573, -8161.337156455178, -6887.3100742471315, -6238.550691431844, -9354.249758034915, -10581.896970498201, -15561.910338629526, 0.008, 0.226, 0.9480000000000001, 192.0, 0.0, 0.0, 0.0, 0.0, 0.0, 0.0, 0.0, 0.0, 0.0, 1.644588230112745E9, 0.0, 2022-02-12 01:03:50.112
144.0, -10516.093434821778, -9359.658880193101, -5908.460129315869, -13055.743343322676, -8658.70817407467, -4780.166420956423, -8806.341446201974, -6222.7256563574865, -9181.023738506286, -11209.824527481143, -8166.925092569005, -6887.846516114058, -6253.034621838882, -9357.624871447668, -10578.81242976337, -15593.292187844776, 0.008, 0.226, 0.9480000000000001, 192.0, 0.0, 0.0, 0.0, 0.0, 0.0, 0.0, 0.0, 0.0, 0.0, 1.644588230120171E9, 0.0, 2022-02-12 01:03:50.120
146.0, -10522.307219780352, -9365.693851196034, -5913.869251474053, -13039.135997192383, -8654.327232161431, -4779.115888967024, -8815.528013173105, -6219.842281322752, -9181.135497228563, -11211.947943204397, -8161.918301811016, -6888.6064754255385, -6242.194025778059, -9357.46840923648, -10575.884351239723, -15577.020117881313, 0.01, 0.228, 0.9460000000000001, 192.0, 0.0, 40.0, 3.5, 16.0, 14.5, 72.0, 0.0, 0.0, 0.0, 1.64458823012729E9, 0.0, 2022-02-12 01:03:50.127
148.0, -10497.139155523677, -9355.099124324219, -5903.095710646595, -13039.650087314856, -8659.021098497045, -4772.186848185879, -8802.541649644572, -6214.701380098031, -9177.402755904526, -11195.318245329649, -8163.080592522692, -6875.061318285623, -6237.857787353729, -9354.026240590363, -10582.053432709388, -15571.521588745307, 0.01, 0.228, 0.9460000000000001, 192.0, 0.0, 0.0, 0.0, 0.0, 0.0, 0.0, 0.0, 0.0, 0.0, 1.64458823013684E9, 0.0, 2022-02-12 01:03:50.136
150.0, -10488.086699019277, -9334.155539769596, -5910.3376758501145, -13053.77638981061, -8666.464229400663, -4783.005092502248, -8812.93521081629, -6223.977354046983, -9182.00721526232, -11215.658332783978, -8158.342022698167, -6886.147783535455, -6246.820836880307, -9344.61615617468, -10579.930016986134, -15592.956911677948, 0.01, 0.228, 0.9460000000000001, 192.0, 0.0, 0.0, 0.0, 0.0, 0.0, 0.0, 0.0, 0.0, 0.0, 1.644588230143342E9, 0.0, 2022-02-12 01:03:50.143
152.0, -10492.244123487964, -9339.98934507243, -5907.1637281374615, -13041.304116404548, -8659.199912452688, -4782.669816335419, -8811.482347426694, -6222.770359846397, -9167.52328485528, -11194.871210440542, -8162.991185544871, -6889.299379503654, -6234.773246618896, -9354.339165012738, -10582.701633298593, -15566.626556709596, 0.01, 0.228, 0.9460000000000001, 192.0, 0.0, 0.0, 0.0, 0.0, 0.0, 0.0, 0.0, 0.0, 0.0, 1.644588230150012E9, 0.0, 2022-02-12 01:03:50.150
154.0, -10521.27903953541, -9368.7113366975, -5904.325056591637, -13053.105837476951, -8672.990938781611, -4785.732005325795, -8808.64367588087, -6225.385513947668, -9186.231694964374, -11199.341559331604, -8157.067973264215, -6875.173077007899, -6252.14055206067, -9359.27890053736, -10586.18850543362, -15596.108507646146, 0.004, 0.228, 0.9440000000000001, 192.0, 127.5, 120.0, 3.5, 16.0, 14.5, 56.0, 0.0, 0.0, 0.0, 1.644588230157055E9, 0.0, 2022-02-12 01:03:50.157
156.0, -10521.99429535798, -9367.459639008002, -5912.997533440296, -13035.894994246364, -8667.738278834615, -4780.725214567807, -8816.913821329335, -6225.6090313922205, -9188.802145576734, -11227.057722456184, -8153.826970318195, -6877.9223415759025, -6244.8538833682405, -9353.333336512249, -10589.965950246567, -15575.567254491718, 0.004, 0.228, 0.9440000000000001, 192.0, 0.0, 0.0, 0.0, 0.0, 0.0, 0.0, 0.0, 0.0, 0.0, 1.644588230165595E9, 0.0, 2022-02-12 01:03:50.165
158.0, -10496.222734001009, -9336.435417704037, -5906.202603125883, -13038.778369281099, -8668.43118291273, -4778.065356977625, -8815.103330028454, -6229.721752371997, -9174.765250058801, -11202.135527388516, -8153.826970318195, -6862.387879179464, -6250.240653781969, -9348.438304476536, -10596.313845671875, -15574.427315524497, 0.004, 0.228, 0.9440000000000001, 192.0, 0.0, 0.0, 0.0, 0.0, 0.0, 0.0, 0.0, 0.0, 0.0, 1.644588230173182E9, 0.0, 2022-02-12 01:03:50.173
160.0, -10516.048731332867, -9349.935871355043, -5917.043199186707, -13054.044610744073, -8670.554598635985, -4786.536668126187, -8816.779710862602, -6220.7363511009635, -9184.398851919039, -11196.25701859677, -8162.432391933488, -6878.570542165106, -6252.654642183143, -9354.830903390754, -10593.944560759612, -15594.342719834176, 0.004, 0.228, 0.9440000000000001, 192.0, 0.0, 0.0, 0.0, 0.0, 0.0, 0.0, 0.0, 0.0, 0.0, 1.644588230179621E9, 0.0, 2022-02-12 01:03:50.179
162.0, -10518.529774967406, -9353.690964423533, -5920.083036432628, -13044.612174583934, -8666.598339867394, -4781.373415157011, -8815.259792239642, -6223.776188346886, -9191.283189211272, -11221.782710764732, -8177.184543273991, -6890.104042304045, -6245.435028724079, -9358.675403437068, -10595.464479382574, -15568.302937543744, 0.004, 0.228, 0.9440000000000001, 192.0, 0.0, 0.0, 0.0, 0.0, 0.0, 0.0, 0.0, 0.0, 0.0, 1.644588230188055E9, 0.0, 2022-02-12 01:03:50.188
164.0, -10512.383045242197, -9376.221522834483, -5914.36098985207, -13052.502340376657, -8672.722717848148, -4781.462822134831, -8812.64463813837, -6223.262098224413, -9195.440613679959, -11230.231670168838, -8166.478057679899, -6881.40921371093, -6246.6196711802095, -9347.879510865154, -10597.587895105828, -15598.924827447514, -0.001, 0.233, 0.9470000000000001, 192.0, 127.5, 104.0, 3.5, 56.0, 14.5, 88.0, 0.0, 0.0, 0.0, 1.644588230195656E9, 0.0, 2022-02-12 01:03:50.195
166.0, -10510.907830108146, -9354.383868501649, -5916.506757319779, -13039.359514636937, -8662.105639231879, -4777.439508132877, -8804.821527579013, -6218.948211544539, -9188.131593243073, -11218.139376418518, -8165.002842545849, -6883.130298033989, -6258.041412596872, -9346.046667819819, -10592.536400858928, -15579.277644071299, -0.001, 0.233, 0.9470000000000001, 192.0, 0.0, 0.0, 0.0, 0.0, 0.0, 0.0, 0.0, 0.0, 0.0, 1.644588230202744E9, 0.0, 2022-02-12 01:03:50.202
168.0, -10508.471489962518, -9352.975708600963, -5911.231745628327, -13043.271069916615, -8671.873351558846, -4780.077013978603, -8807.816661336024, -6225.318458714301, -9175.234636692363, -11189.842067938098, -8155.726868596897, -6874.301358974142, -6257.281453285391, -9344.996135830419, -10596.604418349794, -15577.780077192794, -0.001, 0.233, 0.9470000000000001, 192.0, 0.0, 0.0, 0.0, 0.0, 0.0, 0.0, 0.0, 0.0, 0.0, 1.644588230210743E9, 0.0, 2022-02-12 01:03:50.210
170.0, -10515.445234232573, -9358.742458670433, -5921.357085866581, -13046.646183329367, -8685.262046487576, -4786.044929748169, -8823.149958032365, -6228.13477851567, -9194.255971223829, -11216.574754306646, -8153.871673807106, -6862.320823946098, -6247.469037469511, -9344.571452685768, -10596.67147358316, -15597.382557080098, -0.001, 0.233, 0.9470000000000001, 192.0, 0.0, 0.0, 0.0, 0.0, 0.0, 0.0, 0.0, 0.0, 0.0, 1.644588230225225E9, 0.0, 2022-02-12 01:03:50.225
172.0, -10526.688161693593, -9367.258473307906, -5923.927536478942, -13046.065037973529, -8678.869447573357, -4786.871944293016, -8825.429835966806, -6233.052162295838, -9193.093680512153, -11216.306533373181, -8169.987281559383, -6882.213876511321, -6249.994784592961, -9356.887263880642, -10603.57816261985, -15573.533245746285, -0.001, 0.233, 0.9470000000000001, 192.0, 0.0, 0.0, 0.0, 0.0, 0.0, 0.0, 0.0, 0.0, 0.0, 1.644588230231884E9, 0.0, 2022-02-12 01:03:50.231
174.0, -10505.565763183327, -9362.743420927933, -5924.911013234975, -13052.904671776852, -8685.642026143316, -4789.822374561117, -8819.864251597435, -6229.475883182989, -9194.412433435016, -11218.27348688525, -8164.175828001003, -6878.995225309757, -6255.4262584956, -9362.832827905755, -10603.019369008467, -15604.311597861242, 0.0035, 0.2315, 0.9445000000000001, 192.0, 0.0, 32.0, 3.5, 24.0, 14.5, 56.0, 0.0, 0.0, 0.0, 1.644588230239847E9, 0.0, 2022-02-12 01:03:50.239
176.0, -10527.381065771708, -9367.61610121919, -5928.241423158815, -13046.53442460709, -8681.708119119183, -4781.127545968002, -8832.492987214684, -6235.264984996914, -9194.032453779275, -11210.74094900381, -8168.847342592162, -6883.778498623193, -6266.71388944553, -9355.434400491047, -10602.214706208075, -15585.334966818687, 0.0035, 0.2315, 0.9445000000000001, 192.0, 0.0, 0.0, 0.0, 0.0, 0.0, 0.0, 0.0, 0.0, 0.0, 1.644588230248151E9, 0.0, 2022-02-12 01:03:50.248
178.0, -10521.480205235506, -9364.531560484358, -5924.709847534878, -13043.136959449883, -8692.638122157827, -4782.3792436574995, -8843.020658853133, -6240.227072265991, -9195.39591019105, -11214.294876372203, -8159.034926776282, -6879.621074154506, -6264.635177211187, -9346.225481775462, -10608.540249888927, -15583.166847606522, 0.0035, 0.2315, 0.9445000000000001, 192.0, 0.0, 0.0, 0.0, 0.0, 0.0, 0.0, 0.0, 0.0, 0.0, 1.644588230255068E9, 0.0, 2022-02-12 01:03:50.255
180.0, -10507.376254484208, -9357.691926681033, -5926.140359180017, -13047.897881018864, -8690.604113412395, -4786.044929748169, -8833.096484314978, -6241.456418211033, -9191.327892700183, -11210.204507136883, -8152.03883076177, -6869.831010083081, -6263.606996966243, -9341.41985671757, -10610.596610378816, -15606.256199628855, 0.0035, 0.2315, 0.9445000000000001, 192.0, 0.0, 0.0, 0.0, 0.0, 0.0, 0.0, 0.0, 0.0, 0.0, 1.644588230262424E9, 0.0, 2022-02-12 01:03:50.262
182.0, -10517.501594722462, -9351.18756904454, -5928.442588858913, -13038.979534981196, -8681.663415630272, -4781.976912257303, -8826.010981322645, -6242.082267055782, -9184.689424596956, -11213.31139961617, -8163.460572178433, -6863.773687335693, -6261.438877754078, -9348.058324820797, -10609.568430133872, -15577.601263237151, 0.0035, 0.2315, 0.9445000000000001, 192.0, 0.0, 0.0, 0.0, 0.0, 0.0, 0.0, 0.0, 0.0, 0.0, 1.644588230270561E9, 0.0, 2022-02-12 01:03:50.270
184.0, -10500.581324169794, -9353.646260934624, -5923.3687428675585, -13056.279785189605, -8690.782927368036, -4782.80392680215, -8826.45801621175, -6242.462246711522, -9198.972189303899, -11206.136489646016, -8170.881351337594, -6885.387824223974, -6263.785810921885, -9351.61225218919, -10611.133052245743, -15607.597304296174, 0.00475, 0.23475000000000001, 0.94425, 192.0, 0.0, 24.0, 3.5, 56.0, 14.5, 64.0, 0.0, 0.0, 0.0, 1.644588230277435E9, 0.0, 2022-02-12 01:03:50.277
186.0, -10518.038036589389, -9370.231255320461, -5931.057742960184, -13042.220537927216, -8681.23873248562, -4778.4453366333655, -8829.073170313022, -6234.415618707611, -9183.594189118647, -11217.31236187367, -8162.164171000025, -6891.22162952681, -6248.161941547625, -9352.506321967403, -10607.646180110714, -15587.41367905303, 0.00475, 0.23475000000000001, 0.94425, 192.0, 0.0, 0.0, 0.0, 0.0, 0.0, 0.0, 0.0, 0.0, 0.0, 1.644588230284836E9, 0.0, 2022-02-12 01:03:50.284
188.0, -10498.480260190996, -9375.305101311815, -5929.940155737419, -13040.208880926239, -8684.032700542533, -4771.382185385488, -8812.331713715997, -6215.237821964958, -9186.902247298032, -11210.226858881339, -8164.645214634564, -6870.322748461098, -6267.585607479287, -9341.218691017471, -10608.62965686675, -15577.333042303688, 0.00475, 0.23475000000000001, 0.94425, 192.0, 0.0, 0.0, 0.0, 0.0, 0.0, 0.0, 0.0, 0.0, 0.0, 1.644588230292159E9, 0.0, 2022-02-12 01:03:50.292
190.0, -10538.400475788174, -9366.140886085139, -5929.716638292866, -13048.702543819254, -8694.113337291878, -4778.132412210991, -8819.618382408427, -6223.597374391244, -9201.788509105267, -11226.320114889159, -8156.5538831417425, -6853.380126163975, -6265.730412689497, -9334.826092103254, -10601.208877707586, -15595.952045434959, 0.00475, 0.23475000000000001, 0.94425, 192.0, 0.0, 0.0, 0.0, 0.0, 0.0, 0.0, 0.0, 0.0, 0.0, 1.644588230300288E9, 0.0, 2022-02-12 01:03:50.300
192.0, -10529.70564719506, -9363.257511050406, -5926.989725469319, -13043.91927050582, -8688.950084322702, -4783.228609946801, -8820.043065553078, -6227.5983366487435, -9196.379386947083, -11218.251135140794, -8160.9571767994385, -6868.042870526657, -6262.131781832192, -9349.265319021382, -10608.652008611203, -15572.75093469035, 0.00475, 0.23475000000000001, 0.94425, 192.0, 0.0, 0.0, 0.0, 0.0, 0.0, 0.0, 0.0, 0.0, 0.0, 1.644588230309614E9, 0.0, 2022-02-12 01:03:50.309
194.0, -10510.17022254112, -9363.168104072583, -5924.821606257154, -13058.179683468305, -8696.1026425484, -4783.765051813728, -8819.88660334189, -6235.242633252458, -9203.174317261495, -11228.622344568055, -8165.606339646142, -6875.687167130372, -6269.887837158184, -9348.170083543073, -10609.031988266945, -15606.077385673212, 0.005375, 0.236375, 0.9441250000000001, 192.0, 0.0, 24.0, 3.5, 56.0, 14.5, 64.0, 0.0, 0.0, 0.0, 1.644588230315917E9, 0.0, 2022-02-12 01:03:50.315
196.0, -10517.389836000186, -9371.885284410153, -5930.096617948606, -13048.948413008264, -8692.056976801989, -4776.433679632388, -8827.620306923427, -6228.827682593785, -9195.306503213227, -11215.41246359497, -8167.99797630286, -6887.846516114058, -6259.896607386662, -9345.644336419624, -10609.81429932288, -15590.31940583222, 0.005375, 0.236375, 0.9441250000000001, 192.0, 0.0, 0.0, 0.0, 0.0, 0.0, 0.0, 0.0, 0.0, 0.0, 1.644588230322746E9, 0.0, 2022-02-12 01:03:50.322
198.0, -10511.019588830422, -9367.794915174833, -5925.492158590813, -13049.596613597467, -8692.973398324657, -4778.557095355642, -8821.831205109502, -6229.051200038338, -9196.714663113913, -11207.902277457986, -8168.959101314438, -6889.388786481475, -6263.182313821592, -9346.046667819819, -10614.57522089186, -15583.569179006718, 0.005375, 0.236375, 0.9441250000000001, 192.0, 0.0, 0.0, 0.0, 0.0, 0.0, 0.0, 0.0, 0.0, 0.0, 1.644588230330856E9, 0.0, 2022-02-12 01:03:50.330
200.0, -10520.004990101455, -9366.207941318506, -5928.241423158815, -13060.146636980371, -8700.1036048059, -4782.535705868686, -8828.089693556987, -6232.739237873464, -9198.413395692516, -11209.690417014412, -8164.667566379019, -6885.276065501698, -6271.363052292234, -9356.350822013716, -10611.937715046133, -15608.759595007848, 0.005375, 0.236375, 0.9441250000000001, 192.0, 0.0, 0.0, 0.0, 0.0, 0.0, 0.0, 0.0, 0.0, 0.0, 1.644588230337378E9, 0.0, 2022-02-12 01:03:50.337
202.0, -10547.430580548118, -9385.318682827794, -5934.03052497274, -13051.96589850973, -8693.845116358414, -4783.161554713435, -8831.688324414292, -6238.818912365307, -9197.362863703116, -11235.618440582568, -8167.99797630286, -6886.997149824757, -6272.190066837081, -9360.508246482403, -10618.017389537978, -15578.405926037542, 0.005375, 0.236375, 0.9441250000000001, 192.0, 0.0, 0.0, 0.0, 0.0, 0.0, 0.0, 0.0, 0.0, 0.0, 1.644588230352685E9, 0.0, 2022-02-12 01:03:50.352
204.0, -10523.60362095876, -9374.791011189343, -5931.951812738396, -13063.052363759562, -8703.299904263009, -4785.508487881242, -8829.676667413314, -6239.534168187877, -9211.10918654313, -11235.998420238308, -8170.166095515025, -6876.536533419673, -6266.602130723254, -9351.23227253345, -10622.57714540686, -15606.904400218058, 0.0096875, 0.2381875, 0.9430625000000001, 192.0, 0.0, 56.0, 3.5, 64.0, 14.5, 56.0, 0.0, 0.0, 0.0, 1.644588230360479E9, 0.0, 2022-02-12 01:03:50.360
206.0, -10516.920449366624, -9370.275958809372, -5931.929460993942, -13051.809436298543, -8696.326159992954, -4782.491002379776, -8830.41427498034, -6232.113389028716, -9196.938180558465, -11232.600955081101, -8168.601473403153, -6878.525838676195, -6267.4291452681, -9352.103990567206, -10621.548965161915, -15590.073536643213, 0.0096875, 0.2381875, 0.9430625000000001, 192.0, 0.0, 0.0, 0.0, 0.0, 0.0, 0.0, 0.0, 0.0, 0.0, 1.644588230367116E9, 0.0, 2022-02-12 01:03:50.367
208.0, -10509.946705096569, -9360.597653460223, -5924.5980888126005, -13049.842482786475, -8699.254238516598, -4782.312188424134, -8828.737894146192, -6234.080342540782, -9197.34051195866, -11218.832280496632, -8163.706441367441, -6879.017577054212, -6273.866447671229, -9353.221577789973, -10614.083482513845, -15582.786867950783, 0.0096875, 0.2381875, 0.9430625000000001, 192.0, 0.0, 0.0, 0.0, 0.0, 0.0, 0.0, 0.0, 0.0, 0.0, 1.644588230375194E9, 0.0, 2022-02-12 01:03:50.375
210.0, -10523.715379681038, -9376.75796470141, -5935.639850573522, -13058.380849168403, -8707.144404309322, -4782.401595401954, -8834.79521689358, -6238.505987942933, -9208.270514997306, -11223.79436776571, -8162.387688444578, -6875.933036319379, -6264.165790577626, -9345.398467230614, -10613.301171457908, -15606.2338478844, 0.0096875, 0.2381875, 0.9430625000000001, 192.0, 0.0, 0.0, 0.0, 0.0, 0.0, 0.0, 0.0, 0.0, 0.0, 1.644588230383263E9, 0.0, 2022-02-12 01:03:50.383
212.0, -10531.918469896134, -9377.875551924177, -5934.388152884025, -13050.088351975484, -8702.562296695984, -4781.1498977124575, -8830.078998813511, -6236.002592563938, -9200.693273626957, -11218.429949096437, -8160.04075527677, -6876.134202019478, -6271.0948313587705, -9349.198263788017, -10620.34197096133, -15577.869484170615, 0.0096875, 0.2381875, 0.9430625000000001, 192.0, 0.0, 0.0, 0.0, 0.0, 0.0, 0.0, 0.0, 0.0, 0.0, 1.644588230390376E9, 0.0, 2022-02-12 01:03:50.390
214.0, -10514.148833054165, -9353.869778379176, -5932.644716816511, -13055.586881111489, -8716.15215732481, -4784.390900658476, -8838.103275072966, -6237.321345486802, -9204.493070184359, -11223.213222409871, -8160.912473310527, -6876.022443297201, -6277.286264572891, -9349.086505065741, -10618.91145931619, -15607.485545573896, 0.00784375, 0.23609375, 0.9475312500000002, 192.0, 0.0, 24.0, 3.5, 40.0, 14.5, 96.0, 0.0, 0.0, 0.0, 1.644588230397843E9, 0.0, 2022-02-12 01:03:50.397
216.0, -10490.41128044263, -9348.527711454357, -5936.779789540743, -13056.25743344515, -8699.030721072046, -4778.355929655544, -8828.961411590744, -6236.002592563938, -9200.290942226762, -11214.831318239132, -8162.879426822595, -6874.904856074436, -6274.693462216075, -9349.444132977025, -10619.62671513876, -15592.711042488938, 0.00784375, 0.23609375, 0.9475312500000002, 192.0, 0.0, 0.0, 0.0, 0.0, 0.0, 0.0, 0.0, 0.0, 0.0, 1.644588230404812E9, 0.0, 2022-02-12 01:03:50.404
218.0, -10523.111882580744, -9354.070944079274, -5932.890586005519, -13052.390581654381, -8699.72362515016, -4782.535705868686, -8823.529937688105, -6239.936499588072, -9192.11020375612, -11206.091786157107, -8168.3556042141445, -6898.128318563499, -6260.656566698142, -9345.80079863081, -10614.686979614136, -15585.759649963338, 0.00784375, 0.23609375, 0.9475312500000002, 192.0, 0.0, 0.0, 0.0, 0.0, 0.0, 0.0, 0.0, 0.0, 0.0, 1.644588230412755E9, 0.0, 2022-02-12 01:03:50.412
220.0, -10531.85141466277, -9374.209865833505, -5938.344411652614, -13061.130113736406, -8711.190070055733, -4785.3743774145105, -8826.547423189571, -6236.270813497403, -9207.73407313038, -11247.509568632791, -8160.398383188056, -6867.685242615372, -6279.163811107137, -9346.694868409022, -10618.129148260254, -15610.681845031006, 0.00784375, 0.23609375, 0.9475312500000002, 192.0, 0.0, 0.0, 0.0, 0.0, 0.0, 0.0, 0.0, 0.0, 0.0, 1.644588230420665E9, 0.0, 2022-02-12 01:03:50.420
222.0, -10524.497690736973, -9362.765772672388, -5935.304574406693, -13042.332296649492, -8701.444709473219, -4783.407423902443, -8826.949754589767, -6236.04729605285, -9199.374520704094, -11208.729292002832, -8167.215665246924, -6874.793097352159, -6278.694424473575, -9358.250720292417, -10623.091235529333, -15577.713021959427, 0.00784375, 0.23609375, 0.9475312500000002, 192.0, 0.0, 0.0, 0.0, 0.0, 0.0, 0.0, 0.0, 0.0, 0.0, 1.644588230427687E9, 0.0, 2022-02-12 01:03:50.427
224.0, -10518.775644156414, -9361.42466800507, -5931.996516227307, -13053.82109329952, -8713.604058456905, -4782.692168079873, -8829.721370902225, -6232.292202984358, -9204.046035295252, -11220.687475286422, -8159.839589576673, -6861.985547779268, -6260.567159720321, -9349.645298677124, -10624.34293321883, -15604.46806007243, 0.004, 0.23800000000000002, 0.9520000000000001, 192.0, 0.0, 16.0, 3.5, 56.0, 14.5, 96.0, 0.0, 0.0, 0.0, 1.644588230435342E9, 0.0, 2022-02-12 01:03:50.435
226.0, -10522.240164546987, -9361.938758127542, -5938.053838974695, -13054.603404355455, -8713.447596245718, -4783.653293091452, -8831.598917436471, -6244.160979290125, -9204.291904484262, -11238.390056895025, -8169.227322247902, -6868.445201926852, -6282.628331497709, -9343.006830573897, -10627.025142553466, -15592.487525044386, 0.004, 0.23800000000000002, 0.9520000000000001, 192.0, 0.0, 0.0, 0.0, 0.0, 0.0, 0.0, 0.0, 0.0, 0.0, 1.644588230443424E9, 0.0, 2022-02-12 01:03:50.443
228.0, -10528.900984394668, -9349.824112632765, -5935.79631278471, -13061.554796881057, -8725.159910340299, -4785.284970436689, -8837.544481461582, -6244.987993834972, -9200.067424782208, -11223.056760198684, -8163.818200089718, -6877.654120642438, -6281.62250299722, -9350.38290624415, -10631.093160044333, -15590.699385487962, 0.004, 0.23800000000000002, 0.9520000000000001, 192.0, 0.0, 0.0, 0.0, 0.0, 0.0, 0.0, 0.0, 0.0, 0.0, 1.644588230449992E9, 0.0, 2022-02-12 01:03:50.449
230.0, -10535.003010630968, -9376.66855772359, -5939.886682020031, -13065.44400041628, -8734.63704998935, -4786.6037233595525, -8845.702868187771, -6247.8490171252515, -9216.048922067754, -11229.918745746463, -8155.860979063628, -6878.145859020456, -6285.735223976997, -9348.952394599008, -10633.976535079068, -15615.71098753345, 0.004, 0.23800000000000002, 0.9520000000000001, 192.0, 0.0, 0.0, 0.0, 0.0, 0.0, 0.0, 0.0, 0.0, 0.0, 1.644588230458058E9, 0.0, 2022-02-12 01:03:50.458
232.0, -10517.74746391147, -9372.086450110251, -5941.093676220617, -13056.659764845344, -8721.874203905369, -4782.580409357597, -8837.075094828022, -6245.077400812794, -9207.354093474638, -11227.772978278754, -8173.3400432276785, -6871.909722317425, -6284.394119309678, -9355.121476068673, -10634.91530834619, -15583.837399940181, 0.004, 0.23800000000000002, 0.9520000000000001, 192.0, 0.0, 0.0, 0.0, 0.0, 0.0, 0.0, 0.0, 0.0, 0.0, 1.644588230472276E9, 0.0, 2022-02-12 01:03:50.472
234.0, -10525.883498893201, -9377.204999590516, -5935.863368018076, -13071.009584785652, -8731.597212743427, -4790.738796083784, -8838.259737284152, -6244.719772901509, -9215.467776711916, -11227.907088745485, -8172.803601360751, -6877.654120642438, -6281.130764619204, -9356.03789759134, -10626.891032086734, -15612.00059795387, 0.004, 0.23800000000000002, 0.9540000000000001, 192.0, 0.0, 16.0, 3.5, 56.0, 14.5, 104.0, 0.0, 0.0, 0.0, 1.644588230479624E9, 0.0, 2022-02-12 01:03:50.479
236.0, -10531.270269306931, -9357.624871447668, -5940.55723435369, -13057.956166023752, -8722.500052750118, -4786.156688470446, -8834.817568638036, -6243.959813590028, -9209.611619664624, -11228.667048056966, -8161.024232032804, -6877.631768897983, -6273.397061037667, -9354.361516757193, -10626.980439064555, -15599.193048380977, 0.004, 0.23800000000000002, 0.9540000000000001, 192.0, 0.0, 0.0, 0.0, 0.0, 0.0, 0.0, 0.0, 0.0, 0.0, 1.644588230487777E9, 0.0, 2022-02-12 01:03:50.487
238.0, -10520.899059879668, -9361.312909282793, -5937.3385831521255, -13057.665593345833, -8727.596250485927, -4786.223743703812, -8841.165464063342, -6241.7469908889525, -9202.05673003873, -11223.302629387694, -8163.728793111896, -6869.965120549813, -6287.143383877681, -9353.266281278882, -10630.1096832883, -15591.638158755084, 0.004, 0.23800000000000002, 0.9540000000000001, 192.0, 0.0, 0.0, 0.0, 0.0, 0.0, 0.0, 0.0, 0.0, 0.0, 1.64458823049561E9, 0.0, 2022-02-12 01:03:50.495
240.0, -10529.996219872979, -9377.249703079427, -5945.251100689305, -13068.05915451755, -8734.72645696717, -4783.720348324818, -8834.79521689358, -6242.708115900531, -9210.081006298185, -11238.121835961561, -8170.94840657096, -6876.9835683087795, -6292.619561269232, -9354.719144668477, -10632.456616456106, -15617.923810234524, 0.004, 0.23800000000000002, 0.9540000000000001, 192.0, 0.0, 0.0, 0.0, 0.0, 0.0, 0.0, 0.0, 0.0, 0.0, 1.644588230502887E9, 0.0, 2022-02-12 01:03:50.502
242.0, -10537.551109498872, -9373.159333844105, -5941.60776634309, -13053.105837476951, -8724.221137073177, -4781.529877368197, -8832.470635470228, -6247.200816536048, -9207.376445219094, -11237.563042350179, -8175.351700228656, -6871.663853128416, -6289.62442751222, -9344.459693963492, -10628.835633854347, -15583.010385395335, 0.004, 0.23800000000000002, 0.9540000000000001, 192.0, 0.0, 0.0, 0.0, 0.0, 0.0, 0.0, 0.0, 0.0, 0.0, 1.644588230510235E9, 0.0, 2022-02-12 01:03:50.510
244.0, -10527.984562872001, -9367.191418074539, -5938.657336074989, -13071.6354336304, -8737.431018046263, -4787.050758248658, -8833.208243037254, -6235.153226274637, -9218.7758348913, -11236.445455127414, -8173.071822294215, -6870.0545275276345, -6292.127822891214, -9347.253662020405, -10633.10481704531, -15614.168717166034, 0.004, 0.232, 0.9540000000000001, 192.0, 0.0, 16.0, 3.5, 32.0, 14.5, 104.0, 0.0, 0.0, 0.0, 1.644588230518767E9, 0.0, 2022-02-12 01:03:50.518
246.0, -10528.74452218348, -9377.048537379329, -5945.385211156036, -13064.974613782719, -8734.592346500438, -4786.447261148365, -8845.74757167668, -6244.026868823394, -9212.986733077376, -11240.714638318377, -8168.445011191966, -6876.827106097592, -6288.19391586708, -9353.176874301062, -10632.926003089668, -15604.401004839065, 0.004, 0.232, 0.9540000000000001, 192.0, 0.0, 0.0, 0.0, 0.0, 0.0, 0.0, 0.0, 0.0, 0.0, 1.644588230525373E9, 0.0, 2022-02-12 01:03:50.525
248.0, -10527.045789604877, -9365.939720385042, -5940.601937842601, -13066.941567294785, -8740.359096569908, -4791.342293184077, -8839.332621018008, -6247.916072358617, -9210.550392931747, -11221.603896809089, -8173.451801949955, -6887.0195015692125, -6280.706081474553, -9362.385793016649, -10638.826863625869, -15600.489449559385, 0.004, 0.232, 0.9540000000000001, 192.0, 0.0, 0.0, 0.0, 0.0, 0.0, 0.0, 0.0, 0.0, 0.0, 1.644588230531886E9, 0.0, 2022-02-12 01:03:50.531
250.0, -10532.499615251973, -9381.921217670586, -5943.932347766441, -13070.361384196447, -8751.467913564196, -4791.878735051005, -8855.403525281374, -6245.323270001802, -9217.658247668534, -11246.682554087944, -8172.200104260458, -6872.759088606726, -6302.476680574022, -9356.149656313617, -10641.218500282586, -15623.645856815083, 0.004, 0.232, 0.9540000000000001, 192.0, 0.0, 0.0, 0.0, 0.0, 0.0, 0.0, 0.0, 0.0, 0.0, 1.644588230540102E9, 0.0, 2022-02-12 01:03:50.540
252.0, -10525.257650048454, -9370.968862887486, -5943.775885555254, -13058.53731137959, -8739.196805858232, -4788.570676871619, -8844.495873987184, -6253.258139283435, -9216.406549979038, -11242.32396391916, -8184.694729410974, -6877.40825145343, -6304.018950941438, -9353.42274349007, -10639.653878170715, -15589.157115120544, 0.004, 0.232, 0.9540000000000001, 192.0, 0.0, 0.0, 0.0, 0.0, 0.0, 0.0, 0.0, 0.0, 0.0, 1.644588230547927E9, 0.0, 2022-02-12 01:03:50.547
254.0, -10521.077873835311, -9362.385793016649, -5939.5067023642905, -13074.697622620777, -8746.461122806206, -4791.297589695167, -8834.526995960117, -6238.684801898576, -9218.753483146846, -11227.437702111925, -8176.961025829438, -6880.4480886993515, -6296.620523526732, -9362.09522033873, -10638.53629094795, -15615.062786944245, 0.006, 0.23800000000000002, 0.9540000000000001, 192.0, 0.0, 24.0, 3.5, 56.0, 14.5, 104.0, 0.0, 0.0, 0.0, 1.644588230555071E9, 0.0, 2022-02-12 01:03:50.555
0.0, -10544.122522368732, -9375.886246667653, -5946.79337105672, -13067.545064395079, -8742.549567526528, -4791.163479228435, -8848.899167644879, -6246.574967691299, -9211.332703987682, -11235.774902793753, -8183.107755554647, -6887.332425991586, -6299.593305539287, -9358.116609825684, -10640.637354926748, -15602.299940860266, 0.006, 0.23800000000000002, 0.9540000000000001, 192.0, 0.0, 0.0, 0.0, 0.0, 0.0, 0.0, 0.0, 0.0, 0.0, 1.644588230562432E9, 0.0, 2022-02-12 01:03:50.562
2.0, -10541.820292689836, -9384.625778749678, -5939.976088997852, -13064.885206804896, -8739.710895980705, -4783.765051813728, -8840.070228585033, -6232.247499495447, -9215.959515089931, -11248.381286666547, -8171.66366239353, -6873.183771751377, -6280.169639607625, -9350.539368455335, -10643.96776485059, -15596.04145241278, 0.006, 0.23800000000000002, 0.9540000000000001, 192.0, 0.0, 0.0, 0.0, 0.0, 0.0, 0.0, 0.0, 0.0, 0.0, 1.644588230570509E9, 0.0, 2022-02-12 01:03:50.570
4.0, -10530.443254762085, -9370.700641954023, -5938.210301185883, -13075.614044143444, -8750.193864130242, -4788.928304782904, -8844.339411775996, -6239.601223421243, -9211.91384934352, -11251.37642042356, -8160.756011099341, -6875.977739808291, -6302.6778462741195, -9346.359592242194, -10638.9609740926, -15621.008350969358, 0.006, 0.23800000000000002, 0.9540000000000001, 192.0, 0.0, 0.0, 0.0, 0.0, 0.0, 0.0, 0.0, 0.0, 0.0, 1.644588230577744E9, 0.0, 2022-02-12 01:03:50.577
6.0, -10513.388873742686, -9360.597653460223, -5940.378420398048, -13059.54313988008, -8744.605928016415, -4790.604685617052, -8849.346202533985, -6251.224130538003, -9199.530982915281, -11220.55336481969, -8166.656871635541, -6873.3402339625645, -6297.581648538309, -9353.601557445712, -10638.53629094795, -15591.414641310532, 0.006, 0.23800000000000002, 0.9540000000000001, 192.0, 0.0, 0.0, 0.0, 0.0, 0.0, 0.0, 0.0, 0.0, 0.0, 1.644588230585149E9, 0.0, 2022-02-12 01:03:50.585
8.0, -10521.636667446694, -9378.43434553556, -5938.657336074989, -13068.126209750917, -8756.675870022282, -4791.409348417443, -8847.379249021918, -6242.99868857845, -9215.53483194528, -11246.593147110123, -8172.982415316394, -6866.1206205035, -6305.561221308854, -9354.786199901844, -10640.190320037642, -15619.0861009462, 0.008, 0.234, 0.9560000000000001, 192.0, 0.0, 32.0, 3.5, 40.0, 14.5, 112.0, 0.0, 0.0, 0.0, 1.644588230600188E9, 0.0, 2022-02-12 01:03:50.600
10.0, -10545.016592146945, -9377.71908971299, -5946.79337105672, -13063.67821260431, -8752.429038575774, -4789.263580949733, -8847.200435066276, -6241.679935655587, -9216.58536393468, -11257.165522237483, -8187.220476534424, -6872.781440351181, -6312.222041156536, -9355.52380746887, -10640.68205841566, -15606.703234517961, 0.008, 0.234, 0.9560000000000001, 192.0, 0.0, 0.0, 0.0, 0.0, 0.0, 0.0, 0.0, 0.0, 0.0, 1.644588230607223E9, 0.0, 2022-02-12 01:03:50.607
12.0, -10534.265403063942, -9367.593749474734, -5942.971222754863, -13064.482875404701, -8751.11028565291, -4781.216952945823, -8839.846711140479, -6235.175578019092, -9216.719474401412, -11240.669934829466, -8182.90658985455, -6881.252751499743, -6304.331875363812, -9348.61711843218, -10644.77242765098, -15594.789754723282, 0.008, 0.234, 0.9560000000000001, 192.0, 0.0, 0.0, 0.0, 0.0, 0.0, 0.0, 0.0, 0.0, 0.0, 1.644588230616132E9, 0.0, 2022-02-12 01:03:50.616
14.0, -10530.644420462182, -9357.937795870042, -5940.758400053787, -13071.926006308318, -8758.173436900788, -4788.3695111715215, -8844.987612365201, -6237.835435609274, -9220.899250614555, -11241.809873796687, -8173.272987994313, -6880.64925439945, -6310.34449462229, -9347.365420742683, -10641.732590405058, -15622.461214358953, 0.008, 0.234, 0.9560000000000001, 192.0, 0.0, 0.0, 0.0, 0.0, 0.0, 0.0, 0.0, 0.0, 0.0, 1.644588230622665E9, 0.0, 2022-02-12 01:03:50.622
16.0, -10525.727036682014, -9384.849296194232, -5941.250138431805, -13066.449828916768, -8751.222044375187, -4789.3306361831, -8852.833074669014, -6246.105581057737, -9205.58830566267, -11228.756455034787, -8181.543133442776, -6884.180830023388, -6295.704102004064, -9356.75315341391, -10642.827825883369, -15594.074498900713, 0.008, 0.234, 0.9560000000000001, 192.0, 0.0, 0.0, 0.0, 0.0, 0.0, 0.0, 0.0, 0.0, 0.0, 1.644588230630893E9, 0.0, 2022-02-12 01:03:50.630
18.0, -10529.79505417288, -9377.517924012891, -5934.432856372936, -13074.92114006533, -8758.39695434534, -4788.861249549538, -8846.440475754795, -6237.857787353729, -9214.596058678158, -11225.135472433029, -8171.954235071449, -6869.339271705065, -6311.506785333966, -9351.835769633743, -10643.856006128313, -15619.287266646299, 0.008, 0.23600000000000002, 0.9520000000000001, 192.0, 0.0, 32.0, 3.5, 48.0, 14.5, 96.0, 0.0, 0.0, 0.0, 1.644588230637307E9, 0.0, 2022-02-12 01:03:50.637
20.0, -10545.41892354714, -9369.784220431355, -5946.927481523452, -13069.288500462593, -8747.39989607333, -4784.145031469468, -8847.446304255283, -6235.9355373305725, -9215.691294156468, -11253.253966957804, -8173.47415369441, -6873.921379318403, -6299.9732851950275, -9349.46648472148, -10638.648049670226, -15607.016158940336, 0.008, 0.23600000000000002, 0.9520000000000001, 192.0, 0.0, 0.0, 0.0, 0.0, 0.0, 0.0, 0.0, 0.0, 0.0, 1.644588230645566E9, 0.0, 2022-02-12 01:03:50.645
22.0, -10530.331496039807, -9373.18168558856, -5938.009135485785, -13068.416782428836, -8748.673945507282, -4783.89916228046, -8838.326792517519, -6236.963717575517, -9212.517346443814, -11228.17530967895, -8188.4274707350105, -6886.50541144674, -6303.6166195412425, -9346.113723053184, -10639.765636892991, -15598.343682091676, 0.008, 0.23600000000000002, 0.9520000000000001, 192.0, 0.0, 0.0, 0.0, 0.0, 0.0, 0.0, 0.0, 0.0, 0.0, 1.644588230652505E9, 0.0, 2022-02-12 01:03:50.652
24.0, -10532.432560018608, -9369.04661286433, -5937.785618041232, -13074.45175343177, -8753.568977542995, -4783.362720413533, -8835.97985934971, -6236.024944308394, -9215.691294156468, -11250.929385534453, -8168.735583869885, -6866.0088617812235, -6304.197764897081, -9339.363496227681, -10635.96584033559, -15625.523403349329, 0.008, 0.23600000000000002, 0.9520000000000001, 192.0, 0.0, 0.0, 0.0, 0.0, 0.0, 0.0, 0.0, 0.0, 0.0, 1.644588230660437E9, 0.0, 2022-02-12 01:03:50.660
26.0, -10544.70366772457, -9380.870685681188, -5938.947908752908, -13063.96878528223, -8758.195788645244, -4788.391862915977, -8852.698964202282, -6247.580796191788, -9213.187898777473, -11240.26760342927, -8173.272987994313, -6876.871809586502, -6310.590363811299, -9341.03987706183, -10639.72093340408, -15595.415603568032, 0.008, 0.23600000000000002, 0.9520000000000001, 192.0, 0.0, 0.0, 0.0, 0.0, 0.0, 0.0, 0.0, 0.0, 0.0, 1.644588230667014E9, 0.0, 2022-02-12 01:03:50.667
28.0, -10524.855318648259, -9388.827906707276, -5940.22195818686, -13077.670404633333, -8770.511599840118, -4796.706711853351, -8847.558062977561, -6250.598281693254, -9219.87107036961, -11251.08584774564, -8172.177752516002, -6869.182809493877, -6312.356151623268, -9354.85325513521, -10646.001773596023, -15624.405816126564, 0.01, 0.23800000000000002, 0.9460000000000001, 192.0, 0.0, 40.0, 3.5, 56.0, 14.5, 72.0, 0.0, 0.0, 0.0, 1.644588230675017E9, 0.0, 2022-02-12 01:03:50.675
30.0, -10534.17599608612, -9372.801705932821, -5950.593167614123, -13070.763715596642, -8766.957672471723, -4799.612438632541, -8854.777676436624, -6252.229959038492, -9212.316180743717, -11257.254929215303, -8182.347796243167, -6876.782402608682, -6303.05782592986, -9354.115647568184, -10644.77242765098, -15616.180374167012, 0.01, 0.23800000000000002, 0.9460000000000001, 192.0, 0.0, 0.0, 0.0, 0.0, 0.0, 0.0, 0.0, 0.0, 0.0, 1.644588230683108E9, 0.0, 2022-02-12 01:03:50.683
32.0, -10532.454911763061, -9376.087412367751, -5945.429914644947, -13072.440096430792, -8769.170495172799, -4801.601743889063, -8857.884568915912, -6260.008366108938, -9214.685465655979, -11241.049914485207, -8191.824935892218, -6881.968007322313, -6314.926602235628, -9358.161313314595, -10651.232081798564, -15608.916057219036, 0.01, 0.23800000000000002, 0.9460000000000001, 192.0, 0.0, 0.0, 0.0, 0.0, 0.0, 0.0, 0.0, 0.0, 0.0, 1.644588230689609E9, 0.0, 2022-02-12 01:03:50.689
34.0, -10552.191502117099, -9375.729784456467, -5948.872083291064, -13087.30400649357, -8775.853666764935, -4806.966162558337, -8857.75045844918, -6255.962700362528, -9235.15966357704, -11238.770036550766, -8192.406081248055, -6890.148745792955, -6323.241451173002, -9358.965976114987, -10652.193206810141, -15640.320258178743, 0.01, 0.23800000000000002, 0.9460000000000001, 192.0, 0.0, 0.0, 0.0, 0.0, 0.0, 0.0, 0.0, 0.0, 0.0, 1.644588230697756E9, 0.0, 2022-02-12 01:03:50.697
36.0, -10544.927185169123, -9383.28467408236, -5949.766153069277, -13073.40122144237, -8765.97419571569, -4797.556078142653, -8853.727144447224, -6245.725601401998, -9216.607715679136, -11238.278298172749, -8190.908514369549, -6895.22259178431, -6328.069427975349, -9361.08939183824, -10652.215558554597, -15604.08808041669, 0.008, 0.23500000000000001, 0.9460000000000001, 192.0, 0.0, 24.0, 3.5, 32.0, 14.5, 72.0, 0.0, 0.0, 0.0, 1.64458823070563E9, 0.0, 2022-02-12 01:03:50.705
38.0, -10522.374275013719, -9392.314778842305, -5938.143245952517, -13083.101878535972, -8773.283216152575, -4798.271333965223, -8850.217920567742, -6251.9617381050275, -9230.35403851915, -11257.769019337777, -8179.173848530513, -6879.062280543123, -6312.110282434259, -9351.90282486711, -10648.862796886302, -15626.573935338729, 0.008, 0.23500000000000001, 0.9460000000000001, 192.0, 0.0, 0.0, 0.0, 0.0, 0.0, 0.0, 0.0, 0.0, 0.0, 1.644588230719362E9, 0.0, 2022-02-12 01:03:50.719
40.0, -10532.209042574053, -9382.077679881773, -5946.7263158233545, -13073.40122144237, -8766.242416649153, -4796.907877553449, -8854.42004852534, -6255.806238151341, -9216.026570323298, -11253.835112313642, -8176.558694429243, -6871.105059517034, -6299.615657283743, -9346.85133062021, -10646.717029418593, -15621.075406202723, 0.008, 0.23500000000000001, 0.9460000000000001, 192.0, 0.0, 0.0, 0.0, 0.0, 0.0, 0.0, 0.0, 0.0, 0.0, 1.644588230727496E9, 0.0, 2022-02-12 01:03:50.727
42.0, -10538.80280718837, -9373.874589666675, -5938.36676339707, -13068.77441034012, -8767.807038761024, -4804.306304968155, -8853.235406069209, -6256.365031762723, -9203.688407383968, -11241.452245885403, -8180.984339831393, -6877.40825145343, -6313.8313667573175, -9355.590862702235, -10652.148503321232, -15608.580781052207, 0.008, 0.23500000000000001, 0.9460000000000001, 192.0, 0.0, 0.0, 0.0, 0.0, 0.0, 0.0, 0.0, 0.0, 0.0, 1.644588230735296E9, 0.0, 2022-02-12 01:03:50.735
44.0, -10540.389781044696, -9370.6112349762, -5941.428952387447, -13076.798686599575, -8770.82452426249, -4799.612438632541, -8852.028411868621, -6247.290223513869, -9221.59215469267, -11245.743780820821, -8173.764726372329, -6873.0720130291, -6305.516517819944, -9356.775505158366, -10649.980384109067, -15639.627354100629, 0.008, 0.23500000000000001, 0.9460000000000001, 192.0, 0.0, 0.0, 0.0, 0.0, 0.0, 0.0, 0.0, 0.0, 0.0, 1.644588230742792E9, 0.0, 2022-02-12 01:03:50.742
46.0, -10538.84751067728, -9361.715240682988, -5936.980955240841, -13061.711259092244, -8751.49026530865, -4784.212086702834, -8843.199472808776, -6237.8130838648185, -9208.270514997306, -11232.533899847735, -8171.775421115807, -6876.3353677195755, -6305.047131186382, -9347.007792831397, -10646.717029418593, -15599.573028036719, 0.007, 0.23450000000000001, 0.9430000000000001, 192.0, 0.0, 24.0, 3.5, 40.0, 14.5, 48.0, 0.0, 0.0, 0.0, 1.644588230749937E9, 0.0, 2022-02-12 01:03:50.749
48.0, -10518.574478456316, -9365.984423873953, -5930.8789290045415, -13067.142732994884, -8758.620471789895, -4785.150859969957, -8841.74660941918, -6234.102694285238, -9217.233564523884, -11217.6476380405, -8174.479982194899, -6865.78534433667, -6298.386311338701, -9340.771656128367, -10642.067866571888, -15617.432071856509, 0.007, 0.23450000000000001, 0.9430000000000001, 192.0, 0.0, 0.0, 0.0, 0.0, 0.0, 0.0, 0.0, 0.0, 0.0, 1.644588230758054E9, 0.0, 2022-02-12 01:03:50.758
50.0, -10521.837833146792, -9376.243874578939, -5936.6903825629215, -13061.599500369966, -8753.725439754182, -4788.749490827262, -8839.17615880682, -6238.908319343129, -9208.672846397501, -11239.574699351157, -8175.3964037175665, -6860.59973962304, -6298.989808438994, -9347.745400398422, -10640.637354926748, -15612.067653187234, 0.007, 0.23450000000000001, 0.9430000000000001, 192.0, 0.0, 0.0, 0.0, 0.0, 0.0, 0.0, 0.0, 0.0, 0.0, 1.644588230766386E9, 0.0, 2022-02-12 01:03:50.766
52.0, -10519.200327301065, -9362.98929011694, -5925.626269057545, -13059.051401502062, -8754.798323488036, -4789.420043160921, -8842.998307108677, -6246.306746757835, -9200.022721293297, -11239.597051095612, -8173.09417403867, -6869.495733916251, -6292.776023480418, -9347.790103887333, -10644.77242765098, -15602.74697574937, 0.007, 0.23450000000000001, 0.9430000000000001, 192.0, 0.0, 0.0, 0.0, 0.0, 0.0, 0.0, 0.0, 0.0, 0.0, 1.64458823077234E9, 0.0, 2022-02-12 01:03:50.772
54.0, -10503.88938234918, -9341.41985671757, -5928.755513281288, -13068.215616728738, -8756.92173921129, -4783.318016924622, -8845.546405976584, -6239.288298998868, -9200.335645715671, -11221.805062509187, -8157.716173853419, -6860.912664045413, -6299.0345119279045, -9335.966031070475, -10641.10674156031, -15628.51853710634, 0.007, 0.23450000000000001, 0.9430000000000001, 192.0, 0.0, 0.0, 0.0, 0.0, 0.0, 0.0, 0.0, 0.0, 0.0, 1.64458823077958E9, 0.0, 2022-02-12 01:03:50.779
56.0, -10535.65121122017, -9369.873627409175, -5933.874062761553, -13056.458599145246, -8751.82554147548, -4781.596932601564, -8852.274281057631, -6247.513740958422, -9200.469756182403, -11222.36385612057, -8171.149572271058, -6856.889350043458, -6301.157927651158, -9341.553967184302, -10644.124227061777, -15596.533190790797, 0.0085, 0.23725000000000002, 0.9465000000000001, 192.0, 0.0, 40.0, 3.5, 64.0, 14.5, 88.0, 0.0, 0.0, 0.0, 1.644588230787791E9, 0.0, 2022-02-12 01:03:50.787
58.0, -10526.688161693593, -9379.104897869218, -5928.867272003565, -13067.500360906168, -8753.68073626527, -4783.832107047094, -8845.300536787574, -6257.5273224744, -9215.333666245184, -11243.173330208461, -8162.208874488935, -6850.764972062704, -6296.553468293366, -9338.75999912739, -10642.000811338523, -15622.70708354796, 0.0085, 0.23725000000000002, 0.9465000000000001, 192.0, 0.0, 0.0, 0.0, 0.0, 0.0, 0.0, 0.0, 0.0, 0.0, 1.644588230794705E9, 0.0, 2022-02-12 01:03:50.794
60.0, -10523.581269214304, -9359.323604026271, -5944.334679166637, -13065.287538205093, -8750.931471697268, -4784.860287292038, -8846.708696688258, -6236.784903619874, -9217.211212779428, -11239.485292373336, -8169.070860036714, -6859.280986700176, -6294.966494437039, -9342.157464284595, -10640.100913059821, -15620.494260846885, 0.0085, 0.23725000000000002, 0.9465000000000001, 192.0, 0.0, 0.0, 0.0, 0.0, 0.0, 0.0, 0.0, 0.0, 0.0, 1.644588230802463E9, 0.0, 2022-02-12 01:03:50.802
62.0, -10530.599716973271, -9366.476162251969, -5943.194740199416, -13063.54410213758, -8756.519407811094, -4781.75339481275, -8850.016754867644, -6234.8179501078075, -9216.58536393468, -11213.020826938251, -8184.04652882177, -6867.037042026168, -6287.568067022332, -9360.061211593296, -10646.135884062754, -15602.210533882444, 0.0085, 0.23725000000000002, 0.9465000000000001, 192.0, 0.0, 0.0, 0.0, 0.0, 0.0, 0.0, 0.0, 0.0, 0.0, 1.644588230810184E9, 0.0, 2022-02-12 01:03:50.810
64.0, -10539.89804266668, -9380.803630447821, -5942.770057054765, -13075.748154610177, -8768.030556205578, -4785.106156481047, -8856.901092159878, -6239.712982143519, -9229.661134441034, -11266.106220019607, -8176.089307795681, -6863.818390824604, -6316.424169114133, -9337.016563059875, -10650.360363764807, -15630.261973173854, 0.0085, 0.23725000000000002, 0.9465000000000001, 192.0, 0.0, 0.0, 0.0, 0.0, 0.0, 0.0, 0.0, 0.0, 0.0, 1.644588230818292E9, 0.0, 2022-02-12 01:03:50.818
66.0, -10537.41699903214, -9347.90186260961, -5942.881815777042, -13065.354593438458, -8752.987832187157, -4781.1498977124575, -8851.559025235061, -6239.288298998868, -9217.479433712893, -11251.532882634745, -8176.268121751324, -6869.4063269384305, -6303.728378263519, -9344.683211408044, -10648.929852119667, -15602.121126904623, 0.00525, 0.238625, 0.94825, 192.0, 0.0, 8.0, 3.5, 64.0, 14.5, 88.0, 0.0, 0.0, 0.0, 1.644588230824838E9, 0.0, 2022-02-12 01:03:50.824
68.0, -10519.356789512252, -9364.777429673366, -5937.897376763508, -13073.647090631377, -8768.030556205578, -4786.4919646372755, -8856.409353781863, -6244.160979290125, -9221.882727370588, -11239.239423184326, -8168.802639103251, -6865.584178636573, -6302.119052662737, -9338.111798538184, -10647.58874745235, -15624.539926593296, 0.00525, 0.238625, 0.94825, 192.0, 0.0, 0.0, 0.0, 0.0, 0.0, 0.0, 0.0, 0.0, 0.0, 1.644588230832911E9, 0.0, 2022-02-12 01:03:50.832
70.0, -10539.540414755395, -9386.86095319521, -5943.552368110701, -13073.49062842019, -8767.36000387192, -4793.175136229413, -8862.846656184991, -6255.113334073226, -9228.25297454035, -11240.357010407091, -8171.842476349173, -6861.717326845805, -6313.25022140148, -9342.872720107165, -10652.796703910435, -15625.702217304972, 0.00525, 0.238625, 0.94825, 192.0, 0.0, 0.0, 0.0, 0.0, 0.0, 0.0, 0.0, 0.0, 0.0, 1.644588230847897E9, 0.0, 2022-02-12 01:03:50.847
72.0, -10529.392722772685, -9371.214732076494, -5937.986783741329, -13073.647090631377, -8760.788591002058, -4780.725214567807, -8855.805856681569, -6248.586624692277, -9227.78358790679, -11241.005210996296, -8180.358490986645, -6872.803792095637, -6311.8867649897065, -9342.492740451426, -10657.937605135156, -15611.531211320307, 0.00525, 0.238625, 0.94825, 192.0, 0.0, 0.0, 0.0, 0.0, 0.0, 0.0, 0.0, 0.0, 0.0, 1.64458823085448E9, 0.0, 2022-02-12 01:03:50.854
74.0, -10511.667789419627, -9353.512150467892, -5941.3842488985365, -13073.334166209002, -8767.203541660732, -4786.156688470446, -8864.299519574586, -6247.469037469511, -9225.257840783339, -11237.831263283642, -8173.541208927776, -6863.796039080148, -6295.882915959706, -9334.736685125434, -10654.137808577754, -15634.262935431354, 0.00525, 0.238625, 0.94825, 192.0, 0.0, 0.0, 0.0, 0.0, 0.0, 0.0, 0.0, 0.0, 0.0, 1.644588230862624E9, 0.0, 2022-02-12 01:03:50.862
76.0, -10530.063275106344, -9345.689039908533, -5936.623327329556, -13057.889110790386, -8752.809018231514, -4785.284970436689, -8857.348127048985, -6243.937461845572, -9206.191802762962, -11207.723463502343, -8176.3351769846895, -6854.028326753179, -6309.383369610712, -9340.950470084008, -10651.366192265295, -15601.048243170768, 0.006625000000000001, 0.2383125, 0.9461250000000001, 192.0, 0.0, 32.0, 3.5, 56.0, 14.5, 64.0, 0.0, 0.0, 0.0, 1.644588230870728E9, 0.0, 2022-02-12 01:03:50.870
78.0, -10545.441275291596, -9375.841543178743, -5932.041219716218, -13074.16118075385, -8759.603948545928, -4788.794194316172, -8846.127551332422, -6235.130874530181, -9225.816634394721, -11242.972164508363, -8165.4722291794105, -6858.07399249959, -6303.281343374413, -9349.287670765838, -10651.924985876678, -15624.249353915377, 0.006625000000000001, 0.2383125, 0.9461250000000001, 192.0, 0.0, 0.0, 0.0, 0.0, 0.0, 0.0, 0.0, 0.0, 0.0, 1.644588230877721E9, 0.0, 2022-02-12 01:03:50.877
80.0, -10531.873766407225, -9381.652996737123, -5934.656373817489, -13066.002794027663, -8753.188997887253, -4782.736871568784, -8850.575548479026, -6238.103656542738, -9225.548413461258, -11248.046010499718, -8168.914397825528, -6852.26253894121, -6300.934410206605, -9336.7036386375, -10646.046477084932, -15615.912153233547, 0.006625000000000001, 0.2383125, 0.9461250000000001, 192.0, 0.0, 0.0, 0.0, 0.0, 0.0, 0.0, 0.0, 0.0, 0.0, 1.644588230885359E9, 0.0, 2022-02-12 01:03:50.885
82.0, -10517.725112167014, -9363.816304661788, -5929.068437703662, -13063.409991670847, -8751.646727519837, -4772.924455752905, -8848.273318800131, -6233.074514040293, -9218.708779657934, -11236.579565594146, -8166.545112913265, -6850.027364495679, -6297.000503182471, -9335.60840315919, -10651.76852366549, -15602.255237371355, 0.006625000000000001, 0.2383125, 0.9461250000000001, 192.0, 0.0, 0.0, 0.0, 0.0, 0.0, 0.0, 0.0, 0.0, 0.0, 1.644588230893268E9, 0.0, 2022-02-12 01:03:50.893
84.0, -10523.268344791932, -9366.051479107318, -5932.398847627503, -13074.228235987215, -8757.994622945145, -4774.198505186857, -8847.938042633301, -6233.789769862863, -9222.01683783732, -11237.160710949984, -8158.274967464801, -6853.178960463877, -6290.764366479441, -9325.170138498563, -10647.655802685715, -15629.27849641782, 0.006625000000000001, 0.2383125, 0.9461250000000001, 192.0, 0.0, 0.0, 0.0, 0.0, 0.0, 0.0, 0.0, 0.0, 0.0, 1.644588230900407E9, 0.0, 2022-02-12 01:03:50.900
86.0, -10525.28000179291, -9362.877531394664, -5935.639850573522, -13066.382773683403, -8756.87703572238, -4782.021615746215, -8853.145999091388, -6237.678973398087, -9219.066407569218, -11235.50668186029, -8177.676281652008, -6867.484076915273, -6297.738110749497, -9337.016563059875, -10651.187378309653, -15597.114336146635, 0.0063125, 0.23715625, 0.9470625000000001, 192.0, 0.0, 24.0, 3.5, 48.0, 14.5, 80.0, 0.0, 0.0, 0.0, 1.644588230907705E9, 0.0, 2022-02-12 01:03:50.907
88.0, -10518.350961011764, -9342.604499173702, -5931.035391215729, -13076.977500555218, -8766.175361415788, -4781.216952945823, -8851.067286857044, -6241.679935655587, -9227.425959995504, -11235.618440582568, -8172.870656594117, -6865.494771658751, -6290.607904268254, -9340.928118339554, -10658.988137124556, -15627.736226050405, 0.0063125, 0.23715625, 0.9470625000000001, 192.0, 0.0, 0.0, 0.0, 0.0, 0.0, 0.0, 0.0, 0.0, 0.0, 1.644588230915141E9, 0.0, 2022-02-12 01:03:50.915
90.0, -10537.394647287685, -9368.130191341663, -5936.712734307377, -13068.573244640023, -8769.751640528637, -4783.385072157988, -8860.767943950646, -6244.339793245768, -9231.06929434172, -11228.622344568055, -8172.2895112382785, -6852.508408130218, -6312.624372556731, -9333.03795254683, -10657.53527373496, -15622.640028314594, 0.0063125, 0.23715625, 0.9470625000000001, 192.0, 0.0, 0.0, 0.0, 0.0, 0.0, 0.0, 0.0, 0.0, 0.0, 1.644588230923021E9, 0.0, 2022-02-12 01:03:50.923
92.0, -10527.55987972735, -9371.371194287682, -5931.594184827111, -13065.533407394101, -8761.839122991458, -4775.85253427655, -8850.687307201304, -6242.350487989246, -9225.995448350364, -11223.928478232441, -8173.317691483223, -6854.6765273423825, -6315.731265036019, -9341.84453986222, -10661.670346459192, -15608.871353730126, 0.0063125, 0.23715625, 0.9470625000000001, 192.0, 0.0, 0.0, 0.0, 0.0, 0.0, 0.0, 0.0, 0.0, 0.0, 1.644588230930309E9, 0.0, 2022-02-12 01:03:50.930
94.0, -10507.309199250842, -9359.927101126565, -5933.449379616903, -13073.937663309296, -8764.119000925899, -4774.377319142499, -8846.172254821331, -6237.477807697989, -9230.935183874988, -11243.262737186282, -8166.5898164021755, -6836.437503866852, -6304.443634086088, -9324.946621054009, -10653.690773688648, -15635.134653465111, 0.0063125, 0.23715625, 0.9470625000000001, 192.0, 0.0, 0.0, 0.0, 0.0, 0.0, 0.0, 0.0, 0.0, 0.0, 1.644588230937554E9, 0.0, 2022-02-12 01:03:50.937
96.0, -10495.283960733886, -9341.12928403965, -5932.242385416315, -13058.246738701671, -8755.379468843874, -4770.979853985293, -8846.060496099055, -6247.603147936243, -9201.67675038299, -11218.251135140794, -8158.990223287371, -6836.4822073557625, -6295.77115723743, -9325.103083265196, -10653.333145777362, -15600.511801303841, 0.00415625, 0.23657812500000003, 0.9495312500000002, 192.0, 0.0, 8.0, 3.5, 48.0, 14.5, 96.0, 0.0, 0.0, 0.0, 1.644588230945458E9, 0.0, 2022-02-12 01:03:50.945
98.0, -10519.021513345422, -9357.870740636676, -5932.331792394137, -13075.211712743248, -8772.50090509664, -4779.764089556228, -8852.31898454654, -6240.674107155098, -9216.093625556663, -11226.565984078168, -8159.683127365485, -6849.02153599519, -6297.9169247051395, -9327.98645829993, -10656.283576045464, -15628.026798728324, 0.00415625, 0.23657812500000003, 0.9495312500000002, 192.0, 0.0, 0.0, 0.0, 0.0, 0.0, 0.0, 0.0, 0.0, 0.0, 1.644588230953556E9, 0.0, 2022-02-12 01:03:50.953
100.0, -10527.895155894179, -9354.316813268282, -5933.27056566126, -13073.043593531083, -8769.394012617351, -4780.2781796787, -8860.9914613952, -6238.483636198478, -9225.660172183534, -11252.829283813153, -8164.891083823572, -6857.35873667702, -6303.9071922191615, -9334.021429302864, -10657.848198157335, -15625.456348115964, 0.00415625, 0.23657812500000003, 0.9495312500000002, 192.0, 0.0, 0.0, 0.0, 0.0, 0.0, 0.0, 0.0, 0.0, 0.0, 1.644588230967161E9, 0.0, 2022-02-12 01:03:50.967
102.0, -10512.047769075367, -9335.697810137011, -5932.443551116414, -13070.987233041196, -8764.051945692534, -4778.6241505890075, -8846.105199587966, -6239.712982143519, -9213.97020983341, -11232.109216703084, -8161.180694243992, -6855.190617464855, -6291.233753113002, -9334.088484536229, -10655.925948134178, -15610.32421711972, 0.00415625, 0.23657812500000003, 0.9495312500000002, 192.0, 0.0, 0.0, 0.0, 0.0, 0.0, 0.0, 0.0, 0.0, 0.0, 1.644588230975036E9, 0.0, 2022-02-12 01:03:50.975
104.0, -10512.517155708929, -9351.679307422555, -5936.578623840645, -13085.515866937145, -8773.30556789703, -4787.296627437667, -8848.899167644879, -6252.207607294036, -9233.68444844299, -11249.521225633767, -8162.275929722301, -6857.224626210288, -6312.959648723561, -9331.674496135056, -10654.808360911413, -15642.28721169081, 0.00415625, 0.23657812500000003, 0.9495312500000002, 192.0, 0.0, 0.0, 0.0, 0.0, 0.0, 0.0, 0.0, 0.0, 0.0, 1.644588230983215E9, 0.0, 2022-02-12 01:03:50.983
106.0, -10508.806766129348, -9346.89603410912, -5936.846844774109, -13071.993061541685, -8769.036384706067, -4784.837935547583, -8857.079906115521, -6245.926767102095, -9226.44248323947, -11245.855539543098, -8170.456668192944, -6858.789248322159, -6317.228831914525, -9344.37028698567, -10660.619814469794, -15612.782909009804, 0.003078125, 0.2392890625, 0.9517656250000002, 192.0, 0.0, 8.0, 3.5, 72.0, 14.5, 104.0, 0.0, 0.0, 0.0, 1.644588230989567E9, 0.0, 2022-02-12 01:03:50.989
108.0, -10487.796126341358, -9334.602574658702, -5926.587394069123, -13086.16406752635, -8772.50090509664, -4783.630941346996, -8848.720353689236, -6246.954947347039, -9223.134425060085, -11219.324018874648, -8162.1865227444805, -6853.000146508235, -6308.086968432304, -9343.163292785084, -10661.670346459192, -15633.704141819971, 0.003078125, 0.2392890625, 0.9517656250000002, 192.0, 0.0, 0.0, 0.0, 0.0, 0.0, 0.0, 0.0, 0.0, 0.0, 1.644588230997735E9, 0.0, 2022-02-12 01:03:50.997
110.0, -10496.60271365675, -9338.692943894022, -5931.370667382559, -13079.860875589953, -8767.047079449545, -4780.635807589985, -8847.915690888845, -6244.831531623785, -9215.713645900923, -11228.13060619004, -8161.180694243992, -6854.251844197732, -6303.393102096689, -9330.914536823575, -10657.892901646246, -15626.551583594273, 0.003078125, 0.2392890625, 0.9517656250000002, 192.0, 0.0, 0.0, 0.0, 0.0, 0.0, 0.0, 0.0, 0.0, 0.0, 1.644588231006009E9, 0.0, 2022-02-12 01:03:51.006
112.0, -10497.139155523677, -9344.996135830419, -5932.93528949443, -13077.648052888877, -8767.717631783204, -4780.702862823351, -8844.853501898468, -6243.669240912109, -9212.293828999262, -11249.878853545053, -8164.667566379019, -6860.420925667397, -6298.229849127513, -9333.552042669302, -10667.906483162224, -15613.542868321285, 0.003078125, 0.2392890625, 0.9517656250000002, 192.0, 0.0, 0.0, 0.0, 0.0, 0.0, 0.0, 0.0, 0.0, 0.0, 1.644588231012566E9, 0.0, 2022-02-12 01:03:51.012
114.0, -10492.020606043412, -9330.668667634567, -5929.828397015142, -13086.208771015261, -8766.510637582616, -4777.886543021982, -8840.070228585033, -6239.265947254414, -9220.854547125644, -11256.98670828184, -8161.404211688544, -6854.028326753179, -6296.57582003782, -9331.89801357961, -10661.15625633672, -15644.589441369706, 0.003078125, 0.2392890625, 0.9517656250000002, 192.0, 0.0, 0.0, 0.0, 0.0, 0.0, 0.0, 0.0, 0.0, 0.0, 1.644588231019375E9, 0.0, 2022-02-12 01:03:51.019
116.0, -10496.110975278732, -9324.65604837609, -5926.4756353468465, -13072.462448175247, -8752.563149042506, -4767.940016739371, -8836.717466916736, -6235.957889075028, -9207.667017897013, -11233.830301026142, -8157.894987809061, -6858.744544833249, -6311.797358011885, -9328.008810044386, -10655.322451033886, -15609.050167685768, 0.01, 0.24, 0.9520000000000001, 192.0, 0.0, 40.0, 3.5, 64.0, 14.5, 96.0, 0.0, 0.0, 0.0, 1.644588231028758E9, 0.0, 2022-02-12 01:03:51.028
118.0, -10485.963283296023, -9335.004906058897, -5919.010152698774, -13072.954186553263, -8755.334765354964, -4771.203371429846, -8834.929327360313, -6238.796560620852, -9218.597020935658, -11232.377437636547, -8148.261385948824, -6853.983623264268, -6304.0860061748035, -9327.047685032807, -10661.647994714736, -15629.90434526257, 0.01, 0.24, 0.9520000000000001, 192.0, 0.0, 0.0, 0.0, 0.0, 0.0, 0.0, 0.0, 0.0, 0.0, 1.644588231035808E9, 0.0, 2022-02-12 01:03:51.035
120.0, -10479.190704726065, -9323.091426264218, -5922.228803900338, -13063.924081793319, -8750.931471697268, -4770.4657638628205, -8840.9866501077, -6246.4408572245675, -9206.236506251873, -11224.062588699173, -8139.633612589075, -6829.933146230358, -6294.988846181494, -9323.918440809064, -10662.542064492949, -15630.977228996424, 0.01, 0.24, 0.9520000000000001, 192.0, 0.0, 0.0, 0.0, 0.0, 0.0, 0.0, 0.0, 0.0, 0.0, 1.644588231042052E9, 0.0, 2022-02-12 01:03:51.042
122.0, -10472.194608711554, -9303.645408588101, -5914.8527282300865, -13057.665593345833, -8745.54470128354, -4764.922531237904, -8835.331658760508, -6243.959813590028, -9188.91390429901, -11207.969332691353, -8137.174920698992, -6831.6095270645055, -6283.745918720475, -9320.610382629678, -10667.68296571767, -15614.258124143855, 0.01, 0.24, 0.9520000000000001, 192.0, 0.0, 0.0, 0.0, 0.0, 0.0, 0.0, 0.0, 0.0, 0.0, 1.644588231050207E9, 0.0, 2022-02-12 01:03:51.050
124.0, -10474.742707579459, -9310.46269064697, -5917.5572893091785, -13070.495494663179, -8756.318242110998, -4773.103269708547, -8837.32096401703, -6243.222206023002, -9200.872087582598, -11212.551440304691, -8130.111769451114, -6824.367561860987, -6284.707043732053, -9311.155594725084, -10663.011451126511, -15646.444636159496, 0.01, 0.24, 0.9520000000000001, 192.0, 0.0, 0.0, 0.0, 0.0, 0.0, 0.0, 0.0, 0.0, 0.0, 1.64458823105812E9, 0.0, 2022-02-12 01:03:51.058
126.0, -10486.946760052057, -9321.347990196704, -5919.904222476986, -13061.510093392146, -8747.645765262338, -4772.924455752905, -8835.398713993873, -6238.61774666521, -9193.585418890169, -11209.042216425207, -8136.683182320975, -6845.266442926699, -6294.094776403282, -9327.159443755085, -10661.960919137111, -15616.04626370028, 0.008, 0.242, 0.9540000000000001, 192.0, 0.0, 32.0, 3.5, 72.0, 14.5, 104.0, 0.0, 0.0, 0.0, 1.644588231065225E9, 0.0, 2022-02-12 01:03:51.065
128.0, -10479.88360880418, -9329.841653089721, -5922.921707978453, -13072.77537259762, -8763.135524169866, -4773.930284253393, -8837.723295417225, -6234.594432663254, -9210.39393072056, -11239.485292373336, -8143.925147524495, -6834.403495121419, -6291.278456601913, -9325.393655943115, -10668.979366896077, -15634.218231942445, 0.008, 0.242, 0.9540000000000001, 192.0, 0.0, 0.0, 0.0, 0.0, 0.0, 0.0, 0.0, 0.0, 0.0, 1.644588231072636E9, 0.0, 2022-02-12 01:03:51.072
130.0, -10492.869972332714, -9333.08265603574, -5930.856577260087, -13070.383735940903, -8761.615605546905, -4773.796173786661, -8840.204339051765, -6230.414656450112, -9218.664076169023, -11258.797199582721, -8147.121446981603, -6840.997259735735, -6285.95874142155, -9325.840690832221, -10669.828733185379, -15629.881993518115, 0.008, 0.242, 0.9540000000000001, 192.0, 0.0, 0.0, 0.0, 0.0, 0.0, 0.0, 0.0, 0.0, 0.0, 1.644588231080562E9, 0.0, 2022-02-12 01:03:51.080
132.0, -10495.395719456163, -9325.863042576677, -5918.384303854025, -13069.221445229226, -8755.535931055061, -4772.477420863798, -8833.834091882001, -6230.66052563912, -9214.908983100531, -11235.551385349201, -8148.417848160011, -6851.726097074283, -6310.545660322387, -9328.746417611412, -10665.87247441679, -15610.503031075363, 0.008, 0.242, 0.9540000000000001, 192.0, 0.0, 0.0, 0.0, 0.0, 0.0, 0.0, 0.0, 0.0, 0.0, 1.644588231094956E9, 0.0, 2022-02-12 01:03:51.094
134.0, -10487.527905407895, -9320.476272162947, -5918.160786409472, -13076.843390088487, -8761.012108446612, -4769.035252217681, -8835.689286671792, -6229.90056632764, -9222.218003537417, -11226.07424570015, -8136.347906154145, -6837.219814922788, -6299.9732851950275, -9331.763903112878, -10659.703392947125, -15638.800339555783, 0.008, 0.242, 0.9540000000000001, 192.0, 0.0, 0.0, 0.0, 0.0, 0.0, 0.0, 0.0, 0.0, 0.0, 1.644588231102264E9, 0.0, 2022-02-12 01:03:51.102
136.0, -10471.278187188887, -9306.774652811844, -5918.071379431651, -13060.236043958193, -8750.104457152422, -4764.319034137611, -8836.9856878502, -6231.889871584162, -9202.973151561398, -11235.12670220455, -8136.213795687413, -6837.599794578528, -6295.614695026243, -9331.495682179413, -10660.351593536328, -15608.916057219036, 0.012, 0.23800000000000002, 0.9500000000000001, 192.0, 0.0, 48.0, 3.5, 56.0, 14.5, 88.0, 0.0, 0.0, 0.0, 1.644588231110446E9, 0.0, 2022-02-12 01:03:51.110
138.0, -10468.841847043259, -9310.932077280531, -5913.533975307224, -13066.405125427858, -8761.146218913344, -4762.933225981382, -8835.89045237189, -6232.694534384553, -9204.515421928814, -11230.678705057944, -8126.691952549452, -6835.789303277648, -6291.881953702206, -9319.716312851468, -10662.139733092754, -15627.579763839218, 0.012, 0.23800000000000002, 0.9500000000000001, 192.0, 0.0, 0.0, 0.0, 0.0, 0.0, 0.0, 0.0, 0.0, 0.0, 1.644588231117402E9, 0.0, 2022-02-12 01:03:51.117
140.0, -10465.556140608329, -9313.569583126258, -5923.055818445185, -13064.840503315987, -8757.413477589307, -4761.972100969804, -8841.65720244136, -6235.734371630475, -9206.01298880732, -11233.673838814955, -8136.951403254438, -6832.928279987369, -6286.0034449104605, -9314.061321504274, -10661.044497614444, -15627.535060350307, 0.012, 0.23800000000000002, 0.9500000000000001, 192.0, 0.0, 0.0, 0.0, 0.0, 0.0, 0.0, 0.0, 0.0, 0.0, 1.644588231124776E9, 0.0, 2022-02-12 01:03:51.124
142.0, -10475.010928512924, -9317.123510494652, -5919.948925965897, -13063.834674815498, -8753.948957198734, -4763.804944015139, -8833.543519204082, -6234.549729174344, -9201.654398638535, -11216.060664184173, -8143.61222310212, -6838.605623079017, -6292.396043824679, -9321.07976926324, -10661.960919137111, -15610.771252008826, 0.012, 0.23800000000000002, 0.9500000000000001, 192.0, 0.0, 0.0, 0.0, 0.0, 0.0, 0.0, 0.0, 0.0, 0.0, 1.64458823113298E9, 0.0, 2022-02-12 01:03:51.132
144.0, -10482.655225116638, -9326.198318743505, -5920.1947951549055, -13073.647090631377, -8767.069431194, -4768.990548728771, -8842.931251875312, -6235.555557674833, -9215.44542496746, -11246.347277921115, -8127.742484538852, -6827.362695617998, -6290.563200779343, -9320.02923727384, -10661.558587736916, -15643.76242682486, 0.012, 0.23800000000000002, 0.9500000000000001, 192.0, 0.0, 0.0, 0.0, 0.0, 0.0, 0.0, 0.0, 0.0, 0.0, 1.644588231141141E9, 0.0, 2022-02-12 01:03:51.141
146.0, -10487.594960641261, -9316.609420372179, -5922.586431811623, -13060.258395702649, -8758.441657834252, -4765.078993449091, -8843.378286764419, -6241.925804844595, -9203.844869595156, -11235.059646971184, -8131.184653184969, -6831.788341020148, -6304.443634086088, -9323.98549604243, -10667.772372695492, -15617.767348023339, 0.014, 0.232, 0.9460000000000001, 192.0, 0.0, 56.0, 3.5, 32.0, 14.5, 72.0, 0.0, 0.0, 0.0, 1.644588231147206E9, 0.0, 2022-02-12 01:03:51.147
148.0, -10471.83698080027, -9294.011806727864, -5920.842995744109, -13076.865741832942, -8764.387221859362, -4763.89435099296, -8839.913766373846, -6232.605127406732, -9207.175279518995, -11221.961524720375, -8124.434426359467, -6838.44916086783, -6300.9120584621505, -9327.22649898845, -10667.034765128466, -15637.056903488268, 0.014, 0.232, 0.9460000000000001, 192.0, 0.0, 0.0, 0.0, 0.0, 0.0, 0.0, 0.0, 0.0, 0.0, 1.644588231154456E9, 0.0, 2022-02-12 01:03:51.154
150.0, -10491.730033365493, -9325.70658036549, -5928.55434758119, -13069.780238840609, -8765.124829426388, -4769.079955706591, -8840.51726347414, -6228.402999449134, -9218.194689535463, -11247.800141310709, -8134.760932297819, -6834.850530010525, -6302.208459640558, -9325.572469898758, -10661.670346459192, -15636.900441277081, 0.014, 0.232, 0.9460000000000001, 192.0, 0.0, 0.0, 0.0, 0.0, 0.0, 0.0, 0.0, 0.0, 0.0, 1.644588231162575E9, 0.0, 2022-02-12 01:03:51.162
152.0, -10472.798105811848, -9324.141958253618, -5922.497024833801, -13067.992099284185, -8759.313375868009, -4762.7767637701945, -8837.365667505941, -6235.823778608296, -9208.806956864233, -11222.565021820668, -8144.1710167135025, -6827.183881662355, -6299.8615264727505, -9325.505414665391, -10663.68200346017, -15618.639066057094, 0.014, 0.232, 0.9460000000000001, 192.0, 0.0, 0.0, 0.0, 0.0, 0.0, 0.0, 0.0, 0.0, 0.0, 1.644588231170509E9, 0.0, 2022-02-12 01:03:51.170
154.0, -10466.830190042281, -9306.238210944917, -5919.904222476986, -13081.358442468458, -8758.419306089796, -4759.13342942398, -8830.682495913803, -6224.446740680545, -9212.20442202144, -11248.314231433182, -8140.617089345109, -6834.515253843696, -6294.67592175912, -9311.692036592012, -10661.312718547908, -15648.121016993646, 0.014, 0.232, 0.9460000000000001, 192.0, 0.0, 0.0, 0.0, 0.0, 0.0, 0.0, 0.0, 0.0, 0.0, 1.644588231177327E9, 0.0, 2022-02-12 01:03:51.177
156.0, -10480.1741814821, -9303.243077187906, -5914.651562529989, -13059.565491624535, -8750.260919363609, -4759.625167801996, -8830.347219746975, -6223.731484857975, -9205.096567284652, -11229.404655623992, -8135.207967186924, -6833.375314876475, -6297.782814238408, -9314.642466860112, -10660.865683658802, -15615.778042766815, 0.008, 0.24, 0.9500000000000001, 192.0, 0.0, 32.0, 3.5, 64.0, 14.5, 88.0, 0.0, 0.0, 0.0, 1.644588231185643E9, 0.0, 2022-02-12 01:03:51.185
158.0, -10461.577530095283, -9302.728987065433, -5906.135547892517, -13064.661689360344, -8760.565073557505, -4759.379298612988, -8826.435664467295, -6220.4681301675, -9201.073253282697, -11217.155899662483, -8114.376141354578, -6807.626105263961, -6291.211401368547, -9307.17698421204, -10665.15721859422, -15631.200746440978, 0.008, 0.24, 0.9500000000000001, 192.0, 0.0, 0.0, 0.0, 0.0, 0.0, 0.0, 0.0, 0.0, 0.0, 1.644588231193221E9, 0.0, 2022-02-12 01:03:51.193
160.0, -10489.673672875604, -9318.866946562166, -5921.580603311134, -13071.25545397466, -8762.39791660284, -4770.7563365407395, -8835.51047271615, -6232.023982050894, -9213.076140055196, -11246.928423276953, -8124.076798448182, -6820.947744959324, -6284.90820943215, -9326.779464099343, -10662.385602281762, -15637.61569709965, 0.008, 0.24, 0.9500000000000001, 192.0, 0.0, 0.0, 0.0, 0.0, 0.0, 0.0, 0.0, 0.0, 0.0, 1.644588231200182E9, 0.0, 2022-02-12 01:03:51.200
162.0, -10464.416201641108, -9306.282914433827, -5914.808024741176, -13063.432343415303, -8756.564111300006, -4763.827295759595, -8831.88949011439, -6232.023982050894, -9211.891497599066, -11232.422141125458, -8133.08455146367, -6830.78251251966, -6303.571916052332, -9328.746417611412, -10664.576073238382, -15619.220211412932, 0.008, 0.24, 0.9500000000000001, 192.0, 0.0, 0.0, 0.0, 0.0, 0.0, 0.0, 0.0, 0.0, 0.0, 1.644588231214728E9, 0.0, 2022-02-12 01:03:51.214
164.0, -10469.110067976722, -9313.256658703884, -5917.311420120171, -13076.753983110666, -8767.583521316472, -4768.342348139567, -8842.148940819376, -6229.8335110942735, -9210.282171998284, -11242.100446474606, -8127.183690927469, -6823.1605676603995, -6302.7896049963965, -9316.452958160991, -10663.212616826608, -15649.70799084997, 0.008, 0.24, 0.9500000000000001, 192.0, 0.0, 0.0, 0.0, 0.0, 0.0, 0.0, 0.0, 0.0, 0.0, 1.644588231222897E9, 0.0, 2022-02-12 01:03:51.222
166.0, -10473.178085467587, -9312.02731275884, -5920.842995744109, -13069.780238840609, -8757.502884567128, -4768.208237672834, -8834.549347704571, -6234.035639051872, -9210.706855142935, -11237.89831851701, -8132.525757852288, -6836.862187011503, -6301.783776495908, -9321.258583218883, -10664.218445327097, -15622.863545759148, 0.01, 0.232, 0.9520000000000001, 192.0, 0.0, 40.0, 3.5, 32.0, 14.5, 96.0, 0.0, 0.0, 0.0, 1.644588231229367E9, 0.0, 2022-02-12 01:03:51.229
168.0, -10453.910881747113, -9297.40927188507, -5915.053893930184, -13080.173800012328, -8761.526198569083, -4769.906970251438, -8827.933231345802, -6225.989011047961, -9215.311314500728, -11236.22193768286, -8131.363467140612, -6833.554128832117, -6296.53111654891, -9324.700751865, -10666.274805816985, -15641.214327956955, 0.01, 0.232, 0.9520000000000001, 192.0, 0.0, 0.0, 0.0, 0.0, 0.0, 0.0, 0.0, 0.0, 0.0, 1.644588231237509E9, 0.0, 2022-02-12 01:03:51.237
170.0, -10478.475448903495, -9310.663856347068, -5924.106350434584, -13081.11257327945, -8762.844951491947, -4766.75537428324, -8838.885586128901, -6228.827682593785, -9217.010047079331, -11223.749664276798, -8130.827025273684, -6839.857320768514, -6296.084081659804, -9329.841653089721, -10663.011451126511, -15638.755636066871, 0.01, 0.232, 0.9520000000000001, 192.0, 0.0, 0.0, 0.0, 0.0, 0.0, 0.0, 0.0, 0.0, 0.0, 1.644588231245658E9, 0.0, 2022-02-12 01:03:51.245
172.0, -10469.780620310381, -9315.51418489387, -5922.586431811623, -13072.954186553263, -8767.203541660732, -4770.868095263016, -8844.250004798176, -6235.712019886019, -9206.72824462989, -11241.921632518965, -8132.212833429913, -6839.142064945944, -6304.398930597178, -9322.644391375112, -10670.812209941412, -15620.740130035894, 0.01, 0.232, 0.9520000000000001, 192.0, 0.0, 0.0, 0.0, 0.0, 0.0, 0.0, 0.0, 0.0, 0.0, 1.644588231252668E9, 0.0, 2022-02-12 01:03:51.252
174.0, -10482.096431505255, -9328.254679233394, -5924.665144045966, -13082.923064580329, -8777.239474921165, -4777.70772906634, -8847.870987399934, -6240.942328088561, -9218.261744768828, -11266.575606653167, -8132.771627041296, -6831.028381708668, -6307.01408469845, -9329.595783900713, -10674.455544287628, -15653.306621707276, 0.01, 0.232, 0.9520000000000001, 192.0, 0.0, 0.0, 0.0, 0.0, 0.0, 0.0, 0.0, 0.0, 0.0, 1.644588231261451E9, 0.0, 2022-02-12 01:03:51.261
176.0, -10484.912751306623, -9322.51028090838, -5919.4348358434245, -13072.216578986237, -8756.497056066639, -4770.9351504963815, -8841.36662976344, -6244.51860720141, -9214.976038333898, -11258.193702482427, -8129.821196773196, -6832.458893353808, -6305.7847387534075, -9334.602574658702, -10672.712108220114, -15630.530194107318, 0.008, 0.23, 0.9540000000000001, 192.0, 0.0, 32.0, 3.5, 24.0, 14.5, 104.0, 0.0, 0.0, 0.0, 1.644588231267796E9, 0.0, 2022-02-12 01:03:51.267
178.0, -10467.053707486833, -9305.075920233241, -5917.60199279809, -13082.051346546574, -8760.341556112953, -4769.929321995893, -8826.770940634126, -6224.223223235992, -9211.288000498773, -11235.707847560388, -8116.5219088222875, -6825.753370017215, -6277.040395383882, -9327.360609455181, -10669.15818085172, -15642.309563435265, 0.008, 0.23, 0.9540000000000001, 192.0, 0.0, 0.0, 0.0, 0.0, 0.0, 0.0, 0.0, 0.0, 0.0, 1.644588231275521E9, 0.0, 2022-02-12 01:03:51.275
180.0, -10478.140172736666, -9315.961219782976, -5926.207414413383, -13083.191285513794, -8761.459143335718, -4774.3996708869545, -8839.310269273552, -6235.533205930377, -9220.206346536439, -11240.357010407091, -8130.290583406757, -6840.326707402076, -6304.287171874902, -9328.478196677946, -10672.041555886455, -15646.154063481577, 0.008, 0.23, 0.9540000000000001, 192.0, 0.0, 0.0, 0.0, 0.0, 0.0, 0.0, 0.0, 0.0, 0.0, 1.644588231282315E9, 0.0, 2022-02-12 01:03:51.282
182.0, -10465.846713286248, -9309.143937724106, -5919.390132354514, -13072.864779575442, -8758.754582256626, -4772.745641797262, -8844.31706003154, -6242.372839733701, -9215.646590667557, -11226.543632333713, -8128.301278150235, -6829.866090996992, -6303.05782592986, -9328.7017141225, -10681.988082169066, -15631.558374352262, 0.008, 0.23, 0.9540000000000001, 192.0, 0.0, 0.0, 0.0, 0.0, 0.0, 0.0, 0.0, 0.0, 0.0, 1.644588231290092E9, 0.0, 2022-02-12 01:03:51.290
184.0, -10466.78548655337, -9314.620115115657, -5921.1335684220285, -13085.068832048039, -8770.466896351207, -4774.8690575205155, -8854.844731669991, -6240.495293199456, -9218.172337791008, -11251.063496001185, -8116.611315800109, -6820.63482053695, -6296.2181921265355, -9328.858176333688, -10683.30683509193, -15662.0461537893, 0.008, 0.233, 0.9530000000000001, 192.0, 0.0, 32.0, 3.5, 48.0, 14.5, 96.0, 0.0, 0.0, 0.0, 1.644588231297748E9, 0.0, 2022-02-12 01:03:51.297
186.0, -10477.000233769446, -9313.904859293087, -5924.016943456762, -13080.106744778961, -8752.272576364587, -4766.509505094231, -8841.03135359661, -6237.410752464623, -9211.377407476593, -11249.029487255752, -8131.922260751994, -6831.765989275693, -6304.980075953016, -9330.691019379023, -10680.78108796848, -15633.502976119875, 0.008, 0.233, 0.9530000000000001, 192.0, 0.0, 0.0, 0.0, 0.0, 0.0, 0.0, 0.0, 0.0, 0.0, 1.644588231305704E9, 0.0, 2022-02-12 01:03:51.305
188.0, -10472.708698834027, -9313.770748826355, -5918.652524787489, -13087.348709982482, -8755.9159107108, -4766.08482194958, -8833.521167459628, -6228.872386082696, -9223.313239015728, -11249.208301211394, -8131.27406016279, -6827.250936895721, -6301.537907306899, -9322.957315797486, -10678.098878633844, -15646.95872628197, 0.008, 0.233, 0.9530000000000001, 192.0, 0.0, 0.0, 0.0, 0.0, 0.0, 0.0, 0.0, 0.0, 0.0, 1.644588231312402E9, 0.0, 2022-02-12 01:03:51.312
190.0, -10454.849655014235, -9301.901972520587, -5923.145225423005, -13088.801573372075, -8751.646727519837, -4762.530894581187, -8824.111083043943, -6218.747045844441, -9217.390026735071, -11252.94104253543, -8126.110807193614, -6832.615355564994, -6296.48641306, -9318.241097717417, -10671.460410530617, -15645.61762161465, 0.008, 0.233, 0.9530000000000001, 192.0, 0.0, 0.0, 0.0, 0.0, 0.0, 0.0, 0.0, 0.0, 0.0, 1.644588231320548E9, 0.0, 2022-02-12 01:03:51.320
192.0, -10473.088678489767, -9300.22559168644, -5922.5417283227125, -13082.073698291028, -8748.91981469629, -4763.46966784831, -8825.586298177994, -6222.368028446202, -9212.763215632822, -11225.895431744508, -8131.117597951603, -6852.575463363584, -6297.29107586039, -9328.187624000027, -10670.49928551904, -15623.042359714791, 0.008, 0.233, 0.9530000000000001, 192.0, 0.0, 0.0, 0.0, 0.0, 0.0, 0.0, 0.0, 0.0, 0.0, 1.644588231328291E9, 0.0, 2022-02-12 01:03:51.328
194.0, -10482.141134994166, -9333.932022325042, -5923.726370778843, -13087.795744871586, -8767.181189916277, -4765.70484229384, -8840.51726347414, -6231.5322436728775, -9227.738884417879, -11249.27535644476, -8123.2721356477905, -6827.183881662355, -6300.062692172849, -9324.052551275796, -10673.025032642488, -15653.418380429554, 0.01, 0.23550000000000001, 0.9515, 192.0, 0.0, 48.0, 3.5, 56.0, 14.5, 88.0, 0.0, 0.0, 0.0, 1.644588231342089E9, 0.0, 2022-02-12 01:03:51.342
196.0, -10485.337434451276, -9324.700751865, -5924.151053923494, -13080.039689545596, -8758.77693400108, -4764.095516693058, -8842.37245826393, -6236.5837379197765, -9218.597020935658, -11250.594109367623, -8125.082626948671, -6820.344247859031, -6287.836287955795, -9320.945658796509, -10676.176628610687, -15627.71387430595, 0.01, 0.23550000000000001, 0.9515, 192.0, 0.0, 0.0, 0.0, 0.0, 0.0, 0.0, 0.0, 0.0, 0.0, 1.644588231350196E9, 0.0, 2022-02-12 01:03:51.350
198.0, -10467.187817953565, -9317.436434917026, -5917.780806753732, -13091.93081759582, -8770.64571030685, -4766.174228927402, -8844.451170498272, -6230.437008194567, -9220.25105002535, -11241.474597629858, -8121.238126902357, -6819.450178080819, -6302.543735807388, -9315.424777916049, -10679.149410623242, -15643.04717100229, 0.01, 0.23550000000000001, 0.9515, 192.0, 0.0, 0.0, 0.0, 0.0, 0.0, 0.0, 0.0, 0.0, 0.0, 1.644588231358061E9, 0.0, 2022-02-12 01:03:51.358
200.0, -10474.720355835005, -9305.768824311355, -5924.039295201218, -13086.946378582285, -8767.11413468291, -4771.6951098078625, -8845.456998998761, -6244.406848479134, -9214.05961681123, -11239.708809817888, -8124.076798448182, -6830.111960186, -6301.470852073533, -9328.522900166858, -10676.53425652197, -15653.485435662918, 0.01, 0.23550000000000001, 0.9515, 192.0, 0.0, 0.0, 0.0, 0.0, 0.0, 0.0, 0.0, 0.0, 0.0, 1.644588231364727E9, 0.0, 2022-02-12 01:03:51.364
202.0, -10464.259739429921, -9308.74160632391, -5919.166614909961, -13079.905579078864, -8766.197713160243, -4771.493944107765, -8846.41812401034, -6245.278566512891, -9210.72920688739, -11241.519301118768, -8129.3741618840895, -6833.844701510036, -6304.957724208561, -9330.04281878982, -10680.758736224025, -15632.094816219189, 0.01, 0.23550000000000001, 0.9515, 192.0, 0.0, 0.0, 0.0, 0.0, 0.0, 0.0, 0.0, 0.0, 0.0, 1.644588231372738E9, 0.0, 2022-02-12 01:03:51.372
204.0, -10448.1664834221, -9308.406330157082, -5913.7351410073215, -13089.382718727913, -8767.404707360829, -4768.722327795306, -8842.84184489749, -6239.355354232234, -9218.932297102487, -11259.288937960737, -8124.32266763719, -6833.129445687467, -6301.046168928882, -9321.973839041453, -10676.802477455436, -15660.660345633072, 0.01, 0.23575000000000002, 0.95075, 192.0, 0.0, 40.0, 3.5, 48.0, 14.5, 88.0, 0.0, 0.0, 0.0, 1.644588231380562E9, 0.0, 2022-02-12 01:03:51.380
206.0, -10469.065364487811, -9308.249867945895, -5916.21618464186, -13079.480895934212, -8757.480532822674, -4768.007071972736, -8844.026487353622, -6242.730467644986, -9202.526116672292, -11238.814740039676, -8126.043751960248, -6834.694067799338, -6297.492241560489, -9321.660914619079, -10674.544951265449, -15632.184223197011, 0.01, 0.23575000000000002, 0.95075, 192.0, 0.0, 0.0, 0.0, 0.0, 0.0, 0.0, 0.0, 0.0, 0.0, 1.644588231387764E9, 0.0, 2022-02-12 01:03:51.387
208.0, -10481.247065215954, -9321.906783808086, -5908.1025014045845, -13090.835582117508, -8759.872169479391, -4773.7514702977505, -8836.561004705549, -6245.815008379818, -9212.807919121733, -11244.827359298153, -8114.599658799131, -6816.432692579352, -6295.1006049037705, -9325.460711176482, -10678.568265267404, -15649.819749572249, 0.01, 0.23575000000000002, 0.95075, 192.0, 0.0, 0.0, 0.0, 0.0, 0.0, 0.0, 0.0, 0.0, 0.0, 1.64458823139444E9, 0.0, 2022-02-12 01:03:51.394
210.0, -10471.367594166708, -9308.808661557277, -5917.423178842447, -13089.36036698346, -8758.866340978902, -4770.599874329552, -8840.003173351666, -6240.271775754903, -9221.078064570196, -11251.979917523851, -8109.279943618768, -6823.115864171489, -6288.5291920339105, -9318.375208184149, -10674.67906173218, -15655.295926963798, 0.01, 0.23575000000000002, 0.95075, 192.0, 0.0, 0.0, 0.0, 0.0, 0.0, 0.0, 0.0, 0.0, 0.0, 1.644588231402177E9, 0.0, 2022-02-12 01:03:51.402
212.0, -10460.482294616973, -9300.762033553367, -5915.6126875415675, -13078.318605222537, -8755.960614199712, -4765.235455660279, -8833.69998141527, -6227.5983366487435, -9207.376445219094, -11240.088789473628, -8124.143853681548, -6838.247995167732, -6287.165735622137, -9324.767807098366, -10676.78012571098, -15625.635162071607, 0.01, 0.23575000000000002, 0.95075, 192.0, 0.0, 0.0, 0.0, 0.0, 0.0, 0.0, 0.0, 0.0, 0.0, 1.64458823141021E9, 0.0, 2022-02-12 01:03:51.410
214.0, -10477.626082614193, -9315.469481404958, -5911.812890984165, -13090.835582117508, -8763.135524169866, -4768.923493495405, -8837.008039594655, -6234.125046029693, -9222.530927959791, -11246.32492617666, -8110.911620964006, -6823.518195571684, -6290.920828690628, -9316.140033738619, -10673.516771020506, -15655.832368830726, 0.01, 0.235875, 0.948375, 192.0, 0.0, 40.0, 3.5, 48.0, 14.5, 72.0, 0.0, 0.0, 0.0, 1.644588231417396E9, 0.0, 2022-02-12 01:03:51.417
216.0, -10486.186800740577, -9307.624019101146, -5913.399864840492, -13082.408974457858, -8749.67977400777, -4768.1188306950135, -8838.46090298425, -6248.184293292081, -9213.836099366677, -11245.27439418726, -8111.068083175192, -6820.947744959324, -6291.501974046466, -9320.588030885225, -10672.555646008926, -15632.787720297305, 0.01, 0.235875, 0.948375, 192.0, 0.0, 0.0, 0.0, 0.0, 0.0, 0.0, 0.0, 0.0, 0.0, 1.644588231424824E9, 0.0, 2022-02-12 01:03:51.424
218.0, -10472.596940111749, -9319.738664595921, -5911.209393883872, -13093.16016354086, -8756.653518277826, -4769.258769662234, -8832.291821514586, -6232.292202984358, -9221.502747714847, -11255.265623958781, -8113.102091920626, -6821.931221715358, -6280.259046585446, -9316.721179094457, -10673.047384386944, -15646.779912326327, 0.01, 0.235875, 0.948375, 192.0, 0.0, 0.0, 0.0, 0.0, 0.0, 0.0, 0.0, 0.0, 0.0, 1.644588231432771E9, 0.0, 2022-02-12 01:03:51.432
220.0, -10468.998309254446, -9317.481138405936, -5918.473710831847, -13090.835582117508, -8754.843026976947, -4767.381223127988, -8839.913766373846, -6229.989973305461, -9221.793320392766, -11263.84869382962, -8115.516080321799, -6815.940954201335, -6274.045261626871, -9313.45782440398, -10670.834561685868, -15651.406723428576, 0.01, 0.235875, 0.948375, 192.0, 0.0, 0.0, 0.0, 0.0, 0.0, 0.0, 0.0, 0.0, 0.0, 1.644588231441112E9, 0.0, 2022-02-12 01:03:51.441
222.0, -10477.26845470291, -9306.014693500363, -5919.881870732531, -13084.800611114575, -8754.35128859893, -4767.627092316997, -8841.277222785619, -6237.254290253436, -9214.618410422612, -11254.729182091854, -8121.618106558098, -6826.5580328176065, -6285.265837343435, -9315.670647105057, -10675.461372788117, -15628.674999317527, 0.01, 0.235875, 0.948375, 192.0, 0.0, 0.0, 0.0, 0.0, 0.0, 0.0, 0.0, 0.0, 0.0, 1.644588231447561E9, 0.0, 2022-02-12 01:03:51.447
224.0, -10469.98178601048, -9302.930152765532, -5921.692362033411, -13099.977445599729, -8769.125791683888, -4773.349138897555, -8849.726182189725, -6249.883025870684, -9227.53771871778, -11245.296745931715, -8119.405283857022, -6829.39670436343, -6293.804203725363, -9320.74449309641, -10679.149410623242, -15664.929528824036, 0.009000000000000001, 0.2379375, 0.9491875000000001, 192.0, 0.0, 32.0, 3.5, 64.0, 14.5, 88.0, 0.0, 0.0, 0.0, 1.644588231462587E9, 0.0, 2022-02-12 01:03:51.462
226.0, -10475.055632001833, -9318.50931865088, -5922.161748666972, -13093.316625752048, -8755.848855477436, -4768.632920817486, -8835.845748882979, -6248.47486597, -9221.860375626133, -11261.255891472805, -8126.781359527274, -6842.539530103151, -6301.515555562443, -9320.588030885225, -10677.942416422657, -15639.33678142271, 0.009000000000000001, 0.2379375, 0.9491875000000001, 192.0, 0.0, 0.0, 0.0, 0.0, 0.0, 0.0, 0.0, 0.0, 0.0, 1.644588231469697E9, 0.0, 2022-02-12 01:03:51.469
228.0, -10475.770887824403, -9325.773635598855, -5916.394998597503, -13091.372023984435, -8763.895483481347, -4772.186848185879, -8837.790350650592, -6237.366048975712, -9223.78262564929, -11263.17814149596, -8119.114711179103, -6835.811655022104, -6292.9324856916055, -9327.114740266174, -10675.841352443857, -15650.535005394819, 0.009000000000000001, 0.2379375, 0.9491875000000001, 192.0, 0.0, 0.0, 0.0, 0.0, 0.0, 0.0, 0.0, 0.0, 0.0, 1.644588231477374E9, 0.0, 2022-02-12 01:03:51.477
230.0, -10492.422937443607, -9334.893147336621, -5924.911013234975, -13087.371061726935, -8765.817733504502, -4773.483249364287, -8842.148940819376, -6247.983127591983, -9229.63878269658, -11276.343318980136, -8109.168184896492, -6815.2927536121315, -6295.122956648226, -9331.56273741278, -10677.718898978103, -15661.420304944553, 0.009000000000000001, 0.2379375, 0.9491875000000001, 192.0, 0.0, 0.0, 0.0, 0.0, 0.0, 0.0, 0.0, 0.0, 0.0, 1.644588231485043E9, 0.0, 2022-02-12 01:03:51.485
232.0, -10491.774736854404, -9321.146824496607, -5928.040257458718, -13086.409936715358, -8761.794419502547, -4769.415231873421, -8840.9866501077, -6237.8130838648185, -9230.599907708158, -11250.83997855663, -8122.13219668057, -6823.1605676603995, -6298.386311338701, -9325.684228621034, -10683.485649047572, -15636.989848254902, 0.009000000000000001, 0.2379375, 0.9491875000000001, 192.0, 0.0, 0.0, 0.0, 0.0, 0.0, 0.0, 0.0, 0.0, 0.0, 1.644588231493263E9, 0.0, 2022-02-12 01:03:51.493
234.0, -10483.996329783957, -9307.288742934315, -5926.073303946651, -13097.004663587173, -8770.511599840118, -4772.589179586074, -8839.667897184838, -6241.970508333506, -9250.35884980665, -11277.438554458447, -8119.3382286236565, -6823.562899060596, -6304.197764897081, -9320.610382629678, -10683.396242069752, -15669.422229459553, 0.006500000000000001, 0.23896875, 0.94759375, 192.0, 0.0, 16.0, 3.5, 64.0, 14.5, 72.0, 0.0, 0.0, 0.0, 1.644588231500815E9, 0.0, 2022-02-12 01:03:51.500
236.0, -10476.240274457965, -9315.55888838278, -5926.229766157838, -13087.661634404854, -8762.487323580663, -4766.464801605321, -8848.005097866666, -6248.899549114651, -9231.87395714211, -11262.485237417846, -8118.377103612078, -6827.563861318095, -6301.023817184427, -9320.118644251663, -10684.692643248158, -15641.504900634875, 0.006500000000000001, 0.23896875, 0.94759375, 192.0, 0.0, 0.0, 0.0, 0.0, 0.0, 0.0, 0.0, 0.0, 0.0, 1.644588231507703E9, 0.0, 2022-02-12 01:03:51.507
238.0, -10489.293693219865, -9325.460711176482, -5923.6593155454775, -13097.339939754003, -8764.87896023738, -4766.509505094231, -8828.89435635738, -6236.5837379197765, -9233.885614143088, -11248.448341899913, -8115.471376832888, -6830.849567753025, -6296.57582003782, -9322.242059974917, -10684.849105459345, -15654.223043229944, 0.006500000000000001, 0.23896875, 0.94759375, 192.0, 0.0, 0.0, 0.0, 0.0, 0.0, 0.0, 0.0, 0.0, 0.0, 1.644588231514889E9, 0.0, 2022-02-12 01:03:51.514
240.0, -10488.109050763733, -9332.456807190993, -5931.5271295937455, -13099.01632058815, -8766.35417537143, -4766.129525438491, -8836.069266327533, -6237.142531531159, -9237.774817678312, -11291.43074648747, -8115.247859388335, -6823.898175227425, -6291.39021532419, -9315.625943616145, -10678.791782711958, -15662.113209022667, 0.006500000000000001, 0.23896875, 0.94759375, 192.0, 0.0, 0.0, 0.0, 0.0, 0.0, 0.0, 0.0, 0.0, 0.0, 1.64458823152345E9, 0.0, 2022-02-12 01:03:51.523
242.0, -10476.64260585816, -9323.381998942137, -5930.186024926427, -13095.529448453122, -8756.87703572238, -4762.553246325641, -8829.587260435494, -6243.468075212011, -9233.148006576062, -11270.665975888489, -8125.194385670947, -6836.102227700023, -6293.781851980907, -9320.140995996118, -10681.630454257782, -15639.180319211522, 0.006500000000000001, 0.23896875, 0.94759375, 192.0, 0.0, 0.0, 0.0, 0.0, 0.0, 0.0, 0.0, 0.0, 0.0, 1.644588231529478E9, 0.0, 2022-02-12 01:03:51.529
