%OpenBCI Raw EEG Data
%Number of channels = 16
%Sample Rate = 125 Hz
%Board = OpenBCI_GUI$BoardCytonSerialDaisy
Sample Index, EXG Channel 0, EXG Channel 1, EXG Channel 2, EXG Channel 3, EXG Channel 4, EXG Channel 5, EXG Channel 6, EXG Channel 7, EXG Channel 8, EXG Channel 9, EXG Channel 10, EXG Channel 11, EXG Channel 12, EXG Channel 13, EXG Channel 14, EXG Channel 15, Accel Channel 0, Accel Channel 1, Accel Channel 2, Other, Other, Other, Other, Other, Other, Other, Analog Channel 0, Analog Channel 1, Analog Channel 2, Timestamp, Other, Timestamp (Formatted)
160.0, -10227.286544714754, -9254.315108575238, -5926.050952202196, -13348.685306153931, -8547.240024476056, -4474.282798085546, -8462.43750601262, -6162.241835861425, -9789.12529815737, -11689.582370469854, -7643.290775214527, -6291.479622302011, -5902.089882146106, -8975.790020917657, -10789.18704857672, -15809.813536383337, 0.0, 0.0, 0.0, 192.0, 0.0, 0.0, 0.0, 0.0, 0.0, 0.0, 0.0, 0.0, 0.0, 1.64458826019151E9, 0.0, 2022-02-12 01:04:20.191
162.0, -10215.797748064728, -9261.69118424549, -5922.7205422783545, -13353.043896322715, -8550.279861721976, -4475.512144030588, -8464.471514758054, -6172.545990055321, -9780.385766075346, -11688.040100102437, -7650.286871229037, -6289.110337389749, -5915.545632308202, -8981.892047153957, -10790.483449755127, -15811.780489895404, 0.001, 0.117, 0.47600000000000003, 192.0, 0.0, 8.0, 3.5, 40.0, 14.5, 96.0, 0.0, 0.0, 0.0, 1.644588260191515E9, 0.0, 2022-02-12 01:04:20.191
0.0, -4898.809480525194, -4500.814318753996, -2890.4605377269436, -6639.78685614906, -4191.712044681554, -2136.8491216718103, -4129.462436373525, -3077.8128597513273, -4895.412015367987, -5855.240625767783, -3825.5010635258036, -3143.303471005377, -2958.0298612153365, -4486.777423236063, -5393.632399276781, -7909.745920866242, 0.008, 0.232, 0.9460000000000001, 192.0, 0.0, 32.0, 3.5, 32.0, 14.5, 72.0, 0.0, 0.0, 0.0, 1.644588260305171E9, 0.0, 2022-02-12 01:04:20.305
2.0, -9812.684036813263, -9035.200957679863, -5792.923962226387, -13274.611625029043, -8386.329816142299, -4275.329920688859, -8268.379660651644, -6160.163123627081, -9716.325666466435, -11655.87593983125, -7215.433682851039, -6036.937956444974, -5558.700032079224, -8731.932488910257, -10658.742267935548, -15689.471744235963, 0.008, 0.232, 0.9460000000000001, 192.0, 0.0, 0.0, 0.0, 0.0, 0.0, 0.0, 0.0, 0.0, 0.0, 1.644588260312749E9, 0.0, 2022-02-12 01:04:20.312
4.0, -9819.523670616589, -9050.60130960957, -5794.399177360437, -13265.000374913261, -8384.295807396866, -4273.519429387979, -8264.378698394145, -6157.346803825713, -9719.790186857008, -11668.437620215132, -7218.42881660805, -6023.0351713937725, -5551.949805253721, -8733.497111022129, -10664.35255579383, -15659.743924110404, 0.008, 0.232, 0.9460000000000001, 192.0, 0.0, 0.0, 0.0, 0.0, 0.0, 0.0, 0.0, 0.0, 0.0, 1.644588260319626E9, 0.0, 2022-02-12 01:04:20.319
6.0, -9817.981400249171, -9036.966745491833, -5797.036683206164, -13274.075183162116, -8403.89828728417, -4279.241475968537, -8275.711032832985, -6165.594597529722, -9738.096265565904, -11689.962350125594, -7218.987610219433, -6020.867052181608, -5551.167494197785, -8733.742980211136, -10667.906483162224, -15693.58446521574, 0.008, 0.232, 0.9460000000000001, 192.0, 0.0, 0.0, 0.0, 0.0, 0.0, 0.0, 0.0, 0.0, 0.0, 1.644588260327479E9, 0.0, 2022-02-12 01:04:20.327
8.0, -9805.218554165192, -9022.415759851428, -5793.929790726876, -13261.111171378037, -8393.214153434534, -4273.742946832532, -8271.173628708557, -6165.013452173884, -9723.478224692133, -11659.429867199644, -7222.340371887729, -6020.978810903885, -5571.708747352212, -8735.44171278974, -10664.888997660757, -15664.10251427919, 0.01, 0.232, 0.9440000000000001, 192.0, 0.0, 40.0, 3.5, 32.0, 14.5, 64.0, 0.0, 0.0, 0.0, 1.644588260335589E9, 0.0, 2022-02-12 01:04:20.335
10.0, -9789.952312702217, -9006.523669543705, -5790.599380803034, -13267.324956336613, -8402.490127383486, -4275.1064032443055, -8270.592483352719, -6167.047460919316, -9724.327590981435, -11672.282120261445, -7228.3529911462065, -6012.082816610672, -5579.017767789098, -8728.602078986416, -10666.051288372433, -15675.613662673673, 0.01, 0.232, 0.9440000000000001, 192.0, 0.0, 0.0, 0.0, 0.0, 0.0, 0.0, 0.0, 0.0, 0.0, 1.644588260342744E9, 0.0, 2022-02-12 01:04:20.342
12.0, -9795.339083115947, -9024.941506974877, -5795.896744238943, -13269.403668570956, -8410.581458876308, -4283.845935326331, -8280.315492190777, -6173.864742978185, -9726.249841004592, -11685.447297745623, -7227.637735323637, -6022.901060927041, -5571.954616541221, -8732.446579032729, -10662.25149181503, -15684.554360455795, 0.01, 0.232, 0.9440000000000001, 192.0, 0.0, 0.0, 0.0, 0.0, 0.0, 0.0, 0.0, 0.0, 0.0, 1.644588260350189E9, 0.0, 2022-02-12 01:04:20.350
14.0, -9796.210801149702, -9032.027009967209, -5793.415700604403, -13260.507674277744, -8410.849679809771, -4290.618513896288, -8283.534143392342, -6162.755925983897, -9725.646343904298, -11649.438637428122, -7237.539558117338, -6029.919508686007, -5565.852590304922, -8750.171512385788, -10668.82290468489, -15662.58259565623, 0.01, 0.232, 0.9440000000000001, 192.0, 0.0, 0.0, 0.0, 0.0, 0.0, 0.0, 0.0, 0.0, 0.0, 1.644588260358107E9, 0.0, 2022-02-12 01:04:20.358
16.0, -9820.887127028362, -9033.077541956609, -5792.074595937085, -13270.454200560356, -8426.384142206209, -4292.987798808551, -8289.099727761713, -6177.7092430244975, -9729.379085228335, -11673.332652250845, -7219.501700341904, -6019.972982403396, -5589.165459771808, -8754.016012432101, -10673.427364042684, -15699.932360641047, 0.01, 0.232, 0.9470000000000001, 192.0, 0.0, 40.0, 3.5, 32.0, 14.5, 88.0, 0.0, 0.0, 0.0, 1.644588260372515E9, 0.0, 2022-02-12 01:04:20.372
18.0, -9815.254487425624, -9026.908460486944, -5798.154270428929, -13259.032459143695, -8417.845775824282, -4284.292970215437, -8291.49136441843, -6171.897789466118, -9725.869861348852, -11680.842838387829, -7220.887508498134, -6012.328685799681, -5580.582389900969, -8740.850834947925, -10674.50024777654, -15674.473723706453, 0.01, 0.232, 0.9470000000000001, 192.0, 0.0, 0.0, 0.0, 0.0, 0.0, 0.0, 0.0, 0.0, 0.0, 1.644588260380413E9, 0.0, 2022-02-12 01:04:20.380
20.0, -9791.248713880625, -9005.49548929876, -5794.645046549445, -13262.027592900706, -8432.888499842704, -4279.532048646456, -8291.379605696155, -6170.93666445454, -9731.860128862874, -11664.660175402187, -7219.144072430619, -6004.1926508179495, -5589.3666254719055, -8734.838215689448, -10679.864666445812, -15685.493133722919, 0.01, 0.232, 0.9470000000000001, 192.0, 0.0, 0.0, 0.0, 0.0, 0.0, 0.0, 0.0, 0.0, 0.0, 1.644588260387349E9, 0.0, 2022-02-12 01:04:20.387
22.0, -9807.118452443892, -9025.813225008635, -5811.5429653576575, -13266.475590047312, -8444.645517426196, -4284.427080682169, -8311.227954772468, -6175.116440667683, -9728.864995105863, -11676.908931363694, -7222.5415375878265, -6006.517232241301, -5580.336520711961, -8732.670096477283, -10683.977387425588, -15695.417308261074, 0.01, 0.232, 0.9470000000000001, 192.0, 0.0, 0.0, 0.0, 0.0, 0.0, 0.0, 0.0, 0.0, 0.0, 1.644588260395182E9, 0.0, 2022-02-12 01:04:20.395
24.0, -9806.693769299241, -9012.648047524459, -5806.893802510954, -13264.91096793544, -8447.350078505287, -4288.584505150856, -8313.708998407006, -6182.425461104568, -9734.855262619885, -11668.236454515036, -7236.9584127615, -6019.369485303103, -5615.361704273428, -8744.91885243879, -10695.108556164332, -15667.634089903127, 0.01, 0.232, 0.9470000000000001, 192.0, 0.0, 0.0, 0.0, 0.0, 0.0, 0.0, 0.0, 0.0, 0.0, 1.644588260403069E9, 0.0, 2022-02-12 01:04:20.403
26.0, -9784.654949266309, -9020.046474939165, -5816.572107860102, -13275.908026207451, -8463.376279279742, -4294.999455809529, -8308.635152415653, -6180.5255628258665, -9741.672544678753, -11675.92545460766, -7237.6289650951585, -6024.666848739011, -5622.290745054573, -8744.672983249782, -10695.466184075616, -15704.1568403431, 0.01, 0.231, 0.9455, 192.0, 0.0, 40.0, 3.5, 24.0, 14.5, 64.0, 0.0, 0.0, 0.0, 1.644588260410242E9, 0.0, 2022-02-12 01:04:20.410
28.0, -9791.762804003096, -9011.441053323872, -5817.0638462381185, -13261.602909756055, -8457.788343165916, -4292.943095319641, -8316.055931574814, -6186.60523731771, -9733.938841097217, -11681.178114554657, -7248.983651278455, -6028.533700529779, -5615.339352528972, -8754.910082210312, -10699.131870166288, -15676.619491174162, 0.01, 0.231, 0.9455, 192.0, 0.0, 0.0, 0.0, 0.0, 0.0, 0.0, 0.0, 0.0, 0.0, 1.644588260417625E9, 0.0, 2022-02-12 01:04:20.417
30.0, -9834.097008001449, -9041.951184505366, -5817.510881127225, -13270.185979626893, -8478.284892831432, -4297.502851188523, -8323.45435898952, -6188.125155940671, -9730.586079428922, -11645.63884087072, -7233.069209226276, -6017.2237178353935, -5626.671686967813, -8744.360058827408, -10701.098823678354, -15686.074279078757, 0.01, 0.231, 0.9455, 192.0, 0.0, 0.0, 0.0, 0.0, 0.0, 0.0, 0.0, 0.0, 0.0, 1.6445882604248E9, 0.0, 2022-02-12 01:04:20.424
32.0, -9834.074656256993, -9040.923004260421, -5829.402009177448, -13268.017860414728, -8476.943788164113, -4294.619476153788, -8329.265812547901, -6182.045481448828, -9769.567521758976, -11706.45793753361, -7256.136209504153, -6028.6678109965105, -5632.505492270648, -8750.30562285252, -10701.277637633997, -15695.640825705628, 0.01, 0.231, 0.9455, 192.0, 0.0, 0.0, 0.0, 0.0, 0.0, 0.0, 0.0, 0.0, 0.0, 1.644588260432639E9, 0.0, 2022-02-12 01:04:20.432
34.0, -9857.387525723878, -9059.676117858424, -5825.15517773094, -13270.141276137982, -8474.552151507396, -4297.212278510604, -8325.466015990498, -6183.855972749708, -9757.83285591994, -11684.687338434142, -7265.345128219739, -6026.410284806524, -5647.414105822338, -8753.121942653888, -10703.423405101707, -15667.567034669763, 0.01, 0.231, 0.9455, 192.0, 0.0, 0.0, 0.0, 0.0, 0.0, 0.0, 0.0, 0.0, 0.0, 1.644588260439837E9, 0.0, 2022-02-12 01:04:20.439
36.0, -9848.80445585304, -9067.70039411788, -5824.43992190837, -13278.277311119713, -8483.358738822788, -4300.028598311973, -8322.403827000122, -6176.41284184609, -9760.492713510122, -11707.150841611725, -7248.938947789544, -6022.230508593382, -5645.335393587994, -8756.094724666444, -10701.411748100729, -15701.876962408658, 0.011, 0.2335, 0.94475, 192.0, 0.0, 48.0, 3.5, 48.0, 14.5, 64.0, 0.0, 0.0, 0.0, 1.64458826044731E9, 0.0, 2022-02-12 01:04:20.447
38.0, -9860.09208680297, -9077.22223725584, -5834.408799935437, -13269.224854615315, -8477.01084339748, -4296.362912221302, -8323.677876434074, -6178.044519191328, -9765.298338568013, -11703.619265987787, -7264.7416311194465, -6043.397610592558, -5647.704678500257, -8755.602986288428, -10697.433137587685, -15672.462066705475, 0.011, 0.2335, 0.94475, 192.0, 0.0, 0.0, 0.0, 0.0, 0.0, 0.0, 0.0, 0.0, 0.0, 1.644588260455265E9, 0.0, 2022-02-12 01:04:20.455
40.0, -9858.57216818001, -9068.102725518076, -5828.083256254585, -13269.783648226698, -8486.689148746627, -4292.294894730437, -8316.324152508278, -6175.027033689861, -9769.053431636505, -11689.761184425495, -7271.961244578511, -6027.036133651273, -5660.579283306513, -8760.430963090774, -10700.271809133508, -15679.43581097553, 0.011, 0.2335, 0.94475, 192.0, 0.0, 0.0, 0.0, 0.0, 0.0, 0.0, 0.0, 0.0, 0.0, 1.644588260462441E9, 0.0, 2022-02-12 01:04:20.462
42.0, -9856.381697223389, -9063.453562671371, -5844.221215751317, -13274.34340409558, -8505.978704211559, -4304.476595458579, -8342.229824331978, -6200.351560157724, -9771.154495615303, -11699.372434541277, -7273.861142857211, -6028.734866229876, -5651.951509946765, -8759.44748633474, -10702.886963234778, -15696.758412928393, 0.011, 0.2335, 0.94475, 192.0, 0.0, 0.0, 0.0, 0.0, 0.0, 0.0, 0.0, 0.0, 0.0, 1.644588260469977E9, 0.0, 2022-02-12 01:04:20.469
44.0, -9851.844293098962, -9068.54976040718, -5846.6799076414, -13275.416287829434, -8505.68813153364, -4303.85074661383, -8339.346449297243, -6187.611065818199, -9767.488809524633, -11699.55124849692, -7284.5899801957585, -6030.075970897195, -5665.831943253511, -8760.319204368498, -10712.162937183732, -15675.81482837377, 0.011, 0.2335, 0.94475, 192.0, 0.0, 0.0, 0.0, 0.0, 0.0, 0.0, 0.0, 0.0, 0.0, 1.644588260477998E9, 0.0, 2022-02-12 01:04:20.477
46.0, -9858.371002479911, -9066.158123750463, -5844.400029706959, -13282.904122221962, -8524.530652109463, -4313.394941496246, -8345.403772044632, -6193.780147287864, -9784.163210888293, -11707.352007311823, -7287.540410463859, -6041.251843124848, -5684.31683591805, -8769.93045448428, -10714.35340814035, -15710.0577008793, 0.0115, 0.23375, 0.944375, 192.0, 0.0, 48.0, 3.5, 40.0, 14.5, 64.0, 0.0, 0.0, 0.0, 1.644588260492452E9, 0.0, 2022-02-12 01:04:20.492
48.0, -9855.509979189632, -9052.03182125471, -5850.993794321274, -13265.559168524644, -8516.126396194268, -4306.37649373728, -8352.198702359045, -6196.954095000518, -9779.446992808222, -11696.153783339714, -7281.863067372212, -6026.3208778287035, -5692.36346392196, -8767.605873060927, -10715.605105829849, -15683.1014970662, 0.0115, 0.23375, 0.944375, 192.0, 0.0, 0.0, 0.0, 0.0, 0.0, 0.0, 0.0, 0.0, 0.0, 1.644588260499875E9, 0.0, 2022-02-12 01:04:20.499
50.0, -9841.51778716061, -9048.254376441762, -5843.327145973104, -13265.492113291279, -8520.395579385231, -4302.241421013048, -8342.140417354158, -6191.589676331244, -9773.769649716574, -11701.585257242354, -7273.704680646024, -6017.044903879751, -5674.236199168707, -8754.552454299028, -10716.40976863024, -15686.990700601424, 0.0115, 0.23375, 0.944375, 192.0, 0.0, 0.0, 0.0, 0.0, 0.0, 0.0, 0.0, 0.0, 0.0, 1.644588260507788E9, 0.0, 2022-02-12 01:04:20.507
52.0, -9852.492493688165, -9054.714030589346, -5850.278538498705, -13267.324956336613, -8523.144843953234, -4307.002342582028, -8349.963527913515, -6196.328246155768, -9774.261388094592, -11688.665948947186, -7275.7833928803675, -6008.975924131385, -5673.096260201485, -8757.88286422287, -10717.952038997655, -15701.944017642025, 0.0115, 0.23375, 0.944375, 192.0, 0.0, 0.0, 0.0, 0.0, 0.0, 0.0, 0.0, 0.0, 0.0, 1.644588260515627E9, 0.0, 2022-02-12 01:04:20.515
54.0, -9842.791836594562, -9044.923966517921, -5848.7586198757435, -13256.77493295371, -8522.83191953086, -4305.415368725702, -8350.812894202816, -6195.411824633101, -9767.354699057902, -11686.721347179575, -7279.426727226583, -6018.944802158452, -5688.586019109013, -8757.078201422477, -10722.534146610993, -15675.680717907038, 0.0115, 0.23375, 0.944375, 192.0, 0.0, 0.0, 0.0, 0.0, 0.0, 0.0, 0.0, 0.0, 0.0, 1.644588260522394E9, 0.0, 2022-02-12 01:04:20.522
56.0, -9835.974554535695, -9044.521635117726, -5845.942300074375, -13267.392011569978, -8534.1642539697, -4309.148110049738, -8353.696269237551, -6195.523583355378, -9770.59570200392, -11690.096460592325, -7279.069099315298, -6006.986618874863, -5700.70066460379, -8755.424172332785, -10720.41073088774, -15711.711729968994, 0.00975, 0.234875, 0.9481875, 192.0, 0.0, 32.0, 3.5, 48.0, 14.5, 96.0, 0.0, 0.0, 0.0, 1.644588260530228E9, 0.0, 2022-02-12 01:04:20.530
58.0, -9848.37977270839, -9036.765579791734, -5853.407782722447, -13265.5815202691, -8534.834806303359, -4314.892508374752, -8361.340565841267, -6200.239801435448, -9766.773553702064, -11676.886579619239, -7282.265398772407, -6016.731979457376, -5699.761891336667, -8763.78372475907, -10720.433082632195, -15686.945997112512, 0.00975, 0.234875, 0.9481875, 192.0, 0.0, 0.0, 0.0, 0.0, 0.0, 0.0, 0.0, 0.0, 0.0, 1.644588260538183E9, 0.0, 2022-02-12 01:04:20.538
60.0, -9842.94829880575, -9048.880225286512, -5849.675041398411, -13269.403668570956, -8547.508245409519, -4318.04410434295, -8361.027641418892, -6200.664484580098, -9772.763821216085, -11673.466762717577, -7278.4208987260945, -6020.28590682577, -5692.497574388693, -8768.9693294727, -10728.591469358382, -15694.880866394147, 0.00975, 0.234875, 0.9481875, 192.0, 0.0, 0.0, 0.0, 0.0, 0.0, 0.0, 0.0, 0.0, 0.0, 1.644588260545334E9, 0.0, 2022-02-12 01:04:20.545
62.0, -9850.23496749818, -9048.164969463942, -5857.989890335785, -13265.961499924839, -8554.07965827938, -4318.178214809682, -8366.727336254995, -6206.23006894947, -9774.5072572836, -11705.943847411138, -7278.15267779263, -6000.549316471734, -5717.2186037562615, -8757.748753756137, -10727.920917024723, -15705.430889777052, 0.00975, 0.234875, 0.9481875, 192.0, 0.0, 0.0, 0.0, 0.0, 0.0, 0.0, 0.0, 0.0, 0.0, 1.644588260552099E9, 0.0, 2022-02-12 01:04:20.552
64.0, -9836.08631325797, -9048.008507252754, -5865.187152050395, -13250.494092761766, -8554.21376874611, -4315.630115941777, -8360.379440829687, -6202.854955536718, -9770.059260136994, -11676.886579619239, -7292.591904710759, -6012.149871844038, -5714.625801399446, -8764.744849770648, -10732.07834149341, -15671.366831227164, 0.00975, 0.234875, 0.9481875, 192.0, 0.0, 0.0, 0.0, 0.0, 0.0, 0.0, 0.0, 0.0, 0.0, 1.644588260559799E9, 0.0, 2022-02-12 01:04:20.559
66.0, -9855.241758256168, -9049.617832853537, -5865.2542072837605, -13263.212235356837, -8575.738498656572, -4323.09559858985, -8370.236560134479, -6204.196060204036, -9786.353681844912, -11687.660120446697, -7293.933009378077, -6006.696046196944, -5721.4430834583145, -8761.526198569083, -10731.36308567084, -15704.715633954482, 0.005875, 0.23543750000000002, 0.94809375, 192.0, 0.0, 8.0, 3.5, 48.0, 14.5, 80.0, 0.0, 0.0, 0.0, 1.644588260567735E9, 0.0, 2022-02-12 01:04:20.567
68.0, -9867.602272939954, -9046.868568285534, -5875.871285900032, -13259.52419752171, -8578.93479811368, -4328.370610281302, -8380.585417817285, -6209.091092239749, -9791.785155747551, -11694.097422849825, -7293.105994833231, -6021.537604515267, -5735.837606887532, -8769.841047506457, -10735.207585717153, -15681.91685461007, 0.005875, 0.23543750000000002, 0.94809375, 192.0, 0.0, 0.0, 0.0, 0.0, 0.0, 0.0, 0.0, 0.0, 0.0, 1.644588260574716E9, 0.0, 2022-02-12 01:04:20.574
70.0, -9845.809322096029, -9037.860815270045, -5870.529218975213, -13267.86139820354, -8577.146658557256, -4331.499854505045, -8377.366766615722, -6210.5216038848885, -9796.36726336089, -11678.339443008834, -7302.8737071602, -6014.787377689765, -5731.0096300851865, -8776.859495265424, -10736.36987642883, -15691.662215192584, 0.005875, 0.23543750000000002, 0.94809375, 192.0, 0.0, 0.0, 0.0, 0.0, 0.0, 0.0, 0.0, 0.0, 0.0, 1.644588260582409E9, 0.0, 2022-02-12 01:04:20.582
72.0, -9862.439019970778, -9060.681946358913, -5877.905294645464, -13269.023688915217, -8577.325472512897, -4331.902185905241, -8379.512534083431, -6214.790787075853, -9791.695748769731, -11689.64942570322, -7307.880497918189, -6025.00212490584, -5733.3565632529935, -8774.847838264446, -10734.380571172307, -15704.939151399036, 0.005875, 0.23543750000000002, 0.94809375, 192.0, 0.0, 0.0, 0.0, 0.0, 0.0, 0.0, 0.0, 0.0, 0.0, 1.644588260590673E9, 0.0, 2022-02-12 01:04:20.590
74.0, -9858.259243757635, -9062.648899870981, -5880.319283046638, -13257.691354476376, -8579.98533010308, -4324.190834068159, -8376.338586370777, -6204.307818926313, -9790.421699335779, -11686.833105901851, -7316.061236388831, -6010.9428776434515, -5759.4186972878815, -8779.45229762224, -10739.208547974653, -15674.361964984175, 0.005875, 0.23543750000000002, 0.94809375, 192.0, 0.0, 0.0, 0.0, 0.0, 0.0, 0.0, 0.0, 0.0, 0.0, 1.644588260597571E9, 0.0, 2022-02-12 01:04:20.597
76.0, -9837.315659203012, -9037.54789084767, -5876.653596955967, -13263.972194668317, -8591.31766454192, -4320.3016305329365, -8375.288054381377, -6198.876345023674, -9794.243847637636, -11700.870001419784, -7302.6054862267365, -6008.975924131385, -5754.590720485535, -8773.752602786137, -10740.16967298623, -15704.760337443393, 0.0059375, 0.23671875000000003, 0.946046875, 192.0, 0.0, 24.0, 3.5, 56.0, 14.5, 64.0, 0.0, 0.0, 0.0, 1.64458826060522E9, 0.0, 2022-02-12 01:04:20.605
78.0, -9871.558531708542, -9060.346670192084, -5884.3873005375035, -13254.405648041446, -8584.03099584949, -4322.514453234012, -8385.011063219436, -6207.235897449958, -9794.802641249018, -11698.545419996432, -7304.639494972169, -6014.5862119896665, -5759.821028688077, -8770.221027162199, -10743.902414310267, -15682.654462177094, 0.0059375, 0.23671875000000003, 0.946046875, 192.0, 0.0, 0.0, 0.0, 0.0, 0.0, 0.0, 0.0, 0.0, 0.0, 1.644588260620246E9, 0.0, 2022-02-12 01:04:20.620
80.0, -9877.168819566825, -9065.934606305911, -5882.710919703355, -13261.848778945063, -8590.445946508164, -4320.3016305329365, -8377.478525337998, -6199.748063057431, -9801.262295396602, -11696.690225206641, -7309.5345270078815, -6000.973999616385, -5747.929900637853, -8769.97515797319, -10745.131760255308, -15690.522276225362, 0.0059375, 0.23671875000000003, 0.946046875, 192.0, 0.0, 0.0, 0.0, 0.0, 0.0, 0.0, 0.0, 0.0, 0.0, 1.644588260627207E9, 0.0, 2022-02-12 01:04:20.627
82.0, -9874.732479421196, -9053.708202088857, -5893.1938878528945, -13268.621357515021, -8602.113557113833, -4328.325906792392, -8387.872086509715, -6211.818005063296, -9812.125243201881, -11691.281103048457, -7313.334323565284, -6008.4171305200025, -5766.23597934675, -8770.511599840118, -10741.331963697907, -15705.833221177249, 0.0059375, 0.23671875000000003, 0.946046875, 192.0, 0.0, 0.0, 0.0, 0.0, 0.0, 0.0, 0.0, 0.0, 0.0, 1.644588260634896E9, 0.0, 2022-02-12 01:04:20.634
84.0, -9864.316566505024, -9054.110533489053, -5897.3066088326705, -13260.731191722298, -8603.633475736795, -4325.867214902308, -8393.348263901265, -6212.823833563785, -9808.168984433292, -11689.962350125594, -7328.891137706178, -6020.107092870127, -5788.922999968887, -8780.905161011835, -10751.36789695834, -15678.519389452862, 0.0059375, 0.23671875000000003, 0.946046875, 192.0, 0.0, 0.0, 0.0, 0.0, 0.0, 0.0, 0.0, 0.0, 0.0, 1.644588260642696E9, 0.0, 2022-02-12 01:04:20.642
86.0, -9860.00267982515, -9058.826751569122, -5898.714768733355, -13274.857494218051, -8617.312743343442, -4333.824435928397, -8397.975075003515, -6216.221298720992, -9809.84536526744, -11706.45793753361, -7328.041771416876, -6019.19067134746, -5783.849153977532, -8776.568922587505, -10754.608899904359, -15714.751567214915, 0.008, 0.234, 0.9480000000000001, 192.0, 0.0, 32.0, 3.5, 40.0, 14.5, 80.0, 0.0, 0.0, 0.0, 1.644588260650971E9, 0.0, 2022-02-12 01:04:20.650
88.0, -9861.366136236922, -9032.384637878495, -5900.949943178885, -13261.267633589225, -8608.796728705971, -4333.2209388281035, -8399.785566304394, -6211.37097017419, -9802.357530874913, -11683.92737912266, -7329.338172595284, -6016.039075379262, -5789.437090091359, -8790.538762872073, -10754.944176071189, -15688.980005857946, 0.008, 0.234, 0.9480000000000001, 192.0, 0.0, 0.0, 0.0, 0.0, 0.0, 0.0, 0.0, 0.0, 0.0, 1.644588260657329E9, 0.0, 2022-02-12 01:04:20.657
90.0, -9870.105668318947, -9071.008452297265, -5901.128757134528, -13261.737020222787, -8621.47016781213, -4333.310345805925, -8396.209287191545, -6208.7558160729195, -9804.32448438698, -11702.814603187395, -7340.2905273783845, -6018.721284713899, -5783.402119088426, -8785.487268625173, -10757.738144128101, -15691.192828559022, 0.008, 0.234, 0.9480000000000001, 192.0, 0.0, 0.0, 0.0, 0.0, 0.0, 0.0, 0.0, 0.0, 0.0, 1.64458826066535E9, 0.0, 2022-02-12 01:04:20.665
92.0, -9882.980273125206, -9073.668309887447, -5910.672952016945, -13260.395915555468, -8630.164996405245, -4332.326869049892, -8404.479432640008, -6219.507005155922, -9814.293362414046, -11713.163460870202, -7329.740503995479, -6001.5551449722225, -5793.482755837769, -8776.121887698398, -10761.068554051943, -15708.82835493426, 0.008, 0.234, 0.9480000000000001, 192.0, 0.0, 0.0, 0.0, 0.0, 0.0, 0.0, 0.0, 0.0, 0.0, 1.644588260672358E9, 0.0, 2022-02-12 01:04:20.672
94.0, -9854.839426855973, -9051.69654508788, -5913.846899729598, -13256.707877720342, -8623.951211446669, -4330.292860304458, -8406.826365807816, -6211.102749240727, -9803.139841930848, -11688.151858824715, -7327.885309205689, -6016.7543312018315, -5810.380674645981, -8779.005262733133, -10764.644833164792, -15677.826485374748, 0.008, 0.234, 0.9480000000000001, 192.0, 0.0, 0.0, 0.0, 0.0, 0.0, 0.0, 0.0, 0.0, 0.0, 1.644588260680382E9, 0.0, 2022-02-12 01:04:20.680
96.0, -9882.823810914018, -9060.07844925862, -5915.903260219487, -13270.09657264907, -8635.037676696502, -4339.255909831037, -8409.039188508892, -6210.923935285085, -9810.89589725684, -11684.620283200775, -7327.505329549948, -6014.340342800659, -5811.140633957462, -8781.374547645397, -10763.907225597766, -15710.616494490683, 0.006, 0.24, 0.9400000000000001, 192.0, 0.0, 24.0, 3.5, 64.0, 14.5, 48.0, 0.0, 0.0, 0.0, 1.644588260687617E9, 0.0, 2022-02-12 01:04:20.687
98.0, -9895.944284909283, -9055.563396878648, -5922.206452155883, -13257.378430054001, -8630.500272572073, -4338.786523197475, -8410.849679809771, -6214.790787075853, -9815.589763592454, -11707.910800923206, -7330.612222029236, -6010.719360198898, -5808.324314156093, -8789.421175649308, -10761.13560928531, -15686.186037801033, 0.006, 0.24, 0.9400000000000001, 192.0, 0.0, 0.0, 0.0, 0.0, 0.0, 0.0, 0.0, 0.0, 0.0, 1.644588260695045E9, 0.0, 2022-02-12 01:04:20.695
100.0, -9864.09304906047, -9052.568263121637, -5923.3687428675585, -13262.608738256544, -8643.665450056249, -4339.792351697964, -8411.833156565805, -6221.272792967891, -9819.724836316685, -11706.681454978163, -7336.893062221177, -6016.553165501734, -5813.711084569823, -8786.046062236555, -10762.141437785798, -15693.450354749008, 0.006, 0.24, 0.9400000000000001, 192.0, 0.0, 0.0, 0.0, 0.0, 0.0, 0.0, 0.0, 0.0, 0.0, 1.644588260703425E9, 0.0, 2022-02-12 01:04:20.703
102.0, -9876.207694555247, -9063.610024882559, -5933.739952294821, -13267.749639481264, -8647.599357080384, -4345.29088083397, -8422.874918326726, -6213.449682408534, -9816.4167781373, -11710.660065491207, -7345.766704769934, -6020.196499847949, -5823.00941026323, -8784.50379186914, -10765.918882598744, -15710.616494490683, 0.006, 0.24, 0.9400000000000001, 192.0, 0.0, 0.0, 0.0, 0.0, 0.0, 0.0, 0.0, 0.0, 0.0, 1.644588260709591E9, 0.0, 2022-02-12 01:04:20.709
104.0, -9893.217372085735, -9072.573074409136, -5934.656373817489, -13254.964441652828, -8641.653793055271, -4348.800104713453, -8424.528947416418, -6217.5624033883105, -9817.199089193236, -11687.749527424518, -7351.64521356168, -6023.728075471888, -5837.20276799235, -8789.667044838316, -10772.020908835044, -15679.793438886814, 0.006, 0.24, 0.9400000000000001, 192.0, 0.0, 0.0, 0.0, 0.0, 0.0, 0.0, 0.0, 0.0, 0.0, 1.644588260719158E9, 0.0, 2022-02-12 01:04:20.719
106.0, -9874.799534654563, -9055.473989900827, -5929.381362126036, -13260.261805088736, -8648.493426858597, -4344.508569778034, -8427.278211984421, -6218.925859800084, -9821.915307273306, -11705.40740554421, -7344.73852452499, -6008.6182962201, -5829.692581855367, -8791.477536139195, -10767.259987266063, -15711.532916013351, 0.002, 0.23600000000000002, 0.9480000000000001, 192.0, 0.0, 8.0, 3.5, 48.0, 14.5, 80.0, 0.0, 0.0, 0.0, 1.644588260725637E9, 0.0, 2022-02-12 01:04:20.725
108.0, -9871.67029043082, -9043.135826961498, -5939.84197853112, -13250.605851484044, -8644.023077967535, -4346.028488400994, -8424.864223583249, -6223.195042991048, -9808.66072281131, -11694.432699016656, -7341.475169834515, -6013.848604422642, -5827.144482987462, -8786.98483550368, -10766.231807021119, -15686.029575589846, 0.002, 0.23600000000000002, 0.9480000000000001, 192.0, 0.0, 0.0, 0.0, 0.0, 0.0, 0.0, 0.0, 0.0, 0.0, 1.644588260739353E9, 0.0, 2022-02-12 01:04:20.739
110.0, -9865.769429894619, -9057.97738527982, -5938.679687819444, -13252.975136396306, -8655.444819384196, -4351.571721025911, -8426.00416255047, -6216.444816165545, -9817.064978726505, -11696.466707762089, -7345.900815236666, -5996.146022814039, -5808.4360728783695, -8792.863344295423, -10769.092830311398, -15691.86338089268, 0.002, 0.23600000000000002, 0.9480000000000001, 192.0, 0.0, 0.0, 0.0, 0.0, 0.0, 0.0, 0.0, 0.0, 0.0, 1.644588260747221E9, 0.0, 2022-02-12 01:04:20.747
112.0, -9896.39131979839, -9078.9433215789, -5945.228748944849, -13259.680659732898, -8667.827685812437, -4363.2169798871255, -8439.10228480128, -6228.5371099158665, -9821.937659017762, -11719.109024895315, -7344.604414058258, -6001.622200205588, -5855.262977512238, -8791.701053583749, -10768.690498911203, -15709.498907267918, 0.002, 0.23600000000000002, 0.9480000000000001, 192.0, 0.0, 0.0, 0.0, 0.0, 0.0, 0.0, 0.0, 0.0, 0.0, 1.644588260755276E9, 0.0, 2022-02-12 01:04:20.755
114.0, -9902.269828590135, -9068.192132495897, -5949.810856558187, -13254.182130596893, -8662.91030203227, -4360.601825785855, -8445.00314533748, -6228.760627360419, -9823.345818918446, -11706.189716600147, -7356.74141129749, -6012.082816610672, -5862.951977604864, -8803.41336767833, -10778.189990304709, -15684.889636622625, 0.002, 0.23600000000000002, 0.9480000000000001, 192.0, 0.0, 0.0, 0.0, 0.0, 0.0, 0.0, 0.0, 0.0, 0.0, 1.644588260762298E9, 0.0, 2022-02-12 01:04:20.762
116.0, -9893.999683141672, -9061.039574270199, -5951.50958913679, -13271.840008716585, -8674.421450426753, -4360.870046719318, -8446.903043616181, -6226.078418025782, -9837.740342347663, -11708.402539301222, -7359.64713807668, -6014.250935822837, -5857.364041491037, -8804.64271362337, -10777.631196693326, -15715.712692226494, 0.002, 0.23600000000000002, 0.9480000000000001, 192.0, 0.0, 0.0, 3.5, 40.0, 14.5, 72.0, 0.0, 0.0, 0.0, 1.644588260769895E9, 0.0, 2022-02-12 01:04:20.769
118.0, -9891.004549384661, -9050.914234031945, -5960.494990407824, -13255.34442130857, -8664.76549682206, -4359.059555418438, -8446.612470938262, -6223.75383660243, -9832.442978911755, -11695.639693217241, -7368.945463770087, -6023.236337093871, -5857.475800213314, -8799.926495543301, -10774.36784200285, -15691.729270425949, 0.002, 0.23600000000000002, 0.9480000000000001, 192.0, 0.0, 0.0, 0.0, 0.0, 0.0, 0.0, 0.0, 0.0, 0.0, 1.644588260778277E9, 0.0, 2022-02-12 01:04:20.778
120.0, -9875.179514310303, -9055.183417222908, -5953.834170560142, -13255.679697475398, -8673.393270181808, -4356.980843184095, -8443.974965092537, -6223.239746479959, -9833.314696945512, -11690.476440248065, -7363.022251489431, -6004.6620374515105, -5860.582692692601, -8800.55234438805, -10775.977167603633, -15692.846857648714, 0.002, 0.23600000000000002, 0.9480000000000001, 192.0, 0.0, 0.0, 0.0, 0.0, 0.0, 0.0, 0.0, 0.0, 0.0, 1.644588260785756E9, 0.0, 2022-02-12 01:04:20.785
122.0, -9888.657616216853, -9080.37383322404, -5958.684499106944, -13258.00427889875, -8677.975377795146, -4359.350128096357, -8449.160569806167, -6226.257231981424, -9825.491586386155, -11706.480289278066, -7345.744353025479, -5999.230563548871, -5854.078335056107, -8793.824469307003, -10775.597187947893, -15710.795308446326, 0.002, 0.23600000000000002, 0.9480000000000001, 192.0, 0.0, 0.0, 0.0, 0.0, 0.0, 0.0, 0.0, 0.0, 0.0, 1.644588260791929E9, 0.0, 2022-02-12 01:04:20.791
124.0, -9883.315549292034, -9055.988080023299, -5957.32104269517, -13250.941127650873, -8674.376746937842, -4358.1654856402265, -8447.81946513885, -6228.626516893687, -9812.974609491182, -11701.898181664728, -7344.559710569348, -5996.369540258592, -5871.915027131442, -8801.200544977253, -10775.194856547698, -15681.715688909972, 0.002, 0.23600000000000002, 0.9480000000000001, 192.0, 0.0, 0.0, 0.0, 0.0, 0.0, 0.0, 0.0, 0.0, 0.0, 1.644588260799407E9, 0.0, 2022-02-12 01:04:20.799
126.0, -9877.772316667119, -9042.040591483188, -5959.355051440603, -13264.821560957618, -8688.43599420023, -4367.48616307809, -8456.96132862107, -6236.539034430866, -9825.268068941603, -11712.515260281, -7346.906643737155, -5997.308313525715, -5870.618625953034, -8806.453204924252, -10774.971339103144, -15719.244267850432, -0.006, 0.23, 0.9460000000000001, 192.0, 127.5, 104.0, 3.5, 24.0, 14.5, 72.0, 0.0, 0.0, 0.0, 1.644588260807555E9, 0.0, 2022-02-12 01:04:20.807
128.0, -9908.885944948906, -9067.074545273132, -5971.782621357754, -13258.428962043401, -8687.877200588848, -4370.280131135003, -8467.086668859323, -6236.4719791975, -9828.307906187523, -11697.830164173862, -7364.0057282454645, -5999.901115882531, -5882.30858830316, -8815.639771895381, -10778.502914727082, -15699.842953663225, -0.006, 0.23, 0.9460000000000001, 192.0, 0.0, 0.0, 0.0, 0.0, 0.0, 0.0, 0.0, 0.0, 0.0, 1.644588260814645E9, 0.0, 2022-02-12 01:04:20.814
130.0, -9899.028825644114, -9064.45939117186, -5967.401679444513, -13262.318165578625, -8690.313540734476, -4359.685404263188, -8456.514293731963, -6232.426313451089, -9851.061982043026, -11709.296609079434, -7374.309882439361, -6011.434616021468, -5884.633169726511, -8810.521222415116, -10779.151115316286, -15697.607779217695, -0.006, 0.23, 0.9460000000000001, 192.0, 0.0, 0.0, 0.0, 0.0, 0.0, 0.0, 0.0, 0.0, 0.0, 1.644588260822159E9, 0.0, 2022-02-12 01:04:20.822
132.0, -9901.19694485628, -9080.17266752394, -5974.621292903578, -13265.000374913261, -8696.52732569305, -4363.194628142671, -8462.01282286797, -6234.728543129986, -9843.976479050694, -11720.450129562632, -7364.6539288346685, -6001.443386249946, -5878.955826634864, -8796.730196086191, -10774.077269324931, -15712.82931719176, -0.006, 0.23, 0.9460000000000001, 192.0, 0.0, 0.0, 0.0, 0.0, 0.0, 0.0, 0.0, 0.0, 0.0, 1.644588260830179E9, 0.0, 2022-02-12 01:04:20.830
134.0, -9891.093956362482, -9065.621681883536, -5973.637816147544, -13254.852682930552, -8692.81693611347, -4363.596959542866, -8460.023517611447, -6235.197929763548, -9834.5216911461, -11710.950638169126, -7376.299187695884, -6007.679522952977, -5898.558306522168, -8808.666027625326, -10780.916903128256, -15681.760392398883, -0.006, 0.23, 0.9460000000000001, 192.0, 0.0, 0.0, 0.0, 0.0, 0.0, 0.0, 0.0, 0.0, 0.0, 1.64458826083817E9, 0.0, 2022-02-12 01:04:20.838
136.0, -9890.378700539912, -9045.616870596037, -5974.04014754774, -13270.76712498273, -8711.927677622758, -4369.7883927569865, -8468.450125271098, -6235.980240819484, -9843.03770578357, -11706.547344511431, -7368.610187603258, -6005.4890519963565, -5899.362969322559, -8806.453204924252, -10785.499010741594, -15717.120852127178, -0.002, 0.234, 0.9480000000000001, 192.0, 127.5, 120.0, 3.5, 40.0, 14.5, 80.0, 0.0, 0.0, 0.0, 1.644588260844776E9, 0.0, 2022-02-12 01:04:20.844
138.0, -9910.338808338502, -9058.782048080213, -5979.203400516916, -13259.881825432996, -8705.825651386458, -4371.218904402126, -8479.849514943304, -6244.965642090517, -9836.153368491337, -11688.21891405808, -7370.711251582057, -6008.439482264457, -5905.822623470142, -8812.912859071834, -10789.499972999094, -15698.255979806898, -0.002, 0.234, 0.9480000000000001, 192.0, 0.0, 0.0, 0.0, 0.0, 0.0, 0.0, 0.0, 0.0, 0.0, 1.644588260852939E9, 0.0, 2022-02-12 01:04:20.852
140.0, -9907.187212370303, -9068.88503657401, -5975.224790003871, -13261.826427200607, -8717.023875358567, -4375.041052703983, -8484.006939411991, -6249.525397959399, -9842.680077872286, -11710.213030602103, -7371.627673104725, -5989.4628512219015, -5899.385321067014, -8811.951734060256, -10793.053900367488, -15700.960540885992, -0.002, 0.234, 0.9480000000000001, 192.0, 0.0, 0.0, 0.0, 0.0, 0.0, 0.0, 0.0, 0.0, 0.0, 1.644588260867836E9, 0.0, 2022-02-12 01:04:20.867
142.0, -9903.633285001908, -9075.970539566344, -5981.863258107097, -13265.827389458107, -8721.427169016262, -4376.62802656031, -8485.593913268318, -6249.257177025936, -9849.653822142342, -11728.22853663308, -7372.789963816401, -5991.385101245058, -5905.777919981232, -8803.994513034168, -10792.316292800462, -15717.187907360543, -0.002, 0.234, 0.9480000000000001, 192.0, 0.0, 0.0, 0.0, 0.0, 0.0, 0.0, 0.0, 0.0, 0.0, 1.644588260874421E9, 0.0, 2022-02-12 01:04:20.874
144.0, -9916.217317130246, -9071.902522075477, -5985.886572109052, -13261.62526150051, -8720.264878304586, -4375.778660271008, -8482.352910322299, -6252.922863116606, -9842.23304298318, -11708.246077090034, -7384.2564087219735, -6009.266496809304, -5922.765245767266, -8811.080016026499, -10795.534944002027, -15687.303625023798, -0.002, 0.234, 0.9480000000000001, 192.0, 0.0, 0.0, 0.0, 0.0, 0.0, 0.0, 0.0, 0.0, 0.0, 1.644588260882404E9, 0.0, 2022-02-12 01:04:20.882
146.0, -9895.609008742453, -9067.119248762041, -5983.561990685701, -13271.258863360747, -8730.501977265118, -4377.991482972084, -8485.973892924058, -6255.739182917975, -9856.672269901308, -11718.349065583834, -7381.305978453873, -6012.686313710966, -5921.155920166483, -8812.845803838469, -10795.356130046384, -15721.63590450715, 0.006, 0.234, 0.9480000000000001, 192.0, 0.0, 24.0, 3.5, 40.0, 14.5, 80.0, 0.0, 0.0, 0.0, 1.644588260890458E9, 0.0, 2022-02-12 01:04:20.890
148.0, -9903.745043724186, -9057.686812601902, -5997.688293181454, -13262.34051732308, -8731.530157510062, -4381.143078940282, -8499.653160530706, -6270.558389491844, -9845.049362784548, -11714.191641115147, -7384.41287093316, -6006.696046196944, -5926.207414413383, -8816.287972484586, -10799.42414753725, -15703.575694987261, 0.006, 0.234, 0.9480000000000001, 192.0, 0.0, 0.0, 0.0, 0.0, 0.0, 0.0, 0.0, 0.0, 0.0, 1.644588260897632E9, 0.0, 2022-02-12 01:04:20.897
150.0, -9904.348540824478, -9063.855894071567, -5995.631932691566, -13261.91583417843, -8742.124884381878, -4381.143078940282, -8498.915552963681, -6262.087078343282, -9849.877339586896, -11705.295646821934, -7391.185449503118, -6006.941915385952, -5927.4144086139695, -8824.9828010777, -10805.369711562362, -15708.716596211982, 0.006, 0.234, 0.9480000000000001, 192.0, 0.0, 0.0, 0.0, 0.0, 0.0, 0.0, 0.0, 0.0, 0.0, 1.644588260904978E9, 0.0, 2022-02-12 01:04:20.904
152.0, -9917.044331675093, -9069.577940652125, -6000.035226349262, -13263.502808034757, -8750.998526930634, -4383.2888464079915, -8507.431567601154, -6269.9772441360055, -9857.119304790414, -11720.137205140258, -7382.6694348656465, -5998.112976326105, -5935.215167428872, -8814.07514978351, -10803.179240605741, -15727.02267492088, 0.006, 0.234, 0.9480000000000001, 192.0, 0.0, 0.0, 0.0, 0.0, 0.0, 0.0, 0.0, 0.0, 0.0, 1.644588260913183E9, 0.0, 2022-02-12 01:04:20.913
154.0, -9912.708093250763, -9058.9385102914, -5996.99538910334, -13253.355116052046, -8741.297869837032, -4371.91180848024, -8503.2070878991, -6267.6303109681985, -9846.99396455216, -11704.446280532633, -7378.93669354161, -5999.655246693522, -5938.478522119346, -8820.825376609013, -10805.257952840086, -15693.740927426927, 0.006, 0.23500000000000001, 0.9450000000000001, 192.0, 0.0, 24.0, 3.5, 48.0, 14.5, 56.0, 0.0, 0.0, 0.0, 1.644588260920133E9, 0.0, 2022-02-12 01:04:20.920
156.0, -9896.838354687496, -9071.053155786176, -5996.5036507253235, -13267.704935992353, -8749.59036702995, -4379.600808572866, -8502.692997776629, -6273.374709293212, -9854.861778600429, -11715.957428927117, -7382.334158698816, -5996.481298980868, -5933.6952488059105, -8812.734045116193, -10801.972246405156, -15725.547459786829, 0.006, 0.23500000000000001, 0.9450000000000001, 192.0, 0.0, 0.0, 0.0, 0.0, 0.0, 0.0, 0.0, 0.0, 0.0, 1.644588260926701E9, 0.0, 2022-02-12 01:04:20.926
158.0, -9926.655581790876, -9069.26501622975, -6007.031322363773, -13258.898348676963, -8744.337707082952, -4379.444346361679, -8514.338256637842, -6276.772174450419, -9849.698525631253, -11740.56669957241, -7396.594571661302, -5996.771871658787, -5942.3230221656595, -8813.069321283021, -10803.8497929394, -15707.621360733672, 0.006, 0.23500000000000001, 0.9450000000000001, 192.0, 0.0, 0.0, 0.0, 0.0, 0.0, 0.0, 0.0, 0.0, 0.0, 1.644588260934813E9, 0.0, 2022-02-12 01:04:20.934
160.0, -9919.81594798755, -9046.488588629793, -6004.930258384974, -13257.266671331725, -8750.842064719447, -4378.751442283564, -8511.410178114198, -6271.675976714609, -9855.71114488973, -11718.03614116146, -7389.8443448358, -5997.241258292349, -5933.784655783732, -8813.561059661039, -10811.024702909554, -15707.15197410011, 0.006, 0.23500000000000001, 0.9450000000000001, 192.0, 0.0, 0.0, 0.0, 0.0, 0.0, 0.0, 0.0, 0.0, 0.0, 1.644588260942675E9, 0.0, 2022-02-12 01:04:20.942
162.0, -9905.689645491797, -9065.97930979482, -6006.740749685854, -13259.09951437706, -8751.892596708847, -4379.91373299524, -8511.92426823667, -6273.7993924378625, -9861.969633337216, -11718.952562684128, -7387.251542478984, -5988.591133188144, -5938.903205263997, -8818.83607135249, -10807.09079588542, -15725.368645831186, 0.006, 0.23500000000000001, 0.9450000000000001, 192.0, 0.0, 0.0, 0.0, 0.0, 0.0, 0.0, 0.0, 0.0, 0.0, 1.644588260949855E9, 0.0, 2022-02-12 01:04:20.949
164.0, -9904.862630946951, -9063.788838838202, -6006.897211897041, -13254.71857246382, -8743.667154749293, -4370.727166024109, -8508.929134479658, -6260.410697509134, -9848.022144797105, -11725.613382531808, -7401.8025281193895, -5999.297618782237, -5960.427935174458, -8820.445396953273, -10807.649589496803, -15689.024709346857, 0.007, 0.23450000000000001, 0.9435, 192.0, 0.0, 32.0, 3.5, 40.0, 14.5, 56.0, 0.0, 0.0, 0.0, 1.644588260957825E9, 0.0, 2022-02-12 01:04:20.957
166.0, -9908.193040870792, -9065.644033627992, -6003.946781628941, -13262.273462089714, -8746.975212928679, -4373.029395703005, -8506.82807050086, -6261.863560898729, -9856.538159434576, -11706.189716600147, -7385.396347689194, -5989.395795988536, -5950.548464125212, -8812.868155582924, -10803.55922026148, -15721.837070207248, 0.007, 0.23450000000000001, 0.9435, 192.0, 0.0, 0.0, 0.0, 0.0, 0.0, 0.0, 0.0, 0.0, 0.0, 1.644588260965366E9, 0.0, 2022-02-12 01:04:20.965
168.0, -9926.29795387959, -9060.145504491986, -6013.647438722544, -13250.00235438375, -8741.364925070397, -4367.396756100268, -8512.483061848052, -6266.736241189986, -9857.298118746057, -11729.234365133569, -7390.760766358468, -5992.167412300994, -5947.307461179193, -8820.400693464362, -10798.775946948046, -15698.255979806898, 0.007, 0.23450000000000001, 0.9435, 192.0, 0.0, 0.0, 0.0, 0.0, 0.0, 0.0, 0.0, 0.0, 0.0, 1.644588260973319E9, 0.0, 2022-02-12 01:04:20.973
170.0, -9898.112404121448, -9042.107646716553, -6006.80780491922, -13255.232662586292, -8749.657422263315, -4365.318043865925, -8506.716311778584, -6261.729450431997, -9854.28063324459, -11713.476385292577, -7399.187374018118, -5987.85352562112, -5944.8487692891085, -8809.35893170344, -10803.223944094652, -15697.183096073044, 0.007, 0.23450000000000001, 0.9435, 192.0, 0.0, 0.0, 0.0, 0.0, 0.0, 0.0, 0.0, 0.0, 0.0, 1.644588260987E9, 0.0, 2022-02-12 01:04:20.987
172.0, -9912.328113595024, -9051.495379387783, -6013.647438722544, -13256.57376725361, -8758.106381667421, -4372.0235672025165, -8513.712407793095, -6270.066651113827, -9858.460409457733, -11713.945771926139, -7403.590667675814, -5978.264627249793, -5951.934272281441, -8811.817623593524, -10799.871182426356, -15715.735043970948, 0.007, 0.23450000000000001, 0.9435, 192.0, 0.0, 0.0, 0.0, 0.0, 0.0, 0.0, 0.0, 0.0, 0.0, 1.6445882609952E9, 0.0, 2022-02-12 01:04:20.995
174.0, -9919.145395653892, -9076.79755411119, -6014.675618967488, -13246.694296204365, -8756.87703572238, -4370.458945090645, -8516.126396194268, -6272.212418581536, -9851.754886121142, -11724.22757437558, -7396.907496083677, -5987.607656432111, -5960.897321808019, -8823.46288245474, -10805.682635984736, -15686.878941879148, 0.0105, 0.23325, 0.94275, 192.0, 0.0, 56.0, 3.5, 32.0, 14.5, 56.0, 0.0, 0.0, 0.0, 1.644588261003033E9, 0.0, 2022-02-12 01:04:21.003
176.0, -9905.600238513976, -9077.22223725584, -6010.04880786524, -13257.221967842814, -8761.347384613442, -4368.916674723229, -8518.87566076227, -6269.261988313436, -9859.980328080694, -11730.88839422326, -7379.428431919627, -5970.463868434891, -5964.071269520673, -8807.615495635926, -10807.247258096608, -15719.221916105977, 0.0105, 0.23325, 0.94275, 192.0, 0.0, 0.0, 0.0, 0.0, 0.0, 0.0, 0.0, 0.0, 0.0, 1.644588261009602E9, 0.0, 2022-02-12 01:04:21.009
178.0, -9910.29410484959, -9043.761675806247, -6017.044903879751, -13251.589328240078, -8746.282308850565, -4362.725241509109, -8509.979666469058, -6266.222151067514, -9854.213578011224, -11707.530821267464, -7397.086310039319, -5988.457022721413, -5963.668938120478, -8812.510527671639, -10805.101490628898, -15699.48532575194, 0.0105, 0.23325, 0.94275, 192.0, 0.0, 0.0, 0.0, 0.0, 0.0, 0.0, 0.0, 0.0, 0.0, 1.644588261017516E9, 0.0, 2022-02-12 01:04:21.017
180.0, -9901.86749718994, -9045.773332807223, -6016.195537590449, -13259.01010739924, -8752.049058920033, -4360.24419787457, -8502.022445442968, -6256.163866062626, -9850.257319242635, -11692.957483882605, -7395.432280949626, -5999.52113622679, -5954.527074638257, -8814.723350372715, -10802.352226060895, -15691.86338089268, 0.0105, 0.23325, 0.94275, 192.0, 0.0, 0.0, 0.0, 0.0, 0.0, 0.0, 0.0, 0.0, 0.0, 1.644588261025632E9, 0.0, 2022-02-12 01:04:21.025
182.0, -9917.357256097468, -9058.469123657838, -6021.649363237544, -13257.5795957541, -8758.195788645244, -4368.469639834123, -8514.45001536012, -6269.23963656898, -9859.063906558027, -11738.577394315887, -7387.922094812643, -5974.308368481204, -5942.5018361213015, -8806.006170035145, -10804.9003249288, -15715.131546870656, 0.0105, 0.23325, 0.94275, 192.0, 0.0, 0.0, 0.0, 0.0, 0.0, 0.0, 0.0, 0.0, 0.0, 1.644588261032804E9, 0.0, 2022-02-12 01:04:21.032
184.0, -9907.231915859213, -9056.166893978942, -6017.849566680142, -13247.409552026935, -8753.479570565172, -4362.680538020199, -8514.271201404477, -6267.853828412751, -9852.872473343907, -11713.69990273713, -7391.7665948589565, -5973.4366504474465, -5980.432746461957, -8812.488175927183, -10811.315275587473, -15682.565055199273, 0.00825, 0.236625, 0.946375, 192.0, 0.0, 24.0, 3.5, 64.0, 14.5, 88.0, 0.0, 0.0, 0.0, 1.644588261039345E9, 0.0, 2022-02-12 01:04:21.039
186.0, -9892.256247074158, -9049.17079796443, -6011.5910782326555, -13249.108284605538, -8761.012108446612, -4362.322910108914, -8515.411140371698, -6273.866447671229, -9864.4283252273, -11725.546327298443, -7399.142670529208, -5969.770964356776, -5981.28211275126, -8814.768053861626, -10810.33179883144, -15714.975084659469, 0.00825, 0.236625, 0.946375, 192.0, 0.0, 0.0, 0.0, 0.0, 0.0, 0.0, 0.0, 0.0, 0.0, 1.644588261047096E9, 0.0, 2022-02-12 01:04:21.047
188.0, -9922.609916044465, -9057.016260268243, -6021.492901026357, -13242.04513335766, -8749.568015285495, -4358.0537269179495, -8515.92523049417, -6260.276587042402, -9855.532330934087, -11723.713484253107, -7389.352606457783, -5969.346281212125, -5966.3958509440245, -8802.206373477742, -10803.827441194946, -15691.461049492485, 0.00825, 0.236625, 0.946375, 192.0, 0.0, 0.0, 0.0, 0.0, 0.0, 0.0, 0.0, 0.0, 0.0, 1.644588261057301E9, 0.0, 2022-02-12 01:04:21.057
190.0, -9888.121174349926, -9032.49639660077, -6023.482206282879, -13249.532967750189, -8757.838160733958, -4357.092601906372, -8518.585088084352, -6263.271720799413, -9856.448752456756, -11704.312170065901, -7391.900705325688, -5969.413336445491, -5965.010042787796, -8807.12375725791, -10809.549487775505, -15694.255017549398, 0.00825, 0.236625, 0.946375, 192.0, 0.0, 0.0, 0.0, 0.0, 0.0, 0.0, 0.0, 0.0, 0.0, 1.644588261062883E9, 0.0, 2022-02-12 01:04:21.062
192.0, -9880.38747076839, -9031.334105889095, -6023.750427216342, -13253.019839885217, -8761.772067758093, -4352.666956504221, -8522.11666370829, -6260.053069597849, -9846.435170940778, -11697.204315329112, -7391.252504736484, -5983.249066263326, -5978.488144694346, -8804.195678734264, -10806.688464485225, -15713.745738714426, 0.00825, 0.236625, 0.946375, 192.0, 0.0, 0.0, 0.0, 0.0, 0.0, 0.0, 0.0, 0.0, 0.0, 1.644588261070162E9, 0.0, 2022-02-12 01:04:21.070
194.0, -9901.62162800093, -9037.972573992321, -6019.213023091916, -13237.351267022046, -8749.702125752226, -4354.38804082728, -8526.408198643709, -6268.434973768589, -9839.461426670721, -11694.11977459428, -7392.235981492518, -5969.815667845687, -5981.483278451357, -8799.971199032212, -10810.398854064806, -15676.731249896438, 0.009125000000000001, 0.24031249999999998, 0.9481875, 192.0, 0.0, 40.0, 3.5, 80.0, 14.5, 88.0, 0.0, 0.0, 0.0, 1.644588261077831E9, 0.0, 2022-02-12 01:04:21.077
196.0, -9919.525375309631, -9061.17368473693, -6020.330610314681, -13253.5786334966, -8762.621434047394, -4359.461886818634, -8525.134149209756, -6265.037508611383, -9867.468162473222, -11714.973952171082, -7389.866696580255, -5959.08683050714, -5975.202438259415, -8803.323960700507, -10808.677769741747, -15710.951770657513, 0.009125000000000001, 0.24031249999999998, 0.9481875, 192.0, 0.0, 0.0, 0.0, 0.0, 0.0, 0.0, 0.0, 0.0, 0.0, 1.644588261084932E9, 0.0, 2022-02-12 01:04:21.084
198.0, -9919.681837520819, -9052.970594521832, -6029.472473796902, -13242.425113013402, -8756.54175955555, -4353.896302449262, -8529.470387634086, -6265.775116178408, -9862.014336826127, -11730.843690734351, -7400.729644385535, -5971.536752168746, -5987.115918054094, -8806.989646791179, -10804.81091795098, -15689.494095980419, 0.009125000000000001, 0.24031249999999998, 0.9481875, 192.0, 0.0, 0.0, 0.0, 0.0, 0.0, 0.0, 0.0, 0.0, 0.0, 1.644588261093888E9, 0.0, 2022-02-12 01:04:21.093
200.0, -9896.123098864926, -9050.780123565213, -6022.252860337837, -13245.308488048136, -8757.860512478414, -4351.1246861368045, -8520.932021252158, -6262.042374854372, -9859.28742400258, -11713.386978314755, -7403.143632786708, -5961.836095075142, -5966.574664899667, -8804.508603156639, -10807.873106941355, -15685.493133722919, 0.009125000000000001, 0.24031249999999998, 0.9481875, 192.0, 0.0, 0.0, 0.0, 0.0, 0.0, 0.0, 0.0, 0.0, 0.0, 1.644588261100512E9, 0.0, 2022-02-12 01:04:21.100
202.0, -9885.684834204298, -9042.465274627839, -6025.493863283857, -13252.505749762744, -8766.778858516082, -4356.466753061623, -8528.799835300426, -6259.6507381976535, -9857.365173979422, -11723.333504597367, -7389.12908901323, -5967.759307355798, -5985.573647686679, -8797.221934464209, -10804.118013872865, -15708.180154345055, 0.009125000000000001, 0.24031249999999998, 0.9481875, 192.0, 0.0, 0.0, 0.0, 0.0, 0.0, 0.0, 0.0, 0.0, 0.0, 1.644588261114744E9, 0.0, 2022-02-12 01:04:21.114
204.0, -9881.773278924618, -9021.611097051036, -6027.371409818103, -13238.848833900553, -8758.106381667421, -4352.95752918214, -8529.984477756558, -6271.474811014511, -9840.288441215569, -11698.612475229798, -7399.254429251484, -5980.678615650966, -5992.010950089807, -8808.688379369782, -10807.828403452446, -15678.38527898613, 0.0115625, 0.24115625, 0.9490937500000001, 192.0, 0.0, 56.0, 3.5, 72.0, 14.5, 88.0, 0.0, 0.0, 0.0, 1.644588261122136E9, 0.0, 2022-02-12 01:04:21.122
206.0, -9911.456395561267, -9040.207748437851, -6026.075008639695, -13257.803113198652, -8776.457163865229, -4358.277244362503, -8535.59476561484, -6267.987938879483, -9859.198017024759, -11692.577504226865, -7392.235981492518, -5964.831228832153, -5988.501726210324, -8796.55138213055, -10806.487298785127, -15710.169459601577, 0.0115625, 0.24115625, 0.9490937500000001, 192.0, 0.0, 0.0, 0.0, 0.0, 0.0, 0.0, 0.0, 0.0, 0.0, 1.644588261131667E9, 0.0, 2022-02-12 01:04:21.131
208.0, -9910.361160082955, -9047.829693297112, -6036.647383767055, -13243.140368835971, -8770.198675417743, -4362.635834531287, -8529.984477756558, -6262.735278932486, -9854.48179894469, -11700.89235316424, -7393.085347781819, -5955.152923483005, -6000.884592638564, -8813.896335827869, -10808.677769741747, -15697.674834451062, 0.0115625, 0.24115625, 0.9490937500000001, 192.0, 0.0, 0.0, 0.0, 0.0, 0.0, 0.0, 0.0, 0.0, 0.0, 1.644588261138129E9, 0.0, 2022-02-12 01:04:21.138
210.0, -9887.584732482997, -9038.486664114793, -6032.847587209652, -13249.66707821692, -8770.668062051303, -4361.697061264165, -8528.956297511613, -6265.059860355837, -9864.964767094227, -11714.683379493163, -7410.385597990227, -5976.208266759904, -5980.499801695323, -8815.818585851024, -10810.510612787082, -15693.606816960195, 0.0115625, 0.24115625, 0.9490937500000001, 192.0, 0.0, 0.0, 0.0, 0.0, 0.0, 0.0, 0.0, 0.0, 0.0, 1.644588261144792E9, 0.0, 2022-02-12 01:04:21.144
212.0, -9909.087110649003, -9063.990004538298, -6039.463703568424, -13254.316241063625, -8780.703995311736, -4367.039128188983, -8536.041800503946, -6268.323215046313, -9867.132886306392, -11734.978763458583, -7395.722853627545, -5960.852618319109, -6011.680485210477, -8809.224821236709, -10810.957647676189, -15718.551363772318, 0.0115625, 0.24115625, 0.9490937500000001, 192.0, 0.0, 0.0, 0.0, 0.0, 0.0, 0.0, 0.0, 0.0, 0.0, 1.644588261152729E9, 0.0, 2022-02-12 01:04:21.152
214.0, -9911.09876764998, -9048.32143167513, -6037.049715167251, -13242.693333946865, -8771.338614384964, -4363.194628142671, -8536.600594115329, -6263.629348710698, -9860.717935647719, -11730.664876778708, -7403.545964186903, -5970.955606812908, -6005.846679907641, -8812.041141038078, -10811.359979076384, -15681.134543554133, 0.00978125, 0.24057812499999998, 0.9505468750000001, 192.0, 0.0, 32.0, 3.5, 64.0, 14.5, 96.0, 0.0, 0.0, 0.0, 1.64458826116098E9, 0.0, 2022-02-12 01:04:21.160
216.0, -9902.918029179338, -9035.089198957587, -6033.764008732321, -13251.276403817703, -8775.406631875829, -4366.368575855324, -8528.911594022704, -6265.797467922863, -9863.131924048892, -11716.60562951632, -7391.6548361366795, -5968.787487600743, -5999.699950182432, -8806.900239813356, -10808.722473230657, -15711.912895669091, 0.00978125, 0.24057812499999998, 0.9505468750000001, 192.0, 0.0, 0.0, 0.0, 0.0, 0.0, 0.0, 0.0, 0.0, 0.0, 1.644588261166973E9, 0.0, 2022-02-12 01:04:21.166
218.0, -9890.24459007318, -9009.78702423418, -6037.832026223186, -13242.603926969043, -8767.941149227756, -4360.534770552489, -8533.940736525146, -6268.882008657695, -9851.978403565694, -11719.332542339867, -7392.928885570632, -5966.284092221748, -5999.007046104318, -8804.732120601193, -10808.163679619274, -15692.690395437527, 0.00978125, 0.24057812499999998, 0.9505468750000001, 192.0, 0.0, 0.0, 0.0, 0.0, 0.0, 0.0, 0.0, 0.0, 0.0, 1.644588261174487E9, 0.0, 2022-02-12 01:04:21.174
220.0, -9894.044386630581, -9040.8335972826, -6028.868976696608, -13247.208386326836, -8769.796344017548, -4357.092601906372, -8527.97282075558, -6260.388345764679, -9849.4750081867, -11705.161536355203, -7397.823917606344, -5948.000365257307, -5985.752461642321, -8806.36379794643, -10812.008179665587, -15688.756488413394, 0.00978125, 0.24057812499999998, 0.9505468750000001, 192.0, 0.0, 0.0, 0.0, 0.0, 0.0, 0.0, 0.0, 0.0, 0.0, 1.644588261182344E9, 0.0, 2022-02-12 01:04:21.182
222.0, -9888.121174349926, -9060.771353336735, -6035.3062790997365, -13259.591252755077, -8781.240437178665, -4366.413279344235, -8541.1156464953, -6271.675976714609, -9858.058078057538, -11726.395693587745, -7397.399234461694, -5960.249121218815, -5990.46867972239, -8809.582449147994, -10809.907115686789, -15717.165555616088, 0.00978125, 0.24057812499999998, 0.9505468750000001, 192.0, 0.0, 0.0, 0.0, 0.0, 0.0, 0.0, 0.0, 0.0, 0.0, 1.644588261190529E9, 0.0, 2022-02-12 01:04:21.190
224.0, -9900.861668689451, -9048.164969463942, -6042.682354769988, -13243.766217680719, -8780.21225693372, -4361.853523475352, -8546.457713420119, -6272.726508704008, -9854.90648208934, -11702.03229213146, -7404.261220009473, -5978.286978994248, -6015.256764323326, -8811.03531253759, -10816.746749490112, -15683.637938933129, 0.014, 0.23600000000000002, 0.9540000000000001, 192.0, 0.0, 56.0, 3.5, 48.0, 14.5, 104.0, 0.0, 0.0, 0.0, 1.644588261196889E9, 0.0, 2022-02-12 01:04:21.196
226.0, -9915.256192118668, -9037.614946081036, -6039.396648335058, -13248.14715959396, -8795.143222229866, -4365.407450843746, -8551.240986733555, -6280.683729730097, -9870.686813674785, -11708.17902185667, -7399.410891462671, -5962.238426475337, -6010.719360198898, -8805.69324561277, -10820.926525703255, -15710.951770657513, 0.014, 0.23600000000000002, 0.9540000000000001, 192.0, 0.0, 0.0, 0.0, 0.0, 0.0, 0.0, 0.0, 0.0, 0.0, 1.644588261205048E9, 0.0, 2022-02-12 01:04:21.205
228.0, -9898.984122155205, -9016.984285948789, -6044.112866415127, -13243.18507232488, -8785.710786069725, -4361.853523475352, -8545.630698875273, -6270.089002858282, -9863.62366242691, -11715.376283571279, -7399.075615295842, -5947.352164668103, -6009.110034598117, -8806.117928757421, -10821.23945012563, -15694.411479760585, 0.014, 0.23600000000000002, 0.9540000000000001, 192.0, 0.0, 0.0, 0.0, 0.0, 0.0, 0.0, 0.0, 0.0, 0.0, 1.644588261213176E9, 0.0, 2022-02-12 01:04:21.213
230.0, -9881.974444624717, -9026.573184320116, -6034.05458141024, -13252.796322440663, -8786.314283170019, -4358.567817040422, -8541.585033128862, -6269.709023202542, -9860.829694369995, -11704.356873554812, -7405.959952588076, -5966.351147455114, -6004.550278729234, -8802.496946155661, -10820.658304769791, -15688.130639568644, 0.014, 0.23600000000000002, 0.9540000000000001, 192.0, 0.0, 0.0, 0.0, 0.0, 0.0, 0.0, 0.0, 0.0, 0.0, 1.64458826122007E9, 0.0, 2022-02-12 01:04:21.220
232.0, -9897.44185178779, -9054.289347444696, -6034.300450599248, -13256.506712020244, -8796.953713530746, -4362.725241509109, -8552.492684423052, -6268.636139468687, -9856.068772801014, -11719.2654871065, -7384.144649999696, -5959.377403185058, -6015.882613168074, -8807.682550869293, -10812.85754595489, -15716.182078860054, 0.014, 0.23600000000000002, 0.9540000000000001, 192.0, 0.0, 0.0, 0.0, 0.0, 0.0, 0.0, 0.0, 0.0, 0.0, 1.644588261238447E9, 0.0, 2022-02-12 01:04:21.238
234.0, -9910.159994382859, -9063.945301049389, -6038.033191923284, -13248.996525883262, -8788.258884937632, -4362.009985686539, -8538.656954605218, -6268.85965691324, -9861.366136236922, -11729.3684756003, -7400.327312985339, -5967.044051533228, -6014.653267223033, -8816.9808765627, -10813.349284332906, -15681.425116232052, 0.01, 0.234, 0.9540000000000001, 192.0, 0.0, 40.0, 3.5, 40.0, 14.5, 104.0, 0.0, 0.0, 0.0, 1.644588261244235E9, 0.0, 2022-02-12 01:04:21.244
236.0, -9906.784880970106, -9041.079466471609, -6038.323764601203, -13253.377467796501, -8794.986760018679, -4360.177142641204, -8538.992230772046, -6267.719717946019, -9868.071659573516, -11727.446225577143, -7397.019254805953, -5963.557179398201, -6022.923412671496, -8809.31422821453, -10814.75744423359, -15710.884715424147, 0.01, 0.234, 0.9540000000000001, 192.0, 0.0, 0.0, 0.0, 0.0, 0.0, 0.0, 0.0, 0.0, 0.0, 1.644588261250376E9, 0.0, 2022-02-12 01:04:21.250
238.0, -9901.040482645092, -9025.276783141708, -6044.425790837502, -13240.704028690343, -8791.745757072658, -4357.383174584291, -8549.07286752139, -6275.989863394483, -9862.90840660434, -11693.113946093792, -7400.729644385535, -5957.8798363065525, -6019.593002747656, -8805.469728168217, -10813.863374455379, -15692.802154159805, 0.01, 0.234, 0.9540000000000001, 192.0, 0.0, 0.0, 0.0, 0.0, 0.0, 0.0, 0.0, 0.0, 0.0, 1.644588261258022E9, 0.0, 2022-02-12 01:04:21.258
240.0, -9878.487572489688, -9025.768521519723, -6038.659040768032, -13241.262822301725, -8795.702015841249, -4354.723316994109, -8552.716201867604, -6276.213380839036, -9855.979365823194, -11713.40933005921, -7401.9813420750315, -5952.22484495936, -6013.893307911552, -8802.943981044767, -10818.736054746634, -15688.287101779832, 0.01, 0.234, 0.9540000000000001, 192.0, 0.0, 0.0, 0.0, 0.0, 0.0, 0.0, 0.0, 0.0, 0.0, 1.644588261264644E9, 0.0, 2022-02-12 01:04:21.264
242.0, -9902.560401268054, -9043.873434528523, -6042.257671625337, -13252.192825340371, -8800.529992643595, -4361.250026375059, -8558.237082748066, -6280.6613779856425, -9865.165932794325, -11710.79417595794, -7399.902629840688, -5961.70198460841, -6006.941915385952, -8796.149050730355, -10817.32789484595, -15712.91872416958, 0.01, 0.234, 0.9540000000000001, 192.0, 0.0, 0.0, 0.0, 0.0, 0.0, 0.0, 0.0, 0.0, 0.0, 1.644588261272571E9, 0.0, 2022-02-12 01:04:21.272
244.0, -9909.847069960484, -9046.17566420742, -6044.962232704429, -13238.67001994491, -8791.589294861471, -4363.060517675939, -8562.618024661306, -6290.250276356969, -9861.097915303459, -11708.93898116815, -7401.266086252462, -5956.494028150324, -6023.839834194164, -8814.991571306178, -10821.641781525825, -15681.022784831857, 0.012, 0.23600000000000002, 0.9500000000000001, 192.0, 0.0, 48.0, 3.5, 48.0, 14.5, 88.0, 0.0, 0.0, 0.0, 1.644588261280493E9, 0.0, 2022-02-12 01:04:21.280
246.0, -9897.777127954618, -9040.49832111577, -6038.904909957041, -13250.337630550579, -8797.512507142128, -4358.947796696162, -8558.639414148261, -6278.113279117737, -9868.384583995889, -11725.03223717597, -7393.107699526275, -5946.949833267908, -6020.2188515924045, -8803.346312444963, -10824.14517690482, -15712.047006135823, 0.012, 0.23600000000000002, 0.9500000000000001, 192.0, 0.0, 0.0, 0.0, 0.0, 0.0, 0.0, 0.0, 0.0, 0.0, 1.644588261287844E9, 0.0, 2022-02-12 01:04:21.287
248.0, -9899.609970999953, -9033.390466378984, -6043.643479781566, -13239.072351345105, -8788.281236682085, -4356.399697828258, -8550.324565210887, -6274.224075582514, -9860.069735058516, -11727.08859766586, -7387.273894223439, -5948.22388270186, -6027.013781906818, -8801.021731021612, -10823.273458871063, -15698.211276317988, 0.012, 0.23600000000000002, 0.9500000000000001, 192.0, 0.0, 0.0, 0.0, 0.0, 0.0, 0.0, 0.0, 0.0, 0.0, 1.644588261294184E9, 0.0, 2022-02-12 01:04:21.294
250.0, -9890.557514495555, -9031.177643677907, -6040.603642535644, -13235.674886187899, -8786.98483550368, -4352.219921615115, -8545.07190526389, -6275.386366294189, -9861.254377514646, -11701.965236898093, -7390.17962100263, -5945.854597789597, -6020.844700437153, -8801.558172888539, -10823.608735037891, -15689.069412835768, 0.012, 0.23600000000000002, 0.9500000000000001, 192.0, 0.0, 0.0, 0.0, 0.0, 0.0, 0.0, 0.0, 0.0, 0.0, 1.644588261302466E9, 0.0, 2022-02-12 01:04:21.302
252.0, -9876.38650851089, -9015.01733243672, -6045.6327850380885, -13242.849796158052, -8784.235570935676, -4351.616424514821, -8546.927100053681, -6275.542828505377, -9861.008508325638, -11700.579428741865, -7384.949312800088, -5953.834170560142, -6006.338418285659, -8791.723405328203, -10818.736054746634, -15715.042139892834, 0.012, 0.23600000000000002, 0.9500000000000001, 192.0, 0.0, 0.0, 0.0, 0.0, 0.0, 0.0, 0.0, 0.0, 0.0, 1.644588261310245E9, 0.0, 2022-02-12 01:04:21.310
254.0, -9887.584732482997, -9004.154384631442, -6048.851436239653, -13233.462063486822, -8776.434812120773, -4350.387078569779, -8547.083562264868, -6267.451497012556, -9848.938566319772, -11694.656216461208, -7400.506126940982, -5963.6912898649325, -6025.71738072841, -8794.763242574125, -10815.875031456355, -15675.837180118226, 0.01, 0.23, 0.9520000000000001, 192.0, 0.0, 40.0, 3.5, 24.0, 14.5, 96.0, 0.0, 0.0, 0.0, 1.644588261317711E9, 0.0, 2022-02-12 01:04:21.317
0.0, -9879.269883545623, -9025.366190119528, -6042.727058258898, -13243.028610113694, -8794.584428618482, -4348.531883779989, -8545.474236664086, -6260.388345764679, -9863.71306940473, -11692.063414104392, -7394.60526640478, -5935.729257551344, -6018.788339947265, -8793.757414073636, -10820.658304769791, -15706.883753166647, 0.01, 0.23, 0.9520000000000001, 192.0, 0.0, 0.0, 0.0, 0.0, 0.0, 0.0, 0.0, 0.0, 0.0, 1.644588261325119E9, 0.0, 2022-02-12 01:04:21.325
2.0, -9903.29800883508, -9048.612004353048, -6046.817427494219, -13235.876051887995, -8790.114079727422, -4346.788447712475, -8551.732725111571, -6269.016119124427, -9860.248549014157, -11720.539536540455, -7386.089251767308, -5928.733161536832, -6030.902985442041, -8784.436736635773, -10819.227793124652, -15690.857552392192, 0.01, 0.23, 0.9520000000000001, 192.0, 0.0, 0.0, 0.0, 0.0, 0.0, 0.0, 0.0, 0.0, 0.0, 1.644588261333406E9, 0.0, 2022-02-12 01:04:21.333
4.0, -9896.681892476308, -9025.232079652797, -6039.731924501887, -13235.496072232256, -8786.44839363675, -4348.017793657517, -8549.87753032178, -6268.0996976017595, -9867.065831073027, -11715.689207993652, -7389.307902968872, -5937.204472685394, -6010.719360198898, -8803.145146744866, -10824.100473415909, -15685.96252035648, 0.01, 0.23, 0.9520000000000001, 192.0, 0.0, 0.0, 0.0, 0.0, 0.0, 0.0, 0.0, 0.0, 0.0, 1.644588261340233E9, 0.0, 2022-02-12 01:04:21.340
6.0, -9876.453563744255, -9007.976532933299, -6046.951537960951, -13247.00722062674, -8791.008149505633, -4347.101372134849, -8549.564605899406, -6270.290168558379, -9869.233950285192, -11702.904010165217, -7385.1951819890955, -5950.056725747196, -6025.091531883661, -8797.02076876411, -10821.977057692655, -15712.516392769385, 0.01, 0.23, 0.9520000000000001, 192.0, 0.0, 0.0, 0.0, 0.0, 0.0, 0.0, 0.0, 0.0, 0.0, 1.644588261347392E9, 0.0, 2022-02-12 01:04:21.347
8.0, -9879.694566690274, -9013.296248113662, -6052.8523984971525, -13236.948935621851, -8783.587370346471, -4347.794276212964, -8546.368306442298, -6272.391232537178, -9856.381697223389, -11691.616379215286, -7408.686865411623, -5958.952720040407, -6030.2547848528375, -8794.047986751555, -10819.831290224945, -15673.713764394972, 0.012, 0.23, 0.9540000000000001, 192.0, 0.0, 48.0, 3.5, 24.0, 14.5, 104.0, 0.0, 0.0, 0.0, 1.644588261363124E9, 0.0, 2022-02-12 01:04:21.363
10.0, -9897.084223876504, -9016.291381870673, -6046.48215132739, -13250.404685783946, -8794.338559429474, -4349.0683256469165, -8544.31194595241, -6267.943235390572, -9867.535217706587, -11695.349120539322, -7398.472118195548, -5957.388097928536, -6030.925337186496, -8794.74089082967, -10821.99940943711, -15705.72146245497, 0.012, 0.23, 0.9540000000000001, 192.0, 0.0, 0.0, 0.0, 0.0, 0.0, 0.0, 0.0, 0.0, 0.0, 1.644588261370369E9, 0.0, 2022-02-12 01:04:21.370
12.0, -9902.694511734786, -9036.251489669263, -6053.433543852991, -13235.920755376907, -8790.337597171974, -4354.1198198938155, -8555.174893757689, -6274.894627916173, -9868.943377607273, -11696.489059506543, -7393.308865226372, -5942.3230221656595, -6015.972020145896, -8795.769071074614, -10819.205441380196, -15693.740927426927, 0.012, 0.23, 0.9540000000000001, 192.0, 0.0, 0.0, 0.0, 0.0, 0.0, 0.0, 0.0, 0.0, 0.0, 1.644588261377943E9, 0.0, 2022-02-12 01:04:21.377
14.0, -9893.284427319102, -9030.954126233355, -6045.275157126804, -13243.341534536068, -8791.432832650284, -4352.979880926595, -8550.637489633262, -6267.719717946019, -9860.025031569605, -11715.532745782464, -7389.084385524319, -5933.494083105813, -6027.416113307013, -8798.160707731331, -10818.959572191188, -15683.079145321744, 0.012, 0.23, 0.9540000000000001, 192.0, 0.0, 0.0, 0.0, 0.0, 0.0, 0.0, 0.0, 0.0, 0.0, 1.644588261384413E9, 0.0, 2022-02-12 01:04:21.384
16.0, -9890.646921473375, -9022.572222062614, -6053.00886070834, -13250.896424161963, -8796.819603064014, -4359.707756007642, -8552.112704767313, -6273.844095926774, -9869.546874707565, -11727.446225577143, -7390.7160628695565, -5951.040202503229, -6025.3821045615805, -8794.45031815175, -10817.99844717961, -15712.941075914036, 0.012, 0.23, 0.9540000000000001, 192.0, 0.0, 0.0, 0.0, 0.0, 0.0, 0.0, 0.0, 0.0, 0.0, 1.644588261392507E9, 0.0, 2022-02-12 01:04:21.392
18.0, -9898.939418666294, -9016.179623148397, -6050.840741496175, -13239.00529611174, -8790.78463206108, -4350.521189036512, -8551.978594300579, -6268.7478981909635, -9858.99685132466, -11706.793213700439, -7398.047435050898, -5959.399754929514, -6033.495787798856, -8803.636885122882, -10821.731188503647, -15678.251168519399, 0.008, 0.232, 0.9480000000000001, 192.0, 0.0, 32.0, 3.5, 32.0, 14.5, 80.0, 0.0, 0.0, 0.0, 1.644588261400546E9, 0.0, 2022-02-12 01:04:21.400
20.0, -9892.278598818613, -9019.890012727978, -6049.097305428661, -13244.19090082537, -8800.21706822122, -4353.024584415506, -8548.603480887828, -6267.585607479287, -9866.395278739366, -11698.32190255188, -7390.023158791442, -5938.210301185883, -6030.657116253033, -8792.975103017701, -10820.121862902864, -15705.162668843588, 0.008, 0.232, 0.9480000000000001, 192.0, 0.0, 0.0, 0.0, 0.0, 0.0, 0.0, 0.0, 0.0, 0.0, 1.644588261407439E9, 0.0, 2022-02-12 01:04:21.407
22.0, -9908.349503081978, -9025.07561744161, -6056.138104932083, -13235.42901699889, -8790.27054193861, -4350.968223925617, -8550.637489633262, -6264.970453378017, -9865.14358104987, -11717.209126616614, -7391.699539625591, -5951.107257736595, -6031.260613353326, -8795.322036185507, -10818.266668113074, -15692.824505904258, 0.008, 0.232, 0.9480000000000001, 192.0, 0.0, 0.0, 0.0, 0.0, 0.0, 0.0, 0.0, 0.0, 0.0, 1.644588261414126E9, 0.0, 2022-02-12 01:04:21.414
24.0, -9891.786860440596, -9016.604306293048, -6049.097305428661, -13242.469816502311, -8794.718539085216, -4351.2364448590815, -8544.289594207954, -6262.891741143673, -9865.322395005513, -11705.720329966585, -7395.544039671903, -5944.111161722084, -6028.109017385128, -8799.233591465187, -10817.506708801593, -15684.06262207778, 0.008, 0.232, 0.9480000000000001, 192.0, 0.0, 0.0, 0.0, 0.0, 0.0, 0.0, 0.0, 0.0, 0.0, 1.644588261422109E9, 0.0, 2022-02-12 01:04:21.422
26.0, -9893.753813952662, -9024.114492430032, -6046.012764693829, -13244.95086013685, -8790.650521594349, -4345.670860489709, -8551.688021622662, -6267.786773179385, -9864.830656627495, -11700.802946186417, -7385.865734322755, -5940.89251052052, -6025.896194684052, -8797.490155397672, -10814.131595388842, -15713.54457301433, 0.008, 0.232, 0.9480000000000001, 192.0, 0.0, 0.0, 0.0, 0.0, 0.0, 0.0, 0.0, 0.0, 0.0, 1.644588261430275E9, 0.0, 2022-02-12 01:04:21.430
28.0, -9878.979310867704, -9006.9260009439, -6044.761067004331, -13232.053903586138, -8781.419251134306, -4335.590223740366, -8545.54129189745, -6263.182313821592, -9855.845255356462, -11714.392806815244, -7390.850173336288, -5946.301632678704, -6036.692087255966, -8790.27054193861, -10810.220040109163, -15674.00433707289, 0.012, 0.232, 0.9500000000000001, 192.0, 0.0, 48.0, 3.5, 32.0, 14.5, 88.0, 0.0, 0.0, 0.0, 1.644588261438125E9, 0.0, 2022-02-12 01:04:21.438
30.0, -9885.394261526379, -9008.982361433787, -6041.922395458508, -13239.228813556292, -8795.59025711897, -4336.99838364105, -8541.54032963995, -6265.283377800391, -9864.09304906047, -11701.227629331068, -7388.413833190661, -5942.837112288131, -6031.52883428679, -8782.000396490144, -10808.18603136373, -15703.620398476172, 0.012, 0.232, 0.9500000000000001, 192.0, 0.0, 0.0, 0.0, 0.0, 0.0, 0.0, 0.0, 0.0, 0.0, 1.644588261444693E9, 0.0, 2022-02-12 01:04:21.444
32.0, -9898.402976799367, -9007.618905022015, -6047.845607739164, -13228.947011106851, -8785.30845466953, -4339.188854597671, -8547.843521576347, -6267.272683056914, -9862.751944393152, -11708.98368465706, -7384.7928505889, -5938.0985424636065, -6037.6532122675435, -8786.001358747644, -10810.354150575895, -15691.43869774803, 0.012, 0.232, 0.9500000000000001, 192.0, 0.0, 0.0, 0.0, 0.0, 0.0, 0.0, 0.0, 0.0, 0.0, 1.644588261452864E9, 0.0, 2022-02-12 01:04:21.452
34.0, -9890.803383684563, -9000.891029940967, -6041.050677424751, -13234.222022798303, -8782.782707546081, -4338.563005752922, -8546.100085508835, -6269.820781924818, -9862.28255775959, -11693.873905405273, -7388.167964001652, -5944.22292044436, -6013.110996855617, -8791.186963461276, -10814.623333766858, -15684.800229644803, 0.012, 0.232, 0.9500000000000001, 192.0, 0.0, 0.0, 0.0, 0.0, 0.0, 0.0, 0.0, 0.0, 0.0, 1.644588261460803E9, 0.0, 2022-02-12 01:04:21.460
36.0, -9887.629435971909, -9002.54505903066, -6044.582253048689, -13240.122883334505, -8793.690358840271, -4341.401677298746, -8554.638451890762, -6265.9315783895945, -9859.28742400258, -11706.83791718935, -7377.7967545743895, -5939.5067023642905, -6032.847587209652, -8790.248190194154, -10811.494089543115, -15712.404634047109, 0.008, 0.23500000000000001, 0.9470000000000001, 192.0, 0.0, 16.0, 3.5, 56.0, 14.5, 64.0, 0.0, 0.0, 0.0, 1.644588261467469E9, 0.0, 2022-02-12 01:04:21.467
38.0, -9873.4807817317, -9005.607248021037, -6047.778552505798, -13228.56703145111, -8786.44839363675, -4341.111104620827, -8552.805608845427, -6272.324177303813, -9856.448752456756, -11702.591085742843, -7392.280684981429, -5941.026620987252, -6029.338363330169, -8794.651483851849, -10817.014970423577, -15678.519389452862, 0.008, 0.23500000000000001, 0.9470000000000001, 192.0, 0.0, 0.0, 0.0, 0.0, 0.0, 0.0, 0.0, 0.0, 0.0, 1.644588261482392E9, 0.0, 2022-02-12 01:04:21.482
40.0, -9898.112404121448, -9025.522652330716, -6041.207139635938, -13242.514519991222, -8797.892486797868, -4339.054744130939, -8554.236120490566, -6277.129802361704, -9869.837447385484, -11707.4637660341, -7387.69857736809, -5938.478522119346, -6039.329593101692, -8791.186963461276, -10818.892516957821, -15709.878886923658, 0.008, 0.23500000000000001, 0.9470000000000001, 192.0, 0.0, 0.0, 0.0, 0.0, 0.0, 0.0, 0.0, 0.0, 0.0, 1.644588261489506E9, 0.0, 2022-02-12 01:04:21.489
42.0, -9910.741139738697, -9017.476024326805, -6050.706631029443, -13234.37848500949, -8790.941094272268, -4334.830264428886, -8554.549044912941, -6272.435936026089, -9865.277691516601, -11695.21501007259, -7374.198123717085, -5939.260833175282, -6036.043886666762, -8785.286102925074, -10815.986790178633, -15698.72536644046, 0.008, 0.23500000000000001, 0.9470000000000001, 192.0, 0.0, 0.0, 0.0, 0.0, 0.0, 0.0, 0.0, 0.0, 0.0, 1.644588261497035E9, 0.0, 2022-02-12 01:04:21.497
44.0, -9897.575962254521, -8999.348759573551, -6048.314994372725, -13233.52911872019, -8786.113117469922, -4329.219976570604, -8549.989289044057, -6279.588494251788, -9864.920063605317, -11707.083786378358, -7384.7928505889, -5941.60776634309, -6022.118749871105, -8786.202524447743, -10819.048979169009, -15685.537837211828, 0.008, 0.23500000000000001, 0.9470000000000001, 192.0, 0.0, 0.0, 0.0, 0.0, 0.0, 0.0, 0.0, 0.0, 0.0, 1.644588261504947E9, 0.0, 2022-02-12 01:04:21.504
46.0, -9898.939418666294, -9002.612114264026, -6051.265424640826, -13244.012086869729, -8791.008149505633, -4333.824435928397, -8551.129228011278, -6267.652662712653, -9868.4292874848, -11714.951600426628, -7386.17865874513, -5942.188911698927, -6039.8213314797085, -8780.122849955898, -10815.18212737824, -15713.566924758785, 0.005, 0.23650000000000002, 0.9465000000000001, 192.0, 0.0, 8.0, 3.5, 56.0, 14.5, 72.0, 0.0, 0.0, 0.0, 1.644588261513022E9, 0.0, 2022-02-12 01:04:21.513
48.0, -9887.227104571713, -8994.565486260115, -6053.433543852991, -13229.349342507046, -8787.141297714865, -4333.153883594738, -8557.901806581236, -6270.401927280656, -9861.76846763712, -11705.049777632927, -7392.995940803999, -5945.295804178215, -6039.3519448461475, -8787.45422213724, -10818.356075090895, -15677.826485374748, 0.005, 0.23650000000000002, 0.9465000000000001, 192.0, 0.0, 0.0, 0.0, 0.0, 0.0, 0.0, 0.0, 0.0, 0.0, 1.644588261519689E9, 0.0, 2022-02-12 01:04:21.519
50.0, -9882.28736904709, -9001.315713085618, -6050.617224051622, -13242.201595568848, -8787.476573881695, -4332.595089983355, -8548.73759135456, -6269.329043546802, -9863.668365915819, -11698.813640929895, -7385.932789556121, -5924.106350434584, -6028.109017385128, -8782.290969168063, -10816.366769834372, -15706.950808400014, 0.005, 0.23650000000000002, 0.9465000000000001, 192.0, 0.0, 0.0, 0.0, 0.0, 0.0, 0.0, 0.0, 0.0, 0.0, 1.644588261527526E9, 0.0, 2022-02-12 01:04:21.527
52.0, -9901.62162800093, -9008.73649224478, -6061.167247434527, -13239.09470308956, -8788.54945761555, -4333.66797371721, -8554.660803635217, -6278.694424473575, -9859.62270016941, -11694.343292038833, -7384.7257953555345, -5934.41050462848, -6039.419000079513, -8781.262788923119, -10811.874069198855, -15696.981930372945, 0.005, 0.23650000000000002, 0.9465000000000001, 192.0, 0.0, 0.0, 0.0, 0.0, 0.0, 0.0, 0.0, 0.0, 0.0, 1.644588261534681E9, 0.0, 2022-02-12 01:04:21.534
54.0, -9892.993854641183, -9010.904611456945, -6059.423811367013, -13238.424150755902, -8789.26471343812, -4332.7515521945425, -8554.481989679574, -6271.586569736787, -9859.421534469311, -11689.403556514211, -7389.799641346889, -5942.077152976651, -6035.015706421817, -8783.833239535481, -10815.316237844972, -15689.762316913882, 0.005, 0.23650000000000002, 0.9465000000000001, 192.0, 0.0, 0.0, 0.0, 0.0, 0.0, 0.0, 0.0, 0.0, 0.0, 1.644588261542691E9, 0.0, 2022-02-12 01:04:21.542
56.0, -9894.62553198642, -9001.136899129975, -6061.524875345812, -13247.163682837927, -8791.566943117017, -4331.5222062495, -8564.160295028722, -6272.882970915195, -9873.301967776057, -11721.902992952228, -7388.03385353492, -5929.604879570589, -6031.6629447535215, -8770.288082395564, -10815.47270005616, -15715.913857926591, 0.0045000000000000005, 0.23625000000000002, 0.94825, 192.0, 0.0, 16.0, 3.5, 48.0, 14.5, 88.0, 0.0, 0.0, 0.0, 1.644588261549321E9, 0.0, 2022-02-12 01:04:21.549
58.0, -9883.71788069223, -8990.855096680534, -6058.730907288898, -13235.272554787703, -8778.848800521946, -4338.071267374905, -8552.179760000678, -6266.512723745433, -9856.962842579227, -11701.875829920273, -7386.625693634235, -5939.640812831022, -6038.569633790212, -8784.190867446765, -10812.209345365685, -15681.045136576313, 0.0045000000000000005, 0.23625000000000002, 0.94825, 192.0, 0.0, 0.0, 0.0, 0.0, 0.0, 0.0, 0.0, 0.0, 0.0, 1.644588261557324E9, 0.0, 2022-02-12 01:04:21.557
60.0, -9895.854877931462, -9004.288495098173, -6058.328575888703, -13245.643764214965, -8789.801155305047, -4335.366706295813, -8558.41589670371, -6274.268779071424, -9865.612967683432, -11705.809736944406, -7388.637350635213, -5941.965394254375, -6035.552148288745, -8782.425079634795, -10812.991656421622, -15709.834183434748, 0.0045000000000000005, 0.23625000000000002, 0.94825, 192.0, 0.0, 0.0, 0.0, 0.0, 0.0, 0.0, 0.0, 0.0, 0.0, 1.644588261565213E9, 0.0, 2022-02-12 01:04:21.565
62.0, -9909.489442049198, -9008.132995144486, -6059.3120526447365, -13230.735150663275, -8783.721480813203, -4332.639793472265, -8559.30996648192, -6280.571971007821, -9860.069735058516, -11709.386016057255, -7383.474097666037, -5931.214205171372, -6035.283927355281, -8773.439678363762, -10815.070368655965, -15699.731194940949, 0.0045000000000000005, 0.23625000000000002, 0.94825, 192.0, 0.0, 0.0, 0.0, 0.0, 0.0, 0.0, 0.0, 0.0, 0.0, 1.644588261572377E9, 0.0, 2022-02-12 01:04:21.572
64.0, -9894.647883730875, -9001.78509971918, -6049.8572647401415, -13228.723493662297, -8779.698166811248, -4325.978973624584, -8547.754114598527, -6263.361127777234, -9859.488589702678, -11697.181963584659, -7375.382766173216, -5917.154957908983, -6034.05458141024, -8777.865323765913, -10815.137423889331, -15685.694299423016, 0.0045000000000000005, 0.23625000000000002, 0.94825, 192.0, 0.0, 0.0, 0.0, 0.0, 0.0, 0.0, 0.0, 0.0, 0.0, 1.644588261579863E9, 0.0, 2022-02-12 01:04:21.579
66.0, -9878.822848656519, -8999.840497951567, -6043.442314081468, -13237.127749577494, -8778.759393544125, -4324.079075345883, -8545.720105853094, -6266.445668512067, -9862.260206015135, -11704.490984021544, -7368.833705047811, -5915.523280563746, -6034.881595955086, -8763.381393358874, -10808.007217408087, -15713.209296847499, 0.00625, 0.23612500000000003, 0.9461250000000001, 192.0, 0.0, 32.0, 3.5, 48.0, 14.5, 64.0, 0.0, 0.0, 0.0, 1.644588261587917E9, 0.0, 2022-02-12 01:04:21.587
68.0, -9878.666386445331, -8989.268122824207, -6046.638613538577, -13233.082083831083, -8770.913931240313, -4326.76128468052, -8559.958167071125, -6284.371767565223, -9849.452656442245, -11691.996358871027, -7375.092193495298, -5931.907109249486, -6014.765025945309, -8767.583521316472, -10807.157851118785, -15678.139409797122, 0.00625, 0.23612500000000003, 0.9461250000000001, 192.0, 0.0, 0.0, 0.0, 0.0, 0.0, 0.0, 0.0, 0.0, 0.0, 1.644588261596104E9, 0.0, 2022-02-12 01:04:21.596
70.0, -9886.780069682607, -8992.419718792406, -6045.610433293633, -13248.19186308287, -8785.062585480522, -4334.338526050869, -8560.584015915872, -6276.235732583491, -9864.987118838682, -11698.858344418806, -7374.578103372825, -5930.275431904249, -6022.610488249122, -8772.947939985746, -10809.571839519958, -15706.637883977639, 0.00625, 0.23612500000000003, 0.9461250000000001, 192.0, 0.0, 0.0, 0.0, 0.0, 0.0, 0.0, 0.0, 0.0, 0.0, 1.644588261609572E9, 0.0, 2022-02-12 01:04:21.609
72.0, -9889.730499950707, -8995.59366650506, -6053.142971175072, -13243.09566534706, -8775.54074234256, -4332.371572538802, -8555.64428039125, -6287.05397689986, -9859.957976336238, -11703.395748543233, -7382.98235928802, -5941.071324476162, -6040.715401257921, -8775.45133536474, -10809.773005220057, -15701.92166589757, 0.00625, 0.23612500000000003, 0.9461250000000001, 192.0, 0.0, 0.0, 0.0, 0.0, 0.0, 0.0, 0.0, 0.0, 0.0, 1.644588261618438E9, 0.0, 2022-02-12 01:04:21.618
74.0, -9891.004549384661, -8999.616980507015, -6047.756200761342, -13238.535909478178, -8773.998471975145, -4323.632040456777, -8545.943623297648, -6247.781961891886, -9855.197054767259, -11698.947751396627, -7393.867658837755, -5940.780751798243, -6037.161473889527, -8777.708861554725, -10811.605848265392, -15683.81675288877, 0.00625, 0.23612500000000003, 0.9461250000000001, 192.0, 0.0, 0.0, 0.0, 0.0, 0.0, 0.0, 0.0, 0.0, 0.0, 1.644588261624566E9, 0.0, 2022-02-12 01:04:21.624
76.0, -9881.035671357593, -8996.174811860898, -6045.3422123601695, -13242.805092669141, -8777.775916788092, -4325.375476524291, -8555.93485306917, -6264.7022324445525, -9870.798572397063, -11719.533708039966, -7371.9853010160095, -5919.613649799067, -6033.473436054402, -8768.321128883497, -10809.840060453424, -15707.1072706112, 0.005125, 0.2360625, 0.9490625000000001, 192.0, 0.0, 16.0, 3.5, 48.0, 14.5, 96.0, 0.0, 0.0, 0.0, 1.644588261632404E9, 0.0, 2022-02-12 01:04:21.632
78.0, -9889.708148206253, -9005.629599765492, -6054.707593286943, -13237.798301911153, -8769.483419595173, -4324.347296279347, -8545.1166087528, -6252.364069505224, -9852.112514032426, -11711.151803869225, -7374.533399883914, -5921.580603311134, -6025.71738072841, -8769.617530061905, -10811.337627331928, -15677.424153974553, 0.005125, 0.2360625, 0.9490625000000001, 192.0, 0.0, 0.0, 0.0, 0.0, 0.0, 0.0, 0.0, 0.0, 0.0, 1.644588261640109E9, 0.0, 2022-02-12 01:04:21.640
80.0, -9900.302875078069, -9009.921134700911, -6050.237244395882, -13248.974174138806, -8781.843934278957, -4329.331735292881, -8552.02329778949, -6259.516627730922, -9869.233950285192, -11715.331580082368, -7377.148553985186, -5921.491196333313, -6037.9437849454625, -8768.678756794781, -10811.851717454401, -15706.369663044175, 0.005125, 0.2360625, 0.9490625000000001, 192.0, 0.0, 0.0, 0.0, 0.0, 0.0, 0.0, 0.0, 0.0, 0.0, 1.644588261648549E9, 0.0, 2022-02-12 01:04:21.648
82.0, -9903.253305346168, -9010.837556223578, -6060.384936378591, -13246.157854337438, -8773.283216152575, -4329.689363204166, -8559.868760093303, -6265.95393013405, -9867.401107239855, -11726.596859287842, -7379.182562730618, -5927.973202225352, -6022.968116160407, -8773.484381852673, -10814.355112833395, -15701.92166589757, 0.005125, 0.2360625, 0.9490625000000001, 192.0, 0.0, 0.0, 0.0, 0.0, 0.0, 0.0, 0.0, 0.0, 0.0, 1.644588261654764E9, 0.0, 2022-02-12 01:04:21.654
84.0, -9884.522543492621, -8983.747241943747, -6052.8523984971525, -13252.5281015072, -8771.0703934515, -4323.743799179054, -8555.756039113527, -6264.746935933464, -9860.069735058516, -11685.961387868094, -7385.396347689194, -5936.377458140548, -6042.145912903061, -8770.153971928832, -10815.606810522891, -15687.728308168449, 0.005125, 0.2360625, 0.9490625000000001, 192.0, 0.0, 0.0, 0.0, 0.0, 0.0, 0.0, 0.0, 0.0, 0.0, 1.644588261661808E9, 0.0, 2022-02-12 01:04:21.661
86.0, -9906.67312224783, -9002.030968908188, -6052.830046752697, -13249.152988094449, -8776.278349909586, -4329.599956226344, -8555.353707713331, -6265.842171411774, -9869.658633429843, -11703.12752760977, -7371.471210893537, -5944.357030911092, -6034.501616299345, -8762.576730558483, -10808.9012871863, -15714.706863726005, 0.006562500000000001, 0.23303125000000002, 0.95053125, 192.0, 0.0, 32.0, 3.5, 24.0, 14.5, 96.0, 0.0, 0.0, 0.0, 1.644588261669806E9, 0.0, 2022-02-12 01:04:21.669
88.0, -9901.889848934396, -9015.754940003746, -6056.003994465351, -13235.920755376907, -8773.484381852673, -4330.337563793369, -8563.422687461698, -6266.71388944553, -9866.216464783725, -11720.673647007186, -7376.634463862713, -5930.7001150488995, -6035.798017477753, -8773.663195808316, -10811.829365709946, -15679.77108714236, 0.006562500000000001, 0.23303125000000002, 0.95053125, 192.0, 0.0, 0.0, 0.0, 0.0, 0.0, 0.0, 0.0, 0.0, 0.0, 1.644588261677942E9, 0.0, 2022-02-12 01:04:21.677
90.0, -9894.066738375037, -9009.764672489724, -6044.135218159583, -13248.95182239435, -8774.847838264446, -4330.069342859905, -8558.639414148261, -6275.855752927751, -9876.721784677718, -11721.41125457421, -7379.495487152993, -5924.106350434584, -6037.519101800812, -8773.953768486235, -10811.695255243214, -15709.677721223561, 0.006562500000000001, 0.23303125000000002, 0.95053125, 192.0, 0.0, 0.0, 0.0, 0.0, 0.0, 0.0, 0.0, 0.0, 0.0, 1.64458826168595E9, 0.0, 2022-02-12 01:04:21.685
92.0, -9886.578903982509, -9000.533402029681, -6050.125485673605, -13243.453293258346, -8763.53785557006, -4321.799197411442, -8553.342050712354, -6266.065688856326, -9862.886054859884, -11714.392806815244, -7378.93669354161, -5926.118007435562, -6038.189654134471, -8771.919759740802, -10807.269609841063, -15705.028558376856, 0.006562500000000001, 0.23303125000000002, 0.95053125, 192.0, 0.0, 0.0, 0.0, 0.0, 0.0, 0.0, 0.0, 0.0, 0.0, 1.644588261694194E9, 0.0, 2022-02-12 01:04:21.694
94.0, -9877.951130622761, -8997.493564783761, -6045.029287937795, -13239.608793212032, -8758.195788645244, -4317.932345620674, -8543.50728315202, -6257.460267241034, -9853.967708822216, -11696.734928695552, -7383.719966855046, -5933.471731361357, -6015.770854445798, -8774.624320819894, -10807.180202863241, -15684.1520290556, 0.006562500000000001, 0.23303125000000002, 0.95053125, 192.0, 0.0, 0.0, 0.0, 0.0, 0.0, 0.0, 0.0, 0.0, 0.0, 1.644588261700998E9, 0.0, 2022-02-12 01:04:21.700
96.0, -9893.44088953029, -8990.117489113509, -6048.851436239653, -13255.299717819658, -8767.181189916277, -4323.028543356484, -8555.107838524324, -6259.76249691993, -9865.23298802769, -11707.195545100636, -7377.282664451917, -5925.581565568634, -6034.3675058326135, -8775.294873153553, -10808.342493574917, -15715.332712570753, 0.00828125, 0.233515625, 0.9502656250000001, 192.0, 0.0, 40.0, 3.5, 40.0, 14.5, 88.0, 0.0, 0.0, 0.0, 1.644588261707574E9, 0.0, 2022-02-12 01:04:21.707
98.0, -9890.222238328724, -8988.68697746837, -6047.935014716985, -13241.687505446376, -8750.193864130242, -4316.278316530981, -8547.731762854071, -6256.566197462821, -9854.23592975568, -11697.763108940497, -7383.205876732573, -5946.234577445338, -6034.725133743898, -8772.92558824129, -10809.23656335313, -15679.368755742164, 0.00828125, 0.233515625, 0.9502656250000001, 192.0, 0.0, 0.0, 0.0, 0.0, 0.0, 0.0, 0.0, 0.0, 0.0, 1.644588261715273E9, 0.0, 2022-02-12 01:04:21.715
100.0, -9864.294214760568, -8992.30796007013, -6037.7649709898205, -13245.107322348038, -8758.419306089796, -4309.99747633904, -8541.83090231787, -6251.358241004735, -9855.66644140082, -11682.988605855538, -7373.013481260954, -5926.565042324668, -6025.113883628116, -8763.02376544759, -10800.51938301556, -15696.691357695026, 0.00828125, 0.233515625, 0.9502656250000001, 192.0, 0.0, 0.0, 0.0, 0.0, 0.0, 0.0, 0.0, 0.0, 0.0, 1.644588261730508E9, 0.0, 2022-02-12 01:04:21.730
102.0, -9884.880171403905, -8992.173849603398, -6047.15270366105, -13237.015990855216, -8753.524274054083, -4313.9090316187185, -8547.999983787535, -6267.585607479287, -9850.57024366501, -11701.384091542255, -7367.827876547322, -5906.381417081526, -6021.224680092893, -8760.408611346318, -10797.546601003003, -15694.702052438504, 0.00828125, 0.233515625, 0.9502656250000001, 192.0, 0.0, 0.0, 0.0, 0.0, 0.0, 0.0, 0.0, 0.0, 0.0, 1.644588261736772E9, 0.0, 2022-02-12 01:04:21.736
104.0, -9869.457467729744, -8977.801677918635, -6037.139122145071, -13232.925621619896, -8750.976175186179, -4305.996514081539, -8540.936832539659, -6252.878159627696, -9846.412819196323, -11675.277254018458, -7364.720984068034, -5905.21912636985, -6012.015761377306, -8756.072372921988, -10802.486336527627, -15681.24630227641, 0.00828125, 0.233515625, 0.9502656250000001, 192.0, 0.0, 0.0, 0.0, 0.0, 0.0, 0.0, 0.0, 0.0, 0.0, 1.644588261744985E9, 0.0, 2022-02-12 01:04:21.744
106.0, -9873.011395098138, -8971.654948193425, -6035.820369222209, -13244.257956058736, -8754.150122898833, -4309.572793194388, -8542.859082562814, -6249.056011325838, -9854.459447200234, -11682.78744015544, -7358.8871787652, -5905.2861816032155, -6018.609525991622, -8750.730305997171, -10798.373615547851, -15709.96829390148, 0.007140625, 0.2357578125, 0.9501328125000001, 192.0, 0.0, 24.0, 3.5, 56.0, 14.5, 88.0, 0.0, 0.0, 0.0, 1.644588261752645E9, 0.0, 2022-02-12 01:04:21.752
108.0, -9872.229084042203, -8969.196256303341, -6034.971002932907, -13228.701141917843, -8738.548605269028, -4303.157842535716, -8535.326544681377, -6242.9763368339945, -9845.786970351573, -11677.668890675175, -7365.927978268622, -5917.445530586902, -6014.720322456399, -8755.982965944168, -10797.256028325084, -15673.043212061313, 0.007140625, 0.2357578125, 0.9501328125000001, 192.0, 0.0, 0.0, 0.0, 0.0, 0.0, 0.0, 0.0, 0.0, 0.0, 1.644588261759979E9, 0.0, 2022-02-12 01:04:21.759
110.0, -9872.787877653585, -8974.650081950436, -6024.689200483465, -13236.636011199476, -8745.321183838985, -4302.487290202056, -8529.358628911808, -6242.417543222612, -9847.32924071899, -11676.104268563304, -7348.9183007381325, -5902.536917035212, -6018.676581224988, -8753.725439754182, -10792.718624200657, -15692.53393322634, 0.007140625, 0.2357578125, 0.9501328125000001, 192.0, 0.0, 0.0, 0.0, 0.0, 0.0, 0.0, 0.0, 0.0, 0.0, 1.644588261767522E9, 0.0, 2022-02-12 01:04:21.767
112.0, -9876.05123234406, -8972.437259249362, -6040.514235557823, -13235.138444320972, -8741.856663448414, -4299.0004180670285, -8536.444131904142, -6247.826665380796, -9847.396295952356, -11684.374414011767, -7354.081553707309, -5906.35906533707, -6014.675618967488, -8752.652556020326, -10790.215228821664, -15686.163686056578, 0.007140625, 0.2357578125, 0.9501328125000001, 192.0, 0.0, 0.0, 0.0, 0.0, 0.0, 0.0, 0.0, 0.0, 0.0, 1.644588261776045E9, 0.0, 2022-02-12 01:04:21.776
114.0, -9864.987118838682, -8973.77836391668, -6043.643479781566, -13237.32891527759, -8741.610794259404, -4303.426063469179, -8536.600594115329, -6251.425296238101, -9846.077543029493, -11667.610605670287, -7368.923112025633, -5921.178271910939, -6014.452101522935, -8756.809980489013, -10799.55825800398, -15673.356136483686, 0.007140625, 0.2357578125, 0.9501328125000001, 192.0, 0.0, 0.0, 0.0, 0.0, 0.0, 0.0, 0.0, 0.0, 0.0, 1.644588261782371E9, 0.0, 2022-02-12 01:04:21.782
116.0, -9874.352499765457, -8979.142782585954, -6042.794113492265, -13240.078179845594, -8746.639936761849, -4304.8118716254085, -8534.410123158708, -6248.743086903463, -9855.040592556072, -11668.035288814937, -7367.447896891582, -5911.701132261888, -6005.176127573983, -8755.088896165955, -10794.976150390643, -15706.2579043219, 0.004, 0.23800000000000002, 0.9440000000000001, 192.0, 0.0, 16.0, 3.5, 56.0, 14.5, 64.0, 0.0, 0.0, 0.0, 1.64458826178951E9, 0.0, 2022-02-12 01:04:21.789
118.0, -9884.790764426085, -8977.980491874278, -6039.8213314797085, -13227.38238899498, -8736.380486056863, -4304.320133247392, -8538.053457504924, -6250.5535782043435, -9839.394371437356, -11683.435640744645, -7359.043640976387, -5902.73808273531, -6015.033246878773, -8750.417381574796, -10793.322121300951, -15669.556339926285, 0.004, 0.23800000000000002, 0.9440000000000001, 192.0, 0.0, 0.0, 0.0, 0.0, 0.0, 0.0, 0.0, 0.0, 0.0, 1.644588261797069E9, 0.0, 2022-02-12 01:04:21.797
120.0, -9872.206732297747, -8981.132087842476, -6033.585194776678, -13245.308488048136, -8742.884843693357, -4305.929458848173, -8534.343067925343, -6254.979223606494, -9847.66451688582, -11681.938073866138, -7352.74044903999, -5912.975181695841, -6015.390874790058, -8751.557320542017, -10795.981978891132, -15698.524200740363, 0.004, 0.23800000000000002, 0.9440000000000001, 192.0, 0.0, 0.0, 0.0, 0.0, 0.0, 0.0, 0.0, 0.0, 0.0, 1.644588261805107E9, 0.0, 2022-02-12 01:04:21.805
122.0, -9896.346616309478, -9007.194221877364, -6047.867959483619, -13242.983906624784, -8742.661326248804, -4307.337618748858, -8542.434399418164, -6261.125953331703, -9856.068772801014, -11698.07603336287, -7361.144704955185, -5920.574774810645, -6014.496805011846, -8753.993660687645, -10794.685577712724, -15696.959578628492, 0.004, 0.23800000000000002, 0.9440000000000001, 192.0, 0.0, 0.0, 0.0, 0.0, 0.0, 0.0, 0.0, 0.0, 0.0, 1.64458826181299E9, 0.0, 2022-02-12 01:04:21.812
124.0, -9904.19207861329, -9012.78215799119, -6048.247939139359, -13245.62141247051, -8740.046172147533, -4306.108272803816, -8536.421780159686, -6253.682822428086, -9862.684889159786, -11698.388957785244, -7373.974606272532, -5921.3123823776705, -6018.542470758256, -8761.079163679977, -10801.32404581595, -15682.810924388281, 0.004, 0.23800000000000002, 0.9440000000000001, 192.0, 0.0, 0.0, 0.0, 0.0, 0.0, 0.0, 0.0, 0.0, 0.0, 1.644588261819628E9, 0.0, 2022-02-12 01:04:21.819
126.0, -9903.096843134981, -9009.563506789626, -6048.404401350546, -13252.282232318192, -8741.700201237227, -4305.013037325506, -8538.45578890512, -6250.3747642487015, -9875.447735243766, -11703.395748543233, -7372.946426027588, -5928.330830136637, -6007.947743886441, -8761.615605546905, -10796.429013780238, -15714.43864279254, 0.002, 0.24, 0.9460000000000001, 192.0, 0.0, 8.0, 3.5, 64.0, 14.5, 72.0, 0.0, 0.0, 0.0, 1.644588261827652E9, 0.0, 2022-02-12 01:04:21.827
128.0, -9918.564250298054, -9010.457576567838, -6047.845607739164, -13239.877014145497, -8725.11520685139, -4298.933362833663, -8533.337239424854, -6248.273700269902, -9858.66157515783, -11705.541516010942, -7373.8628475502555, -5931.325963893648, -5993.75438615732, -8757.301718867031, -10792.51745850056, -15675.591310929218, 0.002, 0.24, 0.9460000000000001, 192.0, 0.0, 0.0, 0.0, 0.0, 0.0, 0.0, 0.0, 0.0, 0.0, 1.64458826183593E9, 0.0, 2022-02-12 01:04:21.835
130.0, -9929.024866703137, -9025.992038964278, -6044.448142581957, -13255.120903864015, -8734.63704998935, -4300.587391923355, -8528.621021344785, -6247.401982236145, -9869.390412496377, -11716.806795216418, -7370.666548093146, -5926.6544493024885, -6021.023514392796, -8747.82457921798, -10794.819688179456, -15700.669968208073, 0.002, 0.24, 0.9460000000000001, 192.0, 0.0, 0.0, 0.0, 0.0, 0.0, 0.0, 0.0, 0.0, 0.0, 1.644588261842343E9, 0.0, 2022-02-12 01:04:21.842
132.0, -9971.73905035723, -9052.367097421538, -6057.680375299499, -13252.997488140762, -8728.222099330676, -4300.788557623453, -8532.152596968723, -6252.6099386942315, -9885.19309582628, -11725.3675133428, -7384.837554077811, -5953.431839159946, -6022.029342893284, -8750.327974596974, -10795.46788876866, -15699.39591877412, 0.002, 0.24, 0.9460000000000001, 192.0, 0.0, 0.0, 0.0, 0.0, 0.0, 0.0, 0.0, 0.0, 0.0, 1.644588261857415E9, 0.0, 2022-02-12 01:04:21.857
134.0, -9982.445535951321, -9098.858725888578, -6047.91266297253, -13248.86241541653, -8717.58266896995, -4294.2394964980485, -8516.998114228025, -6244.630365923687, -9889.015244128137, -11726.283934865467, -7397.913324584166, -5951.531940881246, -6013.71449395591, -8754.35128859893, -10792.740975945113, -15679.882845864637, 0.002, 0.24, 0.9460000000000001, 192.0, 0.0, 0.0, 0.0, 0.0, 0.0, 0.0, 0.0, 0.0, 0.0, 1.644588261865294E9, 0.0, 2022-02-12 01:04:21.865
136.0, -10018.767120691195, -9098.724615421846, -6049.656099040044, -13264.419229557423, -8717.180337569755, -4286.930476061163, -8511.499585092019, -6228.201833749036, -9893.396186041378, -11741.326658883889, -7391.900705325688, -5943.619423344067, -6001.823365905687, -8744.136541382855, -10784.828458407934, -15707.286084566842, 0.008, 0.23800000000000002, 0.9480000000000001, 192.0, 0.0, 32.0, 3.5, 56.0, 14.5, 80.0, 0.0, 0.0, 0.0, 1.644588261872065E9, 0.0, 2022-02-12 01:04:21.872
138.0, -10053.255862385735, -9136.856691462599, -6052.226549652404, -13254.405648041446, -8701.53411645104, -4289.031540039961, -8511.901916492214, -6237.723676886997, -9900.682854733808, -11726.507452310021, -7422.120263829263, -5977.996406316329, -5996.347188514136, -8748.338669340452, -10782.41447000676, -15670.428057960042, 0.008, 0.23800000000000002, 0.9480000000000001, 192.0, 0.0, 0.0, 0.0, 0.0, 0.0, 0.0, 0.0, 0.0, 0.0, 1.644588261879855E9, 0.0, 2022-02-12 01:04:21.879
140.0, -10095.813583828638, -9185.985825775364, -6043.7552385038425, -13259.591252755077, -8706.183279297744, -4288.830374339864, -8507.766843767982, -6232.247499495447, -9915.30089560758, -11758.492798625564, -7417.761673660479, -5980.835077862153, -5990.647493678033, -8753.434867076263, -10783.777926418536, -15698.524200740363, 0.008, 0.23800000000000002, 0.9480000000000001, 192.0, 0.0, 0.0, 0.0, 0.0, 0.0, 0.0, 0.0, 0.0, 0.0, 1.644588261887985E9, 0.0, 2022-02-12 01:04:21.887
142.0, -10118.634714917507, -9178.38623266056, -6048.493808328368, -13255.567938753122, -8697.890782104825, -4284.18121149316, -8512.393654870231, -6232.023982050894, -9914.406825829366, -11753.240138678568, -7411.078502068342, -5982.869086607586, -5996.6824646809655, -8749.702125752226, -10780.51457172806, -15694.72440418296, 0.008, 0.23800000000000002, 0.9480000000000001, 192.0, 0.0, 0.0, 0.0, 0.0, 0.0, 0.0, 0.0, 0.0, 0.0, 1.644588261894923E9, 0.0, 2022-02-12 01:04:21.894
144.0, -10108.777595612717, -9176.173409959485, -6047.532683316789, -13259.635956243988, -8694.76153788108, -4281.8566300698085, -8499.273180874967, -6222.345676701746, -9917.111386908458, -11749.887377010273, -7419.259240538984, -5987.89822911003, -5999.6105432046115, -8753.434867076263, -10783.062670595966, -15671.880921349637, 0.008, 0.23800000000000002, 0.9480000000000001, 192.0, 0.0, 0.0, 0.0, 0.0, 0.0, 0.0, 0.0, 0.0, 0.0, 1.644588261902401E9, 0.0, 2022-02-12 01:04:21.902
146.0, -10093.913685549938, -9194.01010203482, -6050.594872307167, -13265.5815202691, -8702.607000184895, -4285.3211504603805, -8504.905820477703, -6225.7207901144975, -9929.695419036796, -11764.438362650677, -7421.539118473425, -5970.106240523606, -5992.2791710232705, -8749.366849585396, -10780.671033939247, -15708.068395622779, 0.01, 0.23800000000000002, 0.9540000000000001, 192.0, 0.0, 40.0, 3.5, 56.0, 14.5, 104.0, 0.0, 0.0, 0.0, 1.644588261909734E9, 0.0, 2022-02-12 01:04:21.909
148.0, -10108.554078168163, -9196.82642183619, -6047.890311228074, -13254.182130596893, -8694.33685473643, -4281.342539947336, -8507.744492023527, -6230.146435516648, -9924.48746257871, -11757.263452680523, -7419.974496361554, -5971.983787057851, -5982.80203137422, -8749.277442607576, -10783.04031885151, -15675.188979529023, 0.01, 0.23800000000000002, 0.9540000000000001, 192.0, 0.0, 0.0, 0.0, 0.0, 0.0, 0.0, 0.0, 0.0, 0.0, 1.644588261917827E9, 0.0, 2022-02-12 01:04:21.917
150.0, -10098.09346176308, -9166.696270310435, -6042.615299536622, -13266.654404002955, -8705.177450797255, -4278.257999212504, -8503.363550110287, -6218.434121422068, -9921.805253244072, -11764.99715626206, -7405.289400254417, -5969.189819000938, -5997.844755392642, -8741.58844251495, -10782.973263618143, -15695.730232683449, 0.01, 0.23800000000000002, 0.9540000000000001, 192.0, 0.0, 0.0, 0.0, 0.0, 0.0, 0.0, 0.0, 0.0, 0.0, 1.644588261924844E9, 0.0, 2022-02-12 01:04:21.924
152.0, -10075.361737652032, -9134.24153736133, -6052.114790930127, -13254.159778852438, -8698.784851883036, -4278.503868401512, -8512.036026958946, -6221.89864181264, -9921.24645963269, -11747.808664775928, -7409.022141578454, -5977.236447004849, -5997.934162370463, -8750.842064719447, -10782.749746173591, -15693.159782071089, 0.01, 0.23800000000000002, 0.9540000000000001, 192.0, 0.0, 0.0, 0.0, 0.0, 0.0, 0.0, 0.0, 0.0, 0.0, 1.644588261932279E9, 0.0, 2022-02-12 01:04:21.932
154.0, -10033.3181063316, -9117.209508086386, -6044.761067004331, -13246.627240970998, -8696.773194882058, -4270.814868308887, -8509.510279835496, -6230.369952961201, -9908.81888971554, -11720.561888284908, -7410.676170668146, -5967.245217233327, -5986.065386064695, -8742.326050081974, -10786.214266564164, -15673.691412650516, 0.01, 0.23800000000000002, 0.9540000000000001, 192.0, 0.0, 0.0, 0.0, 0.0, 0.0, 0.0, 0.0, 0.0, 0.0, 1.64458826194024E9, 0.0, 2022-02-12 01:04:21.940
156.0, -10023.550394004631, -9119.534089509736, -6041.810636736231, -13255.702049219854, -8701.511764706584, -4272.9382840321405, -8503.676474532662, -6235.555557674833, -9902.76156696815, -11736.811606503918, -7394.515859426959, -5953.118914737573, -5987.965284343396, -8727.708009208203, -10784.336720029918, -15707.1072706112, 0.006, 0.232, 0.9540000000000001, 192.0, 0.0, 24.0, 3.5, 32.0, 14.5, 104.0, 0.0, 0.0, 0.0, 1.644588261947375E9, 0.0, 2022-02-12 01:04:21.947
158.0, -10010.966361876293, -9101.56328696767, -6044.179921648493, -13241.285174046181, -8687.631331399838, -4264.310510672392, -8497.932076207648, -6212.80148181933, -9886.645959215875, -11717.298533594434, -7395.298170482894, -5958.6397956180335, -5976.565894671189, -8734.145311611332, -10784.157906074275, -15672.685584150027, 0.006, 0.232, 0.9540000000000001, 192.0, 0.0, 0.0, 0.0, 0.0, 0.0, 0.0, 0.0, 0.0, 0.0, 1.644588261954801E9, 0.0, 2022-02-12 01:04:21.954
160.0, -9980.657396394898, -9071.567245908647, -6039.061372168228, -13253.332764307592, -8697.1531745378, -4265.115173472783, -8499.228477386056, -6211.616839363199, -9885.81894467103, -11708.89427767924, -7390.22432449154, -5949.296766435715, -5990.356921000114, -8733.988849400146, -10784.627292707837, -15689.449392491508, 0.006, 0.232, 0.9540000000000001, 192.0, 0.0, 0.0, 0.0, 0.0, 0.0, 0.0, 0.0, 0.0, 0.0, 1.644588261962804E9, 0.0, 2022-02-12 01:04:21.962
162.0, -10011.88278339896, -9077.311644233661, -6043.174093148004, -13255.366773053023, -8694.470965203163, -4270.166667719683, -8514.49471884903, -6230.906394828128, -9889.283465061602, -11707.083786378358, -7391.118394269753, -5950.727278080854, -5991.876839623075, -8731.664267976794, -10785.878990397334, -15693.472706493463, 0.006, 0.232, 0.9540000000000001, 192.0, 0.0, 0.0, 0.0, 0.0, 0.0, 0.0, 0.0, 0.0, 0.0, 1.644588261976856E9, 0.0, 2022-02-12 01:04:21.976
164.0, -9982.244370251223, -9084.46420245936, -6037.362639589624, -13250.739961950776, -8692.280494246543, -4271.932455531652, -8504.794061755427, -6236.986069319973, -9879.135773078891, -11703.731024710063, -7385.888086067211, -5955.488199649835, -5990.781604144765, -8741.454332048217, -10785.208438063675, -15679.81579063127, 0.006, 0.232, 0.9540000000000001, 192.0, 0.0, 0.0, 0.0, 0.0, 0.0, 0.0, 0.0, 0.0, 0.0, 1.64458826198446E9, 0.0, 2022-02-12 01:04:21.984
166.0, -9970.219131734268, -9053.641146855492, -6039.396648335058, -13261.759371967242, -8699.656569916793, -4269.049080496917, -8506.11281467829, -6225.743141858953, -9887.00358712716, -11710.74947246903, -7375.136896984208, -5931.147149938006, -5987.808822132209, -8734.72645696717, -10785.834286908423, -15715.131546870656, 0.01, 0.23, 0.9440000000000001, 192.0, 0.0, 40.0, 3.5, 24.0, 14.5, 64.0, 0.0, 0.0, 0.0, 1.644588261992541E9, 0.0, 2022-02-12 01:04:21.992
168.0, -9957.992727517216, -9050.98128926531, -6046.862130983131, -13244.794397925663, -8692.48165994664, -4269.384356663747, -8510.270239146977, -6220.982220289972, -9878.62168295642, -11717.253830105523, -7385.172830244641, -5947.978013512852, -5970.642682390533, -8736.782817457059, -10788.494144498605, -15679.234645275432, 0.01, 0.23, 0.9440000000000001, 192.0, 0.0, 0.0, 0.0, 0.0, 0.0, 0.0, 0.0, 0.0, 0.0, 1.644588262000551E9, 0.0, 2022-02-12 01:04:22.000
170.0, -9946.213358189269, -9057.97738527982, -6037.630860523089, -13257.311374820636, -8697.756671638093, -4268.3561764188025, -8508.839727501838, -6223.575022646788, -9880.521581235122, -11715.108062637813, -7375.360414428761, -5931.8177022716645, -5997.844755392642, -8734.145311611332, -10795.534944002027, -15704.358006043198, 0.01, 0.23, 0.9440000000000001, 192.0, 0.0, 0.0, 0.0, 0.0, 0.0, 0.0, 0.0, 0.0, 0.0, 1.64458826200722E9, 0.0, 2022-02-12 01:04:22.007
172.0, -9946.034544233626, -9044.007544995255, -6044.783418748787, -13258.473665532312, -8692.638122157827, -4271.373661920269, -8513.868870004282, -6227.665391882109, -9872.251435786657, -11703.4628037766, -7372.611149860758, -5932.063571460673, -5988.032339576762, -8736.447541290228, -10789.119993343353, -15707.241381077933, 0.01, 0.23, 0.9440000000000001, 192.0, 0.0, 0.0, 0.0, 0.0, 0.0, 0.0, 0.0, 0.0, 0.0, 1.644588262015015E9, 0.0, 2022-02-12 01:04:22.015
174.0, -9944.49227386621, -9015.710236514835, -6035.753313988843, -13252.57280499611, -8685.776136610048, -4269.138487474738, -8508.146823423724, -6227.397170948645, -9871.111496819436, -11699.50654500801, -7372.946426027588, -5945.206397200393, -5981.170354028983, -8737.699238979727, -10788.650606709793, -15685.224912789454, 0.01, 0.23, 0.9440000000000001, 192.0, 0.0, 0.0, 0.0, 0.0, 0.0, 0.0, 0.0, 0.0, 0.0, 1.644588262023173E9, 0.0, 2022-02-12 01:04:22.023
176.0, -9923.369875355946, -9022.192242406874, -6037.139122145071, -13260.351212066558, -8694.828593114447, -4273.474725899068, -8510.292590891433, -6227.5983366487435, -9869.233950285192, -11720.3160190959, -7359.244806676485, -5929.671934803955, -5970.888551579542, -8730.25610807611, -10788.270627054051, -15721.34533182923, 0.012, 0.232, 0.9480000000000001, 192.0, 0.0, 48.0, 3.5, 32.0, 14.5, 80.0, 0.0, 0.0, 0.0, 1.644588262030139E9, 0.0, 2022-02-12 01:04:22.030
178.0, -9927.34848586899, -9012.379826590995, -6039.217834379415, -13238.200633311348, -8680.299959218497, -4265.651615339711, -8518.652143317717, -6236.337868730769, -9859.265072258124, -11681.669852932675, -7366.21855094654, -5936.176292440449, -5964.1606764984945, -8735.732285467659, -10793.299769556495, -15684.442601733519, 0.012, 0.232, 0.9480000000000001, 192.0, 0.0, 0.0, 0.0, 0.0, 0.0, 0.0, 0.0, 0.0, 0.0, 1.6445882620369E9, 0.0, 2022-02-12 01:04:22.036
180.0, -9905.62259025843, -9014.793814992168, -6030.746523230854, -13248.080104360593, -8686.849020343903, -4262.835295538342, -8507.185698412144, -6218.9705632889945, -9865.031822327594, -11692.622207715774, -7358.6636613206465, -5902.2910478462045, -5972.453173691413, -8722.701218450215, -10796.786641691524, -15700.53585774134, 0.012, 0.232, 0.9480000000000001, 192.0, 0.0, 0.0, 0.0, 0.0, 0.0, 0.0, 0.0, 0.0, 0.0, 1.644588262044654E9, 0.0, 2022-02-12 01:04:22.044
182.0, -9898.514735521643, -9002.947390430856, -6033.629898265588, -13249.443560772368, -8681.395194696808, -4263.751717061009, -8509.733797280049, -6227.464226182012, -9856.784028623584, -11697.763108940497, -7345.476132092015, -5909.555364794179, -5978.242275505338, -8717.470910247674, -10791.444574766705, -15699.619436218672, 0.012, 0.232, 0.9480000000000001, 192.0, 0.0, 0.0, 0.0, 0.0, 0.0, 0.0, 0.0, 0.0, 0.0, 1.644588262052817E9, 0.0, 2022-02-12 01:04:22.052
184.0, -9901.219296600735, -8987.100003612042, -6027.19259586246, -13245.509653748233, -8679.092965017911, -4266.70214732911, -8511.566640325385, -6232.426313451089, -9850.391429709367, -11677.043041830426, -7347.107809437252, -5927.12383593605, -5969.078060278662, -8723.975267884167, -10795.154964346286, -15682.63211043264, 0.011, 0.234, 0.9460000000000001, 192.0, 0.0, 40.0, 3.5, 48.0, 14.5, 64.0, 0.0, 0.0, 0.0, 1.64458826205987E9, 0.0, 2022-02-12 01:04:22.059
186.0, -9900.705206478264, -8997.918247928412, -6027.416113307013, -13256.841988187074, -8690.76057562358, -4269.674929341666, -8519.009771229003, -6234.572080918799, -9864.025993827105, -11691.50462049301, -7340.983431456499, -5911.924649706441, -5968.496914922824, -8714.811052657491, -10797.636007980826, -15719.40073006162, 0.011, 0.234, 0.9460000000000001, 192.0, 0.0, 0.0, 0.0, 0.0, 0.0, 0.0, 0.0, 0.0, 0.0, 1.644588262067484E9, 0.0, 2022-02-12 01:04:22.067
188.0, -9911.322285094535, -8986.988244889766, -6031.327668586692, -13250.874072417508, -8683.026872042044, -4270.300778186414, -8526.408198643709, -6240.8082176218295, -9850.726705876197, -11686.4084227572, -7351.198178672574, -5921.804120755687, -5971.8496765911195, -8720.197823071221, -10801.078176626943, -15688.287101779832, 0.011, 0.234, 0.9460000000000001, 192.0, 0.0, 0.0, 0.0, 0.0, 0.0, 0.0, 0.0, 0.0, 0.0, 1.644588262075302E9, 0.0, 2022-02-12 01:04:22.075
190.0, -9873.81605789853, -8981.601474476038, -6030.232433108382, -13254.964441652828, -8688.01131105558, -4263.885827527742, -8528.866890533793, -6231.778112861885, -9857.253415257146, -11680.462858732088, -7343.620937302225, -5909.197736882894, -5949.855560047097, -8713.268782290075, -10804.18506910623, -15708.336616556242, 0.011, 0.234, 0.9460000000000001, 192.0, 0.0, 0.0, 0.0, 0.0, 0.0, 0.0, 0.0, 0.0, 0.0, 1.644588262083494E9, 0.0, 2022-02-12 01:04:22.083
192.0, -9874.643072443376, -8977.533456985171, -6040.223662879904, -13248.996525883262, -8685.083232531933, -4263.327033916358, -8532.219652202088, -6234.28150824088, -9849.720877375708, -11686.520181479476, -7340.089361678286, -5912.774015995743, -5973.101374280617, -8712.218250300677, -10803.358054561384, -15707.375491544664, 0.011, 0.234, 0.9460000000000001, 192.0, 0.0, 0.0, 0.0, 0.0, 0.0, 0.0, 0.0, 0.0, 0.0, 1.644588262090069E9, 0.0, 2022-02-12 01:04:22.090
194.0, -9895.854877931462, -8976.885256395968, -6038.323764601203, -13246.023743870706, -8675.650796371794, -4268.110307229795, -8524.59770734283, -6238.416580965112, -9845.317583718013, -11669.778724882452, -7348.024230959921, -5924.061646945674, -5965.032394532251, -8710.988904355634, -10805.772042962557, -15686.767183156871, 0.0075, 0.234, 0.9480000000000001, 192.0, 0.0, 16.0, 3.5, 40.0, 14.5, 88.0, 0.0, 0.0, 0.0, 1.644588262104989E9, 0.0, 2022-02-12 01:04:22.104
196.0, -9899.3864535554, -9010.055245167643, -6037.630860523089, -13259.323031821614, -8689.24065700062, -4278.056833512406, -8527.995172500036, -6239.75768563243, -9864.361269993935, -11696.578466484365, -7344.135027424697, -5912.2152223843605, -5968.251045733816, -8713.849927645913, -10804.18506910623, -15725.480404553462, 0.0075, 0.234, 0.9480000000000001, 192.0, 0.0, 0.0, 0.0, 0.0, 0.0, 0.0, 0.0, 0.0, 0.0, 1.644588262112021E9, 0.0, 2022-02-12 01:04:22.112
198.0, -9898.335921566, -8980.461535508817, -6037.42969482299, -13244.727342692298, -8673.929712048735, -4269.697281086121, -8520.082654962856, -6233.789769862863, -9858.035726313083, -11686.631940201753, -7341.095190178775, -5910.717655505855, -5961.456115419402, -8717.739131181137, -10804.252124339597, -15690.432869247541, 0.0075, 0.234, 0.9480000000000001, 192.0, 0.0, 0.0, 0.0, 0.0, 0.0, 0.0, 0.0, 0.0, 0.0, 1.644588262119805E9, 0.0, 2022-02-12 01:04:22.119
200.0, -9867.736383406685, -8983.076689610087, -6032.691124998466, -13251.455217773346, -8677.595398139405, -4261.516542615479, -8510.002018213514, -6226.592508148255, -9853.56537742202, -11678.942940109127, -7331.416884829627, -5908.013094426763, -5953.409487415492, -8707.680846176248, -10804.922676673255, -15705.185020588044, 0.0075, 0.234, 0.9480000000000001, 192.0, 0.0, 0.0, 0.0, 0.0, 0.0, 0.0, 0.0, 0.0, 0.0, 1.644588262127718E9, 0.0, 2022-02-12 01:04:22.127
202.0, -9876.922950377817, -8977.0193668627, -6040.447180324457, -13248.258918316236, -8673.81795332646, -4266.232760695549, -8517.467500861585, -6235.175578019092, -9853.43126695529, -11684.93320762315, -7330.8357394737895, -5906.627286270534, -5940.93721400943, -8710.363055510887, -10801.748728960602, -15707.129622355656, 0.0075, 0.234, 0.9480000000000001, 192.0, 0.0, 0.0, 0.0, 0.0, 0.0, 0.0, 0.0, 0.0, 0.0, 1.644588262135942E9, 0.0, 2022-02-12 01:04:22.135
204.0, -9867.244645028668, -8945.838683347545, -6025.5609185172225, -13242.112188591027, -8663.357336921375, -4255.235702423537, -8505.643428044728, -6228.023019793394, -9841.383676693878, -11651.204425240092, -7336.3566203542505, -5907.700170004388, -5961.053784019206, -8713.29113403453, -10802.642798738814, -15683.079145321744, 0.00475, 0.23600000000000002, 0.9480000000000001, 192.0, 0.0, 8.0, 3.5, 56.0, 14.5, 80.0, 0.0, 0.0, 0.0, 1.644588262142265E9, 0.0, 2022-02-12 01:04:22.142
206.0, -9845.116418017915, -8951.314860739096, -6018.386008547069, -13251.946956151362, -8660.630424097828, -4253.671080311666, -8503.005922199001, -6223.619726135698, -9838.120322003404, -11655.227739242047, -7315.9271259221, -5900.949943178885, -5944.312327422182, -8684.345624964908, -10791.019891622054, -15715.422119548575, 0.00475, 0.23600000000000002, 0.9480000000000001, 192.0, 0.0, 0.0, 0.0, 0.0, 0.0, 0.0, 0.0, 0.0, 0.0, 1.644588262150438E9, 0.0, 2022-02-12 01:04:22.150
208.0, -9874.084278831993, -8981.176791331387, -6024.6221452500995, -13244.10149384755, -8650.080400714922, -4254.118115200772, -8504.481137333052, -6227.307763970824, -9828.285554443068, -11678.272387775469, -7319.995143412965, -5904.593277525101, -5936.109237207083, -8699.00836932759, -10790.103470099386, -15687.907122124092, 0.00475, 0.23600000000000002, 0.9480000000000001, 192.0, 0.0, 0.0, 0.0, 0.0, 0.0, 0.0, 0.0, 0.0, 0.0, 1.644588262157154E9, 0.0, 2022-02-12 01:04:22.157
210.0, -9871.066793330527, -8981.377957031484, -6020.487072525868, -13250.024706128206, -8658.663470585761, -4253.626376822755, -8502.938866965636, -6226.033714536872, -9850.23496749818, -11691.571675726376, -7324.890175448678, -5914.718617763355, -5926.810911513676, -8701.042378073023, -10790.952836388688, -15705.140317099133, 0.00475, 0.23600000000000002, 0.9480000000000001, 192.0, 0.0, 0.0, 0.0, 0.0, 0.0, 0.0, 0.0, 0.0, 0.0, 1.644588262164551E9, 0.0, 2022-02-12 01:04:22.164
212.0, -9854.012412311127, -8948.230320004264, -6023.5716132607, -13248.23656657178, -8658.216435696655, -4251.45825761059, -8504.905820477703, -6221.004572034428, -9842.14363600536, -11689.247094303024, -7319.883384690689, -5900.905239689975, -5957.477504906357, -8696.996712326612, -10790.103470099386, -15707.531953755852, 0.00475, 0.23600000000000002, 0.9480000000000001, 192.0, 0.0, 0.0, 0.0, 0.0, 0.0, 0.0, 0.0, 0.0, 0.0, 1.644588262171956E9, 0.0, 2022-02-12 01:04:22.171
214.0, -9849.966746564716, -8944.788151358147, -6012.6192584776, -13237.261860044226, -8647.778171036027, -4246.250301152504, -8493.104099405302, -6222.680952868575, -9833.225289967691, -11662.290890489923, -7328.578213283803, -5900.927591434431, -5948.469751890869, -8702.29407576252, -10789.723490443646, -15681.179247043045, 0.004375, 0.238, 0.9460000000000001, 192.0, 0.0, 16.0, 3.5, 64.0, 14.5, 64.0, 0.0, 0.0, 0.0, 1.644588262179932E9, 0.0, 2022-02-12 01:04:22.179
216.0, -9858.527464691098, -8958.57917768707, -6011.747540443843, -13248.325973549603, -8664.0949444884, -4246.004431963495, -8511.074901947368, -6234.169749518604, -9836.823920824996, -11667.051812058904, -7314.921297421611, -5893.618570997545, -5943.753533810799, -8698.58368618294, -10790.70696719968, -15716.450299793518, 0.004375, 0.238, 0.9460000000000001, 192.0, 0.0, 0.0, 0.0, 0.0, 0.0, 0.0, 0.0, 0.0, 0.0, 1.644588262188474E9, 0.0, 2022-02-12 01:04:22.188
218.0, -9871.290310775079, -8955.91932009689, -6019.14596785855, -13239.4746827453, -8649.253386170076, -4248.84310350932, -8504.190564655133, -6213.203813219526, -9838.992040037161, -11660.145123022214, -7322.297373091862, -5909.98004793883, -5949.520283880268, -8696.639084415327, -10791.936313144723, -15683.593235444217, 0.004375, 0.238, 0.9460000000000001, 192.0, 0.0, 0.0, 0.0, 0.0, 0.0, 0.0, 0.0, 0.0, 0.0, 1.64458826219473E9, 0.0, 2022-02-12 01:04:22.194
220.0, -9854.012412311127, -8959.585006187559, -6012.306334055225, -13245.174377581405, -8652.695554816193, -4257.515580357978, -8495.696901762116, -6231.33107797278, -9830.94541203325, -11651.986736296027, -7312.5296607648925, -5900.279390845227, -5927.79438826971, -8699.678921661249, -10791.310464299973, -15706.794346188826, 0.004375, 0.238, 0.9460000000000001, 192.0, 0.0, 0.0, 0.0, 0.0, 0.0, 0.0, 0.0, 0.0, 0.0, 1.644588262202523E9, 0.0, 2022-02-12 01:04:22.202
222.0, -9841.450731927245, -8949.8619973495, -6012.038113121762, -13240.10053159005, -8647.08526695791, -4248.574882575856, -8497.708558763094, -6214.477862653478, -9835.795740580052, -11693.896257149729, -7318.721093979013, -5896.837222199109, -5953.588301371134, -8695.834421614936, -10790.505801499583, -15708.090747367234, 0.004375, 0.238, 0.9460000000000001, 192.0, 0.0, 0.0, 0.0, 0.0, 0.0, 0.0, 0.0, 0.0, 0.0, 1.644588262210535E9, 0.0, 2022-02-12 01:04:22.210
224.0, -9849.765580864618, -8937.456779176806, -6006.740749685854, -13238.558261222634, -8640.022115710035, -4243.478684840046, -8494.959294195092, -6214.5672696312995, -9841.651897627342, -11674.316129006878, -7318.072893389809, -5893.707977975367, -5935.684554062433, -8690.470002945662, -10793.18801083422, -15680.575749942751, 0.0051875, 0.239, 0.9450000000000001, 192.0, 0.0, 24.0, 3.5, 64.0, 14.5, 64.0, 0.0, 0.0, 0.0, 1.644588262224137E9, 0.0, 2022-02-12 01:04:22.224
226.0, -9859.086258302481, -8956.299299752629, -6007.612467719611, -13246.76135143773, -8646.414714624252, -4246.943205230618, -8492.522954049464, -6213.472034152989, -9850.637298898375, -11673.042079572926, -7312.239088086973, -5893.126832619529, -5933.136455194528, -8694.269799503065, -10792.495106756105, -15718.260791094399, 0.0051875, 0.239, 0.9450000000000001, 192.0, 0.0, 0.0, 0.0, 0.0, 0.0, 0.0, 0.0, 0.0, 0.0, 1.644588262232138E9, 0.0, 2022-02-12 01:04:22.232
228.0, -9861.880226359395, -8947.336250226052, -6009.914697398508, -13237.95476412234, -8634.501234829573, -4245.870321496764, -8493.126451149756, -6218.724694099987, -9840.89193831586, -11687.056623346403, -7312.373198553705, -5903.386283324514, -5917.6690480314555, -8691.252314001598, -10791.735147444624, -15688.041232590824, 0.0051875, 0.239, 0.9450000000000001, 192.0, 0.0, 0.0, 0.0, 0.0, 0.0, 0.0, 0.0, 0.0, 0.0, 1.64458826224017E9, 0.0, 2022-02-12 01:04:22.240
230.0, -9841.987173794172, -8956.992203830743, -5998.3811972595695, -13246.426075270901, -8642.145531433289, -4244.3504028738025, -8493.618189527773, -6220.177557489581, -9837.315659203012, -11680.328748265356, -7309.623933985703, -5889.036463384207, -5943.753533810799, -8695.432090214741, -10794.685577712724, -15710.571791001772, 0.0051875, 0.239, 0.9450000000000001, 192.0, 0.0, 0.0, 0.0, 0.0, 0.0, 0.0, 0.0, 0.0, 0.0, 1.644588262247313E9, 0.0, 2022-02-12 01:04:22.247
232.0, -9852.313679732524, -8958.82504687608, -6009.422959020491, -13252.57280499611, -8639.195101165187, -4247.859626753286, -8495.629846528751, -6220.289316211858, -9838.23208072568, -11691.281103048457, -7309.467471774516, -5897.954809421874, -5932.018867971763, -8688.72656687815, -10792.942141645211, -15713.768090458881, 0.0051875, 0.239, 0.9450000000000001, 192.0, 0.0, 0.0, 0.0, 0.0, 0.0, 0.0, 0.0, 0.0, 0.0, 1.644588262256155E9, 0.0, 2022-02-12 01:04:22.256
234.0, -9850.592595409466, -8941.703610623314, -6006.785453174764, -13247.655421215943, -8633.42835109572, -4248.798400020409, -8495.58514303984, -6227.1289500151815, -9841.89776681635, -11673.399707484212, -7318.8775561902, -5907.521356048746, -5933.941117994919, -8697.823726871458, -10797.077214369443, -15697.160744328588, 0.00759375, 0.2365, 0.9445000000000001, 192.0, 0.0, 40.0, 3.5, 40.0, 14.5, 64.0, 0.0, 0.0, 0.0, 1.644588262262959E9, 0.0, 2022-02-12 01:04:22.262
236.0, -9847.798627352551, -8946.397476958928, -6009.981752631874, -13260.686488233387, -8643.33017388942, -4254.408687878691, -8495.026349428457, -6220.110502256215, -9849.050325042048, -11667.431791714644, -7303.946590894055, -5900.637018756512, -5935.192815684416, -8695.834421614936, -10794.596170734903, -15731.157747645111, 0.00759375, 0.2365, 0.9445000000000001, 192.0, 0.0, 0.0, 0.0, 0.0, 0.0, 0.0, 0.0, 0.0, 0.0, 1.644588262270983E9, 0.0, 2022-02-12 01:04:22.270
238.0, -9869.14454330737, -8964.97177660129, -6015.502633512335, -13245.710819448332, -8629.315630115942, -4246.004431963495, -8493.864058716781, -6222.166862746104, -9845.18347325128, -11672.997376084015, -7310.808576441834, -5903.565097280157, -5916.506757319779, -8704.14927055231, -10795.534944002027, -15698.792421673827, 0.00759375, 0.2365, 0.9445000000000001, 192.0, 0.0, 0.0, 0.0, 0.0, 0.0, 0.0, 0.0, 0.0, 0.0, 1.644588262277041E9, 0.0, 2022-02-12 01:04:22.277
240.0, -9832.46533065621, -8935.467473920284, -6006.070197352195, -13251.276403817703, -8635.261194141054, -4241.131751672238, -8485.862134201781, -6216.266002209903, -9846.099894773948, -11692.622207715774, -7310.383893297183, -5890.981065151819, -5941.808932043187, -8693.375729724852, -10794.640874223815, -15709.118927612179, 0.00759375, 0.2365, 0.9445000000000001, 192.0, 0.0, 0.0, 0.0, 0.0, 0.0, 0.0, 0.0, 0.0, 0.0, 1.644588262284596E9, 0.0, 2022-02-12 01:04:22.284
242.0, -9842.322449961, -8941.927128067868, -6014.206232333927, -13255.09855211956, -8628.958002204658, -4237.108437670283, -8488.186715625134, -6215.70720859852, -9841.629545882886, -11692.309283293402, -7309.3557130522395, -5897.999512910786, -5933.717600550366, -8691.341720979419, -10786.124859586342, -15712.516392769385, 0.00759375, 0.2365, 0.9445000000000001, 192.0, 0.0, 0.0, 0.0, 0.0, 0.0, 0.0, 0.0, 0.0, 0.0, 1.644588262292637E9, 0.0, 2022-02-12 01:04:22.292
244.0, -9841.09310401596, -8936.763875098692, -6008.886517153564, -13252.639860229476, -8622.408941079253, -4239.209501649082, -8484.342215578821, -6217.584755132765, -9834.901670801839, -11670.426925471655, -7319.816329457322, -5910.807062483676, -5925.201585912894, -8688.994787811613, -10787.667129953757, -15687.594197701717, 0.005796875, 0.23525000000000001, 0.94225, 192.0, 0.0, 16.0, 3.5, 40.0, 14.5, 48.0, 0.0, 0.0, 0.0, 1.644588262299483E9, 0.0, 2022-02-12 01:04:22.299
