%OpenBCI Raw EEG Data
%Number of channels = 16
%Sample Rate = 125 Hz
%Board = OpenBCI_GUI$BoardCytonSerialDaisy
Sample Index, EXG Channel 0, EXG Channel 1, EXG Channel 2, EXG Channel 3, EXG Channel 4, EXG Channel 5, EXG Channel 6, EXG Channel 7, EXG Channel 8, EXG Channel 9, EXG Channel 10, EXG Channel 11, EXG Channel 12, EXG Channel 13, EXG Channel 14, EXG Channel 15, Accel Channel 0, Accel Channel 1, Accel Channel 2, Other, Other, Other, Other, Other, Other, Other, Analog Channel 0, Analog Channel 1, Analog Channel 2, Timestamp, Other, Timestamp (Formatted)
0.0, -10778.435859493717, -10083.408365655943, -5758.837551932043, -13591.201733494012, -8203.649008709075, -4773.237380175278, -8106.776548239774, -5842.500131428258, 0.0, 0.0, 0.0, 0.0, 0.0, 0.0, 0.0, 0.0, 0.004, 0.12, 0.47200000000000003, 192.0, 0.0, 32.0, 3.5, 64.0, 14.5, 64.0, 0.0, 0.0, 0.0, 1.644588512330918E9, 0.0, 2022-02-12 01:08:32.330
222.0, -10785.096679341397, -10074.042984729169, -5751.506179750702, -13590.531181160353, -8200.3856540186, -4767.783554528183, -8103.26732436029, -5837.180416247895, -9134.24153736133, -12064.398773240897, -8482.665834744672, -7418.812205649878, -6172.456583077501, -9093.337845008116, -10800.787603949024, -15661.107380522179, 0.004, 0.12, 0.47200000000000003, 192.0, 0.0, 0.0, 0.0, 0.0, 0.0, 0.0, 0.0, 0.0, 0.0, 1.644588512330924E9, 0.0, 2022-02-12 01:08:32.330
0.0, -5017.921926727525, -4663.6914805998185, -2740.905015576484, -6653.264958055611, -3931.8953671330655, -1958.392793940639, -3903.419244697004, -2669.3794333195015, -4570.976444599205, -6044.2246251374045, -4234.046248679906, -3705.3604370785283, -3083.557258076341, -4543.819075086007, -5400.740254013569, -7837.5497862756, 0.006, 0.242, 0.9480000000000001, 192.0, 0.0, 24.0, 3.5, 72.0, 14.5, 80.0, 0.0, 0.0, 0.0, 1.6445885124494E9, 0.0, 2022-02-12 01:08:32.449
2.0, -10042.616432025008, -9325.058379776285, -5478.725490418135, -13309.569753357144, -7855.878216728952, -3909.5436226777583, -7791.795765375587, -5332.969764825078, -9666.458924586645, -11893.16205896879, -7602.0294549500295, -5962.797220086721, -5855.933529845897, -8509.197355413122, -10401.049006110312, -15029.961172337673, 0.006, 0.242, 0.9480000000000001, 192.0, 0.0, 0.0, 0.0, 0.0, 0.0, 0.0, 0.0, 0.0, 0.0, 1.644588512455799E9, 0.0, 2022-02-12 01:08:32.455
4.0, -10026.143196361447, -9314.374245926649, -5470.567103691948, -13320.902087795985, -7869.5574843356, -3912.225832012395, -7798.166012545349, -5338.267128260985, -9678.461811359146, -11925.505033195619, -7580.527076784025, -5963.89245556503, -5839.907329071442, -8502.000093698513, -10401.54074448833, -15084.834704975452, 0.006, 0.242, 0.9480000000000001, 192.0, 0.0, 0.0, 0.0, 0.0, 0.0, 0.0, 0.0, 0.0, 0.0, 1.644588512462364E9, 0.0, 2022-02-12 01:08:32.462
6.0, -10000.729262915762, -9290.681396804022, -5474.70217641618, -13310.530878368721, -7855.02885043965, -3906.2579162428283, -7801.407015491369, -5340.167026539687, -9649.24808135606, -11901.4098526728, -7577.107259882362, -5959.243292718326, -5848.870378598021, -8502.201259398611, -10406.01109337939, -15052.6034894709, 0.007, 0.241, 0.9480000000000001, 192.0, 0.0, 32.0, 3.5, 64.0, 14.5, 80.0, 0.0, 0.0, 0.0, 1.644588512468331E9, 0.0, 2022-02-12 01:08:32.468
8.0, -10017.493071257242, -9316.229440716439, -5476.758536906068, -13324.903050053485, -7866.361184878491, -3914.7068756469343, -7799.462413723757, -5345.598500442326, -9664.939005963684, -11903.73443409615, -7580.616483761845, -5961.478467163857, -5853.720707144822, -8505.934000722647, -10402.591276477728, -15060.895986663818, 0.007, 0.241, 0.9480000000000001, 192.0, 0.0, 0.0, 0.0, 0.0, 0.0, 0.0, 0.0, 0.0, 0.0, 1.644588512475045E9, 0.0, 2022-02-12 01:08:32.475
10.0, -10022.74573120424, -9309.188641213017, -5487.196801566697, -13327.115872754559, -7863.477809843756, -3916.9196983480097, -7803.061044581062, -5343.63154693026, -9674.773773524019, -11937.55262345703, -7592.038225178508, -5971.894380080031, -5848.244529753271, -8512.505413592507, -10404.155898589599, -15092.188428901247, 0.007, 0.241, 0.9480000000000001, 192.0, 0.0, 0.0, 0.0, 0.0, 0.0, 0.0, 0.0, 0.0, 0.0, 1.644588512480979E9, 0.0, 2022-02-12 01:08:32.480
12.0, -10036.17912962188, -9316.944696539009, -5481.318292774951, -13318.4433959059, -7860.79560050912, -3913.455177957437, -7802.658713180866, -5343.788009141446, -9669.141133921283, -11923.135748283357, -7590.02656817753, -5979.181048772461, -5858.593387436079, -8517.40044562822, -10408.223916080466, -15042.522852721555, 0.007, 0.241, 0.9480000000000001, 192.0, 0.0, 0.0, 0.0, 0.0, 0.0, 0.0, 0.0, 0.0, 0.0, 1.64458851248827E9, 0.0, 2022-02-12 01:08:32.488
14.0, -10016.755463690217, -9311.647333103101, -5478.569028206948, -13331.519166412256, -7865.377708122458, -3914.483358202381, -7796.310817755559, -5346.671384176181, -9676.204285169159, -11928.969553586192, -7584.349225085882, -5966.485257921846, -5849.473875698313, -8507.140994923235, -10404.602933478705, -15093.484830079655, 0.007, 0.241, 0.9480000000000001, 192.0, 0.0, 0.0, 0.0, 0.0, 0.0, 0.0, 0.0, 0.0, 0.0, 1.644588512496177E9, 0.0, 2022-02-12 01:08:32.496
16.0, -10010.02758860917, -9306.238210944917, -5487.465022500161, -13320.902087795985, -7852.346641105014, -3908.6048494106353, -7796.914314855852, -5342.53631145195, -9668.850561243364, -11924.767425628594, -7594.653379279778, -5979.449269705924, -5841.2484337387605, -8512.773634525971, -10404.11119510069, -15059.443123274223, 0.0075, 0.2385, 0.9470000000000001, 192.0, 0.0, 32.0, 3.5, 48.0, 14.5, 72.0, 0.0, 0.0, 0.0, 1.644588512504402E9, 0.0, 2022-02-12 01:08:32.504
18.0, -9999.209344292802, -9286.501620590881, -5480.312464274462, -13337.978820559838, -7864.12601043296, -3909.387160466571, -7792.868649109441, -5338.8482736168235, -9664.402564096757, -11885.003672242603, -7602.700007283689, -5991.273342522782, -5866.505904973257, -8514.092387448834, -10400.020825865367, -15063.153512853803, 0.0075, 0.2385, 0.9470000000000001, 192.0, 0.0, 0.0, 0.0, 0.0, 0.0, 0.0, 0.0, 0.0, 0.0, 1.644588512510751E9, 0.0, 2022-02-12 01:08:32.510
20.0, -10023.46098702681, -9305.567658611257, -5491.890667902311, -13332.010904790272, -7863.723679032765, -3920.8536053721436, -7803.888059125908, -5355.723840680581, -9673.00798571205, -11935.988001345158, -7607.527984086036, -5992.23446753436, -5867.891713129487, -8517.758073539504, -10403.798270678315, -15097.239923148147, 0.0075, 0.2385, 0.9470000000000001, 192.0, 0.0, 0.0, 0.0, 0.0, 0.0, 0.0, 0.0, 0.0, 0.0, 1.64458851251878E9, 0.0, 2022-02-12 01:08:32.518
22.0, -10027.283135328667, -9323.404350686593, -5480.647740441292, -13324.098387253092, -7857.196969651815, -3914.840986113666, -7797.16018404486, -5356.148523825232, -9678.193590425682, -11924.298038995033, -7592.2840943675155, -5968.5639701561895, -5845.7634861187325, -8514.360608382298, -10407.218087579977, -15048.557823724488, 0.0075, 0.2385, 0.9470000000000001, 192.0, 0.0, 0.0, 0.0, 0.0, 0.0, 0.0, 0.0, 0.0, 0.0, 1.644588512526761E9, 0.0, 2022-02-12 01:08:32.526
24.0, -10017.828347424072, -9313.971914526453, -5485.27455154354, -13338.470558937855, -7871.345623892024, -3915.6456489140573, -7800.468242224246, -5344.413857986196, -9683.982692239606, -11941.061847336514, -7579.476544794625, -5964.585359643145, -5863.846047383076, -8510.180832169155, -10405.497003256918, -15098.715138282198, 0.0075, 0.2385, 0.9470000000000001, 192.0, 0.0, 0.0, 0.0, 0.0, 0.0, 0.0, 0.0, 0.0, 0.0, 1.644588512534837E9, 0.0, 2022-02-12 01:08:32.534
26.0, -10023.93037366037, -9306.238210944917, -5486.570952721948, -13325.663009364964, -7858.471019085768, -3914.3492477356494, -7805.8326608935195, -5352.281672034464, -9674.863180501841, -11926.17558552928, -7590.719472255644, -5982.891438352041, -5855.352384490059, -8512.795986270427, -10408.045102124823, -15065.947480910718, 0.00675, 0.23625000000000002, 0.9455, 192.0, 0.0, 24.0, 3.5, 40.0, 14.5, 64.0, 0.0, 0.0, 0.0, 1.64458851254194E9, 0.0, 2022-02-12 01:08:32.541
28.0, -10010.832251409562, -9305.142975466606, -5481.742975919602, -13333.553175157687, -7864.282472644148, -3912.650515157046, -7797.473108467235, -5348.079544076865, -9663.597901296365, -11923.40396921682, -7584.751556486078, -5965.2782637212595, -5843.818884351121, -8514.472367104574, -10409.989703892436, -15071.468361791178, 0.00675, 0.23625000000000002, 0.9455, 192.0, 0.0, 0.0, 0.0, 0.0, 0.0, 0.0, 0.0, 0.0, 0.0, 1.644588512556375E9, 0.0, 2022-02-12 01:08:32.556
30.0, -10012.151004332425, -9309.03217900183, -5485.0063306100765, -13341.376285717046, -7859.298033630614, -3918.6407826710683, -7803.530431214623, -5356.841427903346, -9675.064346201938, -11938.580803701974, -7584.25981810806, -5965.5688363991785, -5840.82375059411, -8507.833899001349, -10408.246267824921, -15100.972664472183, 0.00675, 0.23625000000000002, 0.9455, 192.0, 0.0, 0.0, 0.0, 0.0, 0.0, 0.0, 0.0, 0.0, 0.0, 1.644588512563256E9, 0.0, 2022-02-12 01:08:32.563
32.0, -10016.800167179128, -9296.537553851313, -5484.045205598499, -13335.341314714113, -7857.912225474385, -3915.511538447325, -7803.530431214623, -5358.227236059575, -9670.370479866324, -11910.708178366207, -7602.320027627949, -5985.752461642321, -5860.135657803495, -8514.248849660022, -10412.738968460437, -15056.962079639683, 0.00675, 0.23625000000000002, 0.9455, 192.0, 0.0, 0.0, 0.0, 0.0, 0.0, 0.0, 0.0, 0.0, 0.0, 1.64458851257118E9, 0.0, 2022-02-12 01:08:32.571
34.0, -10021.583440492564, -9297.006940484875, -5483.642874198303, -13351.345163744112, -7866.137667433938, -3913.544584935258, -7802.345788758492, -5360.529465738472, -9684.854410273363, -11904.337931196444, -7594.228696135127, -5966.753478855309, -5853.4524862113585, -8505.710483278095, -10408.849764925215, -15107.745243042142, 0.00675, 0.23625000000000002, 0.9455, 192.0, 0.0, 0.0, 0.0, 0.0, 0.0, 0.0, 0.0, 0.0, 0.0, 1.64458851257909E9, 0.0, 2022-02-12 01:08:32.579
36.0, -10032.17816736438, -9319.93983029602, -5488.984941123122, -13341.130416528036, -7862.539036576633, -3920.160701294029, -7811.062969096061, -5367.391451286251, -9675.10904969085, -11913.2115737452, -7583.052823907474, -5971.782621357754, -5846.031707052196, -8509.44322460213, -10412.448395782518, -15081.37018458488, 0.0063750000000000005, 0.23612500000000003, 0.9437500000000001, 192.0, 0.0, 24.0, 3.5, 48.0, 14.5, 56.0, 0.0, 0.0, 0.0, 1.644588512586225E9, 0.0, 2022-02-12 01:08:32.586
38.0, -10006.898344385427, -9310.060359246774, -5484.55929572097, -13344.080846796138, -7866.808219767598, -3916.3385529921716, -7798.92597185683, -5357.824904659379, -9677.67950030321, -11922.196975016233, -7585.958550686664, -5978.108165038606, -5853.385430977993, -8517.869832261782, -10414.840032439237, -15082.42071657428, 0.0063750000000000005, 0.23612500000000003, 0.9437500000000001, 192.0, 0.0, 0.0, 0.0, 0.0, 0.0, 0.0, 0.0, 0.0, 0.0, 1.644588512593587E9, 0.0, 2022-02-12 01:08:32.593
40.0, -10013.3132950441, -9315.491833149414, -5494.282304559029, -13345.958393330384, -7859.253330141703, -3912.0917215456634, -7796.266114266648, -5352.102858078821, -9681.926331749717, -11945.822768905493, -7592.999350190085, -5987.026511076273, -5843.237738995283, -8508.459747846096, -10413.454224283007, -15105.577123829977, 0.0063750000000000005, 0.23612500000000003, 0.9437500000000001, 192.0, 0.0, 0.0, 0.0, 0.0, 0.0, 0.0, 0.0, 0.0, 0.0, 1.644588512601762E9, 0.0, 2022-02-12 01:08:32.601
42.0, -10030.010048152215, -9307.333446423227, -5494.37171153685, -13345.198434018903, -7852.927786460851, -3905.29679123125, -7789.3370734855025, -5357.847256403835, -9681.814573027441, -11923.895707594838, -7601.269495638549, -5985.059557564206, -5845.651727396456, -8509.823204257871, -10411.531974259851, -15052.245861559613, 0.0063750000000000005, 0.23612500000000003, 0.9437500000000001, 192.0, 0.0, 0.0, 0.0, 0.0, 0.0, 0.0, 0.0, 0.0, 0.0, 1.644588512608546E9, 0.0, 2022-02-12 01:08:32.608
44.0, -10027.350190562032, -9327.762940855377, -5492.874144658344, -13360.487027226332, -7867.255254656703, -3905.2297359978843, -7791.505192697668, -5350.784105155958, -9691.716395821142, -11929.237774519655, -7590.205382133172, -5980.298635995226, -5850.703221643355, -8499.519050063975, -10408.872116669669, -15104.727757540675, 0.0063750000000000005, 0.23612500000000003, 0.9437500000000001, 192.0, 0.0, 0.0, 0.0, 0.0, 0.0, 0.0, 0.0, 0.0, 0.0, 1.644588512616054E9, 0.0, 2022-02-12 01:08:32.616
46.0, -10026.254955083723, -9333.686153136034, -5502.016008140566, -13353.423875978457, -7851.229053882248, -3908.8507185996436, -7781.223390248227, -5356.1038203363205, -9690.554105109466, -11919.894745337337, -7611.283077154527, -5994.022607090785, -5849.540930931679, -8515.411140371698, -10412.291933571332, -15074.351736825913, 0.0041875, 0.2330625, 0.9448750000000001, 192.0, 0.0, 8.0, 3.5, 24.0, 14.5, 72.0, 0.0, 0.0, 0.0, 1.644588512623303E9, 0.0, 2022-02-12 01:08:32.623
48.0, -10021.60579223702, -9312.27318194785, -5491.46598475766, -13359.481198725844, -7863.4107546103905, -3910.236526755873, -7779.144678013883, -5342.625718429771, -9690.643512087288, -11930.087140808957, -7613.451196366692, -5996.928333869974, -5854.547721689668, -8508.415044357187, -10411.219049837477, -15078.799733972519, 0.0041875, 0.2330625, 0.9448750000000001, 192.0, 0.0, 0.0, 0.0, 0.0, 0.0, 0.0, 0.0, 0.0, 0.0, 1.644588512631397E9, 0.0, 2022-02-12 01:08:32.631
50.0, -10046.058600671126, -9339.721124138967, -5500.250220328596, -13359.794123148218, -7866.003556967206, -3914.9527448359427, -7794.790899132598, -5357.199055814631, -9697.483145890612, -11950.918966641304, -7592.664074023256, -5995.721339669388, -5844.131808773495, -8504.2576198885, -10413.655389983105, -15106.56060058601, 0.0041875, 0.2330625, 0.9448750000000001, 192.0, 0.0, 0.0, 0.0, 0.0, 0.0, 0.0, 0.0, 0.0, 0.0, 1.644588512639318E9, 0.0, 2022-02-12 01:08:32.639
52.0, -10039.666001756907, -9332.568565913269, -5497.344493549406, -13349.44526546541, -7861.846132498519, -3911.0858930451745, -7792.980407831718, -5354.740363924547, -9694.219791200137, -11934.378675744376, -7598.877858981831, -5989.552258199723, -5854.1006868005625, -8514.651181060217, -10421.366741820186, -15058.616108729377, 0.0041875, 0.2330625, 0.9448750000000001, 192.0, 0.0, 0.0, 0.0, 0.0, 0.0, 0.0, 0.0, 0.0, 0.0, 1.644588512646053E9, 0.0, 2022-02-12 01:08:32.646
54.0, -10019.907059658415, -9312.74256858141, -5497.3891970383165, -13361.69402142692, -7869.333966891047, -3912.6952186459566, -7792.466317709246, -5359.836561660357, -9699.628913358321, -11934.132806555368, -7596.106242669373, -5994.246124535337, -5850.703221643355, -8511.007846714003, -10415.979971406457, -15108.348740142435, 0.0041875, 0.2330625, 0.9448750000000001, 192.0, 0.0, 0.0, 0.0, 0.0, 0.0, 0.0, 0.0, 0.0, 0.0, 1.644588512654011E9, 0.0, 2022-02-12 01:08:32.654
56.0, -10031.999353408737, -9333.79791185831, -5505.033493642031, -13350.808721877185, -7861.466152842779, -3911.8011488677444, -7800.758814902165, -5361.624701216781, -9695.180916211715, -11934.2669170221, -7618.502690613591, -5993.307351268215, -5856.782896135199, -8511.141957180735, -10420.293858086332, -15077.79390547203, 0.00409375, 0.23253125000000002, 0.9444375, 192.0, 0.0, 16.0, 3.5, 32.0, 14.5, 64.0, 0.0, 0.0, 0.0, 1.64458851266207E9, 0.0, 2022-02-12 01:08:32.662
58.0, -10040.537719790664, -9330.691019379023, -5489.789603923512, -13360.084695826137, -7866.8752750009635, -3909.364808722116, -7796.333169500014, -5362.161143083709, -9702.355826181869, -11932.478777465676, -7607.818556763954, -5991.921543111986, -5857.118172302029, -8506.269276889478, -10419.623305752672, -15076.296338593524, 0.00409375, 0.23253125000000002, 0.9444375, 192.0, 0.0, 0.0, 0.0, 0.0, 0.0, 0.0, 0.0, 0.0, 0.0, 1.644588512675665E9, 0.0, 2022-02-12 01:08:32.675
60.0, -10042.996411680748, -9318.263449461872, -5500.406682539783, -13370.522960486765, -7865.51181858919, -3912.7622738793225, -7800.557649202067, -5364.530427995972, -9705.485070405612, -11943.3193735265, -7599.12372817084, -5995.6766361804775, -5854.167742033928, -8504.704654777606, -10417.857517940703, -15111.098004710437, 0.00409375, 0.23253125000000002, 0.9444375, 192.0, 0.0, 0.0, 0.0, 0.0, 0.0, 0.0, 0.0, 0.0, 0.0, 1.644588512683639E9, 0.0, 2022-02-12 01:08:32.683
62.0, -10030.546490019142, -9312.697865092501, -5501.188993595719, -13357.827169636152, -7851.161998648882, -3905.4085499535267, -7782.653901893366, -5349.264186532997, -9698.466622646645, -11925.259164006611, -7614.233507422628, -6002.918601383996, -5834.118227257518, -8519.412102629198, -10418.796291207826, -15058.571405240466, 0.00409375, 0.23253125000000002, 0.9444375, 192.0, 0.0, 0.0, 0.0, 0.0, 0.0, 0.0, 0.0, 0.0, 0.0, 1.644588512691816E9, 0.0, 2022-02-12 01:08:32.691
64.0, -10040.068333157104, -9353.646260934624, -5496.4504237711935, -13365.627928451053, -7870.630368069455, -3911.2200035119063, -7801.764643402654, -5363.882227406768, -9710.178936741226, -11957.780952189083, -7601.895344483298, -5987.965284343396, -5864.002509594263, -8505.486965833541, -10417.142262118134, -15109.667493065297, 0.00409375, 0.23253125000000002, 0.9444375, 192.0, 0.0, 0.0, 0.0, 0.0, 0.0, 0.0, 0.0, 0.0, 0.0, 1.644588512698513E9, 0.0, 2022-02-12 01:08:32.698
66.0, -10040.023629668192, -9350.85229287771, -5498.462080772171, -13361.045820837715, -7846.445780568813, -3911.555279678736, -7782.273922237626, -5364.150448340231, -9700.321817436436, -11955.992812632658, -7608.064425952963, -5994.402586746524, -5850.479704198802, -8504.816413499882, -10422.752549976416, -15080.409059573301, 0.005046875, 0.23226562500000003, 0.9462187500000001, 192.0, 0.0, 24.0, 3.5, 32.0, 14.5, 80.0, 0.0, 0.0, 0.0, 1.644588512706295E9, 0.0, 2022-02-12 01:08:32.706
68.0, -10020.532908503164, -9325.237193731928, -5490.236638812618, -13375.105068100103, -7857.353431863003, -3915.0868553026744, -7781.312797226048, -5360.417707016195, -9704.00985527156, -11946.806245661528, -7604.354036373382, -6002.7844909172645, -5845.718782629822, -8507.699788534617, -10418.237497596443, -15078.643271761332, 0.005046875, 0.23226562500000003, 0.9462187500000001, 192.0, 0.0, 0.0, 0.0, 0.0, 0.0, 0.0, 0.0, 0.0, 0.0, 1.644588512714737E9, 0.0, 2022-02-12 01:08:32.714
70.0, -10045.969193693303, -9337.79887411581, -5506.799281454001, -13380.98357689185, -7869.155152935405, -3925.323954263205, -7801.742291658198, -5370.565398998904, -9713.755215854075, -11961.60310049094, -7614.814652778466, -6005.891383396553, -5856.000585079263, -8509.085596690846, -10423.73602673245, -15116.551830357532, 0.005046875, 0.23226562500000003, 0.9462187500000001, 192.0, 0.0, 0.0, 0.0, 0.0, 0.0, 0.0, 0.0, 0.0, 0.0, 1.64458851272147E9, 0.0, 2022-02-12 01:08:32.721
72.0, -10057.03330719868, -9321.437397174526, -5503.960609908177, -13373.428687265956, -7859.946234219818, -3917.813768126222, -7796.959018344763, -5361.647052961237, -9703.428709915723, -11942.51471072611, -7618.860318524876, -6006.696046196944, -5845.808189607643, -8520.149710196223, -10429.480425057463, -15068.093248378427, 0.005046875, 0.23226562500000003, 0.9462187500000001, 192.0, 0.0, 0.0, 0.0, 0.0, 0.0, 0.0, 0.0, 0.0, 0.0, 1.644588512727799E9, 0.0, 2022-02-12 01:08:32.727
74.0, -10034.681562743373, -9334.647278147611, -5497.456252271682, -13381.497667014322, -7865.578873822556, -3922.4405792284706, -7797.1378323004055, -5366.407974530217, -9709.150756496281, -11925.616791917897, -7602.722359028145, -6003.857374651119, -5854.503018200758, -8506.537497822941, -10426.932326189557, -15113.623751833888, 0.005046875, 0.23226562500000003, 0.9462187500000001, 192.0, 0.0, 0.0, 0.0, 0.0, 0.0, 0.0, 0.0, 0.0, 0.0, 1.644588512735872E9, 0.0, 2022-02-12 01:08:32.735
76.0, -10053.41232459692, -9359.971804615476, -5510.196746611207, -13364.845617395118, -7853.5536353056, -3922.552337950747, -7796.981370089218, -5363.882227406768, -9708.144927995792, -11957.758600444628, -7605.404568362781, -5986.914752353997, -5851.664346654934, -8512.907744992703, -10427.848747712225, -15083.046565419027, 0.006, 0.232, 0.9480000000000001, 192.0, 0.0, 24.0, 3.5, 32.0, 14.5, 80.0, 0.0, 0.0, 0.0, 1.644588512743951E9, 0.0, 2022-02-12 01:08:32.743
78.0, -10040.694182001851, -9347.477179464959, -5497.61271448287, -13377.31789080118, -7866.31648138958, -3922.418227484015, -7799.507117212667, -5365.044518118443, -9713.576401898432, -11953.422362020297, -7610.523117843047, -5995.743691413843, -5853.810114122643, -8513.623000815272, -10429.30161110182, -15082.755992741108, 0.006, 0.232, 0.9480000000000001, 192.0, 0.0, 0.0, 0.0, 0.0, 0.0, 0.0, 0.0, 0.0, 0.0, 1.644588512751047E9, 0.0, 2022-02-12 01:08:32.751
80.0, -10056.765086265217, -9348.550063198812, -5510.152043122297, -13384.202228093414, -7864.2377691552365, -3927.3803147530934, -7796.936666600307, -5371.101840865832, -9722.740617125108, -11963.815923192016, -7608.287943397516, -6002.76213917281, -5860.426230481414, -8512.572468825874, -10431.916765203092, -15117.021216991094, 0.006, 0.232, 0.9480000000000001, 192.0, 0.0, 0.0, 0.0, 0.0, 0.0, 0.0, 0.0, 0.0, 0.0, 1.644588512758696E9, 0.0, 2022-02-12 01:08:32.758
82.0, -10048.763161750217, -9341.285746250838, -5505.189955853219, -13374.345108788624, -7858.381612107946, -3914.103378546641, -7791.326378742026, -5359.322471537885, -9710.82713733043, -11944.928699127282, -7612.020684721552, -6009.467662509402, -5854.167742033928, -8514.427663615665, -10431.469730313986, -15063.846416931918, 0.006, 0.232, 0.9480000000000001, 192.0, 0.0, 0.0, 0.0, 0.0, 0.0, 0.0, 0.0, 0.0, 0.0, 1.644588512766587E9, 0.0, 2022-02-12 01:08:32.766
84.0, -10049.880748972982, -9353.735667912444, -5503.982961652632, -13387.756155461808, -7862.829609254552, -3917.165567537018, -7783.883247838408, -5364.150448340231, -9723.433521203224, -11952.662402708818, -7608.511460842069, -5999.4987844823345, -5842.164855261428, -8500.949561709114, -10431.223861124976, -15111.455632621723, 0.006, 0.232, 0.9480000000000001, 192.0, 0.0, 0.0, 0.0, 0.0, 0.0, 0.0, 0.0, 0.0, 0.0, 1.644588512774522E9, 0.0, 2022-02-12 01:08:32.774
86.0, -10042.392914580454, -9336.547176426313, -5503.558278507981, -13375.440344266934, -7848.882120714441, -3910.325933733694, -7782.318625726537, -5359.836561660357, -9708.994294285094, -11948.817902662506, -7613.182975433228, -5991.116880311594, -5856.3358612460925, -8509.376169368765, -10429.234555868454, -15082.085440407449, 0.012, 0.232, 0.9480000000000001, 192.0, 0.0, 48.0, 3.5, 32.0, 14.5, 80.0, 0.0, 0.0, 0.0, 1.644588512781127E9, 0.0, 2022-02-12 01:08:32.781
88.0, -10035.419170310399, -9339.631717161146, -5495.936333648722, -13389.678405484963, -7854.067725428073, -3910.929430833987, -7785.202000761271, -5361.49059075005, -9706.557954139465, -11932.434073976765, -7598.520231070546, -5994.693159424443, -5847.305756486149, -8511.767806025482, -10428.809872723803, -15082.152495640816, 0.012, 0.232, 0.9480000000000001, 192.0, 0.0, 0.0, 0.0, 0.0, 0.0, 0.0, 0.0, 0.0, 0.0, 1.644588512788382E9, 0.0, 2022-02-12 01:08:32.788
90.0, -10039.80011222364, -9357.736630169944, -5512.074293145453, -13388.337300817646, -7851.072591671061, -3915.2433175138617, -7781.625721648422, -5367.436154775161, -9712.54822165349, -11959.010298134124, -7604.957533473675, -5995.453118735924, -5847.596329164068, -8510.247887402522, -10428.027561667868, -15115.590705345954, 0.012, 0.232, 0.9480000000000001, 192.0, 0.0, 0.0, 0.0, 0.0, 0.0, 0.0, 0.0, 0.0, 0.0, 1.64458851280338E9, 0.0, 2022-02-12 01:08:32.803
92.0, -10048.204368138835, -9346.583109686746, -5510.755540222591, -13384.850428682617, -7847.205739880293, -3911.9576110789317, -7783.570323416034, -5361.311776794408, -9709.888364063307, -11956.12692309939, -7626.41520815077, -6006.964267130407, -5841.427247694403, -8512.818338014882, -10431.715599502993, -15068.227358845159, 0.012, 0.232, 0.9480000000000001, 192.0, 0.0, 0.0, 0.0, 0.0, 0.0, 0.0, 0.0, 0.0, 0.0, 1.644588512810778E9, 0.0, 2022-02-12 01:08:32.810
94.0, -10037.363772078012, -9345.174949786062, -5503.938258163722, -13400.541353290244, -7858.582777808044, -3914.5951169246578, -7792.488669453701, -5365.245683818542, -9721.712436880165, -11960.910196412826, -7601.180088660728, -6011.18874683246, -5845.450561696358, -8510.292590891433, -10428.094616901233, -15116.4177198908, 0.012, 0.232, 0.9480000000000001, 192.0, 0.0, 0.0, 0.0, 0.0, 0.0, 0.0, 0.0, 0.0, 0.0, 1.644588512818747E9, 0.0, 2022-02-12 01:08:32.818
96.0, -10049.098437917048, -9335.742513625923, -5510.286153589029, -13383.956358904405, -7843.629460767444, -3913.835157613177, -7787.660692651355, -5370.028957131977, -9708.72607335163, -11955.679888210285, -7605.806899762977, -6002.471566494891, -5850.792628621177, -8513.243021159533, -10431.000343680424, -15089.50621956661, 0.01, 0.234, 0.9480000000000001, 192.0, 0.0, 40.0, 3.5, 40.0, 14.5, 80.0, 0.0, 0.0, 0.0, 1.64458851282674E9, 0.0, 2022-02-12 01:08:32.826
98.0, -10022.008123637215, -9318.621077373156, -5493.343531291906, -13387.465582783889, -7839.2261671097485, -3901.2511254848396, -7770.628663376411, -5366.855009419323, -9696.723186579131, -11931.875280365382, -7596.352111858382, -5991.295694267237, -5841.941337816875, -8511.276067647466, -10428.429893068063, -15085.527609053566, 0.01, 0.234, 0.9480000000000001, 192.0, 0.0, 0.0, 0.0, 0.0, 0.0, 0.0, 0.0, 0.0, 0.0, 1.644588512833462E9, 0.0, 2022-02-12 01:08:32.833
100.0, -10069.617339327018, -9355.881435380154, -5511.560203022981, -13392.047690397227, -7845.954042190796, -3906.8614133431215, -7779.323491969525, -5364.06104136241, -9714.470471676645, -11943.40878050432, -7598.140251414807, -5987.250028520826, -5842.388372705981, -8495.316922106376, -10428.787520979347, -15116.127147212881, 0.01, 0.234, 0.9480000000000001, 192.0, 0.0, 0.0, 0.0, 0.0, 0.0, 0.0, 0.0, 0.0, 0.0, 1.644588512841417E9, 0.0, 2022-02-12 01:08:32.841
102.0, -10057.256824643235, -9364.576263973267, -5509.570897766459, -13387.21971359488, -7838.667373498366, -3903.9556865639315, -7777.177724501816, -5364.597483229338, -9719.052579289983, -11950.717800941205, -7620.402588892292, -6000.973999616385, -5844.265919240227, -8510.940791480636, -10428.809872723803, -15067.98148965615, 0.01, 0.234, 0.9480000000000001, 192.0, 0.0, 0.0, 0.0, 0.0, 0.0, 0.0, 0.0, 0.0, 0.0, 1.644588512849656E9, 0.0, 2022-02-12 01:08:32.849
104.0, -10059.648461299952, -9352.863949878687, -5510.956705922688, -13400.608408523609, -7844.9258619458515, -3901.6534568850348, -7776.238951234693, -5352.326375523374, -9723.522928181044, -11955.858702165926, -7609.6961032982, -5999.409377504513, -5831.078390011596, -8495.451032573108, -10424.093654643733, -15116.261257679613, 0.01, 0.234, 0.9480000000000001, 192.0, 0.0, 0.0, 0.0, 0.0, 0.0, 0.0, 0.0, 0.0, 0.0, 1.644588512856626E9, 0.0, 2022-02-12 01:08:32.856
106.0, -10075.406441140944, -9372.220560576983, -5516.9022699478, -13388.359652562101, -7839.494388043212, -3907.4649104434147, -7785.045538550084, -5359.501285493528, -9732.508329452077, -11950.807207919028, -7624.180033705239, -6012.708665455421, -5837.985079048286, -8505.68813153364, -10428.1616721346, -15086.242864876136, 0.012, 0.23800000000000002, 0.9460000000000001, 192.0, 0.0, 48.0, 3.5, 56.0, 14.5, 72.0, 0.0, 0.0, 0.0, 1.64458851286304E9, 0.0, 2022-02-12 01:08:32.863
108.0, -10055.46868508681, -9358.407182503603, -5506.732226220635, -13390.863047941095, -7842.891853200419, -3898.0771777721857, -7775.568398901034, -5352.013451100999, -9736.822216131952, -11936.256222278622, -7628.538623874024, -6012.127520099583, -5855.262977512238, -8508.571506568374, -10430.620364024684, -15081.79486772953, 0.012, 0.23800000000000002, 0.9460000000000001, 192.0, 0.0, 0.0, 0.0, 0.0, 0.0, 0.0, 0.0, 0.0, 0.0, 1.644588512871046E9, 0.0, 2022-02-12 01:08:32.871
110.0, -10081.083784232591, -9372.801705932821, -5509.727359977646, -13388.136135117547, -7844.232957867737, -3905.006218553331, -7781.603369903966, -5357.176704070175, -9723.612335158865, -11944.03462934907, -7614.8817080118315, -6000.102281582628, -5844.645898895968, -8504.190564655133, -10433.101407659222, -15116.37301640189, 0.012, 0.23800000000000002, 0.9460000000000001, 192.0, 0.0, 0.0, 0.0, 0.0, 0.0, 0.0, 0.0, 0.0, 0.0, 1.644588512879025E9, 0.0, 2022-02-12 01:08:32.879
112.0, -10064.65525205794, -9347.432475976047, -5505.502880275593, -13381.117687358581, -7829.592565249511, -3898.300695216739, -7778.496477424679, -5351.812285400902, -9709.038997774005, -11939.161949057812, -7606.857431752376, -5997.129499570072, -5837.1357127589845, -8508.97383796857, -10430.173329135578, -15063.466437276178, 0.012, 0.23800000000000002, 0.9460000000000001, 192.0, 0.0, 0.0, 0.0, 0.0, 0.0, 0.0, 0.0, 0.0, 0.0, 1.644588512886037E9, 0.0, 2022-02-12 01:08:32.886
114.0, -10043.264632614211, -9345.197301530518, -5509.392083810817, -13400.451946312422, -7846.26696661317, -3904.5368319197696, -7776.7753931016205, -5355.589730213849, -9723.679390392232, -11952.88592015337, -7607.326818385937, -6010.4734910098905, -5827.613869621024, -8498.446166330119, -10431.514433802895, -15111.567391343999, 0.012, 0.23800000000000002, 0.9460000000000001, 192.0, 0.0, 0.0, 0.0, 0.0, 0.0, 0.0, 0.0, 0.0, 0.0, 1.644588512893658E9, 0.0, 2022-02-12 01:08:32.893
116.0, -10067.225702670301, -9367.169066330083, -5521.417322327772, -13391.108917130105, -7834.599356007499, -3904.492128430859, -7778.027090791117, -5356.573206969882, -9724.416997959257, -11946.202748561234, -7623.330667415938, -6012.216927077405, -5845.361154718537, -8509.554983324408, -10436.275355371876, -15087.472210821177, 0.008, 0.242, 0.9480000000000001, 192.0, 0.0, 32.0, 3.5, 72.0, 14.5, 80.0, 0.0, 0.0, 0.0, 1.644588512901739E9, 0.0, 2022-02-12 01:08:32.901
118.0, -10076.300510919156, -9376.735612956954, -5505.435825042227, -13393.567609020187, -7833.325306573547, -3902.7710441078, -7761.375041171914, -5349.554759210916, -9725.802806115486, -11949.220234062701, -7613.428844622236, -6007.679522952977, -5827.993849276763, -8505.174041411166, -10431.246212869431, -15083.292434608036, 0.008, 0.242, 0.9480000000000001, 192.0, 0.0, 0.0, 0.0, 0.0, 0.0, 0.0, 0.0, 0.0, 0.0, 1.644588512909095E9, 0.0, 2022-02-12 01:08:32.909
120.0, -10082.76016506674, -9383.463488038004, -5515.248240858107, -13395.735728232352, -7837.326268831047, -3912.7622738793225, -7773.10970701095, -5357.355518025818, -9729.513195695066, -11975.528237286597, -7610.0090277205745, -6000.839889149653, -5841.91898607242, -8502.514183820986, -10432.564965792295, -15122.787967060563, 0.008, 0.242, 0.9480000000000001, 192.0, 0.0, 0.0, 0.0, 0.0, 0.0, 0.0, 0.0, 0.0, 0.0, 1.64458851292335E9, 0.0, 2022-02-12 01:08:32.923
122.0, -10059.961385722327, -9344.347935241216, -5508.945048921711, -13389.432536295955, -7829.816082694064, -3903.5757069081915, -7772.617968632933, -5349.53240746646, -9722.651210147287, -11951.053077108036, -7620.491995870113, -6003.2538775508265, -5835.593442391568, -8502.737701265538, -10436.342410605243, -15071.513065280089, 0.008, 0.242, 0.9480000000000001, 192.0, 0.0, 0.0, 0.0, 0.0, 0.0, 0.0, 0.0, 0.0, 0.0, 1.644588512931256E9, 0.0, 2022-02-12 01:08:32.931
124.0, -10054.440504841865, -9352.61808068968, -5505.3687698088615, -13396.74155673284, -7839.539091532122, -3909.945954077954, -7780.664596636844, -5355.992061614044, -9730.20609977318, -11941.821806647993, -7614.971114989653, -5999.945819371441, -5822.741189329767, -8497.105061662802, -10432.87789021467, -15120.4186821483, 0.008, 0.242, 0.9480000000000001, 192.0, 0.0, 0.0, 0.0, 0.0, 0.0, 0.0, 0.0, 0.0, 0.0, 1.64458851293833E9, 0.0, 2022-02-12 01:08:32.938
126.0, -10060.073144444603, -9360.552949971312, -5511.649610000803, -13387.040899639238, -7828.8996611713965, -3909.521270933303, -7783.190343760293, -5362.9658058841005, -9711.676503619732, -11945.733361927672, -7615.664019067767, -6000.705778682921, -5836.599270892057, -8499.027311685957, -10433.995477437435, -15094.870638235885, 0.004, 0.23600000000000002, 0.9520000000000001, 192.0, 0.0, 16.0, 3.5, 48.0, 14.5, 96.0, 0.0, 0.0, 0.0, 1.644588512947337E9, 0.0, 2022-02-12 01:08:32.947
128.0, -10062.643595056963, -9359.502417981914, -5500.496089517605, -13395.400452065523, -7833.101789128994, -3907.4425586989596, -7778.116497768939, -5361.445887261139, -9711.564744897454, -11948.683792195772, -7605.404568362781, -6000.862240894108, -5831.681887111889, -8496.568619795873, -10434.688381515549, -15090.400289344823, 0.004, 0.23600000000000002, 0.9520000000000001, 192.0, 0.0, 0.0, 0.0, 0.0, 0.0, 0.0, 0.0, 0.0, 0.0, 1.644588512953903E9, 0.0, 2022-02-12 01:08:32.953
130.0, -10073.774763795705, -9367.549045985825, -5517.505767048093, -13400.340187590145, -7848.345678847513, -3917.5008437038477, -7790.141736285894, -5373.672291478192, -9722.539451425011, -11958.473856267197, -7602.700007283689, -5995.296656524737, -5833.760599346233, -8497.820317485372, -10442.153864163622, -15128.979400274684, 0.004, 0.23600000000000002, 0.9520000000000001, 192.0, 0.0, 0.0, 0.0, 0.0, 0.0, 0.0, 0.0, 0.0, 0.0, 1.644588512961915E9, 0.0, 2022-02-12 01:08:32.961
132.0, -10049.567824550608, -9356.32847026926, -5519.070389159964, -13387.89026592854, -7837.862710697975, -3918.752541393345, -7779.569361158534, -5371.235951332564, -9719.96900081265, -11946.64978345034, -7612.512423099569, -5994.536697213256, -5830.206671977839, -8513.332428137353, -10450.692230545548, -15083.135972396849, 0.004, 0.23600000000000002, 0.9520000000000001, 192.0, 0.0, 0.0, 0.0, 0.0, 0.0, 0.0, 0.0, 0.0, 0.0, 1.644588512968471E9, 0.0, 2022-02-12 01:08:32.968
134.0, -10051.333612362578, -9356.462580735992, -5524.747732251612, -13408.185649893958, -7851.474923071257, -3924.2510705293503, -7786.408994961857, -5365.6703669631925, -9726.942745082706, -11952.79651317555, -7616.043998723508, -5986.691234909444, -5838.074486026107, -8508.593858312828, -10447.607689810717, -15128.621772363398, 0.004, 0.23600000000000002, 0.9520000000000001, 192.0, 0.0, 0.0, 0.0, 0.0, 0.0, 0.0, 0.0, 0.0, 0.0, 1.644588512975484E9, 0.0, 2022-02-12 01:08:32.975
136.0, -10057.100362432047, -9356.23906329144, -5527.42994158625, -13403.983521936361, -7846.892815457919, -3926.1062653191407, -7793.181573531816, -5377.181515357675, -9722.807672358475, -11963.07831562499, -7643.9389758037305, -6016.419055035002, -5848.244529753271, -8512.438358359143, -10448.881739244669, -15107.99111223115, 0.01, 0.23600000000000002, 0.9540000000000001, 192.0, 0.0, 40.0, 3.5, 48.0, 14.5, 104.0, 0.0, 0.0, 0.0, 1.644588512983795E9, 0.0, 2022-02-12 01:08:32.983
138.0, -10073.886522517983, -9360.508246482403, -5521.260860116585, -13410.040844683748, -7856.124085917961, -3921.457102472437, -7797.048425322584, -5368.419631531195, -9732.731846896631, -11944.504015982631, -7623.621240093857, -6008.081854353172, -5825.53515738668, -8511.074901947368, -10451.78746602386, -15101.062071450004, 0.01, 0.23600000000000002, 0.9540000000000001, 192.0, 0.0, 0.0, 0.0, 0.0, 0.0, 0.0, 0.0, 0.0, 0.0, 1.644588512991541E9, 0.0, 2022-02-12 01:08:32.991
140.0, -10075.51819986322, -9368.018432619385, -5527.139368908331, -13413.058330185215, -7860.147399919916, -3929.0119920983307, -7798.948323601285, -5382.322416582396, -9739.504425466588, -11958.876187667393, -7612.154795188284, -6005.556107229723, -5856.87230311302, -8507.833899001349, -10453.0168119689, -15139.104740512937, 0.01, 0.23600000000000002, 0.9540000000000001, 192.0, 0.0, 0.0, 0.0, 0.0, 0.0, 0.0, 0.0, 0.0, 0.0, 1.644588512998457E9, 0.0, 2022-02-12 01:08:32.998
142.0, -10071.025499227704, -9365.246816306928, -5523.697200262213, -13403.894114958539, -7848.278623614147, -3921.8370821281774, -7786.878381595419, -5373.292311822452, -9735.458759720179, -11947.297984039544, -7619.866147025365, -6016.128482357083, -5851.507884443747, -8521.982553241558, -10453.530902091374, -15090.84732423393, 0.01, 0.23600000000000002, 0.9540000000000001, 192.0, 0.0, 0.0, 0.0, 0.0, 0.0, 0.0, 0.0, 0.0, 0.0, 1.644588513006202E9, 0.0, 2022-02-12 01:08:33.006
144.0, -10061.481304345287, -9365.336223284748, -5518.712761248679, -13421.261420400313, -7860.974414464762, -3929.68254443199, -7795.617913677444, -5382.098899137843, -9743.058352834983, -11957.780952189083, -7620.6484580813, -6006.338418285659, -5837.53804415918, -8510.784329269449, -10449.39582936714, -15136.847214322952, 0.008, 0.23500000000000001, 0.9540000000000001, 192.0, 0.0, 24.0, 3.5, 40.0, 14.5, 104.0, 0.0, 0.0, 0.0, 1.644588513014356E9, 0.0, 2022-02-12 01:08:33.014
146.0, -10056.787438009673, -9359.480066237458, -5529.978040454154, -13408.27505687178, -7851.810199238086, -3930.5766142102025, -7801.384663746913, -5383.954093927633, -9733.871785863852, -11963.70416446974, -7631.153777975295, -6011.90400265503, -5848.669212897923, -8525.82705328787, -10456.101352703734, -15118.18350770277, 0.008, 0.23500000000000001, 0.9540000000000001, 192.0, 0.0, 0.0, 0.0, 0.0, 0.0, 0.0, 0.0, 0.0, 0.0, 1.644588513021248E9, 0.0, 2022-02-12 01:08:33.021
148.0, -10058.575577566096, -9365.13505758465, -5519.428017071249, -13411.3148941177, -7851.005536437695, -3927.0450385862637, -7795.2602857661595, -5382.2777130934855, -9722.762968869563, -11957.579786488985, -7636.27232745556, -6008.931220642474, -5830.139616744473, -8522.20607068611, -10456.906015504124, -15110.405100632323, 0.008, 0.23500000000000001, 0.9540000000000001, 192.0, 0.0, 0.0, 0.0, 0.0, 0.0, 0.0, 0.0, 0.0, 0.0, 1.644588513029115E9, 0.0, 2022-02-12 01:08:33.029
150.0, -10091.834973315594, -9367.124362841174, -5523.4513310732045, -13414.779414508273, -7849.93265270384, -3929.7943031542663, -7796.802556133575, -5376.287445579463, -9743.17011155726, -11980.378565833398, -7618.3462284024035, -6005.690217696455, -5844.690602384878, -8525.558832354407, -10455.78842828136, -15147.173720261304, 0.008, 0.23500000000000001, 0.9540000000000001, 192.0, 0.0, 0.0, 0.0, 0.0, 0.0, 0.0, 0.0, 0.0, 0.0, 1.64458851303579E9, 0.0, 2022-02-12 01:08:33.035
152.0, -10077.127525464002, -9380.46835428099, -5529.016915442577, -13412.097205173637, -7846.781056735642, -3931.135407821585, -7795.193230532794, -5378.723785725091, -9735.659925420276, -11944.660478193819, -7617.720379557655, -6007.120729341595, -5839.840273838076, -8526.989343999547, -10462.181027195576, -15095.764708014096, 0.008, 0.23500000000000001, 0.9540000000000001, 192.0, 0.0, 0.0, 0.0, 0.0, 0.0, 0.0, 0.0, 0.0, 0.0, 1.64458851305042E9, 0.0, 2022-02-12 01:08:33.050
154.0, -10074.46766787382, -9375.215694333994, -5521.171453138763, -13427.519908847798, -7862.516684832179, -3939.226739314406, -7799.283599768115, -5385.339902083862, -9754.278928551546, -11978.612778021428, -7623.531833116035, -6006.494880496845, -5851.172608276917, -8522.87662301977, -10460.526998105885, -15145.743208616163, 0.008, 0.23450000000000001, 0.9520000000000001, 192.0, 0.0, 32.0, 3.5, 40.0, 14.5, 88.0, 0.0, 0.0, 0.0, 1.644588513059326E9, 0.0, 2022-02-12 01:08:33.059
156.0, -10080.65910108794, -9374.388679789148, -5533.66607828928, -13422.535469834265, -7843.741219489721, -3932.5435677222695, -7797.607218933967, -5391.441928320161, -9747.036963348028, -11984.647749024361, -7636.7193623446665, -6016.977848646385, -5841.561358161135, -8531.68321033516, -10463.656242329627, -15126.788929318063, 0.008, 0.23450000000000001, 0.9520000000000001, 192.0, 0.0, 0.0, 0.0, 0.0, 0.0, 0.0, 0.0, 0.0, 0.0, 1.644588513066426E9, 0.0, 2022-02-12 01:08:33.066
158.0, -10048.383182094478, -9361.514074982892, -5526.647630530314, -13425.351789635633, -7846.848111969008, -3929.146102565063, -7787.727747884721, -5389.519678297005, -9743.25951853508, -11973.248359352156, -7640.094475757418, -6022.252860337837, -5829.089084755074, -8524.35183815382, -10459.699983561039, -15116.127147212881, 0.008, 0.23450000000000001, 0.9520000000000001, 192.0, 0.0, 0.0, 0.0, 0.0, 0.0, 0.0, 0.0, 0.0, 0.0, 1.64458851307355E9, 0.0, 2022-02-12 01:08:33.073
160.0, -10096.2829704622, -9373.136982099652, -5531.229738143652, -13422.781339023273, -7855.9005684734075, -3943.3171085497274, -7810.079492340028, -5393.364178343318, -9751.574367472454, -11979.171571632813, -7633.299545443005, -6012.216927077405, -5856.045288568174, -8534.946565025635, -10462.87393127369, -15155.823845365507, 0.008, 0.23450000000000001, 0.9520000000000001, 192.0, 0.0, 0.0, 0.0, 0.0, 0.0, 0.0, 0.0, 0.0, 0.0, 1.644588513081046E9, 0.0, 2022-02-12 01:08:33.081
162.0, -10097.154688495957, -9386.57038051729, -5532.928470722255, -13418.08747268766, -7848.055106169594, -3937.4609515024367, -7803.910410870363, -5384.535239283471, -9750.210911060682, -11977.897522198858, -7627.711609329178, -6020.062389381217, -5843.081276784096, -8541.875605806781, -10464.796181296848, -15101.822030761485, 0.008, 0.23450000000000001, 0.9520000000000001, 192.0, 0.0, 0.0, 0.0, 0.0, 0.0, 0.0, 0.0, 0.0, 0.0, 1.644588513089181E9, 0.0, 2022-02-12 01:08:33.089
164.0, -10086.247037201767, -9395.309912599316, -5533.867243989378, -13428.816310026206, -7855.989975451229, -3941.841893415677, -7795.1485270438825, -5390.927838197689, -9766.5053327686, -11990.36979560492, -7629.142120974318, -6002.918601383996, -5858.705146158355, -8532.286707435454, -10466.047878986345, -15149.408894706834, 0.009000000000000001, 0.23825000000000002, 0.9510000000000001, 192.0, 0.0, 40.0, 3.5, 72.0, 14.5, 88.0, 0.0, 0.0, 0.0, 1.644588513097075E9, 0.0, 2022-02-12 01:08:33.097
166.0, -10092.349063438067, -9397.05334866683, -5541.600947570914, -13423.161318679015, -7851.899606215908, -3946.647518473568, -7803.664541681354, -5398.281562123485, -9764.963062401184, -12002.260923655143, -7638.932185045742, -6021.269383581804, -5862.147314804472, -8541.987364529057, -10464.840884785759, -15129.89582179735, 0.009000000000000001, 0.23825000000000002, 0.9510000000000001, 192.0, 0.0, 0.0, 0.0, 0.0, 0.0, 0.0, 0.0, 0.0, 0.0, 1.644588513103267E9, 0.0, 2022-02-12 01:08:33.103
168.0, -10070.131429449491, -9380.401299047626, -5532.459084088693, -13433.286658917268, -7853.93361496134, -3941.193692826473, -7793.785070632109, -5390.749024242047, -9766.773553702064, -11978.389260576876, -7648.051696783507, -6018.140139358061, -5839.527349415702, -8546.904748309225, -10462.382192895675, -15122.653856593832, 0.009000000000000001, 0.23825000000000002, 0.9510000000000001, 192.0, 0.0, 0.0, 0.0, 0.0, 0.0, 0.0, 0.0, 0.0, 0.0, 1.644588513110757E9, 0.0, 2022-02-12 01:08:33.110
170.0, -10083.05073774466, -9391.353653830725, -5540.729229537157, -13436.639420585565, -7853.93361496134, -3942.0430591157747, -7798.054253823073, -5394.995855688555, -9762.124390855359, -11992.739080517184, -7644.497769415113, -6026.075008639695, -5863.01903283823, -8536.31002143741, -10463.432724885073, -15158.081371555492, 0.009000000000000001, 0.23825000000000002, 0.9510000000000001, 192.0, 0.0, 0.0, 0.0, 0.0, 0.0, 0.0, 0.0, 0.0, 0.0, 1.644588513118948E9, 0.0, 2022-02-12 01:08:33.118
172.0, -10098.652255374463, -9388.738499729456, -5534.336630622939, -13425.195327424446, -7844.188254378826, -3936.321012535216, -7793.181573531816, -5396.292256866963, -9746.478169736645, -11983.552513546052, -7645.190673493228, -6022.498729526846, -5854.547721689668, -8538.12051273829, -10466.181989453076, -15104.303074396024, 0.009000000000000001, 0.23825000000000002, 0.9510000000000001, 192.0, 0.0, 0.0, 0.0, 0.0, 0.0, 0.0, 0.0, 0.0, 0.0, 1.644588513127336E9, 0.0, 2022-02-12 01:08:33.127
174.0, -10090.985607026292, -9395.488726554959, -5532.749656766612, -13434.56070835122, -7863.880141243952, -3948.4356580299927, -7798.724806156732, -5395.219373133108, -9767.242940335625, -11991.174458405312, -7628.60567910739, -6014.385046289569, -5846.7022593858555, -8534.410123158708, -10462.248082428943, -15152.672249397308, 0.007500000000000001, 0.23712500000000003, 0.9495, 192.0, 0.0, 24.0, 3.5, 48.0, 14.5, 80.0, 0.0, 0.0, 0.0, 1.644588513133777E9, 0.0, 2022-02-12 01:08:33.133
176.0, -10094.159554738946, -9391.219543363994, -5544.3502121389165, -13427.452853614433, -7856.8393417405305, -3949.977928397409, -7807.218469049749, -5406.596411060859, -9771.512123526589, -11992.604970050452, -7646.308260715993, -6018.3413050581585, -5852.536064688691, -8557.767696114504, -10472.172256967098, -15136.176661989291, 0.007500000000000001, 0.23712500000000003, 0.9495, 192.0, 0.0, 0.0, 0.0, 0.0, 0.0, 0.0, 0.0, 0.0, 0.0, 1.644588513141345E9, 0.0, 2022-02-12 01:08:33.141
178.0, -10081.776688310705, -9380.71422347, -5537.220005657674, -13429.665676315508, -7850.357335848491, -3940.947823637465, -7791.840468864498, -5400.516736569016, -9767.868789180373, -11985.251246124655, -7639.334516445937, -6020.107092870127, -5840.622584894012, -8547.240024476056, -10471.83698080027, -15125.626638606387, 0.007500000000000001, 0.23712500000000003, 0.9495, 192.0, 0.0, 0.0, 0.0, 0.0, 0.0, 0.0, 0.0, 0.0, 0.0, 1.644588513149555E9, 0.0, 2022-02-12 01:08:33.149
180.0, -10082.737813322285, -9407.916296472109, -5533.28609863354, -13431.677333316486, -7848.07745791405, -3944.389992283582, -7792.935704342807, -5404.249477893052, -9768.002899647105, -12011.179269692811, -7635.288850699527, -6014.139177100561, -5851.820808866121, -8538.858120305315, -10468.238349942965, -15162.57407219101, 0.007500000000000001, 0.23712500000000003, 0.9495, 192.0, 0.0, 0.0, 0.0, 0.0, 0.0, 0.0, 0.0, 0.0, 0.0, 1.644588513155987E9, 0.0, 2022-02-12 01:08:33.155
182.0, -10094.248961716767, -9398.595619034246, -5530.670944532269, -13420.814385511207, -7836.163978119372, -3931.6942014329675, -7780.083451281006, -5395.264076622018, -9754.569501229465, -11989.922760715815, -7642.150836247306, -6013.647438722544, -5851.150256532462, -8539.908652294715, -10464.773829552392, -15110.338045398958, 0.007500000000000001, 0.23712500000000003, 0.9495, 192.0, 0.0, 0.0, 0.0, 0.0, 0.0, 0.0, 0.0, 0.0, 0.0, 1.644588513170982E9, 0.0, 2022-02-12 01:08:33.170
184.0, -10072.679528317396, -9375.975653645475, -5526.088836918931, -13431.23029842738, -7831.291297828115, -3929.146102565063, -7772.707375610755, -5376.600370001837, -9762.906701911295, -11983.910141457336, -7631.913737286775, -6009.869993909597, -5842.231910494794, -8528.59866960033, -10463.298614418341, -15147.821920850507, 0.00775, 0.2355625, 0.95275, 192.0, 0.0, 32.0, 3.5, 40.0, 14.5, 112.0, 0.0, 0.0, 0.0, 1.644588513179359E9, 0.0, 2022-02-12 01:08:33.179
186.0, -10082.357833666543, -9381.652996737123, -5536.415342857283, -13426.357618136122, -7849.530321303645, -3943.4065155275484, -7794.656788665866, -5398.102748167843, -9747.640460448321, -11972.354289573943, -7633.545414632013, -6021.917584171008, -5827.3903521764705, -8535.751227826027, -10459.342355649753, -15128.04062700756, 0.00775, 0.2355625, 0.95275, 192.0, 0.0, 0.0, 0.0, 0.0, 0.0, 0.0, 0.0, 0.0, 0.0, 1.64458851318558E9, 0.0, 2022-02-12 01:08:33.185
188.0, -10085.934112779392, -9392.38183407567, -5528.9051567203, -13429.464510615411, -7857.867521985474, -3944.524102750314, -7795.372044488436, -5397.968637701111, -9758.861036164884, -11982.300815856555, -7637.1887489782275, -6005.444348507446, -5841.315488972126, -8538.858120305315, -10466.919597020102, -15122.340932171457, 0.00775, 0.2355625, 0.95275, 192.0, 0.0, 0.0, 0.0, 0.0, 0.0, 0.0, 0.0, 0.0, 0.0, 1.644588513193814E9, 0.0, 2022-02-12 01:08:33.193
190.0, -10083.47542088931, -9392.515944542401, -5540.751581281613, -13434.784225795775, -7854.380649850446, -3951.5425505092803, -7786.140774028394, -5409.636248306781, -9768.36052755839, -12000.718653287728, -7627.041056995518, -6001.421034505491, -5841.96368956133, -8534.655992347716, -10467.701908076038, -15163.892825113873, 0.00775, 0.2355625, 0.95275, 192.0, 0.0, 0.0, 0.0, 0.0, 0.0, 0.0, 0.0, 0.0, 0.0, 1.644588513201628E9, 0.0, 2022-02-12 01:08:33.201
192.0, -10095.500659406265, -9415.96292447602, -5540.483360348148, -13433.577231595187, -7841.640155510921, -3949.329727808205, -7781.603369903966, -5406.484652338583, -9751.641422705821, -11978.433964065787, -7645.1683217487725, -6015.14500560105, -5850.882035598998, -8538.344030182843, -10467.41133539812, -15114.026083234083, 0.00775, 0.2355625, 0.95275, 192.0, 0.0, 0.0, 0.0, 0.0, 0.0, 0.0, 0.0, 0.0, 0.0, 1.644588513209049E9, 0.0, 2022-02-12 01:08:33.209
194.0, -10079.94384526537, -9399.959075446019, -5537.063543446487, -13446.943574779461, -7857.755763263198, -3949.1956173414733, -7791.415785719846, -5398.63919003477, -9770.483943281644, -12016.297819173076, -7643.603699636901, -6021.515252770812, -5846.858721597043, -8546.301251208932, -10469.467695888006, -15159.064848311526, 0.006875, 0.23478125, 0.9513750000000001, 192.0, 0.0, 24.0, 3.5, 40.0, 14.5, 88.0, 0.0, 0.0, 0.0, 1.644588513216257E9, 0.0, 2022-02-12 01:08:33.216
196.0, -10096.61824662903, -9398.126232400684, -5546.071296461975, -13440.483920631877, -7845.149379390405, -3950.648480731068, -7779.703471625266, -5406.529355827493, -9769.992204903629, -11996.829449752504, -7656.232435254149, -6035.261575610826, -5844.10945702904, -8544.334297696865, -10473.35689942323, -15135.617868377909, 0.006875, 0.23478125, 0.9513750000000001, 192.0, 0.0, 0.0, 0.0, 0.0, 0.0, 0.0, 0.0, 0.0, 0.0, 1.644588513223519E9, 0.0, 2022-02-12 01:08:33.223
198.0, -10124.200299286878, -9429.955116505042, -5529.821578242967, -13444.618993356109, -7851.36316434898, -3948.5697684967245, -7778.764698358143, -5406.283486638486, -9765.41009729029, -11991.75560376115, -7644.698935115211, -6027.125540629094, -5836.040477280674, -8547.530597153975, -10473.066326745311, -15126.90068804034, 0.006875, 0.23478125, 0.9513750000000001, 192.0, 0.0, 0.0, 0.0, 0.0, 0.0, 0.0, 0.0, 0.0, 0.0, 1.644588513231236E9, 0.0, 2022-02-12 01:08:33.231
200.0, -10131.57637495713, -9442.047410255362, -5540.1257324368635, -13449.871653303106, -7847.764533491676, -3954.202408099462, -7783.145640271383, -5403.333056370385, -9780.899856197817, -12028.90420304587, -7638.41809492327, -6015.323819556692, -5840.734343616288, -8545.585995386362, -10472.194608711554, -15164.786894892086, 0.006875, 0.23478125, 0.9513750000000001, 192.0, 0.0, 0.0, 0.0, 0.0, 0.0, 0.0, 0.0, 0.0, 0.0, 1.644588513238687E9, 0.0, 2022-02-12 01:08:33.238
202.0, -10115.773691627228, -9419.62861056669, -5538.538758580537, -13440.238051442868, -7837.393324064413, -3944.769971939322, -7774.450811678268, -5402.371931358806, -9764.560731000987, -12001.165688176834, -7646.732943860644, -6029.673639496999, -5840.48847442728, -8549.385791943765, -10470.384117410675, -15109.578086087477, 0.006875, 0.23478125, 0.9513750000000001, 192.0, 0.0, 0.0, 0.0, 0.0, 0.0, 0.0, 0.0, 0.0, 0.0, 1.644588513245969E9, 0.0, 2022-02-12 01:08:33.245
204.0, -10102.697921120873, -9411.202002907039, -5538.985793469643, -13454.297298705256, -7848.546844547612, -3955.0741261332187, -7770.248683720671, -5404.718864526613, -9776.429507306757, -11998.014092208636, -7648.27521422806, -6019.011857391818, -5833.805302835143, -8546.234195975567, -10472.753402322936, -15155.175644776304, 0.0064375000000000005, 0.23339062500000002, 0.9506875000000001, 192.0, 0.0, 24.0, 3.5, 32.0, 14.5, 88.0, 0.0, 0.0, 0.0, 1.644588513254264E9, 0.0, 2022-02-12 01:08:33.254
206.0, -10106.698883378373, -9422.53433734588, -5540.662174303791, -13438.785188053274, -7838.577966520545, -3952.950710409965, -7773.444983177779, -5407.490480839072, -9774.551960772511, -12013.548554605075, -7670.358737749903, -6037.38499133408, -5847.998660564263, -8555.465466435608, -10469.892379032657, -15138.121263756904, 0.0064375000000000005, 0.23339062500000002, 0.9506875000000001, 192.0, 0.0, 0.0, 0.0, 0.0, 0.0, 0.0, 0.0, 0.0, 0.0, 1.644588513261093E9, 0.0, 2022-02-12 01:08:33.261
208.0, -10116.846575361084, -9430.558613605335, -5525.530043307548, -13439.232222942379, -7847.518664302667, -3950.1567423530514, -7775.948378556774, -5399.600315046348, -9758.034021620038, -11993.968426462225, -7636.764065833577, -6014.720322456399, -5826.563337631624, -8546.390658186754, -10472.93221627858, -15123.257353694125, 0.0064375000000000005, 0.23339062500000002, 0.9506875000000001, 192.0, 0.0, 0.0, 0.0, 0.0, 0.0, 0.0, 0.0, 0.0, 0.0, 1.644588513268993E9, 0.0, 2022-02-12 01:08:33.268
210.0, -10117.517127694742, -9424.523642602402, -5532.749656766612, -13440.349810165146, -7847.295146858114, -3953.6883179769898, -7786.721919384232, -5405.0541406934435, -9771.60153050441, -12008.318246402532, -7628.896251785309, -6002.560973472711, -5838.119189515018, -8547.329431453876, -10474.988576768468, -15165.725668159208, 0.0064375000000000005, 0.23339062500000002, 0.9506875000000001, 192.0, 0.0, 0.0, 0.0, 0.0, 0.0, 0.0, 0.0, 0.0, 0.0, 1.644588513276569E9, 0.0, 2022-02-12 01:08:33.276
212.0, -10092.259656460245, -9387.464450295503, -5530.358020109895, -13428.033998970272, -7821.054198867584, -3939.919643392521, -7762.470276650224, -5402.908373225734, -9759.866864665373, -11988.872228726415, -7636.629955366845, -6007.992447375352, -5830.877224311498, -8548.692887865649, -10468.55127436534, -15108.32638839798, 0.0064375000000000005, 0.23339062500000002, 0.9506875000000001, 192.0, 0.0, 0.0, 0.0, 0.0, 0.0, 0.0, 0.0, 0.0, 0.0, 1.644588513283767E9, 0.0, 2022-02-12 01:08:33.283
214.0, -10089.197467469869, -9403.311837114315, -5524.56891829597, -13444.462531144922, -7833.638230995922, -3946.9380911514872, -7758.983404515196, -5391.777204486991, -9767.60056824691, -11994.303702629055, -7639.870958312865, -6007.970095630896, -5826.406875420436, -8534.208957458612, -10463.611538840716, -15152.538138930577, 0.01, 0.234, 0.9580000000000001, 192.0, 0.0, 40.0, 3.5, 40.0, 14.5, 120.0, 0.0, 0.0, 0.0, 1.644588513298278E9, 0.0, 2022-02-12 01:08:33.298
216.0, -10105.156613010957, -9420.43327336708, -5531.721476521669, -13433.04078972826, -7828.340867560014, -3955.54351276678, -7761.598558616467, -5400.874364480301, -9760.939748399229, -11998.863458497937, -7651.873845085364, -6024.130406872083, -5828.954974288342, -8544.602518630329, -10469.065364487811, -15136.601345133942, 0.01, 0.234, 0.9580000000000001, 192.0, 0.0, 0.0, 0.0, 0.0, 0.0, 0.0, 0.0, 0.0, 0.0, 1.644588513306154E9, 0.0, 2022-02-12 01:08:33.306
218.0, -10116.62305791653, -9433.218471195516, -5526.580575296948, -13444.037848000271, -7845.104675901494, -3961.2432076028836, -7769.466372664735, -5412.899602997256, -9765.097172867916, -11984.13365890189, -7640.161530990784, -6011.434616021468, -5832.218328978816, -8556.113667024812, -10473.379251167686, -15131.527499142589, 0.01, 0.234, 0.9580000000000001, 192.0, 0.0, 0.0, 0.0, 0.0, 0.0, 0.0, 0.0, 0.0, 0.0, 1.644588513314462E9, 0.0, 2022-02-12 01:08:33.314
220.0, -10117.248906761279, -9420.030941966885, -5539.186959169741, -13452.66562136002, -7857.934577218841, -3971.614417030146, -7790.678178152822, -5429.462245638639, -9783.604417276909, -12010.933400503804, -7640.6532693688005, -6009.311200298214, -5825.803378320144, -8548.223501232089, -10483.638701872671, -15179.516694488133, 0.01, 0.234, 0.9580000000000001, 192.0, 0.0, 0.0, 0.0, 0.0, 0.0, 0.0, 0.0, 0.0, 0.0, 1.644588513320797E9, 0.0, 2022-02-12 01:08:33.320
222.0, -10100.686264119895, -9402.820098736298, -5531.497959077115, -13439.522795620298, -7839.762608976675, -3956.772858711822, -7775.814268090042, -5406.462300594128, -9767.64527173582, -12009.502888858664, -7644.810693837488, -6019.615354492111, -5838.767390104222, -8550.771600099994, -10486.79029784087, -15122.89972578284, 0.01, 0.234, 0.9580000000000001, 192.0, 0.0, 0.0, 0.0, 0.0, 0.0, 0.0, 0.0, 0.0, 0.0, 1.644588513329129E9, 0.0, 2022-02-12 01:08:33.329
224.0, -10089.912723292438, -9403.20007839204, -5530.402723598805, -13455.23607197238, -7839.896719443407, -3958.9633296684424, -7756.144732969372, -5405.344713371363, -9776.98830091814, -12013.839127282994, -7639.289812957027, -6009.579421231678, -5832.687715612378, -8545.049553519435, -10480.487105904473, -15162.127037301903, 0.012, 0.23800000000000002, 0.96, 192.0, 0.0, 48.0, 3.5, 56.0, 15.0, 0.0, 0.0, 0.0, 0.0, 1.6445885133368E9, 0.0, 2022-02-12 01:08:33.336
226.0, -10099.56867689713, -9417.7734157769, -5543.254976660607, -13446.027153256793, -7837.862710697975, -3970.1168501516404, -7766.605349374456, -5404.920030226712, -9770.305129326001, -12015.962543006248, -7652.320879974471, -6035.730962244387, -5836.643974380967, -8553.140885012255, -10477.31315819182, -15144.446807437756, 0.012, 0.23800000000000002, 0.96, 192.0, 0.0, 0.0, 0.0, 0.0, 0.0, 0.0, 0.0, 0.0, 0.0, 1.644588513344301E9, 0.0, 2022-02-12 01:08:33.344
228.0, -10111.19158401389, -9426.24472692546, -5538.024668458065, -13448.150568980047, -7850.066763170572, -3974.2966263647827, -7769.220503475726, -5418.487539111083, -9765.544207757022, -11988.626359537408, -7647.93993806123, -6015.659095723521, -5835.638145880479, -8562.260396750022, -10483.392832683663, -15133.382693932379, 0.012, 0.23800000000000002, 0.96, 192.0, 0.0, 0.0, 0.0, 0.0, 0.0, 0.0, 0.0, 0.0, 0.0, 1.644588513350407E9, 0.0, 2022-02-12 01:08:33.350
230.0, -10130.570546456642, -9435.811273552332, -5542.830293515956, -13449.648135858553, -7853.352469605502, -3979.325768867227, -7771.612140132444, -5424.053123480454, -9781.07867015346, -12029.172423979333, -7648.834007839443, -6005.824328163187, -5831.436017922881, -8558.818228103904, -10486.343262951763, -15177.90736888735, 0.012, 0.23800000000000002, 0.96, 192.0, 0.0, 0.0, 0.0, 0.0, 0.0, 0.0, 0.0, 0.0, 0.0, 1.644588513359966E9, 0.0, 2022-02-12 01:08:33.359
232.0, -10103.591990899085, -9403.334188858771, -5542.539720838037, -13440.70743807643, -7838.756780476187, -3971.54736179678, -7766.448887163268, -5430.915109028234, -9771.422716548768, -12008.340598146988, -7648.498731672613, -6019.19067134746, -5821.7577125737325, -8558.92998682618, -10484.35395769524, -15122.698560082741, 0.012, 0.23800000000000002, 0.96, 192.0, 0.0, 0.0, 0.0, 0.0, 0.0, 0.0, 0.0, 0.0, 0.0, 1.644588513366807E9, 0.0, 2022-02-12 01:08:33.366
234.0, -10097.020578029225, -9404.652941781635, -5530.313316620984, -13461.941595308972, -7850.536149804134, -3974.095460664685, -7764.39252667338, -5424.1872339471865, -9781.860981209396, -12009.927572003315, -7645.190673493228, -6014.519156756301, -5838.454465681847, -8560.226388004588, -10480.151829737644, -15169.972499605716, 0.016, 0.23600000000000002, 0.9560000000000001, 192.0, 0.0, 64.0, 3.5, 48.0, 14.5, 112.0, 0.0, 0.0, 0.0, 1.644588513373729E9, 0.0, 2022-02-12 01:08:33.373
236.0, -10121.875717863526, -9438.985221264986, -5537.1305986798525, -13448.776417824796, -7840.768437477164, -3973.8942949645875, -7769.77929708711, -5415.0900739538765, -9778.239998607636, -12021.014037253146, -7652.544397419024, -6029.673639496999, -5841.494302927769, -8561.746306627549, -10478.698966348049, -15150.280612740591, 0.016, 0.23600000000000002, 0.9560000000000001, 192.0, 0.0, 0.0, 0.0, 0.0, 0.0, 0.0, 0.0, 0.0, 0.0, 1.644588513381965E9, 0.0, 2022-02-12 01:08:33.381
238.0, -10096.975874540314, -9420.232107666983, -5525.731209007646, -13446.317725934712, -7831.939498417319, -3970.1839053850063, -7751.294404422571, -5412.027884963499, -9766.527684513056, -12010.620476081429, -7633.791283821021, -6006.316066541203, -5824.506977141736, -8555.845446091347, -10479.481277403984, -15133.785025332574, 0.016, 0.23600000000000002, 0.9560000000000001, 192.0, 0.0, 0.0, 0.0, 0.0, 0.0, 0.0, 0.0, 0.0, 0.0, 1.644588513388354E9, 0.0, 2022-02-12 01:08:33.388
240.0, -10093.913685549938, -9417.080511698785, -5535.431866101249, -13456.823045828707, -7840.209643865782, -3981.1586119125623, -7758.849294048464, -5425.0142484920325, -9770.662757237287, -12014.487327872197, -7634.551243132501, -6008.707703197922, -5822.428264907392, -8551.017469289001, -10476.150867480144, -15176.409802008844, 0.016, 0.23600000000000002, 0.9560000000000001, 192.0, 0.0, 0.0, 0.0, 0.0, 0.0, 0.0, 0.0, 0.0, 0.0, 1.644588513396733E9, 0.0, 2022-02-12 01:08:33.396
242.0, -10104.776633355217, -9413.794805263855, -5538.8293312584565, -13446.854167801639, -7835.672239741354, -3974.6542542760676, -7756.3458986694695, -5416.162957687731, -9765.544207757022, -12014.532031361108, -7649.795132851021, -6028.511348785323, -5815.074540981596, -8565.300233995942, -10480.576512882295, -15124.4196444058, 0.016, 0.23600000000000002, 0.9560000000000001, 192.0, 0.0, 0.0, 0.0, 0.0, 0.0, 0.0, 0.0, 0.0, 0.0, 1.644588513404406E9, 0.0, 2022-02-12 01:08:33.404
244.0, -10103.212011243346, -9412.207831407528, -5530.8497584879115, -13460.220510985913, -7845.350545090502, -3979.4375275895036, -7755.787105058087, -5419.40396063375, -9765.41009729029, -12019.337656418998, -7642.352001947404, -6009.601772976133, -5830.206671977839, -8558.706469381628, -10483.258722216931, -15167.357345504446, 0.006, 0.23600000000000002, 0.9480000000000001, 192.0, 0.0, 24.0, 3.5, 48.0, 14.5, 80.0, 0.0, 0.0, 0.0, 1.644588513418094E9, 0.0, 2022-02-12 01:08:33.418
246.0, -10127.597764444085, -9446.227186468504, -5544.0596394609975, -13455.28077546129, -7843.025963667151, -3981.069204934741, -7768.885227308897, -5426.467111881628, -9772.763821216085, -12031.51935714714, -7644.922452559764, -6021.515252770812, -5830.944279544864, -8565.16612352921, -10480.688271604571, -15152.471083697212, 0.006, 0.23600000000000002, 0.9480000000000001, 192.0, 0.0, 0.0, 0.0, 0.0, 0.0, 0.0, 0.0, 0.0, 0.0, 1.644588513426006E9, 0.0, 2022-02-12 01:08:33.426
248.0, -10110.073996791125, -9440.661602099133, -5530.8497584879115, -13458.007688284837, -7847.630423024943, -3981.583295057213, -7763.878436550908, -5434.245518952074, -9780.922207942273, -12023.316266932043, -7647.962289805686, -6020.151796359039, -5839.259128482238, -8563.489742695063, -10488.89136181967, -15140.199975991247, 0.006, 0.23600000000000002, 0.9480000000000001, 192.0, 0.0, 0.0, 0.0, 0.0, 0.0, 0.0, 0.0, 0.0, 0.0, 1.64458851343462E9, 0.0, 2022-02-12 01:08:33.434
250.0, -10108.308208979155, -9424.993029235964, -5542.517369093582, -13463.863845332127, -7854.760629506187, -3989.9204957390425, -7772.752079099665, -5433.1726352182195, -9783.425603321268, -12037.554328150074, -7639.89331005732, -6014.630915478578, -5821.936526529375, -8567.73657414157, -10487.974940297001, -15184.948168390772, 0.006, 0.23600000000000002, 0.9480000000000001, 192.0, 0.0, 0.0, 0.0, 0.0, 0.0, 0.0, 0.0, 0.0, 0.0, 1.644588513440723E9, 0.0, 2022-02-12 01:08:33.440
252.0, -10118.657066661963, -9421.081473956285, -5530.04509568752, -13459.125275507604, -7841.908376444385, -3990.0546062057742, -7765.979500529707, -5442.001574278066, -9769.41105954779, -12020.544650619586, -7644.4083624372915, -6020.464720781412, -5837.448637181358, -8577.817210890915, -10490.03130078689, -15135.99784803365, 0.006, 0.23600000000000002, 0.9480000000000001, 192.0, 0.0, 0.0, 0.0, 0.0, 0.0, 0.0, 0.0, 0.0, 0.0, 1.644588513448693E9, 0.0, 2022-02-12 01:08:33.448
254.0, -10110.610438658052, -9419.852128011242, -5529.866281731878, -13470.658775646541, -7852.4360480828345, -3993.072091707241, -7760.77154407162, -5430.26690843903, -9775.803658462008, -12023.964467521248, -7632.494882642613, -6006.76310143031, -5835.101704013551, -8571.759888143526, -10484.778640839892, -15179.203770065758, 0.01, 0.234, 0.9500000000000001, 192.0, 0.0, 40.0, 3.5, 40.0, 14.5, 88.0, 0.0, 0.0, 0.0, 1.644588513456682E9, 0.0, 2022-02-12 01:08:33.456
0.0, -10102.563810654141, -9424.05425596884, -5540.393953370328, -13465.920205822016, -7844.322364845559, -3992.870926007143, -7774.316701211536, -5441.487484155594, -9775.64719625082, -12033.821586826038, -7648.878711328353, -6018.47541552489, -5839.750866860255, -8577.481934724085, -10486.946760052057, -15165.345688503468, 0.01, 0.234, 0.9500000000000001, 192.0, 0.0, 0.0, 0.0, 0.0, 0.0, 0.0, 0.0, 0.0, 0.0, 1.644588513464122E9, 0.0, 2022-02-12 01:08:33.464
2.0, -10087.878714547005, -9424.76951179141, -5533.733133522646, -13467.730697122895, -7843.271832856159, -3988.3111701382604, -7759.385735915392, -5440.034620765999, -9767.511161269089, -12013.2356301827, -7654.712516631189, -6023.5716132607, -5824.149349230451, -8571.201094532144, -10490.858315331736, -15144.335048715478, 0.01, 0.234, 0.9500000000000001, 192.0, 0.0, 0.0, 0.0, 0.0, 0.0, 0.0, 0.0, 0.0, 0.0, 1.644588513470439E9, 0.0, 2022-02-12 01:08:33.470
4.0, -10112.756206125761, -9434.96190726303, -5540.2374911591405, -13472.178694269502, -7853.307766116592, -3998.83884177671, -7770.494552909679, -5442.001574278066, -9784.252617866114, -12029.977086779725, -7640.8320833244425, -6027.19259586246, -5831.279555711693, -8572.989234088569, -10487.93023680809, -15191.184305093802, 0.01, 0.234, 0.9500000000000001, 192.0, 0.0, 0.0, 0.0, 0.0, 0.0, 0.0, 0.0, 0.0, 0.0, 1.644588513478359E9, 0.0, 2022-02-12 01:08:33.478
6.0, -10129.698828422885, -9431.028000238895, -5537.734095780146, -13460.66754587502, -7845.149379390405, -3995.709597552967, -7770.9639395432405, -5442.783885334002, -9773.434373549744, -12023.115101231946, -7638.7757228345545, -6018.207194591427, -5844.198864006861, -8586.757908673038, -10492.467640932518, -15140.915231813817, 0.01, 0.234, 0.9500000000000001, 192.0, 0.0, 0.0, 0.0, 0.0, 0.0, 0.0, 0.0, 0.0, 0.0, 1.64458851348652E9, 0.0, 2022-02-12 01:08:33.486
8.0, -10120.914592851948, -9426.267078669916, -5535.007182956599, -13471.821066358218, -7856.146437662415, -3996.894240009098, -7769.645186620377, -5442.538016144993, -9792.768632503585, -12038.493101417196, -7642.79903683651, -6005.466700251902, -5840.041439538174, -8582.1758010597, -10493.115841521721, -15182.601235222965, 0.006, 0.232, 0.9480000000000001, 192.0, 0.0, 24.0, 3.5, 32.0, 14.5, 80.0, 0.0, 0.0, 0.0, 1.644588513493507E9, 0.0, 2022-02-12 01:08:33.493
10.0, -10102.876735076516, -9421.14852918965, -5544.685488305747, -13461.136932508582, -7842.690687500321, -3995.8884115086094, -7776.864800079442, -5452.059859282954, -9785.593722533433, -12044.773941609137, -7647.336440960938, -6021.202328348438, -5836.912195314431, -8576.856085879337, -10495.596885156261, -15169.212540294237, 0.006, 0.232, 0.9480000000000001, 192.0, 0.0, 0.0, 0.0, 0.0, 0.0, 0.0, 0.0, 0.0, 0.0, 1.644588513501058E9, 0.0, 2022-02-12 01:08:33.501
12.0, -10097.065281518137, -9426.222375181005, -5535.454217845705, -13467.194255255969, -7839.986126421229, -3995.4637283639586, -7764.928968540307, -5441.576891133415, -9775.468382295177, -12027.026656511624, -7655.0924962869285, -6018.453063780435, -5823.031762007686, -8575.827905634393, -10497.765004368426, -15153.23104300869, 0.006, 0.232, 0.9480000000000001, 192.0, 0.0, 0.0, 0.0, 0.0, 0.0, 0.0, 0.0, 0.0, 0.0, 1.64458851350898E9, 0.0, 2022-02-12 01:08:33.508
14.0, -10113.694979392885, -9431.29622117236, -5540.595119070425, -13479.152438539559, -7843.741219489721, -4002.906859267576, -7769.10874475345, -5445.22022547963, -9779.804620719508, -12034.313325204055, -7639.848606568409, -6025.784435961776, -5827.703276598844, -8577.213713790621, -10494.635760144683, -15198.58273250851, 0.006, 0.232, 0.9480000000000001, 192.0, 0.0, 0.0, 0.0, 0.0, 0.0, 0.0, 0.0, 0.0, 0.0, 1.64458851351745E9, 0.0, 2022-02-12 01:08:33.517
16.0, -10125.340238254099, -9441.578023621802, -5541.913871993288, -13466.367240711123, -7840.433161310335, -4001.7222168114445, -7770.226331976215, -5439.878158554811, -9776.317748584479, -12028.121891989935, -7644.475417670658, -6018.721284713899, -5836.6663261254225, -8588.099013340356, -10495.708643878537, -15146.681981883286, 0.006, 0.232, 0.9480000000000001, 192.0, 0.0, 0.0, 0.0, 0.0, 0.0, 0.0, 0.0, 0.0, 0.0, 1.644588513523622E9, 0.0, 2022-02-12 01:08:33.523
18.0, -10109.112871779547, -9436.370067163714, -5537.845854502422, -13478.459534461444, -7853.1960073943155, -4004.3373709127154, -7767.3206051970255, -5447.477751669616, -9798.960065717705, -12054.38519172492, -7643.357830447892, -6021.00116264834, -5835.2581662247385, -8586.623798206307, -10496.736824123482, -15185.261092813147, 0.006, 0.23600000000000002, 0.9480000000000001, 192.0, 0.0, 24.0, 3.5, 48.0, 14.5, 80.0, 0.0, 0.0, 0.0, 1.644588513530965E9, 0.0, 2022-02-12 01:08:33.530
20.0, -10116.868927105537, -9435.699514830056, -5551.52512210907, -13472.089287291681, -7840.209643865782, -4007.2207459474503, -7777.356538457459, -5449.757629604057, -9795.137917415848, -12058.117933048956, -7654.332536975448, -6031.8417587091635, -5842.1872070058835, -8592.0776238534, -10498.212039257533, -15172.475894984711, 0.006, 0.23600000000000002, 0.9480000000000001, 192.0, 0.0, 0.0, 0.0, 0.0, 0.0, 0.0, 0.0, 0.0, 0.0, 1.644588513545891E9, 0.0, 2022-02-12 01:08:33.545
22.0, -10111.99624681428, -9446.361296935236, -5540.975098726166, -13471.038755302281, -7839.561443276578, -4002.6162865896567, -7767.67823310831, -5442.64977486727, -9788.27593186807, -12048.394924210897, -7645.257728726594, -6025.605622006134, -5818.516709627714, -8595.050405865957, -10500.335454980786, -15147.28547898358, 0.006, 0.23600000000000002, 0.9480000000000001, 192.0, 0.0, 0.0, 0.0, 0.0, 0.0, 0.0, 0.0, 0.0, 0.0, 1.644588513553428E9, 0.0, 2022-02-12 01:08:33.553
24.0, -10147.021430375748, -9460.10761977525, -5554.676718077269, -13485.500333964865, -7849.776190492653, -4011.512280882869, -7770.226331976215, -5449.243539481586, -9804.391539620345, -12064.957566852281, -7645.570653148968, -6023.90688942753, -5849.496227442769, -8592.390548275775, -10500.022530558412, -15192.81598243904, 0.006, 0.23600000000000002, 0.9480000000000001, 192.0, 0.0, 0.0, 0.0, 0.0, 0.0, 0.0, 0.0, 0.0, 0.0, 1.644588513561277E9, 0.0, 2022-02-12 01:08:33.561
26.0, -10133.409218002465, -9440.7286573325, -5554.453200632715, -13474.100944292659, -7840.07553339905, -4004.2703156793496, -7771.232160476704, -5448.684745870202, -9794.445013337734, -12051.367706223453, -7652.99143230813, -6038.14495064556, -5841.851930839054, -8604.058158881446, -10504.045844560367, -15144.022124293106, 0.006, 0.234, 0.9490000000000001, 192.0, 0.0, 24.0, 3.5, 32.0, 14.5, 88.0, 0.0, 0.0, 0.0, 1.644588513569267E9, 0.0, 2022-02-12 01:08:33.569
28.0, -10118.791177128694, -9439.476959643001, -5554.3861453993495, -13492.787002657296, -7851.877254471452, -4010.260583193372, -7768.2593784641485, -5454.227978495119, -9806.134975687859, -12051.77003762365, -7660.0769353004625, -6029.561880774722, -5845.0035268072525, -8594.335150043387, -10505.766928883426, -15185.439906768788, 0.006, 0.234, 0.9490000000000001, 192.0, 0.0, 0.0, 0.0, 0.0, 0.0, 0.0, 0.0, 0.0, 0.0, 1.644588513575907E9, 0.0, 2022-02-12 01:08:33.575
30.0, -10120.847537618583, -9437.19708170856, -5566.925474038777, -13485.075650820214, -7843.852978211997, -4018.754246086389, -7780.239913492193, -5461.782868121013, -9794.64617903783, -12060.598976683495, -7661.350984734415, -6037.228529122893, -5830.005506277741, -8600.101900112855, -10507.197440528565, -15177.058002598049, 0.006, 0.234, 0.9490000000000001, 192.0, 0.0, 0.0, 0.0, 0.0, 0.0, 0.0, 0.0, 0.0, 0.0, 1.64458851358391E9, 0.0, 2022-02-12 01:08:33.583
32.0, -10144.406276274476, -9472.15521003666, -5555.8613605334, -13487.959025854949, -7851.921957960362, -4015.2450222069056, -7777.356538457459, -5454.898530828778, -9800.927019229774, -12064.756401152183, -7662.379164979358, -6033.316973843214, -5846.724611130311, -8611.121310129323, -10509.454966718551, -15161.903519857351, 0.006, 0.234, 0.9490000000000001, 192.0, 0.0, 0.0, 0.0, 0.0, 0.0, 0.0, 0.0, 0.0, 0.0, 1.644588513591874E9, 0.0, 2022-02-12 01:08:33.591
34.0, -10149.72599145484, -9467.81897161233, -5557.895369278833, -13498.307883537756, -7856.101734173505, -4022.866967066165, -7781.916294326341, -5463.280434999519, -9815.388597892357, -12075.038203601624, -7652.678507885756, -6034.881595955086, -5850.6361664099895, -8604.438138537185, -10510.281981263397, -15208.417500068845, 0.006, 0.234, 0.9490000000000001, 192.0, 0.0, 0.0, 0.0, 0.0, 0.0, 0.0, 0.0, 0.0, 0.0, 1.644588513599246E9, 0.0, 2022-02-12 01:08:33.599
36.0, -10137.633697704518, -9446.361296935236, -5556.464857633693, -13484.673319420019, -7845.439952068324, -4015.6920570960115, -7779.189381502793, -5456.910187829756, -9794.690882526742, -12056.821531870548, -7659.205217266705, -6034.300450599248, -5843.975346562308, -8610.1825368622, -10508.136213795688, -15154.23687150918, 0.004, 0.233, 0.9495, 192.0, 0.0, 8.0, 3.5, 32.0, 14.5, 88.0, 0.0, 0.0, 0.0, 1.644588513605512E9, 0.0, 2022-02-12 01:08:33.605
38.0, -10118.411197472955, -9443.924956789608, -5555.235511688651, -13497.927903882017, -7856.8393417405305, -4014.775635573344, -7775.277826223115, -5447.656565625259, -9799.809432007007, -12065.315194763565, -7647.135275260839, -6034.568671532711, -5836.420456936415, -8598.55962974544, -10506.83981261728, -15191.653691727364, 0.004, 0.233, 0.9495, 192.0, 0.0, 0.0, 0.0, 0.0, 0.0, 0.0, 0.0, 0.0, 0.0, 1.64458851361354E9, 0.0, 2022-02-12 01:08:33.613
40.0, -10119.662895162452, -9439.476959643001, -5561.762221069601, -13488.495467721876, -7847.496312558212, -4017.3460861857043, -7778.563532658045, -5453.4233156947275, -9801.798737263529, -12068.399735498399, -7656.724173632166, -6039.6425175240665, -5832.665363867923, -8601.822984435914, -10509.36555974073, -15176.588615964487, 0.004, 0.233, 0.9495, 192.0, 0.0, 0.0, 0.0, 0.0, 0.0, 0.0, 0.0, 0.0, 0.0, 1.64458851362158E9, 0.0, 2022-02-12 01:08:33.621
42.0, -10131.397561001488, -9454.542035405879, -5554.632014588358, -13495.089232336191, -7851.3184608600695, -4018.396618175104, -7770.181628487305, -5454.786772106501, -9797.618961050388, -12047.925537577335, -7669.129391804861, -6034.836892466175, -5837.895672070465, -8605.689836226682, -10505.543411438872, -15158.640165166875, 0.004, 0.233, 0.9495, 192.0, 0.0, 0.0, 0.0, 0.0, 0.0, 0.0, 0.0, 0.0, 0.0, 1.644588513628707E9, 0.0, 2022-02-12 01:08:33.628
44.0, -10133.76684591375, -9455.167884250628, -5553.983813999154, -13495.513915480842, -7847.339850347024, -4023.001077532897, -7768.304081953059, -5460.8217431094345, -9805.956161732216, -12075.440535001819, -7658.646423655323, -6041.028325680295, -5844.154160517951, -8598.313760556432, -10504.69404514957, -15205.489421545199, 0.004, 0.233, 0.9495, 192.0, 0.0, 0.0, 0.0, 0.0, 0.0, 0.0, 0.0, 0.0, 0.0, 1.644588513636182E9, 0.0, 2022-02-12 01:08:33.636
46.0, -10137.588994215608, -9457.15718950715, -5554.184979699252, -13483.24280777488, -7845.5517107906, -4021.4588071654807, -7771.142753498883, -5447.880083069812, -9786.040757422537, -12063.080020318035, -7661.239226012138, -6034.6580785105325, -5831.368962689515, -8599.856030923847, -10506.54923993936, -15148.89480458436, 0.004, 0.2365, 0.9517500000000001, 192.0, 0.0, 16.0, 3.5, 64.0, 14.5, 104.0, 0.0, 0.0, 0.0, 1.644588513644107E9, 0.0, 2022-02-12 01:08:33.644
48.0, -10118.880584106515, -9448.618823125224, -5551.547473853526, -13496.81031665925, -7848.189216636327, -4023.358705444182, -7761.620910360923, -5447.723620858625, -9803.542173331043, -12072.53480822263, -7647.023516538563, -6030.746523230854, -5832.575956890101, -8597.106766355844, -10502.83885035978, -15187.630377725409, 0.004, 0.2365, 0.9517500000000001, 192.0, 0.0, 0.0, 0.0, 0.0, 0.0, 0.0, 0.0, 0.0, 0.0, 1.644588513652144E9, 0.0, 2022-02-12 01:08:33.652
50.0, -10113.270296248234, -9427.25055542595, -5560.666985591291, -13487.176714799014, -7838.9355944318295, -4019.514205397869, -7766.515942396634, -5448.572987147926, -9785.191391133236, -12051.77003762365, -7651.13623751834, -6028.8466249521525, -5822.450616651848, -8594.066929109924, -10503.643513160172, -15175.42632525281, 0.004, 0.2365, 0.9517500000000001, 192.0, 0.0, 0.0, 0.0, 0.0, 0.0, 0.0, 0.0, 0.0, 0.0, 1.644588513667144E9, 0.0, 2022-02-12 01:08:33.667
52.0, -10130.704656923373, -9459.63823314169, -5546.0489447175205, -13494.753956169363, -7843.40594332289, -4020.944717043009, -7769.0863930089945, -5451.5457691604815, -9787.091289411937, -12059.615499927462, -7654.488999186636, -6037.407343078536, -5840.734343616288, -8598.403167534252, -10506.191612028077, -15157.746095388664, 0.004, 0.2365, 0.9517500000000001, 192.0, 0.0, 0.0, 0.0, 0.0, 0.0, 0.0, 0.0, 0.0, 0.0, 1.644588513673783E9, 0.0, 2022-02-12 01:08:33.673
54.0, -10132.135168568513, -9462.342794220782, -5557.180113456263, -13504.05228186277, -7849.127989903449, -4034.7580951163886, -7770.293387209581, -5455.882007584812, -9798.960065717705, -12086.214075829277, -7652.902025330309, -6027.214947606915, -5837.716858114822, -8600.347769301865, -10508.963228340535, -15209.780956480618, 0.004, 0.2365, 0.9517500000000001, 192.0, 0.0, 0.0, 0.0, 0.0, 0.0, 0.0, 0.0, 0.0, 0.0, 1.644588513681854E9, 0.0, 2022-02-12 01:08:33.681
56.0, -10138.840691905105, -9449.311727203338, -5558.76708731259, -13490.171848556025, -7834.644059496411, -4023.4034089330926, -7762.760849328143, -5448.595338892382, -9795.093213926937, -12067.192741297811, -7661.37333647887, -6043.174093148004, -5833.246509223761, -8610.406054306754, -10510.013760329934, -15155.868548854418, 0.001, 0.23825, 0.9508750000000001, 192.0, 127.5, 120.0, 3.5, 64.0, 14.5, 88.0, 0.0, 0.0, 0.0, 1.644588513688407E9, 0.0, 2022-02-12 01:08:33.688
58.0, -10134.929136625426, -9456.218416240026, -5552.463895376193, -13502.889991151094, -7848.055106169594, -4025.638583378623, -7764.258416206649, -5452.395135449784, -9799.943542473738, -12054.184026024823, -7650.890368329331, -6039.3519448461475, -5812.012351991219, -8602.582943747395, -10507.152737039654, -15193.307720817056, 0.001, 0.23825, 0.9508750000000001, 192.0, 0.0, 0.0, 0.0, 0.0, 0.0, 0.0, 0.0, 0.0, 0.0, 1.64458851369645E9, 0.0, 2022-02-12 01:08:33.696
60.0, -10145.747380941795, -9454.609090639246, -5560.890503035844, -13495.648025947576, -7842.64598401141, -4034.936909072031, -7779.457602436257, -5471.0364903255095, -9799.138879673348, -12085.901151406902, -7659.451086455713, -6038.256709367837, -5837.515692414724, -8612.41771130773, -10504.179955027099, -15185.439906768788, 0.001, 0.23825, 0.9508750000000001, 192.0, 0.0, 0.0, 0.0, 0.0, 0.0, 0.0, 0.0, 0.0, 0.0, 1.644588513704457E9, 0.0, 2022-02-12 01:08:33.704
62.0, -10124.088540564602, -9460.398192453169, -5553.715593065691, -13499.62663646062, -7847.049277669106, -4033.5511009158017, -7774.182590744805, -5460.039432053499, -9796.054338938517, -12065.71752616376, -7660.792191123032, -6031.305316842237, -5830.787817333677, -8614.295257841975, -10507.89034460668, -15168.944319360771, 0.001, 0.23825, 0.9508750000000001, 192.0, 0.0, 0.0, 0.0, 0.0, 0.0, 0.0, 0.0, 0.0, 0.0, 1.644588513711128E9, 0.0, 2022-02-12 01:08:33.711
64.0, -10126.1896045434, -9455.860788328742, -5555.727250066669, -13503.895819651583, -7847.697478258309, -4033.9087288270866, -7777.580055902012, -5464.867408855845, -9799.720025029186, -12086.035261873634, -7646.978813049653, -6032.981697676385, -5837.247471481261, -8605.153394359755, -10506.348074239264, -15210.563267536554, 0.001, 0.23825, 0.9508750000000001, 192.0, 0.0, 0.0, 0.0, 0.0, 0.0, 0.0, 0.0, 0.0, 0.0, 1.644588513718094E9, 0.0, 2022-02-12 01:08:33.718
66.0, -10132.515148224253, -9441.376857921703, -5555.7943053000345, -13496.475040492422, -7830.196062349804, -4023.5375193998243, -7765.934797040796, -5452.037507538499, -9785.213742877691, -12058.922595849348, -7660.2557492561045, -6036.200348877949, -5828.731456843789, -8604.907525170747, -10506.45983296154, -15155.935604087783, 0.006500000000000001, 0.235125, 0.9494375000000002, 192.0, 0.0, 48.0, 3.5, 32.0, 14.5, 80.0, 0.0, 0.0, 0.0, 1.644588513726146E9, 0.0, 2022-02-12 01:08:33.726
68.0, -10132.604555202075, -9445.936613790585, -5554.542607610537, -13509.662569721053, -7847.697478258309, -4037.6638218955786, -7773.444983177779, -5468.398984479783, -9801.21759190769, -12069.29380527661, -7655.383068964848, -6037.742619245365, -5827.368000432015, -8606.494499027074, -10507.309199250842, -15198.381566808412, 0.006500000000000001, 0.235125, 0.9494375000000002, 192.0, 0.0, 0.0, 0.0, 0.0, 0.0, 0.0, 0.0, 0.0, 0.0, 1.644588513734016E9, 0.0, 2022-02-12 01:08:33.734
70.0, -10148.742514698806, -9467.10371578976, -5557.180113456263, -13502.465308006444, -7843.40594332289, -4047.2750720113604, -7780.217561747738, -5469.114240302353, -9803.69863554223, -12065.270491274654, -7656.008917809596, -6044.828122237697, -5833.91706155742, -8622.543051545985, -10510.617257430227, -15193.598293494975, 0.006500000000000001, 0.235125, 0.9494375000000002, 192.0, 0.0, 0.0, 0.0, 0.0, 0.0, 0.0, 0.0, 0.0, 0.0, 1.644588513741155E9, 0.0, 2022-02-12 01:08:33.741
72.0, -10134.303287780678, -9464.309747732848, -5550.228720930662, -13497.05618584826, -7839.136760131927, -4033.975784060453, -7768.304081953059, -5456.150228518275, -9797.618961050388, -12071.193703555311, -7651.605624151901, -6030.344191830658, -5812.526442113691, -8613.445891552674, -10506.906867850646, -15167.357345504446, 0.006500000000000001, 0.235125, 0.9494375000000002, 192.0, 0.0, 0.0, 0.0, 0.0, 0.0, 0.0, 0.0, 0.0, 0.0, 1.644588513748727E9, 0.0, 2022-02-12 01:08:33.748
74.0, -10131.844595890594, -9464.846189599775, -5556.0848779779535, -13506.756842941862, -7848.636251525432, -4042.6706126535673, -7774.517866911634, -5465.135629789309, -9805.397368120834, -12089.008043886191, -7646.1070950158955, -6024.353924316636, -5841.941337816875, -8607.589734505384, -10503.844678860269, -15212.306703604068, 0.006500000000000001, 0.235125, 0.9494375000000002, 192.0, 0.0, 0.0, 0.0, 0.0, 0.0, 0.0, 0.0, 0.0, 0.0, 1.64458851375675E9, 0.0, 2022-02-12 01:08:33.756
76.0, -10128.76005515576, -9444.595509123268, -5560.555226869014, -13499.805450416263, -7838.957946176285, -4040.457789952492, -7780.418727447835, -5477.965531106655, -9798.088347683948, -12075.015851857168, -7657.327670732459, -6048.024421694806, -5828.418532421414, -8611.680103740706, -10507.152737039654, -15162.48466521319, 0.01125, 0.2345625, 0.9477187500000002, 192.0, 0.0, 64.0, 3.5, 40.0, 14.5, 72.0, 0.0, 0.0, 0.0, 1.64458851376376E9, 0.0, 2022-02-12 01:08:33.763
78.0, -10124.021485331235, -9454.67614587261, -5552.285081420551, -13508.43322377601, -7850.0891149150275, -4039.921348085564, -7774.96490180074, -5464.308615244462, -9807.923115244284, -12078.05568910309, -7649.459856684191, -6042.8164652367195, -5840.711991871834, -8618.273868355021, -10506.482184705996, -15202.650749999375, 0.01125, 0.2345625, 0.9477187500000002, 192.0, 0.0, 0.0, 0.0, 0.0, 0.0, 0.0, 0.0, 0.0, 0.0, 1.644588513771351E9, 0.0, 2022-02-12 01:08:33.771
80.0, -10133.789197658205, -9468.44482045708, -5562.589235614448, -13503.761709184851, -7840.410809565879, -4037.3732492176596, -7776.484820423701, -5466.476734456627, -9804.995036720638, -12083.442459516818, -7657.864112599387, -6040.268366368815, -5841.896634327964, -8618.765606733037, -10508.113862051232, -15190.5361045046, 0.01125, 0.2345625, 0.9477187500000002, 192.0, 0.0, 0.0, 0.0, 0.0, 0.0, 0.0, 0.0, 0.0, 0.0, 1.644588513778399E9, 0.0, 2022-02-12 01:08:33.778
82.0, -10137.186662815413, -9469.003614068462, -5561.203427458218, -13503.269970806834, -7843.9870886787285, -4035.98744106143, -7772.215637232738, -5463.906283844267, -9801.821089007984, -12058.05087781559, -7659.495789944624, -6033.294622098759, -5829.6255266220005, -8618.1844613772, -10508.98558008499, -15165.4797989702, 0.01125, 0.2345625, 0.9477187500000002, 192.0, 0.0, 0.0, 0.0, 0.0, 0.0, 0.0, 0.0, 0.0, 0.0, 1.644588513792968E9, 0.0, 2022-02-12 01:08:33.792
84.0, -10150.620061233052, -9465.24852099997, -5569.652386862324, -13515.474023279432, -7856.638176040433, -4048.5938249342234, -7786.721919384232, -5479.284284029518, -9814.919211258795, -12087.935160152336, -7648.722249117166, -6028.33253482968, -5832.933584801386, -8615.256382853555, -10510.505498707951, -15216.933514706316, 0.01125, 0.2345625, 0.9477187500000002, 192.0, 0.0, 0.0, 0.0, 0.0, 0.0, 0.0, 0.0, 0.0, 0.0, 1.644588513801206E9, 0.0, 2022-02-12 01:08:33.801
86.0, -10148.116665854057, -9461.314613975837, -5568.132468239363, -13511.361302299656, -7848.055106169594, -4045.710449899489, -7786.744271128688, -5469.628330424825, -9807.945466988738, -12070.903130877392, -7661.730964390155, -6048.270290883815, -5852.893692599976, -8634.769455763037, -10520.809652901848, -15166.91031061534, 0.008625, 0.23728125, 0.9448593750000001, 192.0, 0.0, 24.0, 3.5, 64.0, 14.5, 56.0, 0.0, 0.0, 0.0, 1.644588513808999E9, 0.0, 2022-02-12 01:08:33.808
88.0, -10124.692037664896, -9461.202855253561, -5565.33850018245, -13522.760691971862, -7847.473960813757, -4042.3353364867376, -7767.164142985838, -5458.407754708262, -9812.460519368711, -12096.853506190004, -7659.652252155812, -6043.062334425728, -5847.618680908523, -8626.074627169923, -10512.964190598035, -15199.610912753453, 0.008625, 0.23728125, 0.9448593750000001, 192.0, 0.0, 0.0, 0.0, 0.0, 0.0, 0.0, 0.0, 0.0, 0.0, 1.644588513816253E9, 0.0, 2022-02-12 01:08:33.816
90.0, -10144.696848952395, -9478.346643250781, -5571.373471185383, -13517.440976791499, -7837.683896742332, -4040.5024934414023, -7776.01543379014, -5463.839228610901, -9814.829804280973, -12097.792279457126, -7665.664871414289, -6046.839779238675, -5834.25233772425, -8623.28065911301, -10509.767891140926, -15190.111421359949, 0.008625, 0.23728125, 0.9448593750000001, 192.0, 0.0, 0.0, 0.0, 0.0, 0.0, 0.0, 0.0, 0.0, 0.0, 1.644588513823572E9, 0.0, 2022-02-12 01:08:33.823
92.0, -10151.849407178093, -9476.089117060796, -5558.7894390570455, -13512.43418603351, -7837.840358953519, -4045.0846010547402, -7769.712241853744, -5461.64875765428, -9805.240905909646, -12079.799125170604, -7663.742621391132, -6050.326651373703, -5828.083256254585, -8626.096978914378, -10512.181879542099, -15169.413705994333, 0.008625, 0.23728125, 0.9448593750000001, 192.0, 0.0, 0.0, 0.0, 0.0, 0.0, 0.0, 0.0, 0.0, 0.0, 1.644588513831742E9, 0.0, 2022-02-12 01:08:33.831
94.0, -10160.00779390428, -9477.49727696148, -5567.8642473059, -13526.292267595802, -7844.0988474010055, -4046.224540021961, -7774.54021865609, -5463.906283844267, -9816.617943837398, -12102.307331837099, -7647.336440960938, -6047.2197588944155, -5846.6799076414, -8622.587755034894, -10503.867030604724, -15215.123023405436, 0.008625, 0.23728125, 0.9448593750000001, 192.0, 0.0, 0.0, 0.0, 0.0, 0.0, 0.0, 0.0, 0.0, 0.0, 1.644588513840173E9, 0.0, 2022-02-12 01:08:33.840
96.0, -10144.71920069685, -9464.77913436641, -5564.980872271165, -13505.236924318902, -7831.626573994944, -4038.89316784062, -7778.87645708042, -5463.9286355887225, -9809.443033867245, -12058.788485382616, -7663.18382777975, -6041.676526269499, -5842.589538406079, -8623.973563191124, -10506.817460872826, -15165.52450245911, 0.01, 0.23600000000000002, 0.9480000000000001, 192.0, 0.0, 40.0, 3.5, 48.0, 14.5, 80.0, 0.0, 0.0, 0.0, 1.644588513846602E9, 0.0, 2022-02-12 01:08:33.846
98.0, -10130.212918545356, -9459.481770930503, -5557.873017534378, -13509.371997043134, -7836.1192746304605, -4037.0156213063747, -7766.694756352277, -5452.819818594435, -9813.198126935737, -12071.57368321105, -7647.783475850043, -6029.561880774722, -5833.402971434948, -8621.827795723415, -10503.285885248886, -15197.286331330102, 0.01, 0.23600000000000002, 0.9480000000000001, 192.0, 0.0, 0.0, 0.0, 0.0, 0.0, 0.0, 0.0, 0.0, 0.0, 1.644588513853188E9, 0.0, 2022-02-12 01:08:33.853
100.0, -10146.082657108624, -9465.404983211158, -5569.317110695495, -13502.91234289555, -7829.771379205154, -4040.480141696947, -7771.410974432347, -5462.006385565565, -9807.118452443892, -12091.310273565088, -7641.748504847111, -6030.590061019667, -5824.126997485995, -8610.786033962493, -10499.709606136037, -15187.071584114026, 0.01, 0.23600000000000002, 0.9480000000000001, 192.0, 0.0, 0.0, 0.0, 0.0, 0.0, 0.0, 0.0, 0.0, 0.0, 1.644588513861456E9, 0.0, 2022-02-12 01:08:33.861
102.0, -10129.698828422885, -9475.35150949377, -5559.616453601891, -13504.611075474153, -7828.050294882095, -4034.7580951163886, -7761.084468493995, -5447.74597260308, -9806.738472788153, -12075.507590235185, -7655.964214320686, -6033.048752909751, -5823.501148641247, -8612.998856663567, -10502.995312570967, -15164.80924663654, 0.01, 0.23600000000000002, 0.9480000000000001, 192.0, 0.0, 0.0, 0.0, 0.0, 0.0, 0.0, 0.0, 0.0, 0.0, 1.644588513869227E9, 0.0, 2022-02-12 01:08:33.869
104.0, -10131.084636579113, -9449.82581732581, -5564.802058315523, -13513.663531978553, -7833.258251340181, -4040.256624252394, -7768.192323230783, -5457.580740163415, -9810.56062109001, -12093.143116610423, -7652.030307296552, -6044.358735604136, -5813.934602014376, -8605.37691180431, -10503.26353350443, -15210.920895447838, 0.01, 0.23600000000000002, 0.9480000000000001, 192.0, 0.0, 0.0, 0.0, 0.0, 0.0, 0.0, 0.0, 0.0, 0.0, 1.644588513876024E9, 0.0, 2022-02-12 01:08:33.876
106.0, -10131.643430190496, -9446.607166124246, -5554.944939010732, -13495.133935825103, -7815.958001131774, -4034.422818949559, -7767.275901708115, -5457.200760507674, -9791.494583069632, -12058.877892360437, -7656.590063165434, -6039.664869268521, -5821.131863728984, -8612.954153174658, -10504.31406549383, -15158.684868655786, 0.014, 0.23600000000000002, 0.9460000000000001, 192.0, 0.0, 56.0, 3.5, 48.0, 14.5, 72.0, 0.0, 0.0, 0.0, 1.644588513883873E9, 0.0, 2022-02-12 01:08:33.883
108.0, -10132.716313924351, -9461.940462820587, -5552.218026187185, -13511.406005788567, -7825.502196014189, -4034.087542782729, -7750.690907322277, -5443.923824301222, -9801.75403377462, -12057.402677226386, -7642.262594969582, -6026.946726673452, -5819.634296850479, -8610.875440940314, -10498.100280535255, -15192.324244061023, 0.014, 0.23600000000000002, 0.9460000000000001, 192.0, 0.0, 0.0, 0.0, 0.0, 0.0, 0.0, 0.0, 0.0, 0.0, 1.644588513891986E9, 0.0, 2022-02-12 01:08:33.891
110.0, -10135.979668614826, -9465.002651810963, -5564.042099004042, -13506.175697586024, -7822.194137834805, -4030.9582985589864, -7766.91827379683, -5461.469943698638, -9801.150536674326, -12085.834096173538, -7642.620222880867, -6030.455950552935, -5819.030799750185, -8603.029978636501, -10497.966170068523, -15184.724650946218, 0.014, 0.23600000000000002, 0.9460000000000001, 192.0, 0.0, 0.0, 0.0, 0.0, 0.0, 0.0, 0.0, 0.0, 0.0, 1.644588513898544E9, 0.0, 2022-02-12 01:08:33.898
112.0, -10122.255697519267, -9451.993936537974, -5556.509561122604, -13496.162116070047, -7820.003666878184, -4031.22651949245, -7747.8969392653635, -5443.45443766766, -9788.499449312621, -12061.314232506065, -7645.682411871245, -6034.4792645548905, -5809.106625212029, -8611.814214207438, -10501.833021859291, -15159.19895877826, 0.014, 0.23600000000000002, 0.9460000000000001, 192.0, 0.0, 0.0, 0.0, 0.0, 0.0, 0.0, 0.0, 0.0, 0.0, 1.644588513913472E9, 0.0, 2022-02-12 01:08:33.913
114.0, -10133.29745928019, -9449.624651625712, -5564.153857726319, -13506.130994097113, -7828.743198960209, -4042.000060319908, -7757.977576014707, -5451.970452305133, -9805.151498931826, -12081.833133916038, -7647.403496194303, -6019.078912625184, -5822.785892818677, -8608.796728705971, -10500.178992769599, -15208.395148324389, 0.014, 0.23600000000000002, 0.9460000000000001, 192.0, 0.0, 0.0, 0.0, 0.0, 0.0, 0.0, 0.0, 0.0, 0.0, 1.644588513921731E9, 0.0, 2022-02-12 01:08:33.921
116.0, -10125.340238254099, -9446.316593446327, -5556.375450655872, -13494.441031746988, -7820.517757000656, -4035.4286474500477, -7761.352689427458, -5445.242577224085, -9794.914399971294, -12074.188837312322, -7651.315051473982, -6032.109979642628, -5813.509918869725, -8618.095054399379, -10500.246048002964, -15157.85785411094, 0.01, 0.24, 0.9520000000000001, 192.0, 0.0, 40.0, 3.5, 64.0, 14.5, 96.0, 0.0, 0.0, 0.0, 1.644588513928164E9, 0.0, 2022-02-12 01:08:33.928
118.0, -10113.404406714966, -9444.640212612177, -5556.353098911417, -13508.969665642939, -7834.577004263045, -4041.553025430802, -7753.0601922345395, -5452.708059872158, -9800.36822561839, -12075.06055534608, -7642.8213885809655, -6023.169281860505, -5812.43703513587, -8604.706359470649, -10499.709606136037, -15193.441831283788, 0.01, 0.24, 0.9520000000000001, 192.0, 0.0, 0.0, 0.0, 0.0, 0.0, 0.0, 0.0, 0.0, 0.0, 1.644588513936349E9, 0.0, 2022-02-12 01:08:33.936
120.0, -10131.19639530139, -9460.845227342275, -5566.43373566076, -13504.812241174252, -7831.090132128016, -4043.877606854154, -7765.688927851788, -5463.906283844267, -9801.575219818977, -12080.715546693273, -7653.103191030406, -6029.6065842636335, -5819.4107794059255, -8612.596525263372, -10508.627952173705, -15191.452526027266, 0.01, 0.24, 0.9520000000000001, 192.0, 0.0, 0.0, 0.0, 0.0, 0.0, 0.0, 0.0, 0.0, 0.0, 1.644588513944127E9, 0.0, 2022-02-12 01:08:33.944
122.0, -10140.762941928262, -9444.148474234162, -5559.415287901794, -13506.421566775032, -7834.621707751955, -4039.2060922629944, -7763.185532472794, -5461.201722765175, -9799.161231417804, -12057.983822582224, -7652.924377074764, -6033.406380821036, -5828.753808588244, -8613.445891552674, -10503.487050948985, -15162.66347916883, 0.01, 0.24, 0.9520000000000001, 192.0, 0.0, 0.0, 0.0, 0.0, 0.0, 0.0, 0.0, 0.0, 0.0, 1.644588513951358E9, 0.0, 2022-02-12 01:08:33.951
124.0, -10139.846520405594, -9452.932709805096, -5569.138296739852, -13516.815127946751, -7835.627536252444, -4044.034069065341, -7756.457657391747, -5452.909225572255, -9813.913382758306, -12077.452192002796, -7641.5920426359235, -6035.261575610826, -5819.947221272853, -8614.1834991197, -10502.235353259488, -15211.591447781499, 0.01, 0.24, 0.9520000000000001, 192.0, 0.0, 0.0, 0.0, 0.0, 0.0, 0.0, 0.0, 0.0, 0.0, 1.644588513958772E9, 0.0, 2022-02-12 01:08:33.958
126.0, -10137.633697704518, -9459.01238429694, -5566.277273449573, -13502.599418473175, -7827.469149526257, -4041.0165835638745, -7764.2137127177375, -5452.864522083345, -9809.621847822888, -12071.350165766498, -7653.125542774862, -6027.036133651273, -5808.234907178272, -8609.51198452854, -10502.816498615324, -15159.064848311526, 0.01, 0.24, 0.9520000000000001, 192.0, 0.0, 0.0, 3.5, 72.0, 14.5, 80.0, 0.0, 0.0, 0.0, 1.644588513965793E9, 0.0, 2022-02-12 01:08:33.965
128.0, -10128.111854566558, -9457.648927885166, -5555.011994244099, -13512.031854633315, -7842.243652611215, -4047.6326999226453, -7761.889131294386, -5461.22407450963, -9800.904667485318, -12074.702927434795, -7642.84374032542, -6018.676581224988, -5830.184320233384, -8614.1834991197, -10504.448175960562, -15198.605084252964, 0.01, 0.24, 0.9520000000000001, 192.0, 0.0, 0.0, 0.0, 0.0, 0.0, 0.0, 0.0, 0.0, 0.0, 1.644588513973833E9, 0.0, 2022-02-12 01:08:33.973
130.0, -10144.026296618737, -9472.378727481215, -5572.155782241319, -13510.95897089946, -7838.4662077982675, -4049.8231708792655, -7766.247721463171, -5463.950987333177, -9811.23117342367, -12097.077023634556, -7653.013784052585, -6034.725133743898, -5836.06282902513, -8619.257345111055, -10507.89034460668, -15195.565247007044, 0.01, 0.24, 0.9520000000000001, 192.0, 0.0, 0.0, 0.0, 0.0, 0.0, 0.0, 0.0, 0.0, 0.0, 1.644588513981693E9, 0.0, 2022-02-12 01:08:33.981
132.0, -10135.823206403638, -9453.133875505195, -5559.929378024266, -13511.763633699851, -7839.583795021033, -4043.9893655764304, -7768.974634286718, -5464.688594900203, -9794.802641249018, -12077.139267580424, -7658.109981788395, -6031.52883428679, -5824.81990156411, -8617.625667765817, -10512.159527797643, -15170.57599670601, 0.01, 0.24, 0.9520000000000001, 192.0, 0.0, 0.0, 0.0, 0.0, 0.0, 0.0, 0.0, 0.0, 0.0, 1.644588513988703E9, 0.0, 2022-02-12 01:08:33.988
134.0, -10138.751284927284, -9459.325308719315, -5565.383203671361, -13521.285476837813, -7845.5517107906, -4045.129304543651, -7766.0912592519835, -5456.1278767738195, -9815.679170570274, -12092.33845381003, -7649.146932261817, -6044.068162926217, -5825.423398664403, -8611.166013618233, -10509.566725440827, -15216.777052495128, 0.01, 0.24, 0.9520000000000001, 192.0, 0.0, 0.0, 0.0, 0.0, 0.0, 0.0, 0.0, 0.0, 0.0, 1.64458851399647E9, 0.0, 2022-02-12 01:08:33.996
136.0, -10132.515148224253, -9454.519683661423, -5567.81954381699, -13509.90843891006, -7828.139701859916, -4043.676441154056, -7757.195264958771, -5459.726507631124, -9805.799699521029, -12082.05665136059, -7657.79705736602, -6054.774648520309, -5813.711084569823, -8615.278734598009, -10508.024455073411, -15164.988060592183, 0.008, 0.23800000000000002, 0.9500000000000001, 192.0, 0.0, 32.0, 3.5, 56.0, 14.5, 88.0, 0.0, 0.0, 0.0, 1.644588514005233E9, 0.0, 2022-02-12 01:08:34.005
138.0, -10144.339221041111, -9477.83255312831, -5562.0751454919755, -13516.47985177992, -7839.829664210041, -4048.102086556207, -7757.776410314609, -5456.060821540454, -9807.61019082191, -12081.922540893858, -7648.27521422806, -6024.152758616538, -5823.747017830256, -8618.22916486611, -10505.990446327978, -15199.923837175827, 0.008, 0.23800000000000002, 0.9500000000000001, 192.0, 0.0, 0.0, 0.0, 0.0, 0.0, 0.0, 0.0, 0.0, 0.0, 1.644588514011453E9, 0.0, 2022-02-12 01:08:34.011
140.0, -10156.81149444717, -9463.885064588198, -5571.641692118847, -13515.585782001708, -7830.754855961187, -4047.4985894559136, -7760.2798056936035, -5459.257120997563, -9813.04166472455, -12101.234448103243, -7647.537606661035, -6042.771761747809, -5828.172663232406, -8614.1834991197, -10504.716396894026, -15196.39226155189, 0.008, 0.23800000000000002, 0.9500000000000001, 192.0, 0.0, 0.0, 0.0, 0.0, 0.0, 0.0, 0.0, 0.0, 0.0, 1.644588514019236E9, 0.0, 2022-02-12 01:08:34.019
142.0, -10130.10115982308, -9452.01628828243, -5564.109154237408, -13510.757805199362, -7830.7772077056425, -4048.2361970229385, -7755.071849235517, -5457.692498885692, -9815.65681882582, -12079.083869348035, -7661.105115545406, -6037.921433201008, -5828.150311487951, -8613.825871208415, -10505.208135272043, -15168.229063538201, 0.008, 0.23800000000000002, 0.9500000000000001, 192.0, 0.0, 0.0, 0.0, 0.0, 0.0, 0.0, 0.0, 0.0, 0.0, 1.644588514026014E9, 0.0, 2022-02-12 01:08:34.026
144.0, -10129.609421445062, -9436.437122397081, -5565.383203671361, -13518.402101803078, -7839.628498509944, -4053.0418220808297, -7763.230235961704, -5464.956815833666, -9820.171871205792, -12097.032320145647, -7650.845664840421, -6031.238261608871, -5831.860701067531, -8611.791862462982, -10504.403472471651, -15219.995703696693, 0.008, 0.23800000000000002, 0.9500000000000001, 192.0, 0.0, 0.0, 0.0, 0.0, 0.0, 0.0, 0.0, 0.0, 0.0, 1.64458851404066E9, 0.0, 2022-02-12 01:08:34.040
146.0, -10138.795988416194, -9472.557541436856, -5567.573674627981, -13509.90843891006, -7827.916184415363, -4053.4441534810253, -7762.716145839232, -5463.347490232884, -9801.664626796797, -12079.19562807031, -7648.386972950337, -6042.592947792166, -5818.226136949795, -8619.0338276665, -10505.677521905603, -15170.821865895017, 0.01, 0.23600000000000002, 0.9460000000000001, 192.0, 0.0, 40.0, 3.5, 48.0, 14.5, 72.0, 0.0, 0.0, 0.0, 1.644588514048716E9, 0.0, 2022-02-12 01:08:34.048
148.0, -10141.768770428751, -9480.090079318295, -5565.763183327101, -13527.208689118468, -7840.589623521522, -4059.032089594852, -7761.48679989419, -5458.139533774797, -9809.979475734172, -12088.069270619068, -7643.223719981161, -6029.874805197097, -5800.188279174362, -8616.843356709882, -10506.862164361735, -15205.310607589558, 0.01, 0.23600000000000002, 0.9460000000000001, 192.0, 0.0, 0.0, 0.0, 0.0, 0.0, 0.0, 0.0, 0.0, 0.0, 1.644588514056684E9, 0.0, 2022-02-12 01:08:34.056
150.0, -10164.232273606334, -9475.01623332694, -5575.083860764964, -13522.648933249586, -7832.542995517611, -4059.3673657616814, -7764.370174928925, -5459.860618097856, -9831.839481811463, -12116.366579099487, -7663.675566157766, -6049.5666920622225, -5839.080314526595, -8624.353542846864, -10502.727091637504, -15203.254247099669, 0.01, 0.23600000000000002, 0.9460000000000001, 192.0, 0.0, 0.0, 0.0, 0.0, 0.0, 0.0, 0.0, 0.0, 0.0, 1.644588514063336E9, 0.0, 2022-02-12 01:08:34.063
152.0, -10140.740590183806, -9456.687802873588, -5566.344328682939, -13517.440976791499, -7829.391399549413, -4055.925197115564, -7754.267186435126, -5457.044298296488, -9819.098987471938, -12084.604750228495, -7663.496752202124, -6051.779514763298, -5827.703276598844, -8621.045484667478, -10502.257705003942, -15172.453543240255, 0.01, 0.23600000000000002, 0.9460000000000001, 192.0, 0.0, 0.0, 0.0, 0.0, 0.0, 0.0, 0.0, 0.0, 0.0, 1.644588514072688E9, 0.0, 2022-02-12 01:08:34.072
154.0, -10136.963145370859, -9451.278680715404, -5574.905046809322, -13521.397235560089, -7834.353486818492, -4058.741516916933, -7759.944529526774, -5462.922807088234, -9820.864775283906, -12101.860296947993, -7653.952557319708, -6035.1274651440945, -5823.836424808076, -8621.47016781213, -10503.151774782154, -15222.655561286874, 0.01, 0.23600000000000002, 0.9460000000000001, 192.0, 0.0, 0.0, 0.0, 0.0, 0.0, 0.0, 0.0, 0.0, 0.0, 1.644588514080101E9, 0.0, 2022-02-12 01:08:34.080
156.0, -10127.731874910818, -9456.01725053993, -5575.419136931794, -13510.020197632337, -7825.993934392207, -4050.381964490648, -7758.826942304009, -5452.998632550077, -9805.062091954005, -12091.734956709739, -7664.591987680435, -6049.81256125123, -5824.663439352923, -8616.262211354044, -10506.03514981689, -15167.513807715632, 0.01, 0.23600000000000002, 0.9460000000000001, 192.0, 0.0, 0.0, 3.5, 64.0, 14.5, 88.0, 0.0, 0.0, 0.0, 1.64458851408647E9, 0.0, 2022-02-12 01:08:34.086
158.0, -10135.040895347704, -9474.323329248826, -5566.165514727297, -13521.91132568256, -7836.745123475209, -4048.347955745215, -7754.021317246118, -5447.075420269421, -9811.499394357133, -12084.045956617112, -7649.057525283996, -6029.070142396706, -5816.348590415549, -8609.757853717549, -10505.297542249864, -15203.880095944418, 0.01, 0.23600000000000002, 0.9460000000000001, 192.0, 0.0, 0.0, 0.0, 0.0, 0.0, 0.0, 0.0, 0.0, 0.0, 1.644588514093081E9, 0.0, 2022-02-12 01:08:34.093
160.0, -10157.593805503107, -9459.34766046377, -5575.620302631892, -13508.85790692066, -7829.614916993966, -4048.683231912045, -7755.429477146802, -5455.591434906893, -9816.12620545938, -12089.700947964306, -7644.833045581943, -6039.24018612387, -5794.779157016177, -8606.136871115788, -10503.531754437894, -15200.326168576023, 0.01, 0.23600000000000002, 0.9460000000000001, 192.0, 0.0, 0.0, 0.0, 0.0, 0.0, 0.0, 0.0, 0.0, 0.0, 1.644588514100969E9, 0.0, 2022-02-12 01:08:34.100
162.0, -10131.822244146138, -9466.20964601155, -5568.3559856839165, -13511.785985444307, -7826.530376259134, -4043.6987928985113, -7750.802666044554, -5447.388344691795, -9820.4177403948, -12095.132421866945, -7658.668775399778, -6035.5745000332, -5830.407837677937, -8615.725769487115, -10504.291713749375, -15170.978328106205, 0.01, 0.23600000000000002, 0.9460000000000001, 192.0, 0.0, 0.0, 0.0, 0.0, 0.0, 0.0, 0.0, 0.0, 0.0, 1.64458851410918E9, 0.0, 2022-02-12 01:08:34.109
164.0, -10128.871813878039, -9456.687802873588, -5565.964349027199, -13524.347665828189, -7827.1338733594275, -4046.157484788595, -7750.422686388813, -5461.738164632102, -9809.37597863388, -12093.612503243983, -7646.777647349554, -6033.294622098759, -5818.226136949795, -8604.75106295956, -10500.60367591425, -15220.82271824154, 0.008, 0.23600000000000002, 0.9520000000000001, 192.0, 0.0, 24.0, 3.5, 48.0, 14.5, 120.0, 0.0, 0.0, 0.0, 1.644588514116132E9, 0.0, 2022-02-12 01:08:34.116
166.0, -10143.355744285076, -9467.34958497877, -5573.318072952995, -13507.069767364237, -7822.395303534902, -4048.035031322841, -7749.9532997552515, -5453.468019183639, -9803.877449497873, -12080.872008904458, -7649.392801450826, -6043.4646658259235, -5809.777177545689, -8612.507118285552, -10504.850507360758, -15175.649842697365, 0.008, 0.23600000000000002, 0.9520000000000001, 192.0, 0.0, 0.0, 0.0, 0.0, 0.0, 0.0, 0.0, 0.0, 0.0, 1.644588514123734E9, 0.0, 2022-02-12 01:08:34.123
168.0, -10145.00977337477, -9452.843302827276, -5574.010977031109, -13516.323389568734, -7837.214510108771, -4047.319775500271, -7757.418782403324, -5451.232844738108, -9818.875470027384, -12100.116860880478, -7640.027420524052, -6026.030305150784, -5800.0988721965405, -8606.94153391618, -10507.55506843985, -15205.53412503411, 0.008, 0.23600000000000002, 0.9520000000000001, 192.0, 0.0, 0.0, 0.0, 0.0, 0.0, 0.0, 0.0, 0.0, 0.0, 1.644588514131692E9, 0.0, 2022-02-12 01:08:34.131
170.0, -10148.161369342968, -9459.772343608422, -5580.24711373414, -13516.47985177992, -7832.40888505088, -4049.018508078874, -7756.77058181412, -5453.088039527898, -9815.790929292552, -12097.255837590199, -7644.028382781552, -6040.29071811327, -5819.34372417256, -8615.725769487115, -10509.723187652015, -15205.15414537837, 0.008, 0.23600000000000002, 0.9520000000000001, 192.0, 0.0, 0.0, 0.0, 0.0, 0.0, 0.0, 0.0, 0.0, 0.0, 1.644588514139368E9, 0.0, 2022-02-12 01:08:34.139
172.0, -10127.441302232899, -9446.406000424147, -5568.601854872925, -13509.282590065312, -7831.872443183952, -4042.84942660921, -7754.4683521352235, -5453.557426161459, -9805.620885565388, -12074.948796623803, -7644.095438014918, -6036.557976789234, -5818.561413116624, -8600.548935001962, -10511.667789419627, -15174.487551985689, 0.008, 0.23600000000000002, 0.9520000000000001, 192.0, 0.0, 0.0, 0.0, 0.0, 0.0, 0.0, 0.0, 0.0, 0.0, 1.644588514146226E9, 0.0, 2022-02-12 01:08:34.146
174.0, -10135.443226747899, -9448.350602191758, -5574.949750298232, -13524.459424550465, -7831.604222250488, -4048.1691417895727, -7753.797799801565, -5456.709022129658, -9820.395388650346, -12082.704851949795, -7636.160568733284, -6021.939935915463, -5819.4107794059255, -8594.916295399225, -10508.404434729151, -15226.075378188538, 0.009000000000000001, 0.23700000000000002, 0.9520000000000001, 192.0, 0.0, 40.0, 3.5, 56.0, 14.5, 96.0, 0.0, 0.0, 0.0, 1.644588514161227E9, 0.0, 2022-02-12 01:08:34.161
176.0, -10125.697866165385, -9458.833570341298, -5573.943921797743, -13513.216497089446, -7822.954097146285, -4048.035031322841, -7751.6296805894, -5454.138571517297, -9800.636446551855, -12070.67961343284, -7649.7504293621105, -6039.95544194644, -5812.526442113691, -8606.583906004895, -10510.192574285576, -15176.745078175674, 0.009000000000000001, 0.23700000000000002, 0.9520000000000001, 192.0, 0.0, 0.0, 0.0, 0.0, 0.0, 0.0, 0.0, 0.0, 0.0, 1.644588514168536E9, 0.0, 2022-02-12 01:08:34.168
178.0, -10113.717331137339, -9442.740314333478, -5564.936168782255, -13521.397235560089, -7836.186329863826, -4054.6511476816117, -7747.963994498729, -5470.365937991851, -9810.046530967538, -12086.39288978492, -7645.771818849065, -6032.6017180206445, -5802.937543742364, -8604.974580404112, -10509.0302835739, -15206.808174468062, 0.009000000000000001, 0.23700000000000002, 0.9520000000000001, 192.0, 0.0, 0.0, 0.0, 0.0, 0.0, 0.0, 0.0, 0.0, 0.0, 1.644588514175925E9, 0.0, 2022-02-12 01:08:34.175
180.0, -10151.469427522354, -9468.958910579553, -5577.564904399504, -13519.407930303567, -7831.872443183952, -4052.3712697471706, -7758.782238815098, -5452.618652894336, -9818.115510715903, -12094.573628255563, -7643.313126958982, -6030.075970897195, -5812.012351991219, -8605.354560059854, -10509.611428929738, -15207.05404365707, 0.009000000000000001, 0.23700000000000002, 0.9520000000000001, 192.0, 0.0, 0.0, 0.0, 0.0, 0.0, 0.0, 0.0, 0.0, 0.0, 1.644588514183981E9, 0.0, 2022-02-12 01:08:34.183
182.0, -10128.827110389127, -9456.933672062596, -5566.880770549867, -13512.635351733608, -7825.569251247555, -4041.553025430802, -7740.453808361746, -5442.470960911627, -9813.019312980094, -12078.368613525465, -7645.458894426692, -6036.088590155672, -5809.464253123314, -8614.049388652968, -10511.08664406379, -15171.559473462043, 0.009000000000000001, 0.23700000000000002, 0.9520000000000001, 192.0, 0.0, 0.0, 0.0, 0.0, 0.0, 0.0, 0.0, 0.0, 0.0, 1.644588514191873E9, 0.0, 2022-02-12 01:08:34.191
184.0, -10142.260508806767, -9464.332099477304, -5567.797192072534, -13522.872450694138, -7831.201890850293, -4042.156522531095, -7744.030087474595, -5448.930615059211, -9817.288496171057, -12093.657206732894, -7638.351039689904, -6024.979773161384, -5821.891823040464, -8601.1300803578, -10504.582286427294, -15217.738177506708, 0.0115, 0.23650000000000002, 0.9510000000000001, 192.0, 0.0, 56.0, 3.5, 48.0, 14.5, 88.0, 0.0, 0.0, 0.0, 1.64458851419845E9, 0.0, 2022-02-12 01:08:34.198
186.0, -10140.070037850146, -9455.994898795474, -5575.2850264650615, -13511.361302299656, -7817.410864521368, -4037.5297114288464, -7743.292479907571, -5456.798429107479, -9806.17967917677, -12084.604750228495, -7647.2246822386605, -6036.177997133494, -5804.524517598691, -8597.911429156236, -10502.54827768186, -15167.156179804348, 0.0115, 0.23650000000000002, 0.9510000000000001, 192.0, 0.0, 0.0, 0.0, 0.0, 0.0, 0.0, 0.0, 0.0, 0.0, 1.644588514206565E9, 0.0, 2022-02-12 01:08:34.206
188.0, -10122.590973686096, -9446.383648679692, -5563.773878070579, -13521.53134602682, -7828.989068149218, -4036.2780137393493, -7736.139921681872, -5436.8830247978, -9807.69959779973, -12071.953662866792, -7645.32478395996, -6038.234357623382, -5803.965723987309, -8596.570324488917, -10500.089585791777, -15195.967578407239, 0.0115, 0.23650000000000002, 0.9510000000000001, 192.0, 0.0, 0.0, 0.0, 0.0, 0.0, 0.0, 0.0, 0.0, 0.0, 1.644588514213576E9, 0.0, 2022-02-12 01:08:34.213
190.0, -10134.459749991865, -9464.175637266117, -5575.687357865258, -13516.189279102002, -7821.300068056592, -4038.7143538849778, -7745.147674697361, -5448.50593191456, -9809.979475734172, -12089.879761919949, -7643.089609514429, -6029.00308716334, -5794.198011660339, -8600.571286746417, -10501.207173014544, -15199.409747053356, 0.0115, 0.23650000000000002, 0.9510000000000001, 192.0, 0.0, 0.0, 0.0, 0.0, 0.0, 0.0, 0.0, 0.0, 0.0, 1.644588514222057E9, 0.0, 2022-02-12 01:08:34.222
192.0, -10122.792139386194, -9448.887044058687, -5563.997395515132, -13511.271895321834, -7816.449739509791, -4029.9971735474082, -7732.742456524666, -5436.905376542256, -9802.290475641546, -12075.19466581281, -7636.853472811398, -6023.415151049513, -5795.963799472309, -8590.065966852424, -10505.632818416694, -15165.05511582555, 0.0115, 0.23650000000000002, 0.9510000000000001, 192.0, 0.0, 0.0, 0.0, 0.0, 0.0, 0.0, 0.0, 0.0, 0.0, 1.64458851422804E9, 0.0, 2022-02-12 01:08:34.228
194.0, -10125.496700465286, -9454.787904594887, -5565.763183327101, -13513.440014533999, -7824.07168436905, -4035.5404061723243, -7741.481988606691, -5441.241614966585, -9808.70542630022, -12092.852543932504, -7631.332591930937, -6022.208156848927, -5804.010427476219, -8589.663635452227, -10501.050710803356, -15213.826622227029, 0.00775, 0.23725000000000002, 0.9485000000000001, 192.0, 0.0, 16.0, 3.5, 56.0, 14.5, 72.0, 0.0, 0.0, 0.0, 1.64458851423624E9, 0.0, 2022-02-12 01:08:34.236
196.0, -10144.786255930216, -9458.744163363477, -5570.971139785188, -13503.225267317925, -7812.359370274469, -4032.411161948581, -7739.470331605713, -5441.375725433317, -9803.27395239758, -12080.268511804166, -7640.876786813354, -6032.445255809457, -5805.91032575492, -8595.385682032786, -10503.26353350443, -15163.266976269124, 0.00775, 0.23725000000000002, 0.9485000000000001, 192.0, 0.0, 0.0, 0.0, 0.0, 0.0, 0.0, 0.0, 0.0, 0.0, 1.644588514244176E9, 0.0, 2022-02-12 01:08:34.244
198.0, -10119.372322484533, -9450.608128381746, -5567.953654283721, -13515.474023279432, -7828.296164071103, -4040.614252163679, -7741.549043840057, -5447.924786558722, -9811.924077501784, -12079.463849003774, -7638.172225734262, -6027.684334240477, -5802.110529197518, -8594.759833188038, -10504.22465851601, -15197.331034819012, 0.00775, 0.23725000000000002, 0.9485000000000001, 192.0, 0.0, 0.0, 0.0, 0.0, 0.0, 0.0, 0.0, 0.0, 0.0, 1.644588514252802E9, 0.0, 2022-02-12 01:08:34.252
200.0, -10121.540441696698, -9454.385573194691, -5572.066375263497, -13513.238848833902, -7828.2514605821925, -4042.067115553274, -7761.196227216271, -5459.614748908848, -9813.533403102565, -12090.72912820925, -7644.341307203926, -6031.350020331147, -5799.00363671823, -8600.683045468693, -10509.253801018454, -15202.516639532643, 0.00775, 0.23725000000000002, 0.9485000000000001, 192.0, 0.0, 0.0, 0.0, 0.0, 0.0, 0.0, 0.0, 0.0, 0.0, 1.644588514258887E9, 0.0, 2022-02-12 01:08:34.258
202.0, -10125.139072554002, -9433.017305495418, -5564.1315059818635, -13514.378787801123, -7820.316591300559, -4030.6677258810673, -7730.127302423394, -5445.488446413094, -9802.804565764018, -12068.62325294295, -7648.342269461426, -6035.753313988843, -5800.478851852281, -8593.396376776263, -10505.699873650059, -15167.156179804348, 0.00775, 0.23725000000000002, 0.9485000000000001, 192.0, 0.0, 0.0, 0.0, 0.0, 0.0, 0.0, 0.0, 0.0, 0.0, 1.644588514267079E9, 0.0, 2022-02-12 01:08:34.267
204.0, -10126.614287688051, -9470.568236180334, -5572.669872363791, -13523.095968138692, -7833.213547851271, -4040.189569019028, -7742.733686296187, -5436.1677689752305, -9819.166042705303, -12079.441497259319, -7641.659097869289, -6029.807749963731, -5800.81412801911, -8589.708338941138, -10503.978789327, -15215.704168761275, 0.008875000000000001, 0.23662500000000003, 0.94625, 192.0, 0.0, 40.0, 3.5, 48.0, 14.5, 64.0, 0.0, 0.0, 0.0, 1.644588514273959E9, 0.0, 2022-02-12 01:08:34.273
206.0, -10153.3469740566, -9465.5837971668, -5574.994453787142, -13507.069767364237, -7823.8481669244975, -4037.2167870064723, -7746.488779364679, -5446.315460957941, -9815.254487425624, -12086.638758973928, -7652.5667491634795, -6020.442369036958, -5810.380674645981, -8602.739405958582, -10508.337379495786, -15167.044421082071, 0.008875000000000001, 0.23662500000000003, 0.94625, 192.0, 0.0, 0.0, 0.0, 0.0, 0.0, 0.0, 0.0, 0.0, 0.0, 1.644588514288552E9, 0.0, 2022-02-12 01:08:34.288
208.0, -10125.161424298456, -9456.687802873588, -5570.255883962618, -13521.643104749097, -7839.650850254399, -4042.84942660921, -7748.455732876746, -5447.187178991697, -9819.501318872133, -12089.2539130752, -7653.997260808619, -6021.917584171008, -5802.378750130982, -8593.932818643192, -10505.051673060856, -15196.48166852971, 0.008875000000000001, 0.23662500000000003, 0.94625, 192.0, 0.0, 0.0, 0.0, 0.0, 0.0, 0.0, 0.0, 0.0, 0.0, 1.644588514296516E9, 0.0, 2022-02-12 01:08:34.296
210.0, -10137.365476771054, -9458.341831963282, -5584.8515730919335, -13522.425415805033, -7830.464283283268, -4043.095295798218, -7755.943567269274, -5451.389306949295, -9823.524632874089, -12099.021625402169, -7651.404458451803, -6033.071104654206, -5811.051226979641, -8598.492574512074, -10505.722225394515, -15202.740156977197, 0.008875000000000001, 0.23662500000000003, 0.94625, 192.0, 0.0, 0.0, 0.0, 0.0, 0.0, 0.0, 0.0, 0.0, 0.0, 1.644588514303586E9, 0.0, 2022-02-12 01:08:34.303
212.0, -10133.699790680384, -9444.908433545641, -5574.189790986752, -13517.999770402881, -7828.45262628229, -4035.160426516584, -7742.331354895992, -5450.092905770887, -9808.124280944381, -12082.079003105046, -7644.900100815309, -6045.185750148982, -5793.885087237965, -8593.217562820622, -10508.113862051232, -15167.71497341573, 0.008875000000000001, 0.23662500000000003, 0.94625, 192.0, 0.0, 0.0, 0.0, 0.0, 0.0, 0.0, 0.0, 0.0, 0.0, 1.644588514311154E9, 0.0, 2022-02-12 01:08:34.311
214.0, -10132.537499968708, -9466.410811711647, -5577.609607888414, -13523.632410005619, -7838.1756351203485, -4040.524845185858, -7745.527654353101, -5444.817894079434, -9827.883223042872, -12090.036224131134, -7645.8165223379765, -6017.2237178353935, -5814.5380991146685, -8596.995007633568, -10510.326684752308, -15220.755663008174, 0.0084375, 0.23331250000000003, 0.943125, 192.0, 0.0, 32.0, 3.5, 24.0, 14.5, 48.0, 0.0, 0.0, 0.0, 1.644588514319101E9, 0.0, 2022-02-12 01:08:34.319
216.0, -10141.81347391766, -9464.242692499482, -5583.018730046598, -13513.931752912016, -7834.375838562947, -4036.5015311839024, -7761.777372572109, -5443.990879534588, -9823.882260785373, -12094.77479395566, -7662.222702768172, -6031.975869175896, -5813.264049680716, -8599.721920457116, -10512.94183885358, -15171.045383339571, 0.0084375, 0.23331250000000003, 0.943125, 192.0, 0.0, 0.0, 0.0, 0.0, 0.0, 0.0, 0.0, 0.0, 0.0, 1.644588514327286E9, 0.0, 2022-02-12 01:08:34.327
218.0, -10142.10404659558, -9468.10954429025, -5570.859381062911, -13528.125110641136, -7832.297126328604, -4042.6259091646566, -7740.811436273031, -5448.684745870202, -9826.497414886644, -12086.996386885214, -7660.389859722836, -6032.221738364904, -5813.778139803188, -8600.593638490873, -10510.03611207439, -15202.24841859918, 0.0084375, 0.23331250000000003, 0.943125, 192.0, 0.0, 0.0, 0.0, 0.0, 0.0, 0.0, 0.0, 0.0, 0.0, 1.644588514333725E9, 0.0, 2022-02-12 01:08:34.333
220.0, -10130.637601690007, -9453.424448183114, -5578.906009066822, -13521.330180326722, -7827.603259992989, -4043.5870341762347, -7751.8308462894975, -5447.634213880803, -9820.32833341698, -12074.904093134892, -7658.8475893554205, -6031.238261608871, -5803.7198547983, -8598.26905706752, -10511.310161508341, -15208.52925879112, 0.0084375, 0.23331250000000003, 0.943125, 192.0, 0.0, 0.0, 0.0, 0.0, 0.0, 0.0, 0.0, 0.0, 0.0, 1.644588514340661E9, 0.0, 2022-02-12 01:08:34.340
222.0, -10131.95635461287, -9452.664488871633, -5574.010977031109, -13522.984209416416, -7835.806350208087, -4043.475275453958, -7757.575244614512, -5447.9694900476325, -9817.154385704325, -12087.130497351945, -7660.166342278283, -6035.239223866371, -5801.708197797322, -8604.974580404112, -10516.31695226633, -15173.325261274013, 0.0084375, 0.23331250000000003, 0.943125, 192.0, 0.0, 0.0, 0.0, 0.0, 0.0, 0.0, 0.0, 0.0, 0.0, 1.64458851434881E9, 0.0, 2022-02-12 01:08:34.348
224.0, -10140.226500061333, -9471.283492002904, -5577.497849166138, -13536.01527643386, -7843.875329956452, -4047.99032783393, -7758.491666137179, -5454.496199428582, -9834.633449868375, -12104.58720977154, -7658.244092255127, -6032.24409010936, -5818.874337538999, -8596.726786700105, -10514.37235049872, -15226.567116566554, 0.0022187500000000002, 0.23665625, 0.9415625000000001, 192.0, 127.5, 112.0, 3.5, 64.0, 14.5, 48.0, 0.0, 0.0, 0.0, 1.644588514356649E9, 0.0, 2022-02-12 01:08:34.356
226.0, -10122.032180074713, -9461.225206998017, -5582.638750390858, -13517.664494236053, -7831.313649572569, -4043.5870341762347, -7757.44113414778, -5451.813990093946, -9823.256411940625, -12095.49004977823, -7667.989452837641, -6049.656099040044, -5814.403988647937, -8607.477975783107, -10517.926277867113, -15184.4340782683, 0.0022187500000000002, 0.23665625, 0.9415625000000001, 192.0, 0.0, 0.0, 0.0, 0.0, 0.0, 0.0, 0.0, 0.0, 0.0, 1.644588514363447E9, 0.0, 2022-02-12 01:08:34.363
228.0, -10130.168215056447, -9463.929768077109, -5570.993491529643, -13523.878279194627, -7834.018210651662, -4041.508321941891, -7741.750209540154, -5461.715812887646, -9818.875470027384, -12091.377328798453, -7658.825237610965, -6024.510386527823, -5804.85979376552, -8596.056234366446, -10511.757196397448, -15206.517601790143, 0.0022187500000000002, 0.23665625, 0.9415625000000001, 192.0, 0.0, 0.0, 0.0, 0.0, 0.0, 0.0, 0.0, 0.0, 0.0, 1.644588514371448E9, 0.0, 2022-02-12 01:08:34.371
230.0, -10137.030200604226, -9445.020192267919, -5573.2286659751735, -13523.118319883148, -7835.649887996899, -4036.7697521173664, -7758.2234452037155, -5441.286318455496, -9810.717083301197, -12077.765116425171, -7643.6484031258115, -6019.838871936664, -5812.3699799025035, -8600.079548368401, -10510.46079521904, -15210.473860558734, 0.0022187500000000002, 0.23665625, 0.9415625000000001, 192.0, 0.0, 0.0, 0.0, 0.0, 0.0, 0.0, 0.0, 0.0, 0.0, 1.644588514379383E9, 0.0, 2022-02-12 01:08:34.379
232.0, -10118.321790495133, -9452.239805726982, -5565.427907160271, -13518.424453547534, -7829.637268738422, -4031.2488712369054, -7748.701602065755, -5436.078361997409, -9807.029045466072, -12054.564005680562, -7649.035173539541, -6032.400552320547, -5803.921020498397, -8600.794804190971, -10513.567687698327, -15173.414668251833, 0.0022187500000000002, 0.23665625, 0.9415625000000001, 192.0, 0.0, 0.0, 0.0, 0.0, 0.0, 0.0, 0.0, 0.0, 0.0, 1.644588514385913E9, 0.0, 2022-02-12 01:08:34.385
234.0, -10125.831976632116, -9452.999765038463, -5568.378337428372, -13527.387503074111, -7836.633364752933, -4039.1166852851734, -7755.027145746607, -5442.001574278066, -9826.162138719814, -12093.67955847735, -7643.670754870267, -6026.946726673452, -5791.359340114515, -8591.854106408848, -10509.83494637429, -15223.192003153803, 0.004109375, 0.236328125, 0.94378125, 192.0, 0.0, 24.0, 3.5, 48.0, 14.5, 72.0, 0.0, 0.0, 0.0, 1.644588514394016E9, 0.0, 2022-02-12 01:08:34.394
236.0, -10108.084691534603, -9442.15916897764, -5572.044023519043, -13514.401139545578, -7828.542033260112, -4032.6346793931343, -7755.585939357989, -5446.315460957941, -9810.784138534564, -12083.084831605534, -7659.205217266705, -6023.348095816147, -5801.596439075046, -8595.542144243973, -10512.204231286554, -15178.488514243189, 0.004109375, 0.236328125, 0.94378125, 192.0, 0.0, 0.0, 0.0, 0.0, 0.0, 0.0, 0.0, 0.0, 0.0, 1.644588514408842E9, 0.0, 2022-02-12 01:08:34.408
238.0, -10115.058435804658, -9436.571232863813, -5565.562017627003, -13527.074578651736, -7838.689725242821, -4031.9194235705645, -7749.394506143869, -5439.073495754421, -9812.66168506881, -12084.53769499513, -7649.459856684191, -6021.314087070714, -5796.38848261696, -8588.814269162925, -10513.388873742686, -15203.29895058858, 0.004109375, 0.236328125, 0.94378125, 192.0, 0.0, 0.0, 0.0, 0.0, 0.0, 0.0, 0.0, 0.0, 0.0, 1.64458851441601E9, 0.0, 2022-02-12 01:08:34.416
240.0, -10138.125436082535, -9464.287395988393, -5570.904084551822, -13521.218421604446, -7830.151358860894, -4030.6900776255225, -7750.0650584775285, -5443.499141156572, -9808.124280944381, -12079.19562807031, -7638.529853645547, -6016.173185845993, -5793.952142471331, -8587.540219728973, -10512.919487109124, -15209.602142524976, 0.004109375, 0.236328125, 0.94378125, 192.0, 0.0, 0.0, 0.0, 0.0, 0.0, 0.0, 0.0, 0.0, 0.0, 1.644588514424601E9, 0.0, 2022-02-12 01:08:34.424
