%OpenBCI Raw EEG Data
%Number of channels = 16
%Sample Rate = 125 Hz
%Board = OpenBCI_GUI$BoardCytonSerialDaisy
Sample Index, EXG Channel 0, EXG Channel 1, EXG Channel 2, EXG Channel 3, EXG Channel 4, EXG Channel 5, EXG Channel 6, EXG Channel 7, EXG Channel 8, EXG Channel 9, EXG Channel 10, EXG Channel 11, EXG Channel 12, EXG Channel 13, EXG Channel 14, EXG Channel 15, Accel Channel 0, Accel Channel 1, Accel Channel 2, Other, Other, Other, Other, Other, Other, Other, Analog Channel 0, Analog Channel 1, Analog Channel 2, Timestamp, Other, Timestamp (Formatted)
0.0, -9697.39373891279, -8922.726979580759, -5996.9730373588845, -13450.721019592407, -8320.280411276866, -3838.353316587605, -8146.13797022557, -5792.298113381638, 0.0, 0.0, 0.0, 0.0, 0.0, 0.0, 0.0, 0.0, 0.0, 0.0, 0.0, 192.0, 0.0, 0.0, 0.0, 0.0, 0.0, 0.0, 0.0, 0.0, 0.0, 1.644588293361732E9, 0.0, 2022-02-12 01:04:53.361
120.0, -9699.763023825053, -8925.43154065985, -6002.739787428354, -13444.484882889377, -8319.140472309646, -3840.8567119665995, -8149.4236766605, -5805.977380988286, -10178.000948190804, -12213.350798291063, -6940.239005117298, -5530.402723598805, -5414.486576853583, -8321.129777566168, -10798.775946948046, -15789.205227995542, 0.0, 0.0, 0.0, 192.0, 0.0, 0.0, 0.0, 0.0, 0.0, 0.0, 0.0, 0.0, 0.0, 1.644588293361736E9, 0.0, 2022-02-12 01:04:53.361
0.0, -4774.511429609231, -4439.436428479723, -2940.3272796067336, -6751.702040636783, -3965.8923704495874, -1835.9052343255562, -3919.8924803605655, -2828.926185241483, -5088.888715373125, -6104.887259589107, -3460.675890526282, -2757.847637873607, -2703.644657569487, -4164.39821295717, -5399.01916969051, -7910.103548777527, 0.005, 0.116, 0.47800000000000004, 192.0, 0.0, 40.0, 3.5, 32.0, 14.5, 112.0, 0.0, 0.0, 0.0, 1.644588293489989E9, 0.0, 2022-02-12 01:04:53.489
2.0, -9544.977193472052, -8861.37144105094, -5878.911123145953, -13514.24467733439, -7934.623412444999, -3666.4460499818388, -7831.69362922831, -5654.87958847041, -10186.91929422847, -12413.175393721509, -6678.790650223572, -5377.606198502326, -4960.477943477385, -8164.220531489913, -10721.327152410408, -15867.481037078029, 0.005, 0.116, 0.47800000000000004, 192.0, 0.0, 0.0, 0.0, 0.0, 0.0, 0.0, 0.0, 0.0, 0.0, 1.644588293496312E9, 0.0, 2022-02-12 01:04:53.496
4.0, -9539.165739913671, -8871.988519667211, -5886.488364516302, -13505.952180141472, -7921.771159383197, -3664.72496565878, -7830.21841409426, -5643.21197786474, -10174.022337677758, -12402.424204638506, -6676.957807178236, -5397.54395455646, -4947.201007270934, -8170.724889126407, -10718.197908186665, -15836.300353562876, 0.005, 0.116, 0.47800000000000004, 192.0, 0.0, 0.0, 0.0, 0.0, 0.0, 0.0, 0.0, 0.0, 0.0, 1.644588293502432E9, 0.0, 2022-02-12 01:04:53.502
6.0, -9544.530158582946, -8882.47148781675, -5884.476707515324, -13515.854002935172, -7928.543737953155, -3671.1399163174533, -7822.283544812625, -5645.648318010369, -10176.503381312297, -12388.700233542948, -6688.759528250638, -5403.556573814938, -4952.476018962386, -8172.602435660653, -10721.081283221398, -15847.498577534983, 0.005, 0.116, 0.47800000000000004, 192.0, 0.0, 0.0, 0.0, 0.0, 0.0, 0.0, 0.0, 0.0, 0.0, 1.644588293509704E9, 0.0, 2022-02-12 01:04:53.509
8.0, -9569.117077483783, -8888.797031497603, -5900.212335611861, -13512.612999989153, -7932.768217655208, -3673.1068698295203, -7834.107617629483, -5651.482123313203, -10180.124363914058, -12413.845946055168, -6691.486441074186, -5387.776242229491, -4957.5945684426515, -8162.924130311505, -10723.472919878117, -15862.250728875486, 0.008, 0.23, 0.9460000000000001, 192.0, 0.0, 32.0, 3.5, 24.0, 14.5, 72.0, 0.0, 0.0, 0.0, 1.644588293518361E9, 0.0, 2022-02-12 01:04:53.518
10.0, -9568.692394339132, -8887.612389041471, -5885.728405204822, -13507.896781909083, -7925.302735007136, -3667.563637204604, -7827.647963481899, -5640.529768530103, -10168.166180630467, -12422.116091503633, -6679.640016512873, -5390.100823652843, -4942.261271746311, -8172.356566471645, -10727.272716435518, -15838.021437885935, 0.008, 0.23, 0.9460000000000001, 192.0, 0.0, 0.0, 0.0, 0.0, 0.0, 0.0, 0.0, 0.0, 0.0, 1.644588293524716E9, 0.0, 2022-02-12 01:04:53.524
12.0, -9561.048097735416, -8884.237275628719, -5890.154050606972, -13522.291305338302, -7935.405723500935, -3668.01067209371, -7826.508024514678, -5641.289727841584, -10189.713262285384, -12423.144271748575, -6676.555475778041, -5402.170765658709, -4964.188333056967, -8158.587891887176, -10726.222184446118, -15869.179769656632, 0.008, 0.23, 0.9460000000000001, 192.0, 0.0, 0.0, 0.0, 0.0, 0.0, 0.0, 0.0, 0.0, 0.0, 1.644588293532466E9, 0.0, 2022-02-12 01:04:53.532
14.0, -9571.732231585054, -8888.28294137513, -5894.825565198132, -13503.359377784656, -7921.122958793993, -3665.172000547886, -7822.708227957276, -5639.367477818427, -10189.40033786301, -12430.676809630015, -6692.782842252594, -5401.455509836139, -4969.038661603769, -8167.61799664712, -10719.561364598438, -15840.591888498295, 0.008, 0.23, 0.9460000000000001, 192.0, 0.0, 0.0, 0.0, 0.0, 0.0, 0.0, 0.0, 0.0, 0.0, 1.644588293540196E9, 0.0, 2022-02-12 01:04:53.540
16.0, -9538.31637362437, -8881.80093548309, -5887.762413950255, -13508.723796453929, -7926.040342574161, -3663.3615092470063, -7821.411826778869, -5645.223634865718, -10185.712300027884, -12427.435806683996, -6684.84797297096, -5387.30685559593, -4959.628577188084, -8168.400307703056, -10722.31062916644, -15850.337249080809, 0.01, 0.231, 0.9460000000000001, 192.0, 0.0, 48.0, 3.5, 32.0, 14.5, 72.0, 0.0, 0.0, 0.0, 1.644588293554396E9, 0.0, 2022-02-12 01:04:53.554
18.0, -9558.432943634147, -8885.913656462868, -5900.033521656218, -13509.528459254321, -7924.296906506647, -3662.176866790875, -7827.402094292891, -5636.931137672799, -10187.299273884211, -12423.36778919313, -6678.030690912091, -5391.374873086796, -4946.7986758707375, -8166.4110024465335, -10718.622591331316, -15862.586005042316, 0.01, 0.231, 0.9460000000000001, 192.0, 0.0, 0.0, 0.0, 0.0, 0.0, 0.0, 0.0, 0.0, 0.0, 1.644588293562066E9, 0.0, 2022-02-12 01:04:53.562
20.0, -9555.326051154858, -8889.869915231457, -5899.206507111372, -13505.57220048573, -7927.3367437525685, -3663.6297301804702, -7820.02601862264, -5641.848521452966, -10188.886247740538, -12408.615637852627, -6693.743967264172, -5396.560477800426, -4956.007594586325, -8171.507200182343, -10722.69060882218, -15835.719208207038, 0.01, 0.231, 0.9460000000000001, 192.0, 0.0, 0.0, 0.0, 0.0, 0.0, 0.0, 0.0, 0.0, 0.0, 1.644588293569784E9, 0.0, 2022-02-12 01:04:53.569
22.0, -9557.360059900291, -8888.19353439731, -5888.052986628174, -13519.206764603468, -7938.087932835571, -3673.956236118822, -7826.172748347849, -5655.080754170508, -10185.354672116599, -12441.964440579944, -6678.9918159236695, -5389.49732655255, -4951.246673017344, -8161.292452966268, -10720.142509954276, -15873.270138891952, 0.01, 0.231, 0.9460000000000001, 192.0, 0.0, 0.0, 0.0, 0.0, 0.0, 0.0, 0.0, 0.0, 0.0, 1.644588293577043E9, 0.0, 2022-02-12 01:04:53.577
24.0, -9573.676833352665, -8886.271284374152, -5889.97523665133, -13507.203877830969, -7925.883880362974, -3668.3235965160843, -7823.714056457765, -5641.893224941877, -10184.929988971948, -12441.427998713018, -6684.445641570765, -5401.701379025148, -4964.322443523699, -8173.630615905598, -10718.667294820225, -15847.364467068252, 0.01, 0.231, 0.9460000000000001, 192.0, 0.0, 0.0, 0.0, 0.0, 0.0, 0.0, 0.0, 0.0, 0.0, 1.644588293584536E9, 0.0, 2022-02-12 01:04:53.584
26.0, -9549.536949340934, -8899.369406624963, -5882.263884814249, -13513.775290700829, -7919.535984937666, -3666.8707331264895, -7818.126120343938, -5642.16144587534, -10186.315797128176, -12440.042190556787, -6676.756641478139, -5398.035692934477, -4959.293301021255, -8169.428487947999, -10715.985085485589, -15852.70653399307, 0.007, 0.2315, 0.9440000000000001, 192.0, 0.0, 16.0, 3.5, 32.0, 14.5, 56.0, 0.0, 0.0, 0.0, 1.644588293593237E9, 0.0, 2022-02-12 01:04:53.593
28.0, -9549.961632485585, -8902.051615959599, -5892.568039008145, -13510.377825543623, -7919.535984937666, -3665.2390557812523, -7818.796672677598, -5630.44913178076, -10184.3041401272, -12456.068391331244, -6675.75081297765, -5387.731538740581, -4947.603338671129, -8162.387688444578, -10712.252344161552, -15862.720115509048, 0.007, 0.2315, 0.9440000000000001, 192.0, 0.0, 0.0, 0.0, 0.0, 0.0, 0.0, 0.0, 0.0, 0.0, 1.644588293600536E9, 0.0, 2022-02-12 01:04:53.600
30.0, -9562.456257636102, -8886.651264029893, -5893.283294830715, -13509.05907262076, -7918.641915159455, -3670.7375849172577, -7824.205794835782, -5638.87573944041, -10185.980520961348, -12454.973155852933, -6695.867382987426, -5405.903506982745, -4954.733545152372, -8167.886217580583, -10716.879155263801, -15835.048655873377, 0.007, 0.2315, 0.9440000000000001, 192.0, 0.0, 0.0, 0.0, 0.0, 0.0, 0.0, 0.0, 0.0, 0.0, 1.644588293606612E9, 0.0, 2022-02-12 01:04:53.606
32.0, -9571.84399030733, -8899.704682791791, -5887.695358716889, -13521.441939048998, -7932.343534510557, -3677.0407768536543, -7825.591602992011, -5645.916538943832, -10196.597599577619, -12439.818673112235, -6678.5224292901075, -5391.486631809072, -4945.323460736688, -8173.116525783125, -10720.969524499122, -15873.583063314327, 0.007, 0.2315, 0.9440000000000001, 192.0, 0.0, 0.0, 0.0, 0.0, 0.0, 0.0, 0.0, 0.0, 0.0, 1.644588293614154E9, 0.0, 2022-02-12 01:04:53.614
34.0, -9568.5582838724, -8897.536563579628, -5894.222068097838, -13510.891915666094, -7924.073389062094, -3674.984416363766, -7831.224242594749, -5652.398544835872, -10188.439212851432, -12440.17630102352, -6687.865458472426, -5403.444815092661, -4961.46142023342, -8170.926054826505, -10719.583716342893, -15849.823158958336, 0.007, 0.2315, 0.9440000000000001, 192.0, 0.0, 0.0, 0.0, 0.0, 0.0, 0.0, 0.0, 0.0, 0.0, 1.644588293622282E9, 0.0, 2022-02-12 01:04:53.622
36.0, -9552.84500752032, -8903.392720626918, -5887.315379061149, -13512.791813944796, -7933.61758394451, -3673.4421459963496, -7837.326268831047, -5653.247911125173, -10187.209866906389, -12437.292925988786, -6689.877115473404, -5409.569193073416, -4972.257312805333, -8173.004767060848, -10720.231916932096, -15855.589909027805, 0.006500000000000001, 0.23375, 0.9480000000000001, 192.0, 0.0, 24.0, 3.5, 48.0, 14.5, 96.0, 0.0, 0.0, 0.0, 1.644588293630089E9, 0.0, 2022-02-12 01:04:53.630
38.0, -9564.154990214705, -8893.133269921931, -5892.858611686064, -13514.423491290032, -7928.767255397708, -3672.9057041294222, -7824.541071002612, -5645.961242432742, -10188.863895996083, -12467.959519381468, -6678.567132779019, -5400.762605758025, -4966.468210991408, -8167.483886180388, -10719.471957620617, -15868.397458600695, 0.006500000000000001, 0.23375, 0.9480000000000001, 192.0, 0.0, 0.0, 0.0, 0.0, 0.0, 0.0, 0.0, 0.0, 0.0, 1.644588293636808E9, 0.0, 2022-02-12 01:04:53.636
40.0, -9541.177396914649, -8884.9972349402, -5890.981065151819, -13501.191258572491, -7922.799339628142, -3667.988320349255, -7824.518719258156, -5642.854349953455, -10179.990253447326, -12430.855623585658, -6689.2289148842, -5405.255306393541, -4959.762687654816, -8171.909531582539, -10720.388379143284, -15838.826100686325, 0.006500000000000001, 0.23375, 0.9480000000000001, 192.0, 0.0, 0.0, 0.0, 0.0, 0.0, 0.0, 0.0, 0.0, 0.0, 1.644588293644825E9, 0.0, 2022-02-12 01:04:53.644
42.0, -9554.208463932093, -8887.411223341373, -5892.590390752601, -13512.05420637777, -7934.690467678365, -3671.654006439925, -7824.943402402807, -5643.97193717622, -10188.372157618065, -12446.345382493184, -6682.411632825331, -5386.63630326227, -4958.689803920961, -8168.1767902585025, -10725.283411178996, -15872.66664179166, 0.006500000000000001, 0.23375, 0.9480000000000001, 192.0, 0.0, 0.0, 0.0, 0.0, 0.0, 0.0, 0.0, 0.0, 0.0, 1.644588293653001E9, 0.0, 2022-02-12 01:04:53.653
44.0, -9549.492245852023, -8888.171182652854, -5891.361044807559, -13499.984264371904, -7932.254127532737, -3676.236114053263, -7834.174672862849, -5661.249835640173, -10176.25751212329, -12451.352173251174, -6687.731348005695, -5396.269905122507, -4960.366184755109, -8174.770554872818, -10722.511794866537, -15849.219661858042, 0.006500000000000001, 0.23375, 0.9480000000000001, 192.0, 0.0, 0.0, 0.0, 0.0, 0.0, 0.0, 0.0, 0.0, 0.0, 1.64458829365938E9, 0.0, 2022-02-12 01:04:53.659
46.0, -9559.79640004592, -8899.771738025158, -5888.388262795003, -13509.595514487686, -7944.011145116227, -3676.6831489423694, -7833.9511554182955, -5662.590940307491, -10190.16029717449, -12437.449388199973, -6689.6759497733065, -5397.231030134086, -4966.356452269131, -8177.720985140919, -10726.490405379584, -15856.863958461758, 0.00825, 0.232875, 0.9480000000000001, 192.0, 0.0, 40.0, 3.5, 32.0, 14.5, 80.0, 0.0, 0.0, 0.0, 1.644588293674519E9, 0.0, 2022-02-12 01:04:53.674
48.0, -9573.095687996827, -8894.072043189055, -5893.953847164375, -13513.440014533999, -7939.183168313882, -3675.2526372972297, -7833.817044951564, -5649.984556434698, -10194.004797220803, -12453.252071529874, -6687.865458472426, -5405.612934304826, -4977.442917518963, -8166.500409424354, -10721.751835555058, -15874.0971534368, 0.00825, 0.232875, 0.9480000000000001, 192.0, 0.0, 0.0, 0.0, 0.0, 0.0, 0.0, 0.0, 0.0, 0.0, 1.644588293682536E9, 0.0, 2022-02-12 01:04:53.682
50.0, -9554.141408698728, -8899.212944413775, -5892.590390752601, -13503.269970806834, -7936.053924090139, -3670.268198283696, -7831.917146672863, -5650.789219235089, -10188.68508204044, -12429.581574151705, -6687.530182305597, -5395.0182074330105, -4971.027966860291, -8175.306996739745, -10725.909260023745, -15840.010743142457, 0.00825, 0.232875, 0.9480000000000001, 192.0, 0.0, 0.0, 0.0, 0.0, 0.0, 0.0, 0.0, 0.0, 0.0, 1.644588293688976E9, 0.0, 2022-02-12 01:04:53.688
52.0, -9550.878054008253, -8885.75719425168, -5890.288161073704, -13515.652837235075, -7943.340592782569, -3672.145744817942, -7836.722771730754, -5659.796972250578, -10186.248741894811, -12454.548472708282, -6676.421365311309, -5392.82773647639, -4975.140687840068, -8164.756973356841, -10727.943268769177, -15877.80754301638, 0.00825, 0.232875, 0.9480000000000001, 192.0, 0.0, 0.0, 0.0, 0.0, 0.0, 0.0, 0.0, 0.0, 0.0, 1.644588293697137E9, 0.0, 2022-02-12 01:04:53.697
54.0, -9553.359097642791, -8894.787299011625, -5900.391149567503, -13501.101851594669, -7929.437807731368, -3674.559733219115, -7835.538129274622, -5660.445172839782, -10184.751175016305, -12452.916795363046, -6690.301798618055, -5401.991951703067, -4968.949254625947, -8169.450839692455, -10731.474844393117, -15853.734714238015, 0.00825, 0.232875, 0.9480000000000001, 192.0, 0.0, 0.0, 0.0, 0.0, 0.0, 0.0, 0.0, 0.0, 0.0, 1.644588293705064E9, 0.0, 2022-02-12 01:04:53.705
56.0, -9549.447542363114, -8898.989426969221, -5885.795460438188, -13511.450709277477, -7936.411552001424, -3674.0232913521877, -7833.1241408734495, -5664.110858930452, -10188.975654718359, -12442.836158613702, -6688.223086383711, -5398.1250999122985, -4957.795734142749, -8169.897874581561, -10732.257155449051, -15859.702630007581, 0.011125, 0.23343750000000002, 0.9490000000000001, 192.0, 0.0, 56.0, 3.5, 40.0, 14.5, 88.0, 0.0, 0.0, 0.0, 1.644588293712365E9, 0.0, 2022-02-12 01:04:53.712
58.0, -9549.067562707372, -8877.487048803217, -5889.125870362029, -13507.896781909083, -7934.310488022625, -3676.079651842076, -7830.330172816536, -5655.661899526346, -10183.834753493638, -12448.625260427627, -6678.433022312287, -5389.407919574728, -4980.482754764886, -8158.722002353908, -10727.987972258088, -15874.343022625808, 0.011125, 0.23343750000000002, 0.9490000000000001, 192.0, 0.0, 0.0, 0.0, 0.0, 0.0, 0.0, 0.0, 0.0, 0.0, 1.644588293719891E9, 0.0, 2022-02-12 01:04:53.719
60.0, -9559.930510512651, -8885.086641918022, -5889.483498273314, -13490.618883445131, -7918.820729115097, -3676.459631497816, -7824.094036113505, -5655.863065226444, -10177.553913301697, -12432.643763142081, -6678.924760690304, -5395.912277211222, -4971.050318604746, -8174.636444406086, -10724.523451867515, -15841.37419955423, 0.011125, 0.23343750000000002, 0.9490000000000001, 192.0, 0.0, 0.0, 0.0, 0.0, 0.0, 0.0, 0.0, 0.0, 0.0, 1.64458829372669E9, 0.0, 2022-02-12 01:04:53.726
62.0, -9549.514597596479, -8896.866011245967, -5882.979140636819, -13500.900685894572, -7926.643839674454, -3676.124355330987, -7822.4400070238125, -5651.057440168553, -10184.706471527395, -12445.69718190398, -6673.672100743306, -5386.703358495636, -4955.806428886227, -8162.097115766659, -10718.019094231022, -15867.302223122386, 0.011125, 0.23343750000000002, 0.9490000000000001, 192.0, 0.0, 0.0, 0.0, 0.0, 0.0, 0.0, 0.0, 0.0, 0.0, 1.644588293734678E9, 0.0, 2022-02-12 01:04:53.734
64.0, -9550.900405752707, -8887.120650663453, -5887.829469183621, -13491.512953223342, -7914.730359879775, -3674.4256227523833, -7823.602297735489, -5654.141980903385, -10172.614177777074, -12437.22587075542, -6671.548685020052, -5390.7937277309575, -4969.195123814956, -8165.628691390597, -10721.751835555058, -15846.895080434691, 0.011125, 0.23343750000000002, 0.9490000000000001, 192.0, 0.0, 0.0, 0.0, 0.0, 0.0, 0.0, 0.0, 0.0, 0.0, 1.644588293741875E9, 0.0, 2022-02-12 01:04:53.741
66.0, -9533.846024733308, -8891.032205943133, -5889.7293674623215, -13503.359377784656, -7918.306638992624, -3675.923189630889, -7822.1494343458935, -5653.672594269824, -10170.758982987283, -12416.774024578814, -6669.291158830066, -5394.25824812153, -4953.191274784956, -8157.559711642231, -10722.60120184436, -15846.403342056674, 0.0115625, 0.23571875000000003, 0.9485000000000001, 192.0, 0.0, 48.0, 3.5, 56.0, 14.5, 80.0, 0.0, 0.0, 0.0, 1.644588293749629E9, 0.0, 2022-02-12 01:04:53.749
68.0, -9546.608870817288, -8894.80965075608, -5892.858611686064, -13510.57899124372, -7924.9898105847615, -3681.377015277984, -7837.147454875405, -5664.714356030746, -10176.950416201404, -12441.89738534658, -6675.013205410624, -5398.348617356851, -4967.854019147637, -8157.894987809061, -10719.851937276357, -15868.263348133964, 0.0115625, 0.23571875000000003, 0.9485000000000001, 192.0, 0.0, 0.0, 0.0, 0.0, 0.0, 0.0, 0.0, 0.0, 0.0, 1.644588293757446E9, 0.0, 2022-02-12 01:04:53.757
70.0, -9557.807094789398, -8884.080813417533, -5891.897486674487, -13497.14559282608, -7924.18514778437, -3684.2603903127183, -7838.443856053813, -5674.727937546723, -10173.48589581083, -12443.059676058254, -6682.210467125234, -5409.50213784005, -4974.783059928783, -8172.803601360751, -10729.194966458675, -15843.095283877288, 0.0115625, 0.23571875000000003, 0.9485000000000001, 192.0, 0.0, 0.0, 0.0, 0.0, 0.0, 0.0, 0.0, 0.0, 0.0, 1.644588293765614E9, 0.0, 2022-02-12 01:04:53.765
72.0, -9550.140446441228, -8884.416089584362, -5886.980102894318, -13506.242752819391, -7927.0461710746495, -3685.310922302118, -7837.236861853226, -5686.484955130214, -10179.498515069308, -12447.485321460406, -6672.107478631435, -5387.284503851474, -4974.783059928783, -8162.432391933488, -10724.858728034345, -15873.895987736701, 0.0115625, 0.23571875000000003, 0.9485000000000001, 192.0, 0.0, 0.0, 0.0, 0.0, 0.0, 0.0, 0.0, 0.0, 0.0, 1.644588293772058E9, 0.0, 2022-02-12 01:04:53.772
74.0, -9569.56411237289, -8886.092470418509, -5894.937323920408, -13499.71604343844, -7914.864470346507, -3685.914419402411, -7834.532300774134, -5672.381004378915, -10172.01068067678, -12437.9858300669, -6677.270731600611, -5398.9521144571445, -4972.480830249886, -8175.776383373307, -10723.674085578214, -15853.242975859997, 0.0115625, 0.23571875000000003, 0.9485000000000001, 192.0, 0.0, 0.0, 0.0, 0.0, 0.0, 0.0, 0.0, 0.0, 0.0, 1.644588293781427E9, 0.0, 2022-02-12 01:04:53.781
76.0, -9555.437809877136, -8915.663828332881, -5888.88000117302, -13508.075595864726, -7920.497109949245, -3683.008692623221, -7831.783036206131, -5672.3139491455495, -10187.612198306584, -12456.403667498073, -6683.059833414535, -5405.098844182354, -4966.892894136059, -8179.933807841994, -10725.775149557014, -15852.639478759704, 0.01178125, 0.23585937500000004, 0.9472500000000001, 192.0, 0.0, 48.0, 3.5, 48.0, 14.5, 72.0, 0.0, 0.0, 0.0, 1.644588293788025E9, 0.0, 2022-02-12 01:04:53.788
78.0, -9575.42026942018, -8933.500520408215, -5895.205544853872, -13513.708235467462, -7922.553470439133, -3689.401291537439, -7833.839396696019, -5676.292559658595, -10197.581076333652, -12455.50959771986, -6678.634188012385, -5415.000666976055, -4964.456553990431, -8170.389612959578, -10722.221222188618, -15871.593758057805, 0.01178125, 0.23585937500000004, 0.9472500000000001, 192.0, 0.0, 0.0, 0.0, 0.0, 0.0, 0.0, 0.0, 0.0, 0.0, 1.644588293801956E9, 0.0, 2022-02-12 01:04:53.801
80.0, -9584.785650346954, -8910.053540474599, -5890.31051281816, -13506.399215030577, -7913.053979045628, -3695.4809660292826, -7842.377763077947, -5684.026263240131, -10197.20109667791, -12460.51638847785, -6690.70413001825, -5418.576946088904, -4983.969626899913, -8182.861886365639, -10728.211489702642, -15844.481092033517, 0.01178125, 0.23585937500000004, 0.9472500000000001, 192.0, 0.0, 0.0, 0.0, 0.0, 0.0, 0.0, 0.0, 0.0, 0.0, 1.644588293809693E9, 0.0, 2022-02-12 01:04:53.809
82.0, -9571.821638562875, -8919.32951442355, -5894.646751242489, -13517.016293646848, -7926.286211763169, -3695.3245038180953, -7840.723733988254, -5686.350844663482, -10192.77545127576, -12469.635900215615, -6680.981121180192, -5410.26209715153, -4970.715042437916, -8170.9931100598715, -10730.245498448074, -15879.081592450333, 0.01178125, 0.23585937500000004, 0.9472500000000001, 192.0, 0.0, 0.0, 0.0, 0.0, 0.0, 0.0, 0.0, 0.0, 0.0, 1.644588293817935E9, 0.0, 2022-02-12 01:04:53.817
84.0, -9562.188036702639, -8898.56474382457, -5905.509699047769, -13506.421566775032, -7917.189051769859, -3689.602457237537, -7844.255309612193, -5689.368330164949, -10187.187515161933, -12467.914815892556, -6687.083147416491, -5406.127024427298, -4977.644083219062, -8178.168020030024, -10729.664353092236, -15859.434409074118, 0.01178125, 0.23585937500000004, 0.9472500000000001, 192.0, 0.0, 0.0, 0.0, 0.0, 0.0, 0.0, 0.0, 0.0, 0.0, 1.6445882938258E9, 0.0, 2022-02-12 01:04:53.825
86.0, -9559.997565746018, -8921.654095846903, -5899.653542000478, -13506.175697586024, -7922.642877416954, -3688.082538614576, -7837.750951975698, -5692.765795322156, -10190.607332063597, -12455.777818653325, -6690.681778273795, -5412.564326830427, -4959.561521954718, -8177.7433368853735, -10736.906318295756, -15861.602528286283, 0.009890625, 0.23792968750000001, 0.950625, 192.0, 0.0, 32.0, 3.5, 64.0, 14.5, 104.0, 0.0, 0.0, 0.0, 1.644588293832432E9, 0.0, 2022-02-12 01:04:53.832
88.0, -9583.623359635278, -8924.895098792924, -5904.146242635995, -13508.969665642939, -7929.348400753546, -3693.5810677505815, -7844.7470479902095, -5690.642379598901, -10193.647169309517, -12464.316185035252, -6688.804231739549, -5398.505079568038, -4990.339874069676, -8175.575217673209, -10735.095826994877, -15878.634557561227, 0.009890625, 0.23792968750000001, 0.950625, 192.0, 0.0, 0.0, 0.0, 0.0, 0.0, 0.0, 0.0, 0.0, 0.0, 1.644588293840347E9, 0.0, 2022-02-12 01:04:53.840
90.0, -9569.251187950515, -8910.254706174697, -5899.653542000478, -13508.120299353635, -7926.599136185544, -3693.6704747284025, -7848.166864891871, -5695.023321512142, -10181.331358114643, -12447.686487160503, -6681.94224619177, -5424.12017871382, -4980.46040302043, -8189.634464935597, -10738.470940407627, -15850.985449670012, 0.009890625, 0.23792968750000001, 0.950625, 192.0, 0.0, 0.0, 0.0, 0.0, 0.0, 0.0, 0.0, 0.0, 0.0, 1.644588293847526E9, 0.0, 2022-02-12 01:04:53.847
92.0, -9552.755600542498, -8900.732863036736, -5900.7040739898775, -13519.162061114557, -7925.302735007136, -3694.8104136956235, -7838.756780476187, -5683.5792283510245, -10188.662730295984, -12457.208330298465, -6682.299874103055, -5415.939440243178, -4977.375862285598, -8179.039738063781, -10733.128873482809, -15881.249711662498, 0.009890625, 0.23792968750000001, 0.950625, 192.0, 0.0, 0.0, 0.0, 0.0, 0.0, 0.0, 0.0, 0.0, 0.0, 1.644588293853878E9, 0.0, 2022-02-12 01:04:53.853
94.0, -9580.47176366708, -8908.265400918175, -5909.778882238732, -13507.96383714245, -7912.47283368979, -3693.2681433282073, -7842.780094478142, -5689.480088887226, -10187.187515161933, -12465.32201353574, -6689.98887419568, -5410.3962076182615, -4967.585798214173, -8187.3098835122455, -10731.608954859848, -15859.814388729857, 0.009890625, 0.23792968750000001, 0.950625, 192.0, 0.0, 0.0, 0.0, 0.0, 0.0, 0.0, 0.0, 0.0, 0.0, 1.644588293862018E9, 0.0, 2022-02-12 01:04:53.862
96.0, -9550.431019119147, -8933.031133774655, -5895.943152420897, -13517.776252958329, -7915.199746513337, -3689.244829326252, -7837.5274345311445, -5692.609333110969, -10190.741442530329, -12457.677716932025, -6689.6759497733065, -5409.569193073416, -4962.288434778266, -8181.319615998223, -10733.26298394954, -15862.362487597764, 0.008, 0.24, 0.9500000000000001, 192.0, 0.0, 32.0, 3.5, 64.0, 14.5, 88.0, 0.0, 0.0, 0.0, 1.644588293869932E9, 0.0, 2022-02-12 01:04:53.869
98.0, -9598.531973186968, -8945.05637229161, -5905.375588581037, -13521.218421604446, -7925.61565942951, -3694.5868962510704, -7844.12119914546, -5685.546181863092, -10186.91929422847, -12470.060583360266, -6691.464089329731, -5401.2990476249515, -4977.711138452428, -8181.945464842972, -10734.112350238842, -15881.205008173587, 0.008, 0.24, 0.9500000000000001, 192.0, 0.0, 0.0, 0.0, 0.0, 0.0, 0.0, 0.0, 0.0, 0.0, 1.644588293877196E9, 0.0, 2022-02-12 01:04:53.877
100.0, -9593.905162084719, -8919.105996978999, -5904.101539147084, -13513.037683133804, -7921.681752405376, -3693.11168111702, -7840.634327010433, -5681.612274838958, -10197.871649011571, -12483.292816077806, -6685.652635771351, -5416.744103043568, -4987.076519379201, -8192.294322525779, -10733.911184538745, -15852.28185084842, 0.008, 0.24, 0.9500000000000001, 192.0, 0.0, 0.0, 0.0, 0.0, 0.0, 0.0, 0.0, 0.0, 0.0, 1.644588293884476E9, 0.0, 2022-02-12 01:04:53.884
102.0, -9565.6078536043, -8919.418921401373, -5902.961600179863, -13526.471081551443, -7926.75559839673, -3688.507221759227, -7836.432199052835, -5684.160373706863, -10207.102919471612, -12483.672795733548, -6683.730385748195, -5413.54780358646, -4978.381690786086, -8184.828839877706, -10729.820815303423, -15881.652043062693, 0.008, 0.24, 0.9500000000000001, 192.0, 0.0, 0.0, 0.0, 0.0, 0.0, 0.0, 0.0, 0.0, 0.0, 1.644588293892636E9, 0.0, 2022-02-12 01:04:53.892
104.0, -9571.08403099585, -8912.132252708943, -5909.890640961009, -13520.547869270787, -7922.419359972401, -3688.7307392037796, -7837.773303720153, -5678.617141081946, -10192.864858253582, -12467.177208325531, -6689.340673606476, -5422.533204857494, -4984.707234466939, -8182.884238110094, -10730.26785019253, -15859.926147452135, 0.008, 0.24, 0.9500000000000001, 192.0, 0.0, 0.0, 0.0, 0.0, 0.0, 0.0, 0.0, 0.0, 0.0, 1.64458829390063E9, 0.0, 2022-02-12 01:04:53.900
106.0, -9580.494115411535, -8927.197328471819, -5906.314361848159, -13520.302000081778, -7931.3824094989795, -3699.3254660755956, -7843.182425878338, -5690.150641220885, -10197.82694552266, -12464.025612357333, -6700.315380134032, -5417.459358866138, -4982.4273565324975, -8190.282665524801, -10738.806216574458, -15864.441199832107, 0.006, 0.234, 0.9480000000000001, 192.0, 0.0, 24.0, 3.5, 40.0, 14.5, 80.0, 0.0, 0.0, 0.0, 1.644588293907259E9, 0.0, 2022-02-12 01:04:53.907
108.0, -9595.670949896688, -8941.144817011931, -5912.863422973564, -13523.095968138692, -7929.415455986912, -3695.1009863735426, -7849.17269339236, -5688.764833064656, -10204.107785714601, -12479.984757898423, -6694.794499253571, -5405.009437204532, -4983.299074566255, -8190.752052158363, -10738.537995640992, -15882.970795985557, 0.006, 0.234, 0.9480000000000001, 192.0, 0.0, 0.0, 0.0, 0.0, 0.0, 0.0, 0.0, 0.0, 0.0, 1.6445882939223E9, 0.0, 2022-02-12 01:04:53.922
110.0, -9593.815755106898, -8933.0087820302, -5916.640867786511, -13517.038645391303, -7917.837252359063, -3692.5975909945478, -7844.0988474010055, -5682.4616411282595, -10208.466375883387, -12481.75054571039, -6700.918877234326, -5420.007457734044, -4977.420565774509, -8191.154383558558, -10742.851882320867, -15848.079722890821, 0.006, 0.234, 0.9480000000000001, 192.0, 0.0, 0.0, 0.0, 0.0, 0.0, 0.0, 0.0, 0.0, 0.0, 1.644588293929536E9, 0.0, 2022-02-12 01:04:53.929
112.0, -9569.385298417246, -8921.967020269278, -5903.945076935897, -13536.037628178316, -7926.017990829706, -3695.8609456850227, -7839.606146765488, -5683.623931839935, -10204.82304153717, -12486.04208064581, -6685.406766582342, -5419.806292033946, -4979.968664642413, -8180.179677031002, -10740.236728219597, -15882.613168074271, 0.006, 0.234, 0.9480000000000001, 192.0, 0.0, 0.0, 0.0, 0.0, 0.0, 0.0, 0.0, 0.0, 0.0, 1.644588293936742E9, 0.0, 2022-02-12 01:04:53.936
114.0, -9583.712766613098, -8921.609392357992, -5915.411521841469, -13525.062921650759, -7916.943182580851, -3702.432358554883, -7842.757742733686, -5682.908676017365, -10204.376006648065, -12484.008071900376, -6703.779900524605, -5417.124082699309, -4983.589647244174, -8193.85894463765, -10733.464149649639, -15865.514083565962, 0.006, 0.234, 0.9480000000000001, 192.0, 0.0, 0.0, 0.0, 0.0, 0.0, 0.0, 0.0, 0.0, 0.0, 1.644588293945004E9, 0.0, 2022-02-12 01:04:53.945
116.0, -9567.373641416269, -8936.227433231763, -5905.21912636985, -13527.454558307476, -7922.553470439133, -3702.186489365875, -7839.941422932318, -5679.488859115703, -10202.990198491836, -12472.60868222817, -6701.790595268082, -5428.2999549269625, -4989.110528124635, -8197.234058050402, -10740.482597408605, -15865.223510888043, 0.008, 0.234, 0.9480000000000001, 192.0, 0.0, 32.0, 3.5, 40.0, 14.5, 80.0, 0.0, 0.0, 0.0, 1.644588293953239E9, 0.0, 2022-02-12 01:04:53.953
118.0, -9579.555342144411, -8944.765799613691, -5911.589373539612, -13527.074578651736, -7923.738112895265, -3700.554812020637, -7846.334021846536, -5678.103050959475, -10207.549954360718, -12481.459973032472, -6697.409653354843, -5416.11825419882, -4985.578952500696, -8190.260313780345, -10740.214376475142, -15879.930958739635, 0.008, 0.234, 0.9480000000000001, 192.0, 0.0, 0.0, 0.0, 0.0, 0.0, 0.0, 0.0, 0.0, 0.0, 1.644588293959548E9, 0.0, 2022-02-12 01:04:53.959
120.0, -9579.711804355598, -8916.960229511289, -5904.50387054728, -13523.185375116513, -7915.04328430215, -3697.4479195413496, -7840.276699099148, -5676.806649781067, -10196.530544344252, -12459.354097766174, -6701.164746423334, -5435.787789319491, -4969.731565681883, -8192.115508570136, -10739.588527630392, -15844.034057144412, 0.008, 0.234, 0.9480000000000001, 192.0, 0.0, 0.0, 0.0, 0.0, 0.0, 0.0, 0.0, 0.0, 0.0, 1.644588293967531E9, 0.0, 2022-02-12 01:04:53.967
122.0, -9571.888693796242, -8915.932049266345, -5902.671027501944, -13532.10372115418, -7924.319258251102, -3705.047512656154, -7843.3388880895245, -5680.271170171639, -10198.743367045328, -12462.908025134568, -6700.114214433935, -5424.83543453639, -4989.222286846911, -8193.434261493, -10734.134701983297, -15875.259444148476, 0.008, 0.234, 0.9480000000000001, 192.0, 0.0, 0.0, 0.0, 0.0, 0.0, 0.0, 0.0, 0.0, 0.0, 1.644588293973879E9, 0.0, 2022-02-12 01:04:53.973
124.0, -9598.688435398155, -8955.829913119069, -5901.888716446008, -13527.879241452127, -7916.876127347485, -3705.2486783562517, -7843.830626467541, -5688.206039453273, -10194.2059629209, -12492.434679560029, -6692.536973063586, -5414.196004175664, -4984.014330388824, -8198.441052250988, -10734.179405472209, -15858.13800789571, 0.008, 0.234, 0.9480000000000001, 192.0, 0.0, 0.0, 0.0, 0.0, 0.0, 0.0, 0.0, 0.0, 0.0, 1.644588293982056E9, 0.0, 2022-02-12 01:04:53.982
126.0, -9588.98777830455, -8944.542282169137, -5896.412539054459, -13532.416645576555, -7918.820729115097, -3705.203974867341, -7834.733466474232, -5685.233257440717, -10206.54412586023, -12475.626167729637, -6694.213353897733, -5418.64400132227, -4982.628522232595, -8193.322502770723, -10735.922841539723, -15864.262385876464, 0.004, 0.23, 0.9500000000000001, 192.0, 0.0, 16.0, 3.5, 24.0, 14.5, 88.0, 0.0, 0.0, 0.0, 1.644588293989942E9, 0.0, 2022-02-12 01:04:53.989
128.0, -9586.350272458825, -8924.962154026289, -5906.314361848159, -13536.641125278607, -7927.135578052471, -3705.6733615009025, -7846.669298013366, -5685.590885352002, -10210.813309051193, -12485.483287034427, -6697.543763821574, -5416.431178621195, -4964.367147012609, -8190.95321785846, -10739.387361930296, -15887.172923943153, 0.004, 0.23, 0.9500000000000001, 192.0, 0.0, 0.0, 0.0, 0.0, 0.0, 0.0, 0.0, 0.0, 0.0, 1.64458829399721E9, 0.0, 2022-02-12 01:04:53.997
130.0, -9573.542722885933, -8912.132252708943, -5902.6933792464, -13525.577011773232, -7920.787682627164, -3701.337123076573, -7847.541016047123, -5682.372234150438, -10206.097090971123, -12463.198597812487, -6705.769205781127, -5435.6983823416695, -4984.863696678126, -8205.593610476686, -10742.427199176216, -15852.483016548518, 0.004, 0.23, 0.9500000000000001, 192.0, 0.0, 0.0, 0.0, 0.0, 0.0, 0.0, 0.0, 0.0, 0.0, 1.644588294004474E9, 0.0, 2022-02-12 01:04:54.004
132.0, -9562.724478569566, -8932.137063996443, -5902.380454824025, -13536.685828767519, -7929.080179820083, -3698.2302305972853, -7844.45647531229, -5685.367367907449, -10201.626742080063, -12472.541626994805, -6697.521412077119, -5412.027884963499, -4990.362225814131, -8198.016369106337, -10741.019039275532, -15883.19431343011, 0.004, 0.23, 0.9500000000000001, 192.0, 0.0, 0.0, 0.0, 0.0, 0.0, 0.0, 0.0, 0.0, 0.0, 1.644588294012427E9, 0.0, 2022-02-12 01:04:54.012
134.0, -9583.511600913002, -8956.232244519264, -5909.3989025829915, -13523.654761750075, -7922.397008227946, -3700.3759980649947, -7849.619728281466, -5685.970865007743, -10200.330340901655, -12490.28891209232, -6699.980103967203, -5415.805329776446, -4987.076519379201, -8196.474098738921, -10741.68959160919, -15860.462589319062, 0.004, 0.23, 0.9500000000000001, 192.0, 0.0, 0.0, 0.0, 0.0, 0.0, 0.0, 0.0, 0.0, 0.0, 1.644588294020574E9, 0.0, 2022-02-12 01:04:54.020
136.0, -9595.290970240947, -8948.655003148915, -5905.152071136484, -13534.651820022085, -7929.99660134275, -3706.142748134464, -7851.921957960362, -5689.7930133096, -10216.177727720467, -12482.778725955335, -6700.13656617839, -5415.335943142884, -4984.371958300109, -8200.519764485332, -10742.807178831958, -15863.144798653699, 0.004, 0.23600000000000002, 0.9520000000000001, 192.0, 0.0, 16.0, 3.5, 48.0, 14.5, 96.0, 0.0, 0.0, 0.0, 1.644588294027137E9, 0.0, 2022-02-12 01:04:54.027
138.0, -9602.689397655655, -8938.283793721652, -5912.483443317824, -13541.044418936304, -7932.857624633029, -3708.310867346629, -7852.056068427095, -5686.440251641304, -10219.843413811137, -12496.167420884065, -6699.466013844731, -5414.397169875761, -4987.948237412958, -8202.218497063936, -10739.968507286134, -15886.14474369821, 0.004, 0.23600000000000002, 0.9520000000000001, 192.0, 0.0, 0.0, 0.0, 0.0, 0.0, 0.0, 0.0, 0.0, 0.0, 1.644588294035204E9, 0.0, 2022-02-12 01:04:54.035
140.0, -9584.584484646855, -8924.738636581737, -5920.954754466386, -13532.796625232295, -7930.71185716532, -3702.432358554883, -7848.189216636327, -5684.31683591805, -10210.321570673177, -12476.095554363199, -6711.938287250792, -5431.831530550901, -4977.912304152525, -8216.322447815233, -10744.215338732642, -15855.455798561074, 0.004, 0.23600000000000002, 0.9520000000000001, 192.0, 0.0, 0.0, 0.0, 0.0, 0.0, 0.0, 0.0, 0.0, 0.0, 1.644588294050165E9, 0.0, 2022-02-12 01:04:54.050
142.0, -9561.428077391158, -8904.130328193944, -5909.845937472098, -13543.659573037574, -7937.8420636465635, -3701.4041783099387, -7851.4972748157115, -5685.590885352002, -10211.483861384853, -12453.386181996606, -6700.13656617839, -5438.000612020566, -4991.725682225905, -8197.882258639605, -10744.79648408848, -15887.57525534335, 0.004, 0.23600000000000002, 0.9520000000000001, 192.0, 0.0, 0.0, 0.0, 0.0, 0.0, 0.0, 0.0, 0.0, 0.0, 1.644588294056711E9, 0.0, 2022-02-12 01:04:54.056
144.0, -9600.051891809928, -8963.854189378522, -5927.436760358425, -13533.981267688427, -7933.349363011046, -3704.891050444967, -7856.258196384692, -5692.117594732952, -10208.376968905564, -12475.223836329442, -6708.1831941823, -5430.64688809477, -4992.172717115011, -8194.864773138139, -10747.635155634303, -15866.56461555536, 0.004, 0.23600000000000002, 0.9520000000000001, 192.0, 0.0, 0.0, 0.0, 0.0, 0.0, 0.0, 0.0, 0.0, 0.0, 1.644588294064892E9, 0.0, 2022-02-12 01:04:54.064
146.0, -9603.42700522268, -8963.742430656246, -5921.021809699751, -13539.837424735717, -7935.3163165231135, -3707.2826871016846, -7852.41369633838, -5697.2584959576725, -10231.891004072548, -12491.09357489271, -6725.61755485744, -5425.148358958764, -4989.781080458293, -8202.19614531948, -10747.389286445296, -15872.085496435822, 0.004, 0.23600000000000002, 0.9520000000000001, 192.0, 0.0, 0.0, 3.5, 48.0, 14.5, 88.0, 0.0, 0.0, 0.0, 1.644588294072769E9, 0.0, 2022-02-12 01:04:54.072
148.0, -9594.553362673923, -8949.817293860591, -5921.178271910939, -13543.257241637379, -7923.760464639719, -3703.30407658864, -7846.423428824357, -5686.484955130214, -10229.477015671375, -12492.121755137654, -6711.200679683767, -5424.209585691641, -4979.7227954534055, -8199.469232495932, -10739.8343968194, -15892.649101334704, 0.004, 0.23600000000000002, 0.9520000000000001, 192.0, 0.0, 0.0, 0.0, 0.0, 0.0, 0.0, 0.0, 0.0, 0.0, 1.64458829407951E9, 0.0, 2022-02-12 01:04:54.079
150.0, -9597.481441197568, -8955.695802652335, -5916.149129408494, -13532.684866510019, -7916.674961647387, -3699.593687009059, -7846.065800913072, -5684.942684762798, -10213.964905019391, -12478.442487531005, -6704.85278425846, -5430.736295072591, -4977.934655896981, -8205.951238387972, -10739.812045074947, -15854.248804360486, 0.004, 0.23600000000000002, 0.9520000000000001, 192.0, 0.0, 0.0, 0.0, 0.0, 0.0, 0.0, 0.0, 0.0, 0.0, 1.644588294087557E9, 0.0, 2022-02-12 01:04:54.087
152.0, -9601.772976132987, -8947.20213975932, -5911.924649706441, -13545.939450972015, -7929.013124586717, -3699.1913556088634, -7850.044411426117, -5685.009739996164, -10224.291410957743, -12494.535743538827, -6696.537935321086, -5440.325193443918, -4986.741243212372, -8199.96097087395, -10736.16871072873, -15889.586912344326, 0.004, 0.23600000000000002, 0.9520000000000001, 192.0, 0.0, 0.0, 0.0, 0.0, 0.0, 0.0, 0.0, 0.0, 0.0, 1.644588294095493E9, 0.0, 2022-02-12 01:04:54.095
154.0, -9599.627208665277, -8952.387744472951, -5926.788559769221, -13539.30098286879, -7926.599136185544, -3703.1923178663637, -7846.579891035544, -5694.486879645215, -10216.602410865118, -12496.189772628519, -6705.9927232256805, -5442.806237078457, -4985.936580411981, -8202.91140114205, -10744.327097454918, -15870.38676385722, 0.004, 0.23600000000000002, 0.9520000000000001, 192.0, 0.0, 0.0, 0.0, 0.0, 0.0, 0.0, 0.0, 0.0, 0.0, 1.644588294102866E9, 0.0, 2022-02-12 01:04:54.102
156.0, -9595.38037721877, -8945.369296713985, -5914.428045085436, -13545.693581783007, -7932.745865910753, -3708.5343847911818, -7841.841321211019, -5692.676388344335, -10213.272000941277, -12475.067374118255, -6717.101540219968, -5440.258138210552, -4987.188278101477, -8214.91428791455, -10746.070533522432, -15871.794923757903, -0.004, 0.242, 0.9520000000000001, 192.0, 127.5, 112.0, 3.5, 72.0, 14.5, 96.0, 0.0, 0.0, 0.0, 1.644588294109074E9, 0.0, 2022-02-12 01:04:54.109
158.0, -9601.392996477247, -8946.218663003287, -5918.406655598481, -13546.341782372212, -7932.4999967217445, -3708.087349902076, -7844.054143912094, -5692.0952429884965, -10226.325419703177, -12492.501734793394, -6703.779900524605, -5433.865539296334, -4965.261216790822, -8210.712159956951, -10739.633231119304, -15892.447935634607, -0.004, 0.242, 0.9520000000000001, 192.0, 0.0, 0.0, 0.0, 0.0, 0.0, 0.0, 0.0, 0.0, 0.0, 1.644588294117486E9, 0.0, 2022-02-12 01:04:54.117
160.0, -9587.512563170501, -8938.283793721652, -5912.818719484654, -13533.422474077044, -7919.156005281927, -3702.432358554883, -7845.909338701885, -5702.041769271108, -10214.92603003097, -12482.555208510783, -6696.917914976825, -5434.401981163262, -4988.8199554467155, -8202.710235441951, -10740.639059619793, -15859.836740474313, -0.004, 0.242, 0.9520000000000001, 192.0, 0.0, 0.0, 0.0, 0.0, 0.0, 0.0, 0.0, 0.0, 0.0, 1.644588294125128E9, 0.0, 2022-02-12 01:04:54.125
162.0, -9587.713728870598, -8945.10107578052, -5913.712789262866, -13541.603212547687, -7931.002429843239, -3700.308942831629, -7843.182425878338, -5691.849373799489, -10219.910469044504, -12489.931284181033, -6696.269714387622, -5418.979277489099, -4982.2261908324, -8197.77049991733, -10738.515643896539, -15888.938711755123, -0.004, 0.242, 0.9520000000000001, 192.0, 0.0, 0.0, 0.0, 0.0, 0.0, 0.0, 0.0, 0.0, 0.0, 1.644588294133279E9, 0.0, 2022-02-12 01:04:54.133
164.0, -9574.660310108698, -8934.886328564446, -5916.350295108592, -13530.24852636439, -7919.021894815194, -3691.055320627132, -7843.3388880895245, -5689.904772031877, -10215.238954453345, -12494.334577838728, -6709.010208727147, -5426.847091537367, -4985.266028078321, -8199.513935984844, -10740.8849288088, -15868.039830689411, -0.001, 0.241, 0.9500000000000001, 192.0, 0.0, 8.0, 3.5, 64.0, 14.5, 80.0, 0.0, 0.0, 0.0, 1.644588294139779E9, 0.0, 2022-02-12 01:04:54.139
166.0, -9570.011147261996, -8922.86109004749, -5906.627286270534, -13536.507014811876, -7920.877089604985, -3689.513050259716, -7839.293222343114, -5685.121498718441, -10204.443061881431, -12460.829312900223, -6697.879039988404, -5427.875271782312, -4971.631463960584, -8191.266142280834, -10735.475806650617, -15867.27987137793, -0.001, 0.241, 0.9500000000000001, 192.0, 0.0, 0.0, 0.0, 0.0, 0.0, 0.0, 0.0, 0.0, 0.0, 1.644588294148044E9, 0.0, 2022-02-12 01:04:54.148
168.0, -9583.601007890822, -8932.651154118914, -5907.677818259933, -13537.356381101177, -7926.33091525208, -3696.8444224410564, -7851.765495749176, -5703.092301260508, -10211.59562010713, -12464.494998990895, -6687.105499160945, -5424.678972325203, -4969.798620915249, -8193.791889404285, -10737.465111907139, -15894.325482168852, -0.001, 0.241, 0.9500000000000001, 192.0, 0.0, 0.0, 0.0, 0.0, 0.0, 0.0, 0.0, 0.0, 0.0, 1.644588294155766E9, 0.0, 2022-02-12 01:04:54.155
170.0, -9588.741909115543, -8952.454799706316, -5911.79053923971, -13527.29809609629, -7922.687580905865, -3692.105852616531, -7847.161036391382, -5696.498536646192, -10206.074739226668, -12474.486228762416, -6690.815888740527, -5414.955963487144, -4956.387574242065, -8198.150479573069, -10742.65071662077, -15864.396496343195, -0.001, 0.241, 0.9500000000000001, 192.0, 0.0, 0.0, 0.0, 0.0, 0.0, 0.0, 0.0, 0.0, 0.0, 1.644588294169495E9, 0.0, 2022-02-12 01:04:54.169
172.0, -9590.485345183057, -8931.622973873971, -5911.656428772978, -13544.173663160047, -7938.37850551349, -3693.737529961769, -7853.061896927584, -5692.430519155326, -10217.295314943232, -12485.975025412445, -6687.708996261239, -5418.64400132227, -4963.115449323112, -8190.752052158363, -10743.79065558799, -15894.9513310136, -0.001, 0.241, 0.9500000000000001, 192.0, 0.0, 0.0, 0.0, 0.0, 0.0, 0.0, 0.0, 0.0, 0.0, 1.64458829417728E9, 0.0, 2022-02-12 01:04:54.177
174.0, -9582.975159046073, -8943.58115715756, -5920.798292255198, -13533.847157221695, -7927.850833875041, -3694.341027062062, -7857.353431863003, -5697.169088979851, -10210.053349739714, -12458.75060066588, -6699.980103967203, -5422.488501368583, -4988.194106601966, -8201.39148251909, -10736.660449106748, -15873.203083658587, 0.0035, 0.2375, 0.9480000000000001, 192.0, 0.0, 32.0, 3.5, 40.0, 14.5, 72.0, 0.0, 0.0, 0.0, 1.644588294184643E9, 0.0, 2022-02-12 01:04:54.184
176.0, -9581.768164845487, -8933.545223897127, -5915.858556730575, -13543.234889892923, -7939.920775880907, -3695.369207307006, -7856.101734173505, -5696.409129668371, -10218.92699228847, -12476.699051463493, -6708.13849069339, -5435.9889550195885, -4984.327254811198, -8213.751997202873, -10742.114274753843, -15873.113676680767, 0.0035, 0.2375, 0.9480000000000001, 192.0, 0.0, 0.0, 0.0, 0.0, 0.0, 0.0, 0.0, 0.0, 0.0, 1.644588294191903E9, 0.0, 2022-02-12 01:04:54.191
178.0, -9598.643731909244, -8948.990279315743, -5925.849786502098, -13547.68288703953, -7958.428020289901, -3707.9308876908885, -7873.9831297377505, -5706.892097817909, -10227.331248203665, -12494.580447027738, -6702.639961557385, -5439.699344599169, -4986.27185657881, -8198.99984586237, -10741.60018463137, -15893.945502513112, 0.0035, 0.2375, 0.9480000000000001, 192.0, 0.0, 0.0, 0.0, 0.0, 0.0, 0.0, 0.0, 0.0, 0.0, 1.644588294199995E9, 0.0, 2022-02-12 01:04:54.199
180.0, -9618.827357152386, -8971.9678726158, -5920.954754466386, -13537.781064245828, -7942.223005559803, -3708.176756879897, -7865.5565220781, -5711.384798453427, -10229.767588349294, -12500.302493608297, -6714.374627396421, -5434.580795118904, -4983.008501888336, -8208.029950622315, -10749.199777746175, -15866.877539977735, 0.0035, 0.2375, 0.9480000000000001, 192.0, 0.0, 0.0, 0.0, 0.0, 0.0, 0.0, 0.0, 0.0, 0.0, 1.644588294207926E9, 0.0, 2022-02-12 01:04:54.207
182.0, -9600.968313332596, -8949.370258971485, -5912.192870639905, -13545.201843404991, -7939.965479369817, -3702.521765532704, -7851.3184608600695, -5695.492708145704, -10232.628611639573, -12500.213086630474, -6698.9519237222585, -5420.610954834337, -4986.3612635566315, -8200.922095885528, -10741.130797997808, -15897.991168259523, 0.0035, 0.2375, 0.9480000000000001, 192.0, 0.0, 0.0, 0.0, 0.0, 0.0, 0.0, 0.0, 0.0, 0.0, 1.644588294214656E9, 0.0, 2022-02-12 01:04:54.214
184.0, -9591.155897516715, -8935.28865996464, -5917.3784753535365, -13539.68096252453, -7919.80420587113, -3695.1680416069084, -7843.070667156061, -5693.346940677994, -10215.730692831361, -12482.935188166522, -6703.221106913222, -5437.821798064923, -4968.9269028814915, -8198.441052250988, -10733.240632205085, -15874.052449947889, 0.00475, 0.23675000000000002, 0.9470000000000001, 192.0, 0.0, 24.0, 3.5, 48.0, 14.5, 72.0, 0.0, 0.0, 0.0, 1.644588294221497E9, 0.0, 2022-02-12 01:04:54.221
186.0, -9588.80896434891, -8945.43635194735, -5914.6739142744445, -13549.135750429125, -7930.66715367641, -3697.2914573301623, -7842.713039244776, -5688.742481320201, -10216.937687031948, -12487.964330668967, -6699.600124311462, -5432.591489862381, -4969.530399981785, -8203.649008709075, -10740.013210775043, -15873.784229014425, 0.00475, 0.23675000000000002, 0.9470000000000001, 192.0, 0.0, 0.0, 0.0, 0.0, 0.0, 0.0, 0.0, 0.0, 0.0, 1.644588294229869E9, 0.0, 2022-02-12 01:04:54.229
188.0, -9588.741909115543, -8954.086477051555, -5918.183138153928, -13553.78491327583, -7937.23856654627, -3701.7618062212237, -7853.3748213499575, -5693.995141267198, -10228.73940810435, -12507.119775667165, -6700.337731878488, -5438.291184698485, -4971.497353493852, -8203.067863353237, -10734.872309550323, -15896.247732192009, 0.00475, 0.23675000000000002, 0.9470000000000001, 192.0, 0.0, 0.0, 0.0, 0.0, 0.0, 0.0, 0.0, 0.0, 0.0, 1.644588294237567E9, 0.0, 2022-02-12 01:04:54.237
190.0, -9595.290970240947, -8955.561692185604, -5912.371684595548, -13543.190186404014, -7928.499034464245, -3698.9678381643107, -7847.2727951136585, -5692.788147066611, -10225.230184224867, -12479.18009509803, -6714.70990356325, -5446.740144102591, -4993.782042715793, -8212.589706491197, -10738.068609007432, -15863.703592265081, 0.00475, 0.23675000000000002, 0.9470000000000001, 192.0, 0.0, 0.0, 0.0, 0.0, 0.0, 0.0, 0.0, 0.0, 0.0, 1.644588294244372E9, 0.0, 2022-02-12 01:04:54.244
192.0, -9586.462031181101, -8952.700668895324, -5908.415425826958, -13547.30290738379, -7939.406685758435, -3702.2982480881515, -7852.2572341271925, -5693.749272078189, -10225.140777247045, -12492.054699904287, -6702.550554579563, -5430.535129372493, -4985.578952500696, -8212.276782068824, -10741.108446253354, -15895.66658683617, 0.00475, 0.23675000000000002, 0.9470000000000001, 192.0, 0.0, 0.0, 0.0, 0.0, 0.0, 0.0, 0.0, 0.0, 0.0, 1.644588294252123E9, 0.0, 2022-02-12 01:04:54.252
194.0, -9595.223915007582, -8944.408171702406, -5915.813853241665, -13542.273764881345, -7926.621487929999, -3699.973666664799, -7850.0891149150275, -5696.207963968273, -10216.937687031948, -12496.055662161787, -6704.316342391532, -5432.345620673374, -4978.7840221862825, -8203.71606394244, -10740.281431708507, -15875.393554615208, 0.005375, 0.236375, 0.9475, 192.0, 0.0, 24.0, 3.5, 48.0, 14.5, 80.0, 0.0, 0.0, 0.0, 1.644588294260297E9, 0.0, 2022-02-12 01:04:54.260
196.0, -9595.715653385598, -8943.178825757364, -5905.688513003411, -13544.553642815787, -7933.930508366884, -3699.616038753514, -7847.496312558212, -5690.687083087812, -10222.793844079239, -12494.200467371997, -6704.1822319248, -5436.480693397605, -4970.8044494157375, -8204.05134010927, -10742.293088709484, -15876.75701102698, 0.005375, 0.236375, 0.9475, 192.0, 0.0, 0.0, 0.0, 0.0, 0.0, 0.0, 0.0, 0.0, 0.0, 1.644588294267332E9, 0.0, 2022-02-12 01:04:54.267
198.0, -9590.32888297187, -8964.05535507862, -5907.499004304291, -13544.73245677143, -7930.980078098783, -3696.307980574129, -7854.872388228463, -5696.342074435005, -10216.982390520858, -12509.511412323882, -6685.451470071253, -5416.83351002139, -4961.55082721124, -8195.647084194075, -10741.533129398005, -15897.298264181409, 0.005375, 0.236375, 0.9475, 192.0, 0.0, 0.0, 0.0, 0.0, 0.0, 0.0, 0.0, 0.0, 0.0, 1.644588294274976E9, 0.0, 2022-02-12 01:04:54.274
200.0, -9588.786612604454, -8944.855206591512, -5913.399864840492, -13534.830633977728, -7921.100607049538, -3690.6753409713915, -7850.737315504231, -5690.731786576723, -10213.674332341472, -12489.484249291927, -6698.080205688501, -5430.8257020504125, -4968.524571481296, -8200.787985418796, -10747.07636202292, -15860.149664896688, 0.005375, 0.236375, 0.9475, 192.0, 0.0, 0.0, 0.0, 0.0, 0.0, 0.0, 0.0, 0.0, 0.0, 1.644588294282786E9, 0.0, 2022-02-12 01:04:54.282
202.0, -9576.336690942848, -8952.186578772853, -5900.793480967699, -13547.928756228537, -7930.71185716532, -3688.909553159422, -7842.757742733686, -5691.469394143748, -10220.961001033904, -12503.901124465601, -6697.968446966225, -5432.390324162284, -4985.690711222972, -8195.825898149717, -10741.443722420183, -15891.822086789858, 0.005375, 0.236375, 0.9475, 192.0, 0.0, 0.0, 0.0, 0.0, 0.0, 0.0, 0.0, 0.0, 0.0, 1.644588294296449E9, 0.0, 2022-02-12 01:04:54.296
204.0, -9589.52422017148, -8942.57532865707, -5908.728350249333, -13539.837424735717, -7922.039380316661, -3683.008692623221, -7847.205739880293, -5694.062196500564, -10211.282695684755, -12487.494944035405, -6699.600124311462, -5427.428236893205, -4979.342815797665, -8198.932790629005, -10739.163844485742, -15871.057316190878, 0.0076875, 0.2361875, 0.95075, 192.0, 0.0, 40.0, 3.5, 48.0, 14.5, 104.0, 0.0, 0.0, 0.0, 1.644588294306206E9, 0.0, 2022-02-12 01:04:54.306
206.0, -9577.23076072106, -8936.875633820968, -5904.459167058369, -13540.575032302742, -7921.972325083295, -3687.6131519810147, -7841.394286321913, -5696.118556990452, -10218.614067866096, -12477.101382863688, -6703.1764034243115, -5427.02590549301, -4967.854019147637, -8197.256409794856, -10740.50494915306, -15869.626804545738, 0.0076875, 0.2361875, 0.95075, 192.0, 0.0, 0.0, 0.0, 0.0, 0.0, 0.0, 0.0, 0.0, 0.0, 1.644588294312393E9, 0.0, 2022-02-12 01:04:54.312
208.0, -9601.549458688434, -8967.29635802464, -5915.366818352559, -13543.972497459948, -7933.304659522136, -3696.755015463235, -7851.161998648882, -5693.816327311555, -10225.543108647242, -12496.435641817528, -6702.438795857286, -5427.584699104393, -4969.1727720705, -8211.96385764645, -10740.594356130881, -15894.481944380039, 0.0076875, 0.2361875, 0.95075, 192.0, 0.0, 0.0, 0.0, 0.0, 0.0, 0.0, 0.0, 0.0, 0.0, 1.644588294319632E9, 0.0, 2022-02-12 01:04:54.319
210.0, -9609.774900647986, -8970.53736097066, -5916.394998597503, -13538.116340412658, -7929.6836769203765, -3699.0572451421317, -7851.564330049077, -5701.46062391527, -10220.82689056717, -12503.543496554315, -6707.758511037649, -5432.479731140105, -4982.7179292104165, -8209.236944822902, -10749.423295190727, -15860.127313152232, 0.0076875, 0.2361875, 0.95075, 192.0, 0.0, 0.0, 0.0, 0.0, 0.0, 0.0, 0.0, 0.0, 0.0, 1.644588294327032E9, 0.0, 2022-02-12 01:04:54.327
212.0, -9585.6126648918, -8965.239997534753, -5913.891603218509, -13554.67898305404, -7942.602985215543, -3699.616038753514, -7846.691649757821, -5697.236144213217, -10235.288469229756, -12500.99539768641, -6709.211374427245, -5439.520530643526, -4988.931714168992, -8203.269029053334, -10752.574891158925, -15896.091269980821, 0.0076875, 0.2361875, 0.95075, 192.0, 0.0, 0.0, 0.0, 0.0, 0.0, 0.0, 0.0, 0.0, 0.0, 1.644588294335088E9, 0.0, 2022-02-12 01:04:54.335
214.0, -9602.354121488825, -8968.05631733612, -5917.736103264821, -13541.066770680758, -7932.924679866395, -3698.5208032752043, -7846.490484057723, -5692.721091833245, -10227.130082503567, -12505.599857044204, -6703.556383080052, -5426.757684559547, -4988.350568813154, -8203.649008709075, -10749.065667279443, -15873.225435403043, 0.01084375, 0.23609375, 0.950375, 192.0, 0.0, 56.0, 3.5, 48.0, 14.5, 88.0, 0.0, 0.0, 0.0, 1.644588294343068E9, 0.0, 2022-02-12 01:04:54.343
216.0, -9601.460051710612, -8962.602491689026, -5910.024751427741, -13547.72759052844, -7931.985906599272, -3689.535402004171, -7844.79175147912, -5687.177859208329, -10231.98041105037, -12499.117851152165, -6704.808080769549, -5437.1065422423535, -4974.045452361757, -8208.476985511421, -10749.736219613102, -15869.269176634452, 0.01084375, 0.23609375, 0.950375, 192.0, 0.0, 0.0, 0.0, 0.0, 0.0, 0.0, 0.0, 0.0, 0.0, 1.644588294349284E9, 0.0, 2022-02-12 01:04:54.349
218.0, -9608.254982025026, -8970.515009226205, -5919.367780610059, -13550.2980411408, -7931.471816476801, -3687.948428147844, -7839.427332809846, -5690.485917387715, -10238.12714077558, -12505.912781466579, -6701.432967356797, -5439.207606221153, -4972.592588972162, -8203.157270331058, -10746.986955045099, -15891.86679027877, 0.01084375, 0.23609375, 0.950375, 192.0, 0.0, 0.0, 0.0, 0.0, 0.0, 0.0, 0.0, 0.0, 0.0, 1.644588294356698E9, 0.0, 2022-02-12 01:04:54.356
220.0, -9627.790406678963, -8992.263256581218, -5911.522318306246, -13541.804378247783, -7920.497109949245, -3687.2555240697297, -7840.701382243798, -5691.402338910382, -10224.112597002102, -12499.006092429889, -6708.362008137943, -5440.034620765999, -4978.60520823064, -8206.845308166183, -10744.528263155016, -15858.249766617986, 0.01084375, 0.23609375, 0.950375, 192.0, 0.0, 0.0, 0.0, 0.0, 0.0, 0.0, 0.0, 0.0, 0.0, 1.644588294364813E9, 0.0, 2022-02-12 01:04:54.364
222.0, -9637.066380627917, -9001.315713085618, -5909.890640961009, -13553.293174897812, -7931.047133332149, -3689.3342363040733, -7841.237824110726, -5691.067062743552, -10240.78699836576, -12516.418101360572, -6708.697284304772, -5435.318402685929, -4975.74418494036, -8207.940543644494, -10743.544786398983, -15894.727813569049, 0.01084375, 0.23609375, 0.950375, 192.0, 0.0, 0.0, 0.0, 0.0, 0.0, 0.0, 0.0, 0.0, 0.0, 1.644588294372843E9, 0.0, 2022-02-12 01:04:54.372
224.0, -9650.231558112093, -9012.603344035548, -5915.433873585925, -13546.006506205382, -7917.680790147876, -3683.947465890344, -7838.712076987276, -5685.07679522953, -10240.272908243289, -12521.201374674009, -6716.989781497691, -5447.567158647437, -4962.26608303381, -8205.884183154605, -10737.68862935169, -15872.219606902554, 0.011421875, 0.238046875, 0.9481875, 192.0, 0.0, 48.0, 3.5, 64.0, 14.5, 72.0, 0.0, 0.0, 0.0, 1.644588294379398E9, 0.0, 2022-02-12 01:04:54.379
226.0, -9650.544482534468, -9020.113530172532, -5904.6379810140115, -13548.01816320636, -7911.288191233658, -3671.25167503973, -7824.652829724888, -5674.929103246821, -10229.924050560481, -12514.138223426131, -6713.905240762859, -5454.339737217395, -4959.628577188084, -8204.721892442929, -10735.11817873933, -15864.62001378775, 0.011421875, 0.238046875, 0.9481875, 192.0, 0.0, 0.0, 0.0, 0.0, 0.0, 0.0, 0.0, 0.0, 0.0, 1.644588294387652E9, 0.0, 2022-02-12 01:04:54.387
228.0, -9692.454003388168, -9046.846216541078, -5917.020847442252, -13554.768390031863, -7915.467967446801, -3673.956236118822, -7828.296164071103, -5675.331434647016, -10246.017306568303, -12533.04779923532, -6720.856633288459, -5463.1686762772415, -4959.31565276571, -8197.837555150694, -10731.564251370937, -15884.356604141785, 0.011421875, 0.238046875, 0.9481875, 192.0, 0.0, 0.0, 0.0, 0.0, 0.0, 0.0, 0.0, 0.0, 0.0, 1.644588294395361E9, 0.0, 2022-02-12 01:04:54.395
230.0, -9711.49768966409, -9077.915141333955, -5920.530071321735, -13544.978325960437, -7908.762444110209, -3670.2905500281518, -7824.853995424985, -5674.347957890983, -10260.255367786332, -12529.918555011578, -6746.359973711965, -5477.384385750817, -4963.562484212218, -8205.05716860976, -10736.638097362293, -15849.532586280417, 0.011421875, 0.238046875, 0.9481875, 192.0, 0.0, 0.0, 0.0, 0.0, 0.0, 0.0, 0.0, 0.0, 0.0, 1.644588294402239E9, 0.0, 2022-02-12 01:04:54.402
232.0, -9730.11669279536, -9079.36800472355, -5920.820643999654, -13557.294137155312, -7920.4077029714235, -3668.301244771629, -7820.249536067193, -5668.804725266066, -10270.000728368846, -12540.043895249832, -6744.393020199897, -5469.60597868037, -4969.977434870892, -8194.66360743804, -10736.660449106748, -15882.702575052093, 0.011421875, 0.238046875, 0.9481875, 192.0, 0.0, 0.0, 0.0, 0.0, 0.0, 0.0, 0.0, 0.0, 0.0, 1.644588294417183E9, 0.0, 2022-02-12 01:04:54.417
234.0, -9751.708477939186, -9094.231914786329, -5918.831338743132, -13552.756733030885, -7909.634162143966, -3671.0281575951767, -7824.608126235978, -5671.017547967142, -10268.525513234796, -12541.00502026141, -6753.020793559646, -5484.313426531962, -4972.346719783154, -8198.709273184451, -10732.637135104793, -15865.469380077051, 0.006, 0.23600000000000002, 0.9520000000000001, 192.0, 0.0, 24.0, 3.5, 48.0, 14.5, 96.0, 0.0, 0.0, 0.0, 1.64458829442496E9, 0.0, 2022-02-12 01:04:54.424
236.0, -9781.682167253754, -9124.56323201218, -5921.066513188662, -13557.472951110954, -7914.596249413044, -3672.369262262495, -7826.284507070126, -5673.967978235242, -10264.524550977296, -12539.57450861627, -6751.880854592426, -5481.966493364155, -4972.369071527609, -8206.2865145548, -10736.660449106748, -15865.223510888043, 0.006, 0.23600000000000002, 0.9520000000000001, 192.0, 0.0, 0.0, 0.0, 0.0, 0.0, 0.0, 0.0, 0.0, 0.0, 1.644588294431913E9, 0.0, 2022-02-12 01:04:54.431
238.0, -9791.539286558544, -9144.411581088494, -5927.235594658327, -13557.428247622043, -7922.218194272304, -3678.8736198989895, -7838.712076987276, -5682.148716705885, -10287.546847766263, -12564.966090317499, -6743.566005655051, -5466.499086201083, -4975.386557029075, -8204.654837209564, -10740.08026600841, -15890.056298977888, 0.006, 0.23600000000000002, 0.9520000000000001, 192.0, 0.0, 0.0, 0.0, 0.0, 0.0, 0.0, 0.0, 0.0, 0.0, 1.644588294439612E9, 0.0, 2022-02-12 01:04:54.439
240.0, -9769.276949081059, -9111.50981325028, -5929.694286548411, -13539.30098286879, -7909.634162143966, -3672.72689017378, -7833.16884436236, -5677.432498625815, -10277.55561799474, -12542.636697606647, -6745.845883589493, -5476.467964228149, -4959.069783576701, -8218.468215282943, -10745.154111999764, -15855.031115416423, 0.006, 0.23600000000000002, 0.9520000000000001, 192.0, 0.0, 0.0, 0.0, 0.0, 0.0, 0.0, 0.0, 0.0, 0.0, 1.644588294447776E9, 0.0, 2022-02-12 01:04:54.447
242.0, -9754.301280296002, -9098.344635766105, -5922.78759751172, -13554.075485953748, -7919.603040171032, -3670.9163988729, -7822.238841323715, -5673.632702068413, -10279.857847673637, -12550.683325610558, -6740.883796320414, -5464.5768361779255, -4975.543019240263, -8206.018293621337, -10736.503986895561, -15885.608301831282, 0.006, 0.23600000000000002, 0.9520000000000001, 192.0, 0.0, 0.0, 0.0, 0.0, 0.0, 0.0, 0.0, 0.0, 0.0, 1.644588294454713E9, 0.0, 2022-02-12 01:04:54.454
244.0, -9729.06616080596, -9074.182400009919, -5927.056780702685, -13550.610965563175, -7901.341664951046, -3664.792020892146, -7821.434178523324, -5677.857181770466, -10268.547864979251, -12543.709581340503, -6738.112180007956, -5473.048147326487, -4972.436126760975, -8197.926962128517, -10732.525376382515, -15867.413981844662, 0.016, 0.23800000000000002, 0.9440000000000001, 192.0, 0.0, 64.0, 3.5, 56.0, 14.5, 64.0, 0.0, 0.0, 0.0, 1.644588294462401E9, 0.0, 2022-02-12 01:04:54.462
246.0, -9705.641532616799, -9080.217371012852, -5915.299763119193, -13541.267936380857, -7899.2182492277925, -3663.7414889027464, -7806.7714341606425, -5663.864989741443, -10248.677164158484, -12520.91080199609, -6729.66322060385, -5476.870295628345, -4948.877388105081, -8203.067863353237, -10731.631306604304, -15857.556862539872, 0.016, 0.23800000000000002, 0.9440000000000001, 192.0, 0.0, 0.0, 0.0, 0.0, 0.0, 0.0, 0.0, 0.0, 0.0, 1.644588294469252E9, 0.0, 2022-02-12 01:04:54.469
248.0, -9699.427747658223, -9075.970539566344, -5917.445530586902, -13546.878224239139, -7907.108415020516, -3665.395517992439, -7815.980352876229, -5661.316890873539, -10253.706306660928, -12545.318906941284, -6724.790540312593, -5435.810141063946, -4954.755896896827, -8192.33902601469, -10729.016152503033, -15878.90277849469, 0.016, 0.23800000000000002, 0.9440000000000001, 192.0, 0.0, 0.0, 0.0, 0.0, 0.0, 0.0, 0.0, 0.0, 0.0, 1.644588294477423E9, 0.0, 2022-02-12 01:04:54.477
250.0, -9693.191610955193, -9035.089198957587, -5915.299763119193, -13540.217404391457, -7900.8052230841195, -3663.048584824632, -7822.037675623617, -5670.861085755955, -10247.403114724531, -12520.754339784902, -6723.561194367551, -5448.12595225882, -4957.661623676017, -8199.29041854029, -10731.921879282223, -15847.208004857064, 0.016, 0.23800000000000002, 0.9440000000000001, 192.0, 0.0, 0.0, 0.0, 0.0, 0.0, 0.0, 0.0, 0.0, 0.0, 1.644588294484396E9, 0.0, 2022-02-12 01:04:54.484
252.0, -9667.062421686938, -9013.720931258313, -5917.60199279809, -13559.059924967281, -7915.356208724525, -3668.8823901274673, -7820.540108745112, -5674.415013124349, -10251.31467000421, -12514.831127504245, -6704.85278425846, -5453.311556972451, -4955.515856208308, -8200.922095885528, -10733.821777560923, -15883.037851218922, 0.016, 0.23800000000000002, 0.9440000000000001, 192.0, 0.0, 0.0, 0.0, 0.0, 0.0, 0.0, 0.0, 0.0, 0.0, 1.644588294492014E9, 0.0, 2022-02-12 01:04:54.492
254.0, -9670.571645566422, -9045.795684551678, -5920.418312599459, -13545.201843404991, -7909.455348188323, -3672.8386488960564, -7817.053236610083, -5663.529713574614, -10239.669411142995, -12512.90887748109, -6713.905240762859, -5448.483580170105, -4961.930806866981, -8206.62179072163, -10729.686704836691, -15865.983470199522, 0.012, 0.234, 0.9460000000000001, 192.0, 0.0, 48.0, 3.5, 40.0, 14.5, 72.0, 0.0, 0.0, 0.0, 1.64458829450021E9, 0.0, 2022-02-12 01:04:54.500
0.0, -9651.639718012777, -9033.323411145617, -5916.2608881307715, -13548.554605073286, -7916.227926758281, -3668.211837793808, -7816.606201720978, -5669.385870621904, -10244.206815267422, -12528.733912555446, -6716.453339630764, -5450.606995893359, -4971.162077327022, -8211.069787868237, -10735.162882228242, -15861.937804453113, 0.012, 0.234, 0.9460000000000001, 192.0, 0.0, 0.0, 0.0, 0.0, 0.0, 0.0, 0.0, 0.0, 0.0, 1.644588294507177E9, 0.0, 2022-02-12 01:04:54.507
2.0, -9645.358877820836, -9016.157271403941, -5926.453283602391, -13554.746038287407, -7920.832386116074, -3668.368300004995, -7819.713094200265, -5670.346995633483, -10239.580004165175, -12531.773749801368, -6710.507775605653, -5438.246481209574, -4958.488638220863, -8205.81712792124, -10737.196890973675, -15887.843476276814, 0.012, 0.234, 0.9460000000000001, 192.0, 0.0, 0.0, 0.0, 0.0, 0.0, 0.0, 0.0, 0.0, 0.0, 1.644588294515031E9, 0.0, 2022-02-12 01:04:54.515
4.0, -9643.324869075403, -9000.667512496413, -5930.722466793355, -13544.151311415591, -7923.671057661898, -3676.2808175421737, -7825.390437291913, -5677.7901265371, -10228.940573804448, -12511.545421069315, -6714.933421007803, -5442.605071378359, -4964.8141819017155, -8214.824880936729, -10736.8839665513, -15854.271156104942, 0.012, 0.234, 0.9460000000000001, 192.0, 0.0, 0.0, 0.0, 0.0, 0.0, 0.0, 0.0, 0.0, 0.0, 1.644588294522651E9, 0.0, 2022-02-12 01:04:54.522
6.0, -9630.316153802414, -9002.433300308383, -5925.000420212797, -13556.422419121554, -7935.85275839004, -3678.404233265428, -7824.719884958254, -5678.058347470564, -10228.582945893162, -12516.485156593939, -6701.343560378977, -5444.303803956963, -4965.998824357846, -8215.473081525932, -10740.192024730686, -15889.408098388685, 0.012, 0.234, 0.9460000000000001, 192.0, 0.0, 0.0, 0.0, 0.0, 0.0, 0.0, 0.0, 0.0, 0.0, 1.644588294530591E9, 0.0, 2022-02-12 01:04:54.530
8.0, -9628.796235179452, -8998.16411711742, -5929.560176081679, -13546.855872494683, -7922.844043117052, -3673.263332040707, -7827.849129181997, -5676.158449191863, -10236.383704708065, -12517.222764160964, -6701.9470574792695, -5442.828588822912, -4953.615957929606, -8209.594572734186, -10739.186196230197, -15871.258481890975, 0.008, 0.23600000000000002, 0.9460000000000001, 192.0, 0.0, 32.0, 3.5, 48.0, 14.5, 72.0, 0.0, 0.0, 0.0, 1.644588294544127E9, 0.0, 2022-02-12 01:04:54.544
10.0, -9612.725330916088, -8978.740451185759, -5917.26671663126, -13544.710105026974, -7914.596249413044, -3670.983454106266, -7809.721864428743, -5666.658957798357, -10232.44979768393, -12478.084859619721, -6699.398958611365, -5438.5147021430375, -4964.389498757065, -8215.048398381281, -10736.481635151105, -15864.888234721213, 0.008, 0.23600000000000002, 0.9460000000000001, 192.0, 0.0, 0.0, 0.0, 0.0, 0.0, 0.0, 0.0, 0.0, 0.0, 1.644588294552217E9, 0.0, 2022-02-12 01:04:54.552
12.0, -9608.076168069383, -8993.582009504082, -5917.646696287, -13542.921965470548, -7909.075368532583, -3669.530590716671, -7814.482785997723, -5676.985463736709, -10228.828815082172, -12520.307304895796, -6686.457298571742, -5421.192100190175, -4955.672318419494, -8204.833651165205, -10728.278544936007, -15889.76572629997, 0.008, 0.23600000000000002, 0.9460000000000001, 192.0, 0.0, 0.0, 0.0, 0.0, 0.0, 0.0, 0.0, 0.0, 0.0, 1.644588294560335E9, 0.0, 2022-02-12 01:04:54.560
14.0, -9590.731214372065, -8961.619014932992, -5921.535899822224, -13531.857851965173, -7901.207554484315, -3661.0145760791993, -7810.0571405955725, -5664.021451952631, -10207.92993401646, -12504.594028543715, -6687.0384439275795, -5427.607050848848, -4952.7218881513945, -8200.00567436286, -10733.620611860826, -15854.002935171478, 0.008, 0.23600000000000002, 0.9460000000000001, 192.0, 0.0, 0.0, 0.0, 0.0, 0.0, 0.0, 0.0, 0.0, 0.0, 1.644588294566841E9, 0.0, 2022-02-12 01:04:54.566
16.0, -9589.144240515738, -8963.809485889613, -5920.619478299556, -13545.827692249739, -7912.85281334553, -3671.3187302730958, -7815.287448798114, -5671.643396811891, -10214.814271308693, -12491.272388848352, -6689.318321862022, -5430.199853205664, -4945.099943292134, -8191.132031814102, -10733.620611860826, -15879.416868617163, 0.008, 0.23600000000000002, 0.9460000000000001, 192.0, 0.0, 0.0, 0.0, 0.0, 0.0, 0.0, 0.0, 0.0, 0.0, 1.64458829457502E9, 0.0, 2022-02-12 01:04:54.575
18.0, -9600.163650532204, -8984.753070444236, -5920.1947951549055, -13536.194090389501, -7914.864470346507, -3683.6792449568807, -7829.324344316047, -5682.953379506276, -10213.272000941277, -12509.66787453507, -6688.781879995094, -5427.160015959742, -4938.439123444453, -8204.587781976197, -10744.8858910663, -15875.639423804216, 0.01, 0.234, 0.9480000000000001, 192.0, 0.0, 40.0, 3.5, 40.0, 14.5, 80.0, 0.0, 0.0, 0.0, 1.64458829458302E9, 0.0, 2022-02-12 01:04:54.583
20.0, -9581.052909022917, -8950.890177594445, -5914.8527282300865, -13539.949183457993, -7917.814900614608, -3684.4392042683608, -7826.97741114824, -5683.60158009548, -10217.07179749868, -12495.049833661298, -6683.03748167008, -5418.2640216665295, -4975.185391328978, -8212.835575680207, -10747.724562612124, -15872.532531324929, 0.01, 0.234, 0.9480000000000001, 192.0, 0.0, 0.0, 0.0, 0.0, 0.0, 0.0, 0.0, 0.0, 0.0, 1.644588294590149E9, 0.0, 2022-02-12 01:04:54.590
22.0, -9573.050984507918, -8947.738581626247, -5918.205489898382, -13545.514767827364, -7919.80420587113, -3683.589837979059, -7832.520643773156, -5685.590885352002, -10219.195213221934, -12480.297682320796, -6681.964597936225, -5416.051198965454, -4965.551789468741, -8208.544040744788, -10747.03165853401, -15900.896895038713, 0.01, 0.234, 0.9480000000000001, 192.0, 0.0, 0.0, 0.0, 0.0, 0.0, 0.0, 0.0, 0.0, 0.0, 1.644588294596487E9, 0.0, 2022-02-12 01:04:54.596
24.0, -9593.525182428979, -8963.407154489418, -5916.953792208886, -13537.53519505682, -7908.762444110209, -3678.426585009883, -7827.670315226354, -5684.31683591805, -10209.516907872785, -12494.75926098338, -6685.205600882245, -5424.298992669463, -4960.701460921939, -8205.593610476686, -10744.304745710462, -15862.13897015321, 0.01, 0.234, 0.9480000000000001, 192.0, 0.0, 0.0, 0.0, 0.0, 0.0, 0.0, 0.0, 0.0, 0.0, 1.644588294604743E9, 0.0, 2022-02-12 01:04:54.604
26.0, -9580.51646715599, -8980.036852364165, -5914.875079974542, -13548.286384139823, -7922.553470439133, -3677.6889774428582, -7824.384608791424, -5676.739594547701, -10215.976562020369, -12511.992455958421, -6681.204638624745, -5416.095902454365, -4959.9415016104585, -8202.732587186407, -10746.048181777976, -15893.073784479355, 0.01, 0.234, 0.9480000000000001, 192.0, 0.0, 0.0, 0.0, 0.0, 0.0, 0.0, 0.0, 0.0, 0.0, 1.644588294612389E9, 0.0, 2022-02-12 01:04:54.612
28.0, -9588.89837132673, -8956.791038130646, -5924.4192748569585, -13543.324296870745, -7913.255144745725, -3676.146707075442, -7825.748065203198, -5676.560780592058, -10214.747216075328, -12518.876793250656, -6687.083147416491, -5416.967620488122, -4943.758838624816, -8200.76563367434, -10744.483559666105, -15874.678298792638, 0.004, 0.234, 0.9460000000000001, 192.0, 0.0, 16.0, 3.5, 40.0, 14.5, 72.0, 0.0, 0.0, 0.0, 1.644588294619663E9, 0.0, 2022-02-12 01:04:54.619
30.0, -9565.22787394856, -8926.727941838259, -5919.2560218877825, -13544.173663160047, -7913.858641846019, -3672.369262262495, -7819.020190122151, -5675.845524769488, -10212.1097102296, -12482.75637421088, -6688.536010806086, -5425.438931636683, -4971.027966860291, -8201.369130774634, -10745.355277699862, -15864.731772510026, 0.004, 0.234, 0.9460000000000001, 192.0, 0.0, 0.0, 0.0, 0.0, 0.0, 0.0, 0.0, 0.0, 0.0, 1.644588294626963E9, 0.0, 2022-02-12 01:04:54.626
32.0, -9576.224932220572, -8957.014555575199, -5918.250193387294, -13551.594442319209, -7917.054941303128, -3676.9737216202884, -7815.019227864651, -5671.397527622882, -10221.296277200732, -12486.667929490559, -6686.8596299719375, -5428.031733993499, -4975.207743073433, -8201.458537752455, -10744.237690477097, -15893.654929835193, 0.004, 0.234, 0.9460000000000001, 192.0, 0.0, 0.0, 0.0, 0.0, 0.0, 0.0, 0.0, 0.0, 0.0, 1.644588294635121E9, 0.0, 2022-02-12 01:04:54.635
34.0, -9593.480478940068, -8964.547093456638, -5916.462053830869, -13540.217404391457, -7904.2697434746915, -3674.3362157745623, -7809.654809195377, -5667.955358976765, -10212.087358485147, -12491.384147570629, -6681.137583391379, -5413.54780358646, -4964.456553990431, -8208.700502955973, -10742.538957898494, -15856.99806892849, 0.004, 0.234, 0.9460000000000001, 192.0, 0.0, 0.0, 0.0, 0.0, 0.0, 0.0, 0.0, 0.0, 0.0, 1.644588294642181E9, 0.0, 2022-02-12 01:04:54.642
36.0, -9572.067507751884, -8956.567520686092, -5910.985876439318, -13554.276651653845, -7911.824633100586, -3675.789079164157, -7812.694646441299, -5671.151658433874, -10216.557707376207, -12498.08967090722, -6676.354310077943, -5410.999704718555, -4960.83557138867, -8203.29138079779, -10743.74595209908, -15891.106830967288, 0.004, 0.234, 0.9460000000000001, 192.0, 0.0, 0.0, 0.0, 0.0, 0.0, 0.0, 0.0, 0.0, 0.0, 1.644588294649605E9, 0.0, 2022-02-12 01:04:54.649
38.0, -9580.47176366708, -8954.801732874124, -5924.061646945674, -13547.973459717448, -7905.2085167418145, -3680.751166433235, -7812.180556318826, -5676.381966636416, -10217.07179749868, -12507.365644856172, -6685.250304371155, -5432.12210322882, -4964.74712666835, -8207.404101777567, -10745.958774800156, -15879.103944194789, 0.004, 0.24, 0.9540000000000001, 192.0, 0.0, 16.0, 3.5, 64.0, 14.5, 104.0, 0.0, 0.0, 0.0, 1.644588294664687E9, 0.0, 2022-02-12 01:04:54.664
40.0, -9585.009167791506, -8965.39645974594, -5914.919783463452, -13550.745076029907, -7911.265839489203, -3675.9455413753444, -7806.480861482723, -5672.895094501388, -10226.660695870007, -12510.606647802193, -6690.32415036251, -5423.047294979965, -4956.812257386716, -8212.634409980108, -10750.071495779932, -15872.152551669187, 0.004, 0.24, 0.9540000000000001, 192.0, 0.0, 0.0, 0.0, 0.0, 0.0, 0.0, 0.0, 0.0, 0.0, 1.64458829467177E9, 0.0, 2022-02-12 01:04:54.671
42.0, -9571.79928681842, -8948.453837448817, -5921.558251566679, -13552.488512097421, -7913.880993590474, -3675.5879134640595, -7813.029922608129, -5675.4208416248375, -10232.06981802819, -12518.295647894818, -6687.708996261239, -5421.817949034924, -4972.41377501652, -8202.889049397594, -10750.607937646859, -15896.426546147652, 0.004, 0.24, 0.9540000000000001, 192.0, 0.0, 0.0, 0.0, 0.0, 0.0, 0.0, 0.0, 0.0, 0.0, 1.64458829467941E9, 0.0, 2022-02-12 01:04:54.679
44.0, -9589.010130049006, -8933.277002963663, -5924.486330090324, -13540.284459624823, -7904.984999297261, -3669.530590716671, -7815.935649387318, -5673.7891642796, -10216.691817842939, -12490.311263836773, -6693.9004294753595, -5437.017135264532, -4974.336025039676, -8213.036741380303, -10751.725524869624, -15860.395534085696, 0.004, 0.24, 0.9540000000000001, 192.0, 0.0, 0.0, 0.0, 0.0, 0.0, 0.0, 0.0, 0.0, 0.0, 1.644588294687275E9, 0.0, 2022-02-12 01:04:54.687
46.0, -9570.435830406646, -8933.72403785277, -5916.797329997698, -13553.851968509194, -7914.596249413044, -3671.0058058507216, -7815.443911009302, -5678.8853620154105, -10225.230184224867, -12488.679586491537, -6689.295970117566, -5436.011306764043, -4958.332176009676, -8207.3370465442, -10754.765362115546, -15894.034909490932, 0.005, 0.238, 0.9510000000000001, 192.0, 0.0, 24.0, 3.5, 48.0, 14.5, 80.0, 0.0, 0.0, 0.0, 1.644588294695392E9, 0.0, 2022-02-12 01:04:54.695
48.0, -9584.428022435668, -8959.897930609934, -5920.619478299556, -13541.469102080955, -7917.61373491451, -3678.404233265428, -7824.339905302514, -5674.4820683577145, -10218.725826588372, -12495.049833661298, -6683.551571792552, -5425.573042103415, -4975.140687840068, -8208.789909933796, -10753.51366442605, -15879.930958739635, 0.005, 0.238, 0.9510000000000001, 192.0, 0.0, 0.0, 0.0, 0.0, 0.0, 0.0, 0.0, 0.0, 0.0, 1.644588294701953E9, 0.0, 2022-02-12 01:04:54.701
50.0, -9567.507751883, -8962.49073296675, -5916.93144046443, -13546.788817261317, -7915.579726169077, -3681.4887740002605, -7817.477919754734, -5674.0126817241535, -10225.319591202688, -12499.028444174344, -6692.648731785862, -5418.420483877717, -4974.157211084033, -8213.707293713964, -10762.253196508074, -15876.309976137874, 0.005, 0.238, 0.9510000000000001, 192.0, 0.0, 0.0, 0.0, 0.0, 0.0, 0.0, 0.0, 0.0, 0.0, 1.644588294710145E9, 0.0, 2022-02-12 01:04:54.710
52.0, -9577.364871187792, -8950.644308405437, -5919.345428865604, -13553.606099320186, -7915.378560468979, -3683.433375767872, -7820.45070176729, -5677.83483002601, -10235.02024829629, -12519.077958950755, -6692.581676552496, -5418.576946088904, -4984.528420511297, -8208.901668656072, -10759.123952284332, -15909.368206187273, 0.005, 0.238, 0.9510000000000001, 192.0, 0.0, 0.0, 0.0, 0.0, 0.0, 0.0, 0.0, 0.0, 0.0, 1.644588294718568E9, 0.0, 2022-02-12 01:04:54.718
54.0, -9557.963557000585, -8924.962154026289, -5919.859518988075, -13540.48562532492, -7899.195897483337, -3673.7327186742687, -7814.683951697822, -5672.895094501388, -10209.941591017436, -12493.239342360419, -6690.4359090847865, -5419.873347267312, -4972.838458161171, -8202.91140114205, -10756.240577249597, -15869.626804545738, 0.005, 0.238, 0.9510000000000001, 192.0, 0.0, 0.0, 0.0, 0.0, 0.0, 0.0, 0.0, 0.0, 0.0, 1.644588294725142E9, 0.0, 2022-02-12 01:04:54.725
56.0, -9596.207391763615, -8956.455761963816, -5915.769149752754, -13557.092971455213, -7915.356208724525, -3684.7074252018247, -7819.26605931116, -5683.2886556731055, -10223.598506879629, -12492.702900493492, -6686.166725893823, -5430.736295072591, -4974.425432017498, -8200.475060996421, -10756.464094694149, -15900.069880493866, 0.0055, 0.237, 0.9485000000000001, 192.0, 0.0, 24.0, 3.5, 48.0, 14.5, 72.0, 0.0, 0.0, 0.0, 1.644588294731722E9, 0.0, 2022-02-12 01:04:54.731
58.0, -9600.565981932401, -8973.174866816385, -5922.318210878159, -13543.614869548665, -7902.302789962625, -3686.830840925079, -7820.428350022835, -5681.902847516876, -10234.908489574014, -12509.33259836824, -6684.713862504228, -5416.766454788024, -4978.26993206381, -8206.733549443907, -10754.631251648814, -15885.183618686631, 0.0055, 0.237, 0.9485000000000001, 192.0, 0.0, 0.0, 0.0, 0.0, 0.0, 0.0, 0.0, 0.0, 0.0, 1.644588294739874E9, 0.0, 2022-02-12 01:04:54.739
60.0, -9585.635016636255, -8967.117544068999, -5918.429007342936, -13545.023029449349, -7905.744958608742, -3678.0689570985983, -7819.199004077793, -5688.36250166446, -10235.176710507478, -12503.409386087584, -6693.520449819619, -5421.281507167996, -4960.83557138867, -8208.991075633892, -10755.301803982473, -15877.092287193811, 0.0055, 0.237, 0.9485000000000001, 192.0, 0.0, 0.0, 0.0, 0.0, 0.0, 0.0, 0.0, 0.0, 0.0, 1.644588294747607E9, 0.0, 2022-02-12 01:04:54.747
62.0, -9580.360004944803, -8954.846436363034, -5916.864385231064, -13556.578881332742, -7909.835327844064, -3671.9669308622997, -7811.331190029525, -5669.3188153885385, -10232.807425595216, -12507.119775667165, -6686.144374149368, -5422.756722302047, -4972.883161650081, -8191.556714958753, -10750.093847524387, -15899.95812177159, 0.0055, 0.237, 0.9485000000000001, 192.0, 0.0, 0.0, 0.0, 0.0, 0.0, 0.0, 0.0, 0.0, 0.0, 1.644588294754673E9, 0.0, 2022-02-12 01:04:54.754
64.0, -9601.370644732791, -8959.987337587754, -5921.737065522321, -13538.943354957504, -7903.04039752965, -3672.0563378401207, -7803.977466103729, -5665.943701975787, -10233.701495373429, -12497.66498776257, -6697.454356843753, -5441.241614966585, -4974.425432017498, -8201.10090984117, -10750.65264113577, -15858.719153251548, 0.0055, 0.237, 0.9485000000000001, 192.0, 0.0, 0.0, 0.0, 0.0, 0.0, 0.0, 0.0, 0.0, 0.0, 1.644588294762394E9, 0.0, 2022-02-12 01:04:54.762
66.0, -9586.730252114565, -8964.815314390102, -5924.3075161346815, -13544.687753282518, -7913.1880895123595, -3677.7113291873134, -7811.778224918631, -5662.903864729866, -10231.55572790572, -12495.876848206146, -6689.452432328753, -5413.950134986656, -4973.9113418950255, -8204.67718895402, -10754.36303071535, -15889.788078044425, 0.00475, 0.23349999999999999, 0.94425, 192.0, 0.0, 16.0, 3.5, 24.0, 14.5, 48.0, 0.0, 0.0, 0.0, 1.644588294770621E9, 0.0, 2022-02-12 01:04:54.770
68.0, -9608.322037258391, -8958.86975036499, -5923.704019034389, -13542.340820114712, -7907.80131909863, -3679.9688553772994, -7813.387550519414, -5669.989367722198, -10227.97944879287, -12488.85840044718, -6691.978179452202, -5413.681914053192, -4969.93273138198, -8200.76563367434, -10753.401905703773, -15880.221531417554, 0.00475, 0.23349999999999999, 0.94425, 192.0, 0.0, 0.0, 0.0, 0.0, 0.0, 0.0, 0.0, 0.0, 0.0, 1.644588294777351E9, 0.0, 2022-02-12 01:04:54.777
70.0, -9575.979063031562, -8953.728849140269, -5914.830376485632, -13541.91613697006, -7908.002484798728, -3679.5888757215594, -7807.330227772025, -5670.50345784467, -10232.047466283735, -12484.812734700768, -6682.679853758795, -5413.771321031013, -4971.36324302712, -8209.14753784508, -10755.74883887158, -15871.57140631335, 0.00475, 0.23349999999999999, 0.94425, 192.0, 0.0, 0.0, 0.0, 0.0, 0.0, 0.0, 0.0, 0.0, 0.0, 1.644588294792028E9, 0.0, 2022-02-12 01:04:54.792
72.0, -9576.247283965025, -8967.34106151355, -5920.3736091105475, -13547.928756228537, -7914.260973246214, -3684.5509629906373, -7812.426425507835, -5670.995196222687, -10230.393437194043, -12512.95358097, -6684.199772381756, -5413.324286141907, -4984.215496088922, -8200.00567436286, -10752.12785626982, -15899.645197349215, 0.00475, 0.23349999999999999, 0.94425, 192.0, 0.0, 0.0, 0.0, 0.0, 0.0, 0.0, 0.0, 0.0, 0.0, 1.64458829480028E9, 0.0, 2022-02-12 01:04:54.800
74.0, -9600.275409254482, -8953.259462506707, -5919.479539332336, -13537.579898545731, -7904.895592319441, -3685.243867068752, -7813.365198774958, -5677.07487071453, -10233.321515717687, -12504.169345399065, -6689.586542795485, -5425.21541419213, -4974.5595424842295, -8209.683979712008, -10755.994708060589, -15862.362487597764, 0.00475, 0.23349999999999999, 0.94425, 192.0, 0.0, 0.0, 0.0, 0.0, 0.0, 0.0, 0.0, 0.0, 0.0, 1.644588294807077E9, 0.0, 2022-02-12 01:04:54.807
76.0, -9583.891580568741, -8953.103000295521, -5915.657391030478, -13552.242642908412, -7918.664266903909, -3679.074785599087, -7813.208736563771, -5673.051556712575, -10237.970678564392, -12499.676644763547, -6674.812039710527, -5416.520585599016, -4970.156248826534, -8200.944447629983, -10760.576815673927, -15895.174848458153, 0.007375, 0.23175, 0.9461250000000001, 192.0, 0.0, 40.0, 3.5, 24.0, 14.5, 80.0, 0.0, 0.0, 0.0, 1.644588294814657E9, 0.0, 2022-02-12 01:04:54.814
78.0, -9594.799231862931, -8938.842587333034, -5921.938231222419, -13543.056075937282, -7911.444653444845, -3683.723948445791, -7812.493480741201, -5668.31298688805, -10232.092169772646, -12486.28794983482, -6679.617664768418, -5430.9821642616, -4962.422545244997, -8201.682055197007, -10757.60403366137, -15879.930958739635, 0.007375, 0.23175, 0.9461250000000001, 192.0, 0.0, 0.0, 0.0, 0.0, 0.0, 0.0, 0.0, 0.0, 0.0, 1.644588294822593E9, 0.0, 2022-02-12 01:04:54.822
80.0, -9569.474705395069, -8949.504369438217, -5914.204527640883, -13546.230023649934, -7906.9072493204185, -3677.1972390648416, -7813.901640641885, -5668.4918008436925, -10227.822986581683, -12476.788458441313, -6693.118118419424, -5419.895699011767, -4968.613978459118, -8208.85696516716, -10757.84990285038, -15872.264310391463, 0.007375, 0.23175, 0.9461250000000001, 192.0, 0.0, 0.0, 0.0, 0.0, 0.0, 0.0, 0.0, 0.0, 0.0, 1.644588294831893E9, 0.0, 2022-02-12 01:04:54.831
82.0, -9585.500906169524, -8974.091288339054, -5918.719580020855, -13549.180453918036, -7909.365941210502, -3677.9124948874114, -7817.142643587905, -5670.12347818893, -10232.40509419502, -12515.792252515825, -6685.406766582342, -5404.718864526613, -4969.440993003964, -8191.757880658852, -10757.268757494541, -15901.209819461086, 0.007375, 0.23175, 0.9461250000000001, 192.0, 0.0, 0.0, 0.0, 0.0, 0.0, 0.0, 0.0, 0.0, 0.0, 1.644588294838107E9, 0.0, 2022-02-12 01:04:54.838
84.0, -9590.261827738505, -8962.423677733383, -5918.920745720952, -13537.378732845633, -7901.006388784217, -3671.7657651622017, -7807.017303349651, -5661.674518784824, -10231.131044761069, -12503.878772721146, -6680.645845013362, -5411.290277396474, -4970.268007548811, -8193.300151026267, -10754.295975481984, -15862.273080619942, 0.007375, 0.23175, 0.9461250000000001, 192.0, 0.0, 0.0, 0.0, 0.0, 0.0, 0.0, 0.0, 0.0, 0.0, 1.644588294844829E9, 0.0, 2022-02-12 01:04:54.844
86.0, -9576.001414776018, -8959.562654443103, -5927.548519080701, -13551.594442319209, -7909.544755166145, -3679.5441722326486, -7805.698550426788, -5657.137114660396, -10239.535300676263, -12510.04785419081, -6681.003472924647, -5408.719826784114, -4962.020213844802, -8188.628636435108, -10757.112295283354, -15890.972720500557, 0.007375, 0.23175, 0.9461250000000001, 192.0, 0.0, 0.0, 3.5, 40.0, 14.5, 80.0, 0.0, 0.0, 0.0, 1.644588294852246E9, 0.0, 2022-02-12 01:04:54.852
88.0, -9579.689452611143, -8935.512177409193, -5929.537824337223, -13550.990945218915, -7907.510746420711, -3678.2477710542407, -7810.392416762402, -5659.55110306157, -10228.404131937521, -12498.581409285238, -6687.9772171947025, -5432.747952073569, -4974.201914572945, -8202.307904041756, -10758.609862161858, -15881.0485459624, 0.007375, 0.23175, 0.9461250000000001, 192.0, 0.0, 0.0, 0.0, 0.0, 0.0, 0.0, 0.0, 0.0, 0.0, 1.644588294859553E9, 0.0, 2022-02-12 01:04:54.859
90.0, -9576.068470009384, -8963.809485889613, -5923.055818445185, -13546.364134116666, -7905.94612430884, -3677.2866460426626, -7804.625666692933, -5658.768792005634, -10225.07372201368, -12495.921551695055, -6695.263885887133, -5419.806292033946, -4953.057164318224, -8205.079520354215, -10759.36982147334, -15870.677336535138, 0.007375, 0.23175, 0.9461250000000001, 192.0, 0.0, 0.0, 0.0, 0.0, 0.0, 0.0, 0.0, 0.0, 0.0, 1.644588294866816E9, 0.0, 2022-02-12 01:04:54.866
92.0, -9586.41732769219, -8972.034927849165, -5920.17244341045, -13546.766465516863, -7904.649723130432, -3669.642349438948, -7800.200021290782, -5654.074925670019, -10236.763684363805, -12520.463767106983, -6687.619589283418, -5410.776187274002, -4969.061013348224, -8196.33998827219, -10752.150208014275, -15894.571351357861, 0.007375, 0.23175, 0.9461250000000001, 192.0, 0.0, 0.0, 0.0, 0.0, 0.0, 0.0, 0.0, 0.0, 0.0, 1.644588294874759E9, 0.0, 2022-02-12 01:04:54.874
94.0, -9585.299740469425, -8944.788151358147, -5923.525205078746, -13539.032761935327, -7895.574914881578, -3662.243922024241, -7794.097995054483, -5653.449076825271, -10227.21948948139, -12506.04689193331, -6690.771185251616, -5419.225146678108, -4961.46142023342, -8192.875467881617, -10747.948080056678, -15855.835778216813, 0.007375, 0.23175, 0.9461250000000001, 192.0, 0.0, 0.0, 0.0, 0.0, 0.0, 0.0, 0.0, 0.0, 0.0, 1.644588294882839E9, 0.0, 2022-02-12 01:04:54.882
96.0, -9571.240493207037, -8962.066049822099, -5922.988763211819, -13554.723686542951, -7915.445615702345, -3667.697747671336, -7798.4342334788125, -5654.566664048036, -10243.804483867227, -12510.71840652447, -6682.992778181169, -5422.801425790957, -4960.7685161553045, -8186.639331178586, -10749.84797833538, -15886.010633231477, 0.0016874999999999998, 0.233875, 0.9470625000000001, 192.0, 127.5, 112.0, 3.5, 48.0, 14.5, 80.0, 0.0, 0.0, 0.0, 1.644588294889363E9, 0.0, 2022-02-12 01:04:54.889
98.0, -9582.6622346237, -8957.908625353411, -5932.175330182949, -13546.565299816764, -7914.28332499067, -3674.626788452481, -7811.510003985168, -5661.048669940075, -10236.897794830536, -12515.926362982556, -6683.171592136811, -5430.691591583681, -4966.982301113881, -8193.724834170918, -10751.70317312517, -15879.662737806171, 0.0016874999999999998, 0.233875, 0.9470625000000001, 192.0, 0.0, 0.0, 0.0, 0.0, 0.0, 0.0, 0.0, 0.0, 0.0, 1.644588294897561E9, 0.0, 2022-02-12 01:04:54.897
100.0, -9580.27059796698, -8950.130218282964, -5936.735086051833, -13545.827692249739, -7921.145310538449, -3671.698709928836, -7816.919126143352, -5665.004928708664, -10233.58973665115, -12497.083842406731, -6687.507830561141, -5430.691591583681, -4961.662585933517, -8203.917229642539, -10756.151170271776, -15869.559749312371, 0.0016874999999999998, 0.233875, 0.9470625000000001, 192.0, 0.0, 0.0, 0.0, 0.0, 0.0, 0.0, 0.0, 0.0, 0.0, 1.644588294912502E9, 0.0, 2022-02-12 01:04:54.912
102.0, -9577.968368288084, -8968.078669080576, -5937.003306985296, -13557.294137155312, -7921.480586705278, -3676.213762308808, -7813.45460575278, -5669.184704921807, -10242.485730944363, -12513.825299003756, -6688.647769528362, -5420.208623434141, -4967.652853447539, -8185.85702012265, -10756.08411503841, -15900.986302016534, 0.0016874999999999998, 0.233875, 0.9470625000000001, 192.0, 0.0, 0.0, 0.0, 0.0, 0.0, 0.0, 0.0, 0.0, 0.0, 1.644588294918919E9, 0.0, 2022-02-12 01:04:54.918
104.0, -9581.812868334398, -8967.653985935925, -5933.538786594723, -13544.575994560242, -7906.348455709035, -3676.1020035865313, -7807.777262661131, -5666.100164186974, -10238.574175664686, -12491.630016759636, -6699.42131035582, -5425.237765936586, -4969.50804823733, -8204.833651165205, -10756.777019116524, -15865.33526961032, 0.0016874999999999998, 0.233875, 0.9470625000000001, 192.0, 0.0, 0.0, 0.0, 0.0, 0.0, 0.0, 0.0, 0.0, 0.0, 1.644588294927236E9, 0.0, 2022-02-12 01:04:54.927
106.0, -9586.998473048028, -8974.493619739249, -5929.940155737419, -13561.317451157267, -7916.384388969468, -3681.4887740002605, -7803.73159691472, -5665.295501386583, -10249.92886184798, -12519.390883373128, -6681.249342113655, -5424.790731047479, -4973.285493050277, -8197.792851661785, -10752.664298136748, -15895.688938580626, 0.00284375, 0.23393750000000002, 0.9475312500000002, 192.0, 0.0, 16.0, 3.5, 40.0, 14.5, 80.0, 0.0, 0.0, 0.0, 1.644588294934934E9, 0.0, 2022-02-12 01:04:54.934
108.0, -9595.38037721877, -8974.404212761428, -5943.932347766441, -13562.233872679935, -7906.929601064873, -3676.437279753361, -7804.156280059372, -5663.820286252533, -10253.438085727465, -12519.0556072063, -6687.731348005695, -5436.346582930873, -4974.291321550765, -8201.10090984117, -10754.810065604457, -15886.636482076226, 0.00284375, 0.23393750000000002, 0.9475312500000002, 192.0, 0.0, 0.0, 0.0, 0.0, 0.0, 0.0, 0.0, 0.0, 0.0, 1.64458829494219E9, 0.0, 2022-02-12 01:04:54.942
110.0, -9590.351234716325, -8967.63163419147, -5936.824493029653, -13560.982174990437, -7903.6215428854875, -3677.890143142956, -7799.663579423855, -5663.9767484637205, -10246.374934479587, -12518.541517083826, -6694.548630064563, -5447.656565625259, -4961.394365000054, -8197.815203406239, -10755.279452238019, -15873.583063314327, 0.00284375, 0.23393750000000002, 0.9475312500000002, 192.0, 0.0, 0.0, 0.0, 0.0, 0.0, 0.0, 0.0, 0.0, 0.0, 1.644588294950982E9, 0.0, 2022-02-12 01:04:54.950
112.0, -9573.98975777504, -8971.207913304319, -5938.031487230241, -13567.598291349208, -7910.1929557553485, -3680.438242010861, -7802.278733525126, -5669.005890966165, -10253.013402582814, -12530.700866067513, -6692.268752130121, -5433.910242785245, -4958.5333417097745, -8207.448805266476, -10752.261966736552, -15908.407081175696, 0.00284375, 0.23393750000000002, 0.9475312500000002, 192.0, 0.0, 0.0, 0.0, 0.0, 0.0, 0.0, 0.0, 0.0, 0.0, 1.644588294957692E9, 0.0, 2022-02-12 01:04:54.957
114.0, -9581.477592167568, -8960.814352132602, -5936.466865118368, -13551.370924874655, -7902.079272518072, -3675.565561719604, -7803.6421899369, -5670.771678778134, -10239.289431487256, -12514.540554826326, -6694.123946919912, -5423.516681613527, -4973.285493050277, -8201.547944730275, -10753.401905703773, -15869.068010934356, 0.00284375, 0.23393750000000002, 0.9475312500000002, 192.0, 0.0, 0.0, 0.0, 0.0, 0.0, 0.0, 0.0, 0.0, 0.0, 1.644588294964733E9, 0.0, 2022-02-12 01:04:54.964
116.0, -9586.976121303573, -8967.206951046819, -5932.264737160771, -13565.58663434823, -7910.528231922178, -3673.6433116964477, -7800.736463157709, -5655.505437315159, -10252.208739782422, -12516.686322294036, -6687.37372009441, -5427.450588637661, -4968.524571481296, -8187.846325379172, -10752.485484181105, -15894.571351357861, 0.01, 0.24, 0.9480000000000001, 192.0, 0.0, 40.0, 3.5, 64.0, 14.5, 80.0, 0.0, 0.0, 0.0, 1.644588294971449E9, 0.0, 2022-02-12 01:04:54.971
118.0, -9583.265731723992, -8967.564578958105, -5941.831283787642, -13555.684811554529, -7911.936391822862, -3683.5227827456933, -7809.49834698419, -5666.681309542812, -10242.999821066836, -12521.62605781866, -6685.295007860066, -5429.104617727354, -4965.238865046366, -8192.42843299251, -10751.881987080811, -15882.032022718433, 0.01, 0.24, 0.9480000000000001, 192.0, 0.0, 0.0, 0.0, 0.0, 0.0, 0.0, 0.0, 0.0, 0.0, 1.644588294979412E9, 0.0, 2022-02-12 01:04:54.979
120.0, -9593.681644640166, -8969.576235959083, -5921.1335684220285, -13557.830579022238, -7906.728435364776, -3683.6792449568807, -7807.911373127863, -5666.927178731821, -10239.423541953987, -12505.62220878866, -6683.640978770373, -5431.205681706153, -4957.840437631659, -8201.614999963642, -10757.916958083744, -15876.220569160054, 0.01, 0.24, 0.9480000000000001, 192.0, 0.0, 0.0, 0.0, 0.0, 0.0, 0.0, 0.0, 0.0, 0.0, 1.644588294987418E9, 0.0, 2022-02-12 01:04:54.987
122.0, -9598.263752253504, -8974.314805783606, -5926.4756353468465, -13563.39616339161, -7911.668170889398, -3687.546096747649, -7809.073663839539, -5667.4412688542925, -10258.199007296445, -12524.755302042402, -6684.266827615122, -5421.102693212354, -4945.055239803224, -8195.535325471797, -10752.060801036454, -15907.445956164118, 0.01, 0.24, 0.9480000000000001, 192.0, 0.0, 0.0, 0.0, 0.0, 0.0, 0.0, 0.0, 0.0, 0.0, 1.644588294994333E9, 0.0, 2022-02-12 01:04:54.994
124.0, -9572.380432174257, -8952.231282261764, -5932.532958094234, -13549.985116718426, -7901.9228103068845, -3682.5393059896596, -7804.826832393031, -5666.100164186974, -10245.190292023455, -12526.029351476354, -6700.583601067496, -5435.564271874938, -4970.357414526631, -8199.156308073558, -10755.726487127124, -15870.56557781286, 0.01, 0.24, 0.9480000000000001, 192.0, 0.0, 0.0, 0.0, 0.0, 0.0, 0.0, 0.0, 0.0, 0.0, 1.644588295002105E9, 0.0, 2022-02-12 01:04:55.002
126.0, -9579.532990399955, -8968.05631733612, -5932.801179027699, -13556.176549932547, -7911.712874378309, -3685.243867068752, -7797.361349744958, -5662.50153332967, -10247.64898391354, -12507.835031489734, -6695.3085893760435, -5425.058951980943, -4968.390461014565, -8188.986264346393, -10755.212397004652, -15896.560656614383, 0.008, 0.23800000000000002, 0.9480000000000001, 192.0, 0.0, 32.0, 3.5, 56.0, 14.5, 80.0, 0.0, 0.0, 0.0, 1.644588295009812E9, 0.0, 2022-02-12 01:04:55.009
128.0, -9605.036330823461, -8964.636500434459, -5942.971222754863, -13550.700372540996, -7909.567106910599, -3688.6413322259586, -7807.978428361229, -5661.003966451164, -10247.447818213443, -12527.683380566048, -6698.37077836642, -5434.379629418806, -4966.4011557580425, -8196.451746994466, -10752.59724290338, -15883.127258196744, 0.008, 0.23800000000000002, 0.9480000000000001, 192.0, 0.0, 0.0, 0.0, 0.0, 0.0, 0.0, 0.0, 0.0, 0.0, 1.644588295018124E9, 0.0, 2022-02-12 01:04:55.018
130.0, -9587.13258351476, -8983.16609658791, -5931.214205171372, -13554.67898305404, -7908.9636098103065, -3686.3838060359726, -7805.9444196157965, -5661.629815295913, -10247.157245535524, -12524.844709020223, -6704.696322047273, -5432.367972417828, -4957.214588786911, -8199.066901095737, -10753.536016170505, -15871.057316190878, 0.008, 0.23800000000000002, 0.9480000000000001, 192.0, 0.0, 0.0, 0.0, 0.0, 0.0, 0.0, 0.0, 0.0, 0.0, 1.644588295025064E9, 0.0, 2022-02-12 01:04:55.025
132.0, -9590.507696927512, -8960.72494515478, -5931.258908660282, -13569.83346579474, -7911.064673789106, -3687.30022755864, -7808.82779465053, -5663.529713574614, -10251.672297915495, -12531.863156779189, -6696.649694043362, -5437.017135264532, -4959.516818465808, -8195.423566749521, -10750.898510324778, -15905.054319507399, 0.008, 0.23800000000000002, 0.9480000000000001, 192.0, 0.0, 0.0, 0.0, 0.0, 0.0, 0.0, 0.0, 0.0, 0.0, 1.64458829503943E9, 0.0, 2022-02-12 01:04:55.039
134.0, -9587.020824792484, -8969.352718514529, -5936.332754651637, -13550.25333765189, -7899.844098072541, -3689.3118845596177, -7811.957038874274, -5664.624949052924, -10244.050353056235, -12508.393825101117, -6706.37270288142, -5452.238673238597, -4962.802524900738, -8200.67622669652, -10754.251271993075, -15867.861016733768, 0.008, 0.23800000000000002, 0.9480000000000001, 192.0, 0.0, 0.0, 0.0, 0.0, 0.0, 0.0, 0.0, 0.0, 0.0, 1.644588295049656E9, 0.0, 2022-02-12 01:04:55.049
136.0, -9597.526144686479, -8966.9163783689, -5935.349277895603, -13560.423381379054, -7904.739130108253, -3691.9270386608887, -7805.11740507095, -5658.299405372072, -10258.511931718818, -12533.226613190964, -6704.361045880443, -5418.375780388807, -4961.081440577679, -8196.831726650205, -10755.07828653792, -15896.806525803391, 0.008, 0.23600000000000002, 0.9400000000000001, 192.0, 0.0, 32.0, 3.5, 48.0, 14.5, 48.0, 0.0, 0.0, 0.0, 1.644588295054151E9, 0.0, 2022-02-12 01:04:55.054
138.0, -9599.068415053895, -8982.182619831876, -5947.46392339038, -13553.78491327583, -7898.257124216214, -3689.7365677042685, -7797.204887533771, -5649.939852945788, -10248.74421939185, -12527.884546266145, -6707.2220691707225, -5436.346582930873, -4960.299129521743, -8199.022197606826, -10747.74691435658, -15883.440182619117, 0.008, 0.23600000000000002, 0.9400000000000001, 192.0, 0.0, 0.0, 0.0, 0.0, 0.0, 0.0, 0.0, 0.0, 0.0, 1.64458829506223E9, 0.0, 2022-02-12 01:04:55.062
140.0, -9581.544647400933, -8962.82600913358, -5938.3891151415255, -13550.365096374166, -7890.5904758680435, -3686.495564758249, -7799.507117212667, -5660.959262962254, -10243.625669911584, -12522.654238063604, -6704.830432514004, -5431.317440428429, -4961.9978621003465, -8192.42843299251, -10752.709001625659, -15867.19046440011, 0.008, 0.23600000000000002, 0.9400000000000001, 192.0, 0.0, 0.0, 0.0, 0.0, 0.0, 0.0, 0.0, 0.0, 0.0, 1.644588295070235E9, 0.0, 2022-02-12 01:04:55.070
142.0, -9578.616568877289, -8950.644308405437, -5944.26762393327, -13557.048267966304, -7908.673037132387, -3689.9600851488217, -7811.510003985168, -5655.796009993078, -10234.439102940452, -12515.099348437709, -6689.340673606476, -5426.534167114994, -4941.702478134928, -8183.152459043558, -10751.837283591902, -15901.567447372372, 0.008, 0.23600000000000002, 0.9400000000000001, 192.0, 0.0, 0.0, 0.0, 0.0, 0.0, 0.0, 0.0, 0.0, 0.0, 1.64458829507724E9, 0.0, 2022-02-12 01:04:55.077
144.0, -9585.500906169524, -8951.068991550088, -5935.371629640059, -13545.15713991608, -7896.938371293351, -3685.1321083464754, -7807.352579516481, -5664.468486841737, -10250.46530371491, -12528.108063710699, -6701.254153401155, -5431.317440428429, -4970.737394182372, -8190.640293436086, -10755.41356270475, -15864.396496343195, 0.008, 0.23600000000000002, 0.9400000000000001, 192.0, 0.0, 0.0, 0.0, 0.0, 0.0, 0.0, 0.0, 0.0, 0.0, 1.644588295084843E9, 0.0, 2022-02-12 01:04:55.084
146.0, -9585.567961402889, -8958.042735820143, -5932.041219716218, -13562.457390124488, -7907.778967354175, -3684.8638874130115, -7803.150451558883, -5658.478219327715, -10258.89191137456, -12525.068226464777, -6703.109348190946, -5424.902489769756, -4965.618844702107, -8184.3818049886, -10757.693440639192, -15894.303130424398, 0.01, 0.23800000000000002, 0.9480000000000001, 192.0, 0.0, 40.0, 3.5, 56.0, 14.5, 80.0, 0.0, 0.0, 0.0, 1.64458829509191E9, 0.0, 2022-02-12 01:04:55.091
148.0, -9603.18113603367, -8959.24973002073, -5941.518359365268, -13558.523483100354, -7895.574914881578, -3687.210820580819, -7802.166974802849, -5654.790181492589, -10249.83945487016, -12519.122662439664, -6709.591354082984, -5435.854844552857, -4969.530399981785, -8189.992092846882, -10753.066629536943, -15883.686051808127, 0.01, 0.23800000000000002, 0.9480000000000001, 192.0, 0.0, 0.0, 0.0, 0.0, 0.0, 0.0, 0.0, 0.0, 0.0, 1.644588295099812E9, 0.0, 2022-02-12 01:04:55.099
150.0, -9596.073281296884, -8943.24588099073, -5941.8536355320975, -13560.177512190046, -7898.212420727304, -3681.6452362114474, -7799.551820701578, -5652.242082624684, -10253.706306660928, -12516.887487994134, -6717.772092553627, -5444.8849493128, -4942.238920001855, -8193.367206259634, -10751.502007425071, -15866.47520857754, 0.01, 0.23800000000000002, 0.9480000000000001, 192.0, 0.0, 0.0, 0.0, 0.0, 0.0, 0.0, 0.0, 0.0, 0.0, 1.644588295106464E9, 0.0, 2022-02-12 01:04:55.106
152.0, -9583.533952657455, -8954.82408461858, -5940.467827375869, -13563.910253514083, -7907.734263865264, -3689.2224775817967, -7804.0668730815505, -5662.300367629572, -10253.572196194196, -12533.539537613338, -6710.060740716546, -5437.732391087102, -4969.083365092679, -8182.3254444987115, -10750.630289391314, -15900.785136316435, 0.01, 0.23800000000000002, 0.9480000000000001, 192.0, 0.0, 0.0, 0.0, 0.0, 0.0, 0.0, 0.0, 0.0, 0.0, 1.644588295114606E9, 0.0, 2022-02-12 01:04:55.114
154.0, -9599.023711564983, -8956.902796852923, -5939.484350619835, -13546.766465516863, -7907.220173742792, -3688.149593847942, -7811.778224918631, -5663.663824041346, -10241.681068143973, -12523.9059357531, -6710.083092461002, -5422.868481024323, -4968.502219736841, -8192.00374984786, -10752.731353370113, -15859.970850941045, 0.01, 0.23800000000000002, 0.9480000000000001, 192.0, 0.0, 0.0, 0.0, 0.0, 0.0, 0.0, 0.0, 0.0, 0.0, 1.64458829512248E9, 0.0, 2022-02-12 01:04:55.122
156.0, -9589.367757960292, -8956.232244519264, -5937.6515075745, -13552.153235930591, -7907.890726076452, -3687.0543583696317, -7801.11644281345, -5660.668690284335, -10252.208739782422, -12527.683380566048, -6700.337731878488, -5410.664428551725, -4960.008556843824, -8191.489659725387, -10755.860597593857, -15890.19040944462, 0.008, 0.23800000000000002, 0.9480000000000001, 192.0, 0.0, 32.0, 3.5, 56.0, 14.5, 80.0, 0.0, 0.0, 0.0, 1.644588295129518E9, 0.0, 2022-02-12 01:04:55.129
158.0, -9597.012054564006, -8953.43827646235, -5935.371629640059, -13550.834483007728, -7904.068577774594, -3681.8016984226347, -7805.586791704512, -5653.270262869628, -10249.21360602541, -12527.057531721299, -6695.84503124297, -5417.593469332871, -4964.635367946073, -8186.706386411952, -10752.440780692194, -15881.540284340417, 0.008, 0.23800000000000002, 0.9480000000000001, 192.0, 0.0, 0.0, 0.0, 0.0, 0.0, 0.0, 0.0, 0.0, 0.0, 1.644588295137225E9, 0.0, 2022-02-12 01:04:55.137
160.0, -9588.361929459803, -8934.551052397615, -5928.5319958367345, -13552.130884186136, -7900.626409128477, -3675.6773204418805, -7798.568343945545, -5650.900977957365, -10246.911376346514, -12499.073147663254, -6688.491307317175, -5435.452513152661, -4959.807391143727, -8191.042624836282, -10752.977222559122, -15862.429542831129, 0.008, 0.23800000000000002, 0.9480000000000001, 192.0, 0.0, 0.0, 0.0, 0.0, 0.0, 0.0, 0.0, 0.0, 0.0, 1.644588295145087E9, 0.0, 2022-02-12 01:04:55.145
162.0, -9585.635016636255, -8962.356622500018, -5937.048010474206, -13565.787800048329, -7907.175470253882, -3686.7861374361682, -7811.68881794081, -5659.752268761667, -10254.443914227953, -12523.280086908351, -6691.575848052007, -5431.78682706199, -4944.094114791646, -8187.533400956799, -10750.809103346957, -15896.873581036758, 0.008, 0.23800000000000002, 0.9480000000000001, 192.0, 0.0, 0.0, 0.0, 0.0, 0.0, 0.0, 0.0, 0.0, 0.0, 1.644588295159364E9, 0.0, 2022-02-12 01:04:55.159
164.0, -9588.451336437623, -8948.275023493174, -5940.959565753886, -13553.293174897812, -7901.855755073519, -3688.909553159422, -7805.989123104707, -5667.664786298846, -10250.286489759266, -12501.263618619874, -6710.261906416644, -5446.069591768932, -4961.863751633615, -8195.803546405263, -10754.854769093368, -15864.038868431911, 0.008, 0.23800000000000002, 0.9480000000000001, 192.0, 0.0, 0.0, 0.0, 0.0, 0.0, 0.0, 0.0, 0.0, 0.0, 1.644588295166781E9, 0.0, 2022-02-12 01:04:55.166
166.0, -9594.151031273726, -8956.165189285897, -5938.880853519542, -13559.886939512127, -7916.093816291549, -3693.9386956618664, -7811.487652240712, -5666.591902564991, -10253.974527594391, -12516.641618805126, -6707.199717426267, -5427.3611816598395, -4972.79375467226, -8192.137860314591, -10760.040373806998, -15894.481944380039, 0.012, 0.232, 0.9480000000000001, 192.0, 0.0, 48.0, 3.5, 32.0, 14.5, 80.0, 0.0, 0.0, 0.0, 1.64458829517472E9, 0.0, 2022-02-12 01:04:55.174
168.0, -9601.147127288239, -8951.851302606023, -5939.931385508941, -13548.35343937319, -7909.097720277038, -3692.0611491276204, -7819.333114544525, -5670.279940400117, -10254.734486905872, -12513.355912370196, -6702.32703713501, -5420.208623434141, -4964.724774923894, -8199.983322618404, -10762.70023139718, -15889.609264088782, 0.012, 0.232, 0.9480000000000001, 192.0, 0.0, 0.0, 0.0, 0.0, 0.0, 0.0, 0.0, 0.0, 0.0, 1.644588295183215E9, 0.0, 2022-02-12 01:04:55.183
170.0, -9582.41636543469, -8938.730828610758, -5932.130626694039, -13549.292212640312, -7900.961685295307, -3685.8473641690452, -7804.133928314916, -5659.752268761667, -10250.26413801481, -12506.695092522514, -6692.916952719325, -5423.807254291446, -4946.664565404006, -8192.249619036867, -10761.470885452138, -15869.626804545738, 0.012, 0.232, 0.9480000000000001, 192.0, 0.0, 0.0, 0.0, 0.0, 0.0, 0.0, 0.0, 0.0, 0.0, 1.644588295189436E9, 0.0, 2022-02-12 01:04:55.189
172.0, -9569.742926328532, -8960.97081434379, -5934.946946495408, -13560.088105212226, -7905.297923719636, -3695.0339311401763, -7803.9551143592735, -5661.2721873846285, -10252.70047816044, -12520.597877573715, -6692.693435274772, -5424.477806625105, -4953.571254440696, -8181.006691575849, -10758.900434839778, -15905.121374740766, 0.012, 0.232, 0.9480000000000001, 192.0, 0.0, 0.0, 0.0, 0.0, 0.0, 0.0, 0.0, 0.0, 0.0, 1.644588295197588E9, 0.0, 2022-02-12 01:04:55.197
174.0, -9597.32497898638, -8953.460628206805, -5937.562100596679, -13553.203767919991, -7892.423318913379, -3694.8774689289894, -7805.49738472669, -5656.98065244921, -10237.568347164197, -12517.62509556116, -6696.962618465736, -5420.588603089882, -4956.678146919983, -8190.684996924997, -10751.434952191705, -15864.463551576562, 0.012, 0.232, 0.9480000000000001, 192.0, 0.0, 0.0, 0.0, 0.0, 0.0, 0.0, 0.0, 0.0, 0.0, 1.644588295205363E9, 0.0, 2022-02-12 01:04:55.205
176.0, -9593.122851028784, -8941.390686200939, -5929.157844681483, -13572.582730362741, -7904.828537086075, -3699.7054457313357, -7803.396320747891, -5664.9155217308435, -10250.666469415006, -12528.420988133072, -6691.79936549656, -5436.704210842158, -4953.414792229509, -8191.5343632142985, -10750.74204811359, -15894.012557746479, 0.012, 0.23, 0.9460000000000001, 192.0, 0.0, 48.0, 3.5, 24.0, 14.5, 72.0, 0.0, 0.0, 0.0, 1.644588295211332E9, 0.0, 2022-02-12 01:04:55.211
178.0, -9596.252095252526, -8949.593776416037, -5939.752571553299, -13559.886939512127, -7901.162850995404, -3697.1796986078857, -7803.508079470168, -5652.979690191709, -10254.89094911706, -12519.949676984512, -6698.281371388599, -5442.828588822912, -4952.274853262288, -8193.635427193098, -10751.434952191705, -15889.609264088782, 0.012, 0.23, 0.9460000000000001, 192.0, 0.0, 0.0, 0.0, 0.0, 0.0, 0.0, 0.0, 0.0, 0.0, 1.644588295219032E9, 0.0, 2022-02-12 01:04:55.219
180.0, -9573.98975777504, -8942.15064551242, -5928.867272003565, -13552.01912546386, -7895.75372883722, -3689.0436636261543, -7800.736463157709, -5648.196416878273, -10244.542091434252, -12481.169400354553, -6696.716749276728, -5432.010344506543, -4940.719001378894, -8195.244752793878, -10753.066629536943, -15868.799790000892, 0.012, 0.23, 0.9460000000000001, 192.0, 0.0, 0.0, 0.0, 0.0, 0.0, 0.0, 0.0, 0.0, 0.0, 1.644588295226959E9, 0.0, 2022-02-12 01:04:55.226
182.0, -9584.405670691212, -8957.573349186581, -5929.828397015142, -13555.461294109977, -7909.723569121787, -3696.7103119743247, -7804.536259715112, -5656.466562326737, -10252.767533393804, -12525.381150887151, -6686.993740438669, -5426.087132225887, -4947.111600293112, -8191.936694614494, -10748.238652734597, -15900.740432827526, 0.012, 0.23, 0.9460000000000001, 192.0, 0.0, 0.0, 0.0, 0.0, 0.0, 0.0, 0.0, 0.0, 0.0, 1.644588295234936E9, 0.0, 2022-02-12 01:04:55.234
184.0, -9574.660310108698, -8946.263366492196, -5928.889623748019, -13546.073561438747, -7892.333911935558, -3692.083500872076, -7802.792823647598, -5655.751306504168, -10247.492521702352, -12513.914705981579, -6694.526278320108, -5414.464225109127, -4962.154324311534, -8192.897819626072, -10750.786751602502, -15868.017478944956, 0.009000000000000001, 0.23, 0.9470000000000001, 192.0, 0.0, 24.0, 3.5, 24.0, 14.5, 80.0, 0.0, 0.0, 0.0, 1.644588295241512E9, 0.0, 2022-02-12 01:04:55.241
186.0, -9594.240438251549, -8958.48977070925, -5927.347353380604, -13564.200826192002, -7899.665284116899, -3696.1515183629417, -7798.054253823073, -5655.684251270802, -10246.821969368693, -12526.543441598826, -6690.905295718348, -5424.209585691641, -4951.984280584369, -8191.735528914396, -10744.952946299667, -15891.486810623028, 0.009000000000000001, 0.23, 0.9470000000000001, 192.0, 0.0, 0.0, 0.0, 0.0, 0.0, 0.0, 0.0, 0.0, 0.0, 1.644588295249733E9, 0.0, 2022-02-12 01:04:55.249
188.0, -9604.321075000891, -8947.224491503775, -5938.36676339707, -13560.579843590242, -7895.351397437024, -3697.649085241447, -7801.317608513547, -5661.227483895717, -10249.727696147884, -12530.209127689497, -6694.012188197636, -5437.3971149202725, -4954.93471085247, -8193.76953765983, -10743.142454998786, -15887.217627432065, 0.009000000000000001, 0.23, 0.9470000000000001, 192.0, 0.0, 0.0, 0.0, 0.0, 0.0, 0.0, 0.0, 0.0, 0.0, 1.644588295257581E9, 0.0, 2022-02-12 01:04:55.257
190.0, -9585.187981747149, -8945.950442069823, -5935.952774995897, -13558.054096466793, -7898.1006620050275, -3690.7200444603022, -7799.976503846229, -5653.538483803092, -10249.615937425606, -12512.327732125252, -6700.494194089675, -5446.941309802689, -4951.894873606548, -8195.825898149717, -10751.099676024876, -15869.33623186782, 0.009000000000000001, 0.23, 0.9470000000000001, 192.0, 0.0, 0.0, 0.0, 0.0, 0.0, 0.0, 0.0, 0.0, 0.0, 1.644588295264645E9, 0.0, 2022-02-12 01:04:55.264
192.0, -9575.733193842554, -8953.415924717894, -5935.773961040254, -13566.145427959613, -7906.035531286661, -3691.3458933050506, -7800.512945713156, -5655.885416970899, -10259.629518941585, -12513.065339692277, -6702.639961557385, -5435.139588730287, -4949.257367760822, -8188.2486567793685, -10751.300841724973, -15900.025177004956, 0.009000000000000001, 0.23, 0.9470000000000001, 192.0, 0.0, 0.0, 0.0, 0.0, 0.0, 0.0, 0.0, 0.0, 0.0, 1.644588295272316E9, 0.0, 2022-02-12 01:04:55.272
194.0, -9593.972217318085, -8943.469398435283, -5931.6388883160225, -13546.610003305675, -7892.490374146745, -3695.68213172938, -7802.301085269581, -5659.975786206221, -10245.41380946801, -12509.913743724079, -6701.857650501448, -5443.186216734197, -4961.55082721124, -8197.278761539312, -10751.546710913983, -15862.965984698056, 0.007500000000000001, 0.232, 0.9455, 192.0, 0.0, 24.0, 3.5, 40.0, 14.5, 64.0, 0.0, 0.0, 0.0, 1.644588295287718E9, 0.0, 2022-02-12 01:04:55.287
196.0, -9575.934359542653, -8949.884349093956, -5926.6544493024885, -13558.948166245005, -7907.130766764971, -3700.1524806204416, -7797.920143356341, -5656.488914071192, -10249.83945487016, -12514.719368781969, -6691.464089329731, -5432.971469518122, -4953.88417886307, -8190.5955899471755, -10751.323193469429, -15889.944540255612, 0.007500000000000001, 0.232, 0.9455, 192.0, 0.0, 0.0, 0.0, 0.0, 0.0, 0.0, 0.0, 0.0, 0.0, 1.644588295294439E9, 0.0, 2022-02-12 01:04:55.294
198.0, -9597.749662131031, -8948.520892682183, -5938.255004674793, -13558.724648800451, -7908.427167943379, -3704.3099050891287, -7800.602352690978, -5657.897073971877, -10250.331193248176, -12523.771825286369, -6692.358159107943, -5423.069646724421, -4967.027004602791, -8195.557677216253, -10752.105504525365, -15892.067955978866, 0.007500000000000001, 0.232, 0.9455, 192.0, 0.0, 0.0, 0.0, 0.0, 0.0, 0.0, 0.0, 0.0, 0.0, 1.64458829530193E9, 0.0, 2022-02-12 01:04:55.301
200.0, -9602.912915100207, -8958.802695131624, -5938.523225608257, -13558.523483100354, -7904.537964408156, -3701.851213199045, -7796.869611366941, -5659.3946408503825, -10255.2709287728, -12522.408368874594, -6700.605952811951, -5436.301879441962, -4967.876370892092, -8198.396348762077, -10754.27362373753, -15872.912510980668, 0.007500000000000001, 0.232, 0.9455, 192.0, 0.0, 0.0, 0.0, 0.0, 0.0, 0.0, 0.0, 0.0, 0.0, 1.64458829530983E9, 0.0, 2022-02-12 01:04:55.309
202.0, -9593.905162084719, -8961.194331788342, -5943.50766462179, -13572.426268151554, -7913.277496490181, -3705.785120223179, -7802.390492247402, -5666.1448676758855, -10268.950196379446, -12527.99630498842, -6702.014112712635, -5432.479731140105, -4952.587777684663, -8190.61794169163, -10753.267795237041, -15907.848287564313, 0.007500000000000001, 0.232, 0.9455, 192.0, 0.0, 0.0, 0.0, 0.0, 0.0, 0.0, 0.0, 0.0, 0.0, 1.644588295317909E9, 0.0, 2022-02-12 01:04:55.317
204.0, -9595.425080707679, -8951.9630613283, -5941.831283787642, -13560.646898823608, -7900.08996726155, -3703.3487800775506, -7795.483803210713, -5665.831943253511, -10262.423486998498, -12521.62605781866, -6711.0442174725795, -5450.964623804644, -4968.435164503475, -8199.737453429396, -10753.200740003675, -15870.677336535138, 0.00975, 0.232, 0.9417500000000001, 192.0, 0.0, 48.0, 3.5, 32.0, 14.5, 40.0, 0.0, 0.0, 0.0, 1.644588295324567E9, 0.0, 2022-02-12 01:04:55.324
206.0, -9601.370644732791, -8961.574311444081, -5934.902243006497, -13575.287291441833, -7910.058845288617, -3703.9075736889336, -7791.907524097864, -5660.892207728888, -10271.811219669726, -12512.864173992179, -6705.858612758949, -5442.202739978164, -4968.502219736841, -8197.591685961686, -10753.893644081789, -15898.61701710427, 0.00975, 0.232, 0.9417500000000001, 192.0, 0.0, 0.0, 0.0, 0.0, 0.0, 0.0, 0.0, 0.0, 0.0, 1.644588295332438E9, 0.0, 2022-02-12 01:04:55.332
208.0, -9604.991627334552, -8959.562654443103, -5937.852673274598, -13565.005488992392, -7904.113281263505, -3703.237021355274, -7796.713149155754, -5658.902902472366, -10262.043507342758, -12522.676589808058, -6696.046196943069, -5435.340754430385, -4964.143629568056, -8195.580028960709, -10750.630289391314, -15893.9007990242, 0.00975, 0.232, 0.9417500000000001, 192.0, 0.0, 0.0, 0.0, 0.0, 0.0, 0.0, 0.0, 0.0, 0.0, 1.644588295339669E9, 0.0, 2022-02-12 01:04:55.339
210.0, -9577.521333398978, -8945.749276369725, -5933.98582148383, -13552.77908477534, -7897.631275371466, -3696.4420910408608, -7786.029015306118, -5648.755210489656, -10251.202911281933, -12512.081862936242, -6701.544726079074, -5431.987992762089, -4951.380783484075, -8198.552810973264, -10752.150208014275, -15870.051487690389, 0.00975, 0.232, 0.9417500000000001, 192.0, 0.0, 0.0, 0.0, 0.0, 0.0, 0.0, 0.0, 0.0, 0.0, 1.644588295346652E9, 0.0, 2022-02-12 01:04:55.346
212.0, -9594.32984522937, -8953.77355262918, -5936.466865118368, -13562.412686635576, -7909.522403421689, -3700.7112742318245, -7797.227239278226, -5658.433515838804, -10257.148475307045, -12533.830110291257, -6692.55932480804, -5419.6721815672145, -4950.576120683685, -8187.3322352567, -10750.473827180127, -15902.640331106226, 0.00975, 0.232, 0.9417500000000001, 192.0, 0.0, 0.0, 0.0, 0.0, 0.0, 0.0, 0.0, 0.0, 0.0, 1.644588295354128E9, 0.0, 2022-02-12 01:04:55.354
214.0, -9589.121888771282, -8930.661848862392, -5934.969298239863, -13554.522520842853, -7898.994731783239, -3700.308942831629, -7797.11548055595, -5659.416992594837, -10254.108638061123, -12526.588145087737, -6703.779900524605, -5440.8616353108455, -4961.260254533321, -8195.848249894172, -10753.290146981495, -15868.397458600695, 0.007875, 0.233, 0.941875, 192.0, 0.0, 24.0, 3.5, 40.0, 14.5, 56.0, 0.0, 0.0, 0.0, 1.644588295362177E9, 0.0, 2022-02-12 01:04:55.362
216.0, -9586.6631968812, -8938.037924532644, -5932.622365072056, -13563.30675641379, -7903.085101018561, -3700.331294576084, -7787.638340906899, -5649.761038990145, -10257.304937518233, -12509.66787453507, -6706.1715371813225, -5444.16969349023, -4959.248597532344, -8191.735528914396, -10751.390248702795, -15891.039775733921, 0.007875, 0.233, 0.941875, 192.0, 0.0, 0.0, 0.0, 0.0, 0.0, 0.0, 0.0, 0.0, 0.0, 1.644588295370237E9, 0.0, 2022-02-12 01:04:55.370
218.0, -9595.536839429957, -8971.766706915701, -5933.717600550366, -13559.149331945102, -7903.263914974203, -3702.789986466168, -7790.342901985991, -5653.046745425075, -10253.46043747192, -12521.62605781866, -6706.551516837063, -5433.574966618415, -4963.294263278754, -8190.863810880639, -10748.864501579345, -15884.624825075249, 0.007875, 0.233, 0.941875, 192.0, 0.0, 0.0, 0.0, 0.0, 0.0, 0.0, 0.0, 0.0, 0.0, 1.644588295376838E9, 0.0, 2022-02-12 01:04:55.376
220.0, -9591.871153339285, -8951.359564228007, -5929.135492937028, -13559.663422067575, -7903.129804507471, -3699.1243003754976, -7784.844372849986, -5647.771733733623, -10265.776248666794, -12516.798081016314, -6712.988819240191, -5428.568175860426, -4966.244693546855, -8196.496450483377, -10747.523396912027, -15863.055391675878, 0.007875, 0.233, 0.941875, 192.0, 0.0, 0.0, 0.0, 0.0, 0.0, 0.0, 0.0, 0.0, 0.0, 1.644588295384758E9, 0.0, 2022-02-12 01:04:55.384
222.0, -9589.792441104943, -8944.09524728003, -5932.644716816511, -13569.20761694999, -7913.255144745725, -3706.6791900013914, -7795.126175299428, -5657.807666994056, -10267.117353334112, -12521.201374674009, -6706.618572070429, -5435.318402685929, -4957.795734142749, -8192.964874859437, -10745.467036422138, -15900.516915382972, 0.007875, 0.233, 0.941875, 192.0, 0.0, 0.0, 0.0, 0.0, 0.0, 0.0, 0.0, 0.0, 0.0, 1.644588295392865E9, 0.0, 2022-02-12 01:04:55.392
224.0, -9599.694263898644, -8959.29443350964, -5930.007210970785, -13554.835445265227, -7895.351397437024, -3705.181623122886, -7792.086338053506, -5661.9203879738325, -10247.201949024433, -12528.599802088715, -6705.61274356994, -5434.446684652172, -4959.270949276799, -8196.854078394661, -10743.41067593225, -15866.05052543289, 0.0069375, 0.23450000000000001, 0.9429375, 192.0, 0.0, 24.0, 3.5, 48.0, 14.5, 64.0, 0.0, 0.0, 0.0, 1.644588295406392E9, 0.0, 2022-02-12 01:04:55.406
226.0, -9583.980987546562, -8951.538378183648, -5923.793426012209, -13566.838332037727, -7899.151193994427, -3699.861907942523, -7780.3516722144695, -5649.448114567771, -10258.60133869664, -12521.402540374105, -6699.2424964001775, -5432.345620673374, -4961.394365000054, -8188.516877712832, -10742.136626498297, -15891.889142023223, 0.0069375, 0.23450000000000001, 0.9429375, 192.0, 0.0, 0.0, 0.0, 0.0, 0.0, 0.0, 0.0, 0.0, 0.0, 1.644588295414503E9, 0.0, 2022-02-12 01:04:55.414
228.0, -9603.270543011493, -8961.507256210716, -5935.863368018076, -13563.552625602797, -7899.128842249971, -3702.7229312328022, -7784.799669361076, -5642.966108675731, -10266.98324286738, -12519.837918262234, -6700.918877234326, -5431.362143917339, -4957.616920187106, -8190.752052158363, -10735.721675839624, -15884.200141930598, 0.0069375, 0.23450000000000001, 0.9429375, 192.0, 0.0, 0.0, 0.0, 0.0, 0.0, 0.0, 0.0, 0.0, 0.0, 1.644588295422558E9, 0.0, 2022-02-12 01:04:55.422
230.0, -9583.533952657455, -8952.857131106512, -5930.342487137615, -13557.227081921947, -7896.021949770684, -3696.822070696601, -7785.1125937834495, -5644.933062187799, -10267.251463800843, -12528.420988133072, -6707.691455804284, -5425.729504314602, -4959.628577188084, -8189.254485279857, -10740.12496949732, -15864.016516687456, 0.0069375, 0.23450000000000001, 0.9429375, 192.0, 0.0, 0.0, 0.0, 0.0, 0.0, 0.0, 0.0, 0.0, 0.0, 1.644588295429194E9, 0.0, 2022-02-12 01:04:55.429
232.0, -9597.392034219747, -8949.43731420485, -5933.359972639081, -13562.435038380032, -7908.114243521005, -3704.444015555861, -7787.839506606997, -5645.02246916562, -10276.438030771975, -12538.121645226676, -6702.639961557385, -5421.594431590371, -4959.896798121548, -8186.684034667496, -10741.399018931274, -15898.080575237344, 0.0069375, 0.23450000000000001, 0.9429375, 192.0, 0.0, 0.0, 0.0, 0.0, 0.0, 0.0, 0.0, 0.0, 0.0, 1.644588295436982E9, 0.0, 2022-02-12 01:04:55.436
234.0, -9590.977083561074, -8928.203156972308, -5933.874062761553, -13550.409799863077, -7897.206592226815, -3698.0290648971877, -7785.8725530949305, -5651.079791913008, -10261.775286409294, -12505.063415177276, -6703.6457900578735, -5434.692553841181, -4947.670393904495, -8196.295284783278, -10741.644888120281, -15860.551996296883, 0.00846875, 0.23525000000000001, 0.9414687500000001, 192.0, 0.0, 40.0, 3.5, 48.0, 14.5, 48.0, 0.0, 0.0, 0.0, 1.644588295445281E9, 0.0, 2022-02-12 01:04:55.445
236.0, -9577.498981654524, -8947.716229881791, -5927.548519080701, -13558.344669144712, -7907.622505142988, -3694.721006717802, -7784.240875749693, -5649.045783167575, -10252.119332804601, -12519.18971767303, -6696.001493454158, -5421.370914145818, -4959.248597532344, -8183.644197421575, -10741.89075730929, -15883.395479130208, 0.00846875, 0.23525000000000001, 0.9414687500000001, 192.0, 0.0, 0.0, 0.0, 0.0, 0.0, 0.0, 0.0, 0.0, 0.0, 1.644588295452106E9, 0.0, 2022-02-12 01:04:55.452
238.0, -9585.009167791506, -8949.638479904948, -5929.023734214751, -13552.555567330786, -7898.346531194035, -3697.4702712858048, -7783.972654816229, -5648.576396534014, -10256.41086774002, -12529.382113144651, -6697.1861359102895, -5424.053123480454, -4964.188333056967, -8184.694729410974, -10739.722638097124, -15883.976624486046, 0.00846875, 0.23525000000000001, 0.9414687500000001, 192.0, 0.0, 0.0, 0.0, 0.0, 0.0, 0.0, 0.0, 0.0, 0.0, 1.644588295458841E9, 0.0, 2022-02-12 01:04:55.458
240.0, -9574.503847897513, -8938.037924532644, -5923.41344635647, -13547.39231436161, -7895.507859648212, -3689.3565880485285, -7774.629625633911, -5640.775637719112, -10255.427390983987, -12514.629961804148, -6693.878077730904, -5422.510853113038, -4951.336079995165, -8188.360415501645, -10738.068609007432, -15856.573385783839, 0.00846875, 0.23525000000000001, 0.9414687500000001, 192.0, 0.0, 0.0, 0.0, 0.0, 0.0, 0.0, 0.0, 0.0, 0.0, 1.644588295466763E9, 0.0, 2022-02-12 01:04:55.466
242.0, -9584.115098013293, -8939.155511755409, -5928.308478392181, -13555.01425922087, -7902.727473107276, -3689.3789397929836, -7773.690852366788, -5640.060381896542, -10260.858864886626, -12518.496813594917, -6679.327092090499, -5414.352466386851, -4944.474094447386, -8177.542171185276, -10736.660449106748, -15891.039775733921, 0.00846875, 0.23525000000000001, 0.9414687500000001, 192.0, 0.0, 0.0, 0.0, 0.0, 0.0, 0.0, 0.0, 0.0, 0.0, 1.644588295474822E9, 0.0, 2022-02-12 01:04:55.474
