%OpenBCI Raw EEG Data
%Number of channels = 16
%Sample Rate = 125 Hz
%Board = OpenBCI_GUI$BoardCytonSerialDaisy
Sample Index, EXG Channel 0, EXG Channel 1, EXG Channel 2, EXG Channel 3, EXG Channel 4, EXG Channel 5, EXG Channel 6, EXG Channel 7, EXG Channel 8, EXG Channel 9, EXG Channel 10, EXG Channel 11, EXG Channel 12, EXG Channel 13, EXG Channel 14, EXG Channel 15, Accel Channel 0, Accel Channel 1, Accel Channel 2, Other, Other, Other, Other, Other, Other, Other, Analog Channel 0, Analog Channel 1, Analog Channel 2, Timestamp, Other, Timestamp (Formatted)
128.0, -9997.73412915875, -9937.563233085064, -5733.267156275172, -13456.174845239502, -8235.120264902147, -4317.99940085404, -7830.374876305446, -5734.451798731304, -9506.621599986745, -12486.46676379046, -7279.9184656046, -6138.392524527612, -5631.074980625508, -8616.597487520872, -10852.241319685141, -15664.61660440166, 0.0, 0.0, 0.0, 192.0, 0.0, 0.0, 0.0, 0.0, 0.0, 0.0, 0.0, 0.0, 0.0, 1.644588415591677E9, 0.0, 2022-02-12 01:06:55.591
130.0, -10009.960533375805, -9963.133628741936, -5742.94546162432, -13450.698667847952, -8244.932680718026, -4334.651450473243, -7841.148417132905, -5752.1990838288175, -9495.73630043701, -12503.878772721146, -7278.465602215005, -6133.698658191998, -5630.940870158776, -8625.493481814085, -10848.150950449819, -15665.108342779678, 0.0, 0.0, 0.0, 192.0, 0.0, 0.0, 0.0, 0.0, 0.0, 0.0, 0.0, 0.0, 0.0, 1.644588415591681E9, 0.0, 2022-02-12 01:06:55.591
0.0, -4924.4916349043415, -4704.729283419762, -2703.8234715251297, -6406.166423102191, -3980.555114812269, -2207.9723725285976, -4008.4277401480367, -2911.1135496036472, -4753.187865398868, -6248.340755503268, -3652.6773753973694, -3085.8371360107826, -2828.4567986079214, -4327.945927136651, -5426.847091537367, -7821.612992478967, 0.004, 0.234, 0.9500000000000001, 192.0, 0.0, 16.0, 3.5, 40.0, 14.5, 88.0, 0.0, 0.0, 0.0, 1.644588415675933E9, 0.0, 2022-02-12 01:06:55.675
2.0, -9868.809267140541, -9404.496479570447, -5408.339847128374, -12810.231782225585, -7967.122848883016, -4419.856300336874, -8018.353047174579, -5826.518634142713, -7764.571340629022, -10866.85936055891, -7647.805827594499, -6788.336549799032, -5665.071983942031, -8452.423924496643, -10208.578134605663, -14987.515209617044, 0.004, 0.234, 0.9500000000000001, 192.0, 0.0, 0.0, 0.0, 0.0, 0.0, 0.0, 0.0, 0.0, 0.0, 1.644588415682783E9, 0.0, 2022-02-12 01:06:55.682
4.0, -9880.678043446309, -9383.910522927108, -5413.681914053192, -12801.268732699005, -7958.182151100893, -4419.297506725491, -8025.438550166911, -5837.873320326009, -7755.474180635712, -10854.923529019778, -7654.846627097921, -6789.856468421993, -5659.193475150285, -8462.90689264618, -10211.707378829406, -14955.328697601402, 0.004, 0.234, 0.9500000000000001, 192.0, 0.0, 0.0, 0.0, 0.0, 0.0, 0.0, 0.0, 0.0, 0.0, 1.644588415689605E9, 0.0, 2022-02-12 01:06:55.689
6.0, -9863.668365915819, -9371.997043132431, -5404.383588359784, -12813.137509004773, -7960.953767413351, -4418.11286426936, -8014.77676806173, -5826.205709720339, -7761.307985938548, -10849.268537672584, -7650.733906118144, -6794.975017902258, -5657.7853152496, -8456.737811176517, -10217.384721921055, -14979.96031999115, 0.004, 0.234, 0.9500000000000001, 192.0, 0.0, 0.0, 0.0, 0.0, 0.0, 0.0, 0.0, 0.0, 0.0, 1.644588415697491E9, 0.0, 2022-02-12 01:06:55.697
8.0, -9868.33988050698, -9391.532467786368, -5409.882117495789, -12806.655503112735, -7949.509674252234, -4419.833948592419, -8009.9264395149285, -5811.744131057755, -7758.670480092822, -10857.851607543422, -7655.271310242571, -6793.633913234939, -5662.12155367393, -8458.01186061047, -10203.2584194253, -14980.25089266907, 0.004, 0.234, 0.9500000000000001, 192.0, 0.0, 16.0, 3.5, 40.0, 14.5, 88.0, 0.0, 0.0, 0.0, 1.644588415705422E9, 0.0, 2022-02-12 01:06:55.705
10.0, -9849.787932609073, -9404.541183059357, -5405.031788948988, -12807.549572890946, -7946.603947473043, -4415.028323534528, -8014.4414918949005, -5812.973477002797, -7757.128209725405, -10835.633973554848, -7652.902025330309, -6798.238372592732, -5657.852370482966, -8466.393764781209, -10207.348788660622, -14953.227633622604, 0.004, 0.234, 0.9500000000000001, 192.0, 0.0, 0.0, 0.0, 0.0, 0.0, 0.0, 0.0, 0.0, 0.0, 1.644588415712554E9, 0.0, 2022-02-12 01:06:55.712
12.0, -9861.388487981378, -9415.29237214236, -5407.222259905608, -12824.49219518807, -7965.267654093225, -4423.119655027349, -8016.453148895878, -5819.321372428104, -7766.113610996439, -10877.34232870845, -7657.193560265728, -6792.158698100889, -5664.960225219754, -8456.983680365525, -10209.673370083972, -14993.706642831165, 0.004, 0.234, 0.9500000000000001, 192.0, 0.0, 0.0, 0.0, 0.0, 0.0, 0.0, 0.0, 0.0, 0.0, 1.644588415720074E9, 0.0, 2022-02-12 01:06:55.720
14.0, -9908.01422691515, -9417.795767521355, -5410.955001229644, -12824.022808554508, -7951.521331253211, -4425.913623084262, -8018.710675085864, -5822.092988740563, -7758.066982992528, -10866.926415792277, -7662.42386846827, -6804.094529640023, -5665.898998486877, -8471.15468635019, -10214.724864330872, -14963.174159905215, 0.004, 0.234, 0.9500000000000001, 192.0, 0.0, 0.0, 0.0, 0.0, 0.0, 0.0, 0.0, 0.0, 0.0, 1.644588415727949E9, 0.0, 2022-02-12 01:06:55.727
16.0, -9885.90835164885, -9404.585886548268, -5409.077454695399, -12831.532994691492, -7967.972215172317, -4422.963192816162, -8022.912803043462, -5824.417570163914, -7767.857047063952, -10866.412325669806, -7655.204255009206, -6809.615410520484, -5661.4510013402705, -8478.240189342521, -10212.869669541082, -14988.431631139712, 0.005, 0.234, 0.9520000000000001, 192.0, 0.0, 24.0, 3.5, 40.0, 14.5, 104.0, 0.0, 0.0, 0.0, 1.644588415742465E9, 0.0, 2022-02-12 01:06:55.742
18.0, -9893.507944763654, -9403.557706303323, -5421.773245546013, -12831.309477246938, -7966.407593060446, -4430.3616202308685, -8027.316096701157, -5816.05801773763, -7769.421669175825, -10893.72615739419, -7660.032231811551, -6806.642628507928, -5681.701681816779, -8466.72904094804, -10214.188422463945, -14989.906846273763, 0.005, 0.234, 0.9520000000000001, 192.0, 0.0, 0.0, 0.0, 0.0, 0.0, 0.0, 0.0, 0.0, 0.0, 1.644588415750133E9, 0.0, 2022-02-12 01:06:55.750
20.0, -9890.781031940107, -9415.918220987109, -5417.727579799603, -12831.689456902679, -7970.34150008458, -4429.176977774737, -8026.869061812051, -5822.025933507197, -7779.323491969525, -10877.834067086467, -7665.396650480825, -6811.045922165624, -5694.106899989474, -8479.15661086519, -10220.40220742252, -14969.522055330523, 0.005, 0.234, 0.9520000000000001, 192.0, 0.0, 0.0, 0.0, 0.0, 0.0, 0.0, 0.0, 0.0, 0.0, 1.644588415757813E9, 0.0, 2022-02-12 01:06:55.757
22.0, -9881.728575435707, -9424.098959457751, -5422.130873457298, -12845.055800086951, -7980.377433345013, -4434.809617377475, -8031.428817680934, -5829.737285344278, -7791.25932350866, -10896.341311495462, -7662.736792890644, -6816.410340834897, -5684.383891151416, -8477.256712586488, -10220.916297544993, -15014.650227385788, 0.005, 0.234, 0.9520000000000001, 192.0, 0.0, 0.0, 0.0, 0.0, 0.0, 0.0, 0.0, 0.0, 0.0, 1.644588415765714E9, 0.0, 2022-02-12 01:06:55.765
24.0, -9903.253305346168, -9431.989125250475, -5423.851957780356, -12836.293916260473, -7972.688433252387, -4432.462684209667, -8033.395771193001, -5835.01229703573, -7780.821058848031, -10884.67370088979, -7677.846572142431, -6826.669791539883, -5686.5743621080355, -8486.1527068797, -10222.838547568148, -14977.144000189783, 0.005, 0.234, 0.9520000000000001, 192.0, 0.0, 0.0, 0.0, 0.0, 0.0, 0.0, 0.0, 0.0, 0.0, 1.644588415772206E9, 0.0, 2022-02-12 01:06:55.772
26.0, -9914.339770596001, -9434.090189229273, -5418.353428644351, -12845.97222160962, -7989.184020660404, -4435.077838310938, -8041.196530007903, -5826.809206820632, -7795.953189844274, -10885.567770668004, -7686.004958868619, -6812.275268110665, -5701.393568681904, -8488.63375051424, -10229.164091249, -15000.769794079042, 0.006500000000000001, 0.234, 0.9520000000000001, 192.0, 0.0, 32.0, 3.5, 40.0, 14.5, 96.0, 0.0, 0.0, 0.0, 1.644588415780522E9, 0.0, 2022-02-12 01:06:55.780
28.0, -9927.706113780274, -9432.927898517597, -5427.316478170929, -12845.569890209425, -7982.9255322129175, -4436.731867400631, -8043.610518409076, -5831.145445244962, -7799.73063465722, -10916.144957082863, -7684.820316412487, -6820.29954437012, -5692.810498811066, -8488.745509236516, -10233.232108739867, -15010.626913383832, 0.006500000000000001, 0.234, 0.9520000000000001, 192.0, 0.0, 0.0, 0.0, 0.0, 0.0, 0.0, 0.0, 0.0, 0.0, 1.644588415788339E9, 0.0, 2022-02-12 01:06:55.788
30.0, -9917.714884008752, -9427.25055542595, -5422.130873457298, -12842.30653551895, -7981.025633934217, -4425.980678317628, -8039.766018362763, -5830.161968488928, -7795.863782866452, -10897.660064418324, -7678.204200053716, -6834.4258468658745, -5685.479126629726, -8493.215858127578, -10233.477977928875, -14984.095392715382, 0.006500000000000001, 0.234, 0.9520000000000001, 192.0, 0.0, 0.0, 0.0, 0.0, 0.0, 0.0, 0.0, 0.0, 0.0, 1.644588415794365E9, 0.0, 2022-02-12 01:06:55.794
32.0, -9920.978238699226, -9435.475997385502, -5430.31161192794, -12850.531977478502, -7997.72238704233, -4433.490864454611, -8059.010870338782, -5831.3242592006045, -7812.314666785559, -10904.320884266006, -7678.450069242725, -6823.49584382723, -5704.321647205549, -8488.834916214337, -10233.299163973232, -15024.619105412854, 0.006500000000000001, 0.234, 0.9520000000000001, 192.0, 0.0, 0.0, 0.0, 0.0, 0.0, 0.0, 0.0, 0.0, 0.0, 1.644588415802007E9, 0.0, 2022-02-12 01:06:55.802
34.0, -9908.975351926727, -9453.290337716382, -5438.760571332046, -12847.134512321296, -7980.24332287828, -4430.272213253047, -8047.455018455389, -5823.881128296987, -7802.502250969679, -10905.773747655601, -7698.052549130029, -6828.972021218779, -5707.160318751374, -8492.29943660491, -10241.614012910606, -14992.63375909731, 0.006500000000000001, 0.234, 0.9520000000000001, 192.0, 0.0, 0.0, 0.0, 0.0, 0.0, 0.0, 0.0, 0.0, 0.0, 1.644588415810432E9, 0.0, 2022-02-12 01:06:55.810
36.0, -9911.366988583444, -9440.348677676759, -5438.5147021430375, -12858.198625826673, -7996.20246841937, -4434.653155166287, -8049.891358601018, -5831.614831878524, -7811.30883828507, -10916.368474527417, -7697.0020171406295, -6831.1401404309445, -5701.214754726262, -8492.500602305008, -10242.575137922186, -15013.242067485104, 0.00825, 0.234, 0.9480000000000001, 192.0, 0.0, 40.0, 3.5, 40.0, 14.5, 64.0, 0.0, 0.0, 0.0, 1.644588415818049E9, 0.0, 2022-02-12 01:06:55.818
38.0, -9947.129779711937, -9454.050297027863, -5447.813027836446, -12856.231672314605, -7998.661160309453, -4440.263443024569, -8059.390849994523, -5829.044381266163, -7820.473053511746, -10910.020579102109, -7706.7473777231435, -6825.418093850386, -5709.261382730172, -8492.590009282829, -10247.60428042463, -15019.768776866053, 0.00825, 0.234, 0.9480000000000001, 192.0, 0.0, 0.0, 0.0, 0.0, 0.0, 0.0, 0.0, 0.0, 0.0, 1.644588415824463E9, 0.0, 2022-02-12 01:06:55.824
40.0, -9951.667183836364, -9459.30295697486, -5440.682821355203, -12853.370649024326, -7998.862326009551, -4431.367448731357, -8056.149847048503, -5829.491416155269, -7829.972544905251, -10927.92432641081, -7699.3489503084365, -6837.286870156154, -5725.801673627099, -8508.191526912633, -10251.337021748664, -14995.003044009572, 0.00825, 0.234, 0.9480000000000001, 192.0, 0.0, 0.0, 0.0, 0.0, 0.0, 0.0, 0.0, 0.0, 0.0, 1.644588415832647E9, 0.0, 2022-02-12 01:06:55.832
42.0, -9934.948078983794, -9455.123180761717, -5439.185254476697, -12859.316213049438, -7997.63298006451, -4431.4792074536335, -8050.964242334872, -5832.4418464233695, -7832.542995517611, -10943.078809151508, -7688.597761225434, -6829.128483429967, -5719.163205523873, -8493.975817439057, -10247.023135068792, -15036.085550318427, 0.00825, 0.234, 0.9480000000000001, 192.0, 0.0, 0.0, 0.0, 0.0, 0.0, 0.0, 0.0, 0.0, 0.0, 1.644588415840771E9, 0.0, 2022-02-12 01:06:55.840
44.0, -9935.998610973193, -9445.042544012374, -5446.293109213485, -12857.885701404299, -7985.473631080822, -4426.673582395742, -8051.254815012791, -5824.842253308565, -7820.651867467388, -10928.997210144666, -7703.841650943953, -6842.740695803249, -5713.821138599055, -8495.763956995483, -10245.704382145928, -14998.467564400145, 0.00825, 0.234, 0.9480000000000001, 192.0, 0.0, 0.0, 0.0, 0.0, 0.0, 0.0, 0.0, 0.0, 0.0, 1.644588415847736E9, 0.0, 2022-02-12 01:06:55.847
46.0, -9934.00930571667, -9455.145532506172, -5446.807199335957, -12866.200550341673, -8000.516355099244, -4435.726038900142, -8056.552178448699, -5822.62943060749, -7830.7772077056425, -10932.68524797979, -7704.735720722166, -6851.748448818737, -5711.295391475605, -8498.1555936522, -10249.057143814223, -15021.534564678022, 0.007125, 0.23500000000000001, 0.9450000000000001, 192.0, 0.0, 24.0, 3.5, 48.0, 14.5, 56.0, 0.0, 0.0, 0.0, 1.644588415862463E9, 0.0, 2022-02-12 01:06:55.862
48.0, -9947.68857332332, -9464.421506455124, -5456.016118051543, -12864.278300318516, -7999.3540643875685, -4441.06810582496, -8064.174123307958, -5834.140579001973, -7837.639193253422, -10937.669686993324, -7710.077787646984, -6847.032230738668, -5717.620935156458, -8512.34895138132, -10252.611071182619, -15033.06806481696, 0.007125, 0.23500000000000001, 0.9450000000000001, 192.0, 0.0, 0.0, 0.0, 0.0, 0.0, 0.0, 0.0, 0.0, 0.0, 1.644588415870211E9, 0.0, 2022-02-12 01:06:55.870
50.0, -9948.649698334897, -9464.332099477304, -5454.786772106501, -12864.993556141086, -8003.10915745606, -4433.736733643619, -8059.480256972344, -5815.879203781987, -7828.743198960209, -10929.891279922876, -7723.734703509177, -6845.489960371252, -5725.019362571164, -8520.507338107507, -10261.685879431472, -15008.481145916123, 0.007125, 0.23500000000000001, 0.9450000000000001, 192.0, 0.0, 0.0, 0.0, 0.0, 0.0, 0.0, 0.0, 0.0, 0.0, 1.644588415877372E9, 0.0, 2022-02-12 01:06:55.877
52.0, -9941.810064531574, -9455.994898795474, -5446.091943513387, -12866.938157908698, -8009.2782389257245, -4435.301355755491, -8065.179951808447, -5821.5788986180905, -7843.964736934274, -10934.048704391564, -7723.354723853437, -6829.754332274715, -5744.934766880842, -8500.63663728674, -10259.495408474852, -15045.272117289558, 0.007125, 0.23500000000000001, 0.9450000000000001, 192.0, 0.0, 0.0, 0.0, 0.0, 0.0, 0.0, 0.0, 0.0, 0.0, 1.644588415884897E9, 0.0, 2022-02-12 01:06:55.884
54.0, -9957.746858328206, -9466.030832055907, -5447.9694900476325, -12856.924576392721, -7991.665064294943, -4426.941803329206, -8063.2800535297465, -5825.713971342322, -7839.539091532122, -10931.455902034748, -7712.134148136873, -6841.444294624841, -5734.205929542295, -8518.898012506725, -10256.589681695663, -15012.482108173623, 0.007125, 0.23500000000000001, 0.9450000000000001, 192.0, 0.0, 0.0, 0.0, 0.0, 0.0, 0.0, 0.0, 0.0, 0.0, 1.644588415892848E9, 0.0, 2022-02-12 01:06:55.892
56.0, -9944.961660499772, -9446.897738802165, -5442.739181845091, -12865.64175673029, -8004.696131312387, -4425.176015517237, -8056.887454615528, -5809.240735678761, -7845.574062535055, -10938.004963160154, -7701.248848587138, -6830.380181119464, -5727.880385861443, -8501.329541364854, -10252.722829904895, -15029.40237872629, 0.006562500000000001, 0.23550000000000001, 0.9465000000000001, 192.0, 0.0, 24.0, 3.5, 48.0, 14.5, 80.0, 0.0, 0.0, 0.0, 1.644588415900013E9, 0.0, 2022-02-12 01:06:55.900
58.0, -9934.433988861321, -9459.615881397234, -5455.770248862535, -12871.386155055305, -8006.886602269006, -4431.099227797893, -8065.314062275179, -5824.1046457415405, -7847.451609069301, -10938.608460260446, -7715.553965038534, -6849.960309262313, -5727.746275394711, -8509.152651924212, -10251.828760126682, -15038.566593952966, 0.006562500000000001, 0.23550000000000001, 0.9465000000000001, 192.0, 0.0, 0.0, 0.0, 0.0, 0.0, 0.0, 0.0, 0.0, 0.0, 1.644588415907516E9, 0.0, 2022-02-12 01:06:55.907
60.0, -9950.303727424589, -9469.897683846675, -5454.630309895314, -12869.039221887497, -8010.149956959482, -4424.013724805561, -8057.423896482456, -5818.024971249696, -7836.655716497388, -10931.83588169049, -7731.490758835168, -6845.266442926699, -5724.281755004139, -8512.907744992703, -10254.801542139237, -15017.06421578696, 0.006562500000000001, 0.23550000000000001, 0.9465000000000001, 192.0, 0.0, 0.0, 0.0, 0.0, 0.0, 0.0, 0.0, 0.0, 0.0, 1.644588415916157E9, 0.0, 2022-02-12 01:06:55.916
62.0, -9972.074326524058, -9469.607111168756, -5456.306690729462, -12876.325890579927, -8014.039160494704, -4423.92431782774, -8055.635756926032, -5813.934602014376, -7852.301937616103, -10958.523864570125, -7715.777482483088, -6839.231471923766, -5723.432388714837, -8507.833899001349, -10252.096981060145, -15058.392591284823, 0.006562500000000001, 0.23550000000000001, 0.9465000000000001, 192.0, 0.0, 0.0, 0.0, 0.0, 0.0, 0.0, 0.0, 0.0, 0.0, 1.644588415922485E9, 0.0, 2022-02-12 01:06:55.922
64.0, -9962.753649086197, -9452.977413294007, -5463.347490232884, -12866.35701255286, -8000.6504655659755, -4421.622088148843, -8060.150809306003, -5814.828671792588, -7852.4360480828345, -10939.904861438854, -7714.726950493688, -6843.321841159087, -5742.029040101653, -8509.666742046684, -10256.634385184572, -15020.908715833273, 0.006562500000000001, 0.23550000000000001, 0.9465000000000001, 192.0, 0.0, 0.0, 0.0, 0.0, 0.0, 0.0, 0.0, 0.0, 0.0, 1.64458841592957E9, 0.0, 2022-02-12 01:06:55.929
66.0, -9932.131759182425, -9457.313651718337, -5451.813990093946, -12872.727259722622, -8017.414273907456, -4422.180881760226, -8059.323794761157, -5811.520613613202, -7858.98510920824, -10929.041913633575, -7718.973781940196, -6837.77860853417, -5739.078609833552, -8516.193451427633, -10261.752934664839, -15043.59573645541, 0.00528125, 0.23775000000000002, 0.9452500000000001, 192.0, 0.0, 16.0, 3.5, 64.0, 14.5, 64.0, 0.0, 0.0, 0.0, 1.644588415937279E9, 0.0, 2022-02-12 01:06:55.937
68.0, -9969.213303233779, -9476.200875783072, -5456.999594807577, -12875.968262668643, -8012.608648849565, -4423.387875960812, -8061.983652351339, -5815.275706681694, -7854.1347806614385, -10954.03116393461, -7720.314886607514, -6845.713477815804, -5741.760819168189, -8506.336332122843, -10263.026984098791, -15054.615146471877, 0.00528125, 0.23775000000000002, 0.9452500000000001, 192.0, 0.0, 0.0, 0.0, 0.0, 0.0, 0.0, 0.0, 0.0, 0.0, 1.644588415946457E9, 0.0, 2022-02-12 01:06:55.946
70.0, -9972.320195713068, -9483.174620053127, -5459.145362275286, -12874.090716134397, -8014.173270961437, -4424.661925394765, -8061.514265717777, -5814.471043881303, -7850.066763170572, -10956.534559313603, -7721.387770341369, -6836.683373055861, -5730.428484729348, -8510.136128680246, -10264.546902721751, -15028.910640348273, 0.00528125, 0.23775000000000002, 0.9452500000000001, 192.0, 0.0, 0.0, 0.0, 0.0, 0.0, 0.0, 0.0, 0.0, 0.0, 1.644588415953037E9, 0.0, 2022-02-12 01:06:55.953
72.0, -9954.617614104463, -9474.345680993281, -5465.068574555943, -12889.602826786379, -8025.170329233448, -4431.903890598284, -8067.102201831603, -5820.796587562155, -7863.678975543854, -10975.578245589524, -7720.784273241076, -6847.993355750246, -5733.222452786262, -8509.152651924212, -10269.285472546277, -15073.79294321453, 0.00528125, 0.23775000000000002, 0.9452500000000001, 192.0, 0.0, 0.0, 0.0, 0.0, 0.0, 0.0, 0.0, 0.0, 0.0, 1.644588415959654E9, 0.0, 2022-02-12 01:06:55.959
74.0, -9949.990803002216, -9448.842340569776, -5469.516571702549, -12877.890512691798, -8010.194660448392, -4420.750370115086, -8059.837884883629, -5819.455482894836, -7848.2115683807815, -10954.679364523812, -7732.518939080112, -6860.152704733933, -5743.61601395798, -8512.97480022607, -10270.157190580034, -15041.919355621261, 0.00528125, 0.23775000000000002, 0.9452500000000001, 192.0, 0.0, 0.0, 0.0, 0.0, 0.0, 0.0, 0.0, 0.0, 0.0, 1.644588415967711E9, 0.0, 2022-02-12 01:06:55.967
76.0, -9947.465055878765, -9469.025965812918, -5466.253217012074, -12883.679614505723, -8014.374436661535, -4417.621125891344, -8059.144980805515, -5811.833538035577, -7848.099809658505, -10948.912614454344, -7725.031104687585, -6850.87673078498, -5745.739429681234, -8509.912611235692, -10267.430277756486, -15056.962079639683, 0.004640625000000001, 0.239875, 0.9436250000000002, 192.0, 0.0, 16.0, 3.5, 72.0, 14.5, 56.0, 0.0, 0.0, 0.0, 1.64458841597562E9, 0.0, 2022-02-12 01:06:55.975
78.0, -9982.31142548459, -9476.625558927723, -5470.567103691948, -12881.64560576029, -8008.071244725138, -4416.2800212240245, -8062.251873284802, -5814.940430514865, -7867.188199423337, -10957.048649436076, -7725.031104687585, -6833.978811976768, -5743.861883146988, -8510.49375659153, -10273.219379570412, -15064.22639658766, 0.004640625000000001, 0.239875, 0.9436250000000002, 192.0, 0.0, 0.0, 0.0, 0.0, 0.0, 0.0, 0.0, 0.0, 0.0, 1.644588415989442E9, 0.0, 2022-02-12 01:06:55.989
80.0, -9964.899416553906, -9481.073556074329, -5462.676937899225, -12883.187876127706, -8005.590201090598, -4408.8815938093185, -8053.199416780403, -5815.7227415708, -7851.921957960362, -10960.624928548925, -7726.014581443618, -6852.0390214966565, -5735.65879293189, -8505.822242000371, -10271.610053969629, -15035.794977640508, 0.004640625000000001, 0.239875, 0.9436250000000002, 192.0, 0.0, 0.0, 0.0, 0.0, 0.0, 0.0, 0.0, 0.0, 0.0, 1.644588415997402E9, 0.0, 2022-02-12 01:06:55.997
82.0, -9958.082134495036, -9478.279588017414, -5468.689557157702, -12892.329739609926, -8017.414273907456, -4416.838814835407, -8063.816495396673, -5804.85979376552, -7864.774211022164, -10969.565626331047, -7726.260450632626, -6842.807751036615, -5717.308010734083, -8499.228477386056, -10272.101792347645, -15075.98341417115, 0.004640625000000001, 0.239875, 0.9436250000000002, 192.0, 0.0, 0.0, 0.0, 0.0, 0.0, 0.0, 0.0, 0.0, 0.0, 1.64458841600538E9, 0.0, 2022-02-12 01:06:56.005
84.0, -9969.235654978234, -9470.389422224693, -5470.991786836599, -12884.886608706309, -8009.591163348099, -4417.241146235603, -8066.968091364872, -5816.48270088228, -7856.101734173505, -10964.782353017612, -7740.520863595112, -6860.778553578682, -5751.99791812872, -8520.97672474107, -10281.377766296599, -15047.149663823804, 0.004640625000000001, 0.239875, 0.9436250000000002, 192.0, 0.0, 0.0, 0.0, 0.0, 0.0, 0.0, 0.0, 0.0, 0.0, 1.644588416013649E9, 0.0, 2022-02-12 01:06:56.013
86.0, -9951.041334991614, -9470.6352914137, -5463.906283844267, -12895.280169878028, -8016.140224473504, -4407.9428205421955, -8057.826227882651, -5810.6041920905345, -7863.924844732863, -10966.481085596215, -7742.823093274009, -6863.505466402229, -5746.432333759348, -8506.82807050086, -10285.624597743106, -15064.718134965675, 0.01, 0.23600000000000002, 0.9460000000000001, 192.0, 0.0, 40.0, 3.5, 48.0, 14.5, 72.0, 0.0, 0.0, 0.0, 1.644588416021293E9, 0.0, 2022-02-12 01:06:56.021
88.0, -9969.839152078528, -9470.814105369343, -5470.902379858778, -12888.93227445272, -8013.972105261339, -4412.8155008334525, -8058.921463360962, -5807.7878722891655, -7858.873350485963, -10968.425687363826, -7731.490758835168, -6855.92822503188, -5738.497464477714, -8500.502526820008, -10279.74608895136, -15070.283719335046, 0.01, 0.23600000000000002, 0.9460000000000001, 192.0, 0.0, 0.0, 0.0, 0.0, 0.0, 0.0, 0.0, 0.0, 0.0, 1.644588416029363E9, 0.0, 2022-02-12 01:06:56.029
90.0, -9990.760384888696, -9503.917038907652, -5468.9801298356215, -12887.434707574213, -8020.275297197735, -4413.7542741005755, -8064.8670273860735, -5808.480776367281, -7865.690632544832, -10966.414030362848, -7735.8046455150425, -6846.316974916098, -5735.1223510649625, -8506.649256545217, -10283.970568653414, -15039.59477419791, 0.01, 0.23600000000000002, 0.9460000000000001, 192.0, 0.0, 0.0, 0.0, 0.0, 0.0, 0.0, 0.0, 0.0, 0.0, 1.644588416035449E9, 0.0, 2022-02-12 01:06:56.035
92.0, -9989.3075214991, -9493.769346924943, -5474.299845015985, -12900.689292036212, -8028.724256601841, -4419.766893359053, -8064.688213430431, -5811.744131057755, -7880.241618185237, -10977.41108863486, -7737.10104669345, -6848.328631917076, -5734.116522564474, -8510.627867058261, -10281.869504674614, -15086.488734065144, 0.01, 0.23600000000000002, 0.9460000000000001, 192.0, 0.0, 0.0, 0.0, 0.0, 0.0, 0.0, 0.0, 0.0, 0.0, 1.644588416042189E9, 0.0, 2022-02-12 01:06:56.042
94.0, -9971.336718957034, -9490.30482653437, -5476.065632827954, -12892.97794019913, -8017.928364029928, -4414.313067711958, -8067.817457654173, -5812.146462457951, -7871.7479552922205, -10986.284731183618, -7749.036878232584, -6865.472419914297, -5734.854130131499, -8508.996189713025, -10285.401080298554, -15055.308050549991, 0.01, 0.23600000000000002, 0.9460000000000001, 192.0, 0.0, 0.0, 0.0, 0.0, 0.0, 0.0, 0.0, 0.0, 0.0, 1.644588416049606E9, 0.0, 2022-02-12 01:06:56.049
96.0, -9958.663279850874, -9489.388405011703, -5464.912112344756, -12895.995425700597, -8017.2578116962695, -4404.791224573997, -8057.558006949188, -5803.786910031666, -7869.088097702039, -10974.46065836676, -7748.545139854567, -6857.917530288402, -5747.415810515382, -8497.01565468498, -10284.395251798065, -15072.585949013943, 0.006, 0.24, 0.9380000000000001, 192.0, 0.0, 24.0, 3.5, 64.0, 14.5, 40.0, 0.0, 0.0, 0.0, 1.644588416057701E9, 0.0, 2022-02-12 01:06:56.057
98.0, -9979.092774283024, -9488.226114300027, -5477.518496217549, -12887.457059318669, -8011.714579071353, -4407.20521297517, -8062.810666896185, -5809.084273467573, -7864.684804044343, -10984.27307418264, -7732.563642569023, -6847.59102435005, -5735.681144676345, -8499.273180874967, -10285.714004720927, -15077.525684538567, 0.006, 0.24, 0.9380000000000001, 192.0, 0.0, 0.0, 0.0, 0.0, 0.0, 0.0, 0.0, 0.0, 0.0, 1.644588416064571E9, 0.0, 2022-02-12 01:06:56.064
100.0, -9979.673919638863, -9490.729509679022, -5471.438821725706, -12889.31225410846, -8018.4424541524, -4406.936992041707, -8066.498704731311, -5811.364151402015, -7862.22611215426, -10967.866893752444, -7742.554872340545, -6856.68818434336, -5735.167054553874, -8504.078805932857, -10288.284455333287, -15047.775512668553, 0.006, 0.24, 0.9380000000000001, 192.0, 0.0, 0.0, 0.0, 0.0, 0.0, 0.0, 0.0, 0.0, 0.0, 1.644588416072327E9, 0.0, 2022-02-12 01:06:56.072
102.0, -9993.979036090259, -9494.439899258603, -5473.294016515496, -12901.046919947496, -8024.96916353335, -4408.166337986749, -8067.973919865361, -5813.889898525465, -7875.011309982695, -10986.50824862817, -7732.921270480308, -6855.481190142774, -5731.858996374488, -8505.39755885572, -10291.570161768219, -15090.84732423393, 0.006, 0.24, 0.9380000000000001, 192.0, 0.0, 0.0, 0.0, 0.0, 0.0, 0.0, 0.0, 0.0, 0.0, 1.64458841608023E9, 0.0, 2022-02-12 01:06:56.080
104.0, -9989.955722088305, -9477.385518239204, -5482.614693953359, -12897.515344323558, -8025.974992033839, -4416.727056113131, -8074.724146690864, -5819.053151494641, -7872.79848728162, -10980.160353202862, -7749.618023588422, -6865.1818472363775, -5749.807447172099, -8511.030198458457, -10293.559467024741, -15058.12437035136, 0.006, 0.24, 0.9380000000000001, 192.0, 0.0, 0.0, 0.0, 0.0, 0.0, 0.0, 0.0, 0.0, 0.0, 1.644588416088228E9, 0.0, 2022-02-12 01:06:56.088
106.0, -9967.961605544282, -9497.16681208215, -5476.758536906068, -12903.304446137483, -8035.765056105263, -4420.951535815184, -8077.719280447875, -5822.674134096401, -7881.850943786019, -10980.69679506979, -7752.1214189674165, -6869.629844382983, -5756.445915275325, -8519.859137518304, -10299.683845005495, -15080.74433574013, 0.01, 0.23600000000000002, 0.9500000000000001, 192.0, 0.0, 40.0, 3.5, 48.0, 14.5, 88.0, 0.0, 0.0, 0.0, 1.644588416094885E9, 0.0, 2022-02-12 01:06:56.094
108.0, -9988.525210443166, -9503.134727851717, -5483.151135820286, -12901.18103041423, -8022.39871292099, -4409.932125798718, -8075.238236813336, -5819.567241617113, -7877.961740250796, -10989.7939550631, -7745.862930519931, -6851.994318007746, -5749.271005305172, -8508.616210057284, -10302.924847951514, -15089.193295144236, 0.01, 0.23600000000000002, 0.9500000000000001, 192.0, 0.0, 0.0, 0.0, 0.0, 0.0, 0.0, 0.0, 0.0, 0.0, 1.644588416109823E9, 0.0, 2022-02-12 01:06:56.109
110.0, -9979.808030105594, -9485.901532876675, -5473.9422171047, -12895.056652433474, -8032.613460137065, -4405.707646096665, -8078.3674810370785, -5816.281535182183, -7864.282472644148, -10970.88437925391, -7752.032011989595, -6857.537550632662, -5739.056258089096, -8500.97191345357, -10305.60705728615, -15057.78909418453, 0.01, 0.23600000000000002, 0.9500000000000001, 192.0, 0.0, 0.0, 0.0, 0.0, 0.0, 0.0, 0.0, 0.0, 0.0, 1.644588416117099E9, 0.0, 2022-02-12 01:06:56.117
112.0, -9989.508687199199, -9501.592457484301, -5475.573894449937, -12902.209210659172, -8035.5191869162545, -4414.067198522949, -8077.316949047679, -5820.684828839878, -7879.839286785042, -10993.191420220306, -7745.706468308744, -6851.636690096461, -5749.025136116164, -8500.189602397633, -10301.092004906179, -15098.759841771109, 0.01, 0.23600000000000002, 0.9500000000000001, 192.0, 0.0, 0.0, 0.0, 0.0, 0.0, 0.0, 0.0, 0.0, 0.0, 1.644588416124683E9, 0.0, 2022-02-12 01:06:56.124
114.0, -9975.047108536615, -9491.936503879608, -5483.620522453848, -12893.35791985487, -8024.946811788895, -4408.613372875854, -8083.21780958388, -5818.851985794543, -7869.8704087579745, -10990.486859141214, -7746.15350319785, -6853.4471813973405, -5754.94834839682, -8510.851384502816, -10301.628446773106, -15066.79684720002, 0.01, 0.23600000000000002, 0.9500000000000001, 192.0, 0.0, 0.0, 0.0, 0.0, 0.0, 0.0, 0.0, 0.0, 0.0, 1.64458841613266E9, 0.0, 2022-02-12 01:06:56.132
116.0, -9965.145285742914, -9489.678977689622, -5480.312464274462, -12912.133385197329, -8042.515282930766, -4417.710532869164, -8080.870876416073, -5823.791721319166, -7881.582722852555, -10983.423707893338, -7763.25258770616, -6868.735774604771, -5753.361374540494, -8515.299381649422, -10305.897629964069, -15085.974643942673, 0.004, 0.23, 0.9480000000000001, 192.0, 0.0, 16.0, 3.5, 24.0, 14.5, 80.0, 0.0, 0.0, 0.0, 1.64458841614053E9, 0.0, 2022-02-12 01:06:56.140
118.0, -10012.21805956579, -9511.360169811269, -5485.632179454825, -12907.372463628348, -8042.872910842051, -4418.090512524905, -8089.766870709285, -5824.350514930548, -7885.963664765795, -11003.786147092122, -7763.25258770616, -6865.293605958654, -5763.911397923398, -8513.421835115176, -10311.753787011361, -15104.615998818399, 0.004, 0.23, 0.9480000000000001, 192.0, 0.0, 0.0, 0.0, 0.0, 0.0, 0.0, 0.0, 0.0, 0.0, 1.644588416147014E9, 0.0, 2022-02-12 01:06:56.147
120.0, -10014.252068311223, -9515.986980913518, -5479.172525307242, -12901.829231003432, -8032.434646181423, -4411.2285269771255, -8080.379138038056, -5818.181433460883, -7883.013234497695, -10992.342053931005, -7763.766677828632, -6860.64444311195, -5746.253519803706, -8515.411140371698, -10314.61481030164, -15072.809466458497, 0.004, 0.23, 0.9480000000000001, 192.0, 0.0, 0.0, 0.0, 0.0, 0.0, 0.0, 0.0, 0.0, 0.0, 1.644588416155322E9, 0.0, 2022-02-12 01:06:56.155
122.0, -10006.004274607216, -9505.615771486257, -5483.374653264839, -12919.084777722928, -8039.386038707023, -4411.966134544151, -8080.870876416073, -5818.919041027909, -7894.412624169901, -11003.584981392025, -7753.395468401369, -6855.54824537614, -5748.779266927156, -8506.761015267493, -10308.736301509894, -15112.506164611123, 0.004, 0.23, 0.9480000000000001, 192.0, 0.0, 0.0, 0.0, 0.0, 0.0, 0.0, 0.0, 0.0, 0.0, 1.644588416162134E9, 0.0, 2022-02-12 01:06:56.162
124.0, -9997.823536136573, -9499.558448738868, -5486.123917832842, -12910.300542151994, -8021.459939653867, -4404.433596662712, -8078.300425803713, -5813.733436314277, -7884.9578362653065, -10990.464507396759, -7766.359480185447, -6870.792135094659, -5763.911397923398, -8513.131262437257, -10309.160984654545, -15077.592739771932, 0.004, 0.23, 0.9480000000000001, 192.0, 0.0, 0.0, 0.0, 0.0, 0.0, 0.0, 0.0, 0.0, 0.0, 1.644588416170563E9, 0.0, 2022-02-12 01:06:56.170
126.0, -9968.185122988836, -9497.12210859324, -5475.149211305286, -12917.184879444228, -8030.624154880543, -4411.295582210491, -8071.907826889495, -5811.587668846568, -7888.735281078253, -10985.70358582778, -7766.068907507528, -6865.897103058947, -5757.339985053538, -8510.851384502816, -10308.266914876333, -15093.79775450203, 0.006, 0.234, 0.9500000000000001, 192.0, 0.0, 24.0, 3.5, 40.0, 14.5, 88.0, 0.0, 0.0, 0.0, 1.644588416176718E9, 0.0, 2022-02-12 01:06:56.176
128.0, -10013.156832832914, -9506.465137775558, -5487.733243433624, -12916.916658510765, -8033.194605492903, -4409.686256609709, -8086.659978229997, -5815.029837492685, -7890.344606679036, -11003.584981392025, -7768.39348893088, -6871.082707772578, -5758.56933099858, -8506.693960034128, -10308.266914876333, -15104.057205207017, 0.006, 0.234, 0.9500000000000001, 192.0, 0.0, 0.0, 0.0, 0.0, 0.0, 0.0, 0.0, 0.0, 0.0, 1.644588416184764E9, 0.0, 2022-02-12 01:06:56.184
130.0, -9998.851716381516, -9516.523422780445, -5483.709929431669, -12908.6465130623, -8024.678590855431, -4407.741654842098, -8077.473411258867, -5814.851023537043, -7887.148307221927, -10997.594713878003, -7774.093183766983, -6869.942768805357, -5750.90268265041, -8515.232326416055, -10318.61577255914, -15073.88235019235, 0.006, 0.234, 0.9500000000000001, 192.0, 0.0, 0.0, 0.0, 0.0, 0.0, 0.0, 0.0, 0.0, 0.0, 1.644588416192817E9, 0.0, 2022-02-12 01:06:56.192
132.0, -9988.949893587816, -9514.467062290558, -5478.837249140412, -12916.447271877203, -8033.68634387092, -4413.843681078396, -8071.013757111283, -5811.051226979641, -7898.771214338686, -11013.620914652458, -7768.214674975237, -6853.290719186154, -5745.13593258094, -8506.895125734225, -10309.384502099098, -15116.060091979516, 0.006, 0.234, 0.9500000000000001, 192.0, 0.0, 0.0, 0.0, 0.0, 0.0, 0.0, 0.0, 0.0, 0.0, 1.644588416200037E9, 0.0, 2022-02-12 01:06:56.200
134.0, -9991.989730833737, -9501.480698762023, -5477.004406095077, -12906.724263039145, -8019.604744864077, -4401.639628605799, -8071.505495489299, -5800.0988721965405, -7882.677958330865, -11005.104900014985, -7765.241892962682, -6869.69689961635, -5748.1534180824065, -8513.868870004282, -10307.864583476137, -15079.067954905982, 0.006, 0.234, 0.9500000000000001, 192.0, 0.0, 0.0, 0.0, 0.0, 0.0, 0.0, 0.0, 0.0, 0.0, 1.644588416207438E9, 0.0, 2022-02-12 01:06:56.207
136.0, -9983.160791773891, -9501.659512717666, -5471.707042659169, -12912.736882297622, -8026.019695522749, -4396.722244825631, -8067.906864631995, -5797.304904139627, -7891.663359601898, -10984.720109071744, -7761.553855127556, -6859.035117511167, -5743.437200002337, -8497.976779696559, -10307.261086375844, -15092.031966690061, 0.004, 0.232, 0.9500000000000001, 192.0, 0.0, 16.0, 3.5, 32.0, 14.5, 88.0, 0.0, 0.0, 0.0, 1.644588416215529E9, 0.0, 2022-02-12 01:06:56.215
138.0, -9991.721509900273, -9506.822765686842, -5480.938313119211, -12912.826289275443, -8028.768960090752, -4402.936029784207, -8081.116745605082, -5808.369017645004, -7890.344606679036, -11003.383815691926, -7762.358517927947, -6862.387879179464, -5753.696650707323, -8496.367454095776, -10313.51957482333, -15108.281684909069, 0.004, 0.232, 0.9500000000000001, 192.0, 0.0, 0.0, 0.0, 0.0, 0.0, 0.0, 0.0, 0.0, 0.0, 1.644588416223385E9, 0.0, 2022-02-12 01:06:56.223
140.0, -10000.818669893584, -9510.533155266423, -5480.267760785551, -12908.087719450918, -8026.4443786674, -4402.913678039751, -8082.390795039034, -5804.5021658542355, -7880.643949585432, -10980.048594480586, -7765.8006865740645, -6866.902931559436, -5743.258386046695, -8509.77850076896, -10313.89955447907, -15082.286606107547, 0.004, 0.232, 0.9500000000000001, 192.0, 0.0, 0.0, 0.0, 0.0, 0.0, 0.0, 0.0, 0.0, 0.0, 1.644588416237102E9, 0.0, 2022-02-12 01:06:56.237
142.0, -9995.36484424649, -9499.6925592056, -5485.565124221459, -12921.990504502119, -8025.72912284483, -4404.4783001516225, -8079.865047915584, -5804.837442021066, -7897.430109671368, -11013.50915593018, -7759.855122548953, -6858.096344244045, -5726.874557360954, -8504.861116988792, -10313.407816101053, -15124.196126961248, 0.004, 0.232, 0.9500000000000001, 192.0, 0.0, 0.0, 0.0, 0.0, 0.0, 0.0, 0.0, 0.0, 0.0, 1.644588416245215E9, 0.0, 2022-02-12 01:06:56.245
144.0, -10003.702044928319, -9501.12307085074, -5488.202630067186, -12916.6484375773, -8022.085788498615, -4402.980733273117, -8086.950550907916, -5817.443825893859, -7886.544810121633, -10999.874591812444, -7766.135962740895, -6877.318844475609, -5751.5508832396135, -8504.212916399589, -10311.37380735562, -15092.054318434515, 0.004, 0.232, 0.9500000000000001, 192.0, 0.0, 0.0, 0.0, 0.0, 0.0, 0.0, 0.0, 0.0, 0.0, 1.644588416252231E9, 0.0, 2022-02-12 01:06:56.252
146.0, -9992.302655256111, -9506.912172664664, -5480.781850908023, -12924.672713836755, -8034.848634582596, -4405.551183885477, -8078.859219415095, -5810.470081623803, -7894.0549962586165, -10997.41589992236, -7765.778334829609, -6859.750373333737, -5756.222397830773, -8513.667704304184, -10315.285362635299, -15109.891010509851, 0.002, 0.232, 0.9460000000000001, 192.0, 0.0, 8.0, 3.5, 32.0, 14.5, 72.0, 0.0, 0.0, 0.0, 1.64458841626023E9, 0.0, 2022-02-12 01:06:56.260
148.0, -10018.431844524366, -9533.890728222219, -5495.712816204169, -12923.376312658349, -8038.000230550794, -4406.780529830519, -8087.531696263754, -5806.111491455018, -7903.353321952024, -11014.090301286018, -7774.853143078464, -6871.105059517034, -5765.498371779725, -8507.990361212536, -10317.833461503204, -15120.03870249256, 0.002, 0.232, 0.9460000000000001, 192.0, 0.0, 0.0, 0.0, 0.0, 0.0, 0.0, 0.0, 0.0, 0.0, 1.644588416267613E9, 0.0, 2022-02-12 01:06:56.267
150.0, -10021.046998625636, -9520.5467367824, -5490.683673701725, -12913.295675909005, -8035.3403729606125, -4402.377236172823, -8090.906809676506, -5807.653761822434, -7898.145365493938, -11000.455737168282, -7777.982387302207, -6871.127411261489, -5759.977490899264, -8512.594820570328, -10324.22606041742, -15091.406117845312, 0.002, 0.232, 0.9460000000000001, 192.0, 0.0, 0.0, 0.0, 0.0, 0.0, 0.0, 0.0, 0.0, 0.0, 1.644588416275798E9, 0.0, 2022-02-12 01:06:56.275
152.0, -10004.663169939897, -9518.132748381227, -5492.8964964028, -12925.499728381603, -8042.917614330961, -4407.540489141999, -8095.667731245486, -5808.5478316006465, -7911.846984845041, -11007.943571560809, -7771.545084899079, -6867.193504237355, -5759.776325199166, -8505.509317577997, -10325.969496484935, -15130.119339241905, 0.002, 0.232, 0.9460000000000001, 192.0, 0.0, 0.0, 0.0, 0.0, 0.0, 0.0, 0.0, 0.0, 0.0, 1.644588416282304E9, 0.0, 2022-02-12 01:06:56.282
154.0, -10015.280248556168, -9507.448614531591, -5497.411548782772, -12922.12461496885, -8029.5289194022325, -4405.260611207558, -8097.791146968741, -5811.900593268942, -7902.928638807373, -11020.527603689146, -7776.462468679246, -6877.654120642438, -5744.890063391932, -8512.751282781515, -10329.590479086695, -15100.033891205061, 0.004, 0.233, 0.9490000000000001, 192.0, 0.0, 24.0, 3.5, 40.0, 14.5, 96.0, 0.0, 0.0, 0.0, 1.644588416289293E9, 0.0, 2022-02-12 01:06:56.289
156.0, -10012.262763054701, -9523.966553684062, -5485.185144565719, -12933.926336041253, -8033.105198515082, -4407.227564719626, -8087.1740683524695, -5809.643067078957, -7913.121034278994, -11021.488728700726, -7783.458564693758, -6882.1468212779555, -5757.831723431555, -8518.607439828807, -10326.66240056305, -15115.546001857043, 0.004, 0.233, 0.9490000000000001, 192.0, 0.0, 0.0, 0.0, 0.0, 0.0, 0.0, 0.0, 0.0, 0.0, 1.644588416297314E9, 0.0, 2022-02-12 01:06:56.297
158.0, -10024.444463782844, -9546.228891161549, -5498.082101116432, -12936.921469798264, -8037.888471828517, -4409.798015331986, -8091.242085843335, -5814.180471203384, -7916.831423858574, -11029.647115426913, -7790.521715941634, -6886.483059702285, -5764.42548804587, -8513.555945581908, -10329.121092453133, -15131.147519486847, 0.004, 0.233, 0.9490000000000001, 192.0, 0.0, 0.0, 0.0, 0.0, 0.0, 0.0, 0.0, 0.0, 0.0, 1.644588416305308E9, 0.0, 2022-02-12 01:06:56.305
160.0, -10022.164585848403, -9525.128844395738, -5497.791528438513, -12925.7008940817, -8032.702867114886, -4404.455948407167, -8086.771736952274, -5805.776215288189, -7911.0199703001945, -11010.871650084455, -7791.169916530838, -6887.846516114058, -5770.885142193454, -8514.53942233794, -10336.273650678831, -15100.771498772086, 0.004, 0.233, 0.9490000000000001, 192.0, 0.0, 0.0, 0.0, 0.0, 0.0, 0.0, 0.0, 0.0, 0.0, 1.644588416311985E9, 0.0, 2022-02-12 01:06:56.311
162.0, -10015.950800889826, -9505.906344164176, -5497.366845293862, -12935.535661642036, -8039.833073596129, -4401.796090816986, -8086.9952543968275, -5801.395273374948, -7924.073389062094, -11018.583001921535, -7783.9950065606845, -6871.283873472676, -5768.42645030337, -8505.598724555817, -10333.010295988357, -15139.305906213034, 0.004, 0.233, 0.9490000000000001, 192.0, 0.0, 0.0, 0.0, 0.0, 0.0, 0.0, 0.0, 0.0, 0.0, 1.644588416319926E9, 0.0, 2022-02-12 01:06:56.319
164.0, -10016.777815434672, -9505.906344164176, -5500.920772662255, -12927.936068527231, -8027.830186823629, -4398.666846593243, -8090.236257342846, -5803.809261776121, -7912.405778456424, -11007.831812838533, -7794.5003264546785, -6876.491829930763, -5755.99888038622, -8506.470442589574, -10333.971420999935, -15105.75593778562, 0.007, 0.23450000000000001, 0.9515, 192.0, 0.0, 40.0, 3.5, 48.0, 14.5, 104.0, 0.0, 0.0, 0.0, 1.644588416327916E9, 0.0, 2022-02-12 01:06:56.327
166.0, -10011.748672932228, -9521.574917027345, -5490.214287068163, -12934.261612208084, -8037.463788683866, -4401.617276861343, -8084.290693317735, -5798.713064040311, -7923.805168128631, -11016.169013520363, -7782.631550148911, -6875.977739808291, -5772.785040472155, -8522.049608474923, -10336.720685567938, -15124.12907172788, 0.007, 0.23450000000000001, 0.9515, 192.0, 0.0, 0.0, 0.0, 0.0, 0.0, 0.0, 0.0, 0.0, 0.0, 1.644588416334998E9, 0.0, 2022-02-12 01:06:56.334
168.0, -10035.530929032675, -9543.926661482652, -5499.154984850286, -12936.407379675793, -8038.02258229525, -4402.578401872922, -8090.482126531855, -5803.742206542755, -7926.688543163365, -11044.198101067317, -7783.8161926050425, -6872.1108880175225, -5768.471153792281, -8511.857213003304, -10336.81009254576, -15137.383656189879, 0.007, 0.23450000000000001, 0.9515, 192.0, 0.0, 0.0, 0.0, 0.0, 0.0, 0.0, 0.0, 0.0, 0.0, 1.6445884163426E9, 0.0, 2022-02-12 01:06:56.342
170.0, -10018.543603246642, -9533.108417166284, -5496.092795859909, -12941.458873922691, -8034.334544460124, -4398.800957059974, -8091.152678865515, -5805.932677499375, -7921.9946768277505, -11030.250612527207, -7790.700529897276, -6885.186658523877, -5767.33121482506, -8518.20510842861, -10337.57005185724, -15107.588780830954, 0.007, 0.23450000000000001, 0.9515, 192.0, 0.0, 0.0, 0.0, 0.0, 0.0, 0.0, 0.0, 0.0, 0.0, 1.644588416357504E9, 0.0, 2022-02-12 01:06:56.357
172.0, -10024.623277738487, -9519.250335603992, -5496.115147604364, -12954.46758919568, -8041.040067796715, -4398.756253571064, -8090.035091642749, -5800.121223940996, -7938.110284580027, -11040.957098121298, -7798.344826500992, -6886.84068761357, -5778.350624841527, -8514.45001536012, -10334.105531466668, -15147.911327828328, 0.007, 0.23450000000000001, 0.9515, 192.0, 0.0, 0.0, 0.0, 0.0, 0.0, 0.0, 0.0, 0.0, 0.0, 1.644588416364158E9, 0.0, 2022-02-12 01:06:56.364
174.0, -10025.874975427983, -9531.78966424342, -5502.463043029671, -12941.861205322886, -8029.260698468769, -4393.838869790897, -8086.83879218564, -5799.115395440507, -7922.866394861508, -11027.099016559008, -7801.272905024637, -6884.851382357047, -5759.441049032337, -8515.053512460412, -10333.949069255481, -15116.909458268818, 0.0085, 0.23325, 0.9517500000000001, 192.0, 0.0, 40.0, 3.5, 32.0, 14.5, 96.0, 0.0, 0.0, 0.0, 1.644588416372347E9, 0.0, 2022-02-12 01:06:56.372
176.0, -10011.860431654506, -9525.575879284845, -5495.757519693079, -12945.482187924646, -8038.648431139998, -4393.704759324165, -8085.07300437367, -5799.920058240898, -7921.748807638742, -11026.18259503634, -7794.723843899232, -6878.995225309757, -5775.534305040158, -8514.762939782493, -10336.85479603467, -15129.4711386527, 0.0085, 0.23325, 0.9517500000000001, 192.0, 0.0, 0.0, 0.0, 0.0, 0.0, 0.0, 0.0, 0.0, 0.0, 1.644588416380176E9, 0.0, 2022-02-12 01:06:56.380
178.0, -10033.183995864869, -9527.140501396716, -5500.429034284239, -12947.404437947804, -8036.189739249914, -4395.58230585841, -8092.538487021743, -5799.6294855629785, -7929.460159475823, -11037.47022598627, -7788.755928129665, -6884.918437590413, -5768.649967747923, -8508.124471679268, -10335.267822178343, -15142.278688225591, 0.0085, 0.23325, 0.9517500000000001, 192.0, 0.0, 0.0, 0.0, 0.0, 0.0, 0.0, 0.0, 0.0, 0.0, 1.644588416387217E9, 0.0, 2022-02-12 01:06:56.387
180.0, -10044.918661703905, -9540.12686492525, -5497.746824949601, -12943.6046413904, -8032.613460137065, -4390.575515100421, -8087.196420096925, -5796.030854705675, -7929.795435642653, -11033.312801517583, -7790.946399086285, -6889.344082992564, -5764.783115957155, -8514.91940199368, -10340.743999569893, -15112.662626822308, 0.0085, 0.23325, 0.9517500000000001, 192.0, 0.0, 0.0, 0.0, 0.0, 0.0, 0.0, 0.0, 0.0, 0.0, 1.644588416394991E9, 0.0, 2022-02-12 01:06:56.394
182.0, -10036.402647066432, -9541.110341681284, -5501.501918018093, -12953.975850817664, -8038.760189862274, -4392.96715175714, -8086.816440441185, -5795.181488416372, -7948.012107373728, -11054.14462734993, -7793.025111320629, -6889.455841714841, -5769.3428718260375, -8514.964105482592, -10338.844101291192, -15152.672249397308, 0.0085, 0.23325, 0.9517500000000001, 192.0, 0.0, 0.0, 0.0, 0.0, 0.0, 0.0, 0.0, 0.0, 0.0, 1.644588416402858E9, 0.0, 2022-02-12 01:06:56.402
184.0, -10045.835083226571, -9539.45631259159, -5510.353208822395, -12941.302411711504, -8028.813663579663, -4387.692140065687, -8088.381062553056, -5797.707235539822, -7940.501921236744, -11044.063990600585, -7804.40214924838, -6892.540382449673, -5774.0367381616525, -8514.874698504771, -10341.414551903552, -15118.496432125145, 0.01125, 0.23362500000000003, 0.951875, 192.0, 0.0, 56.0, 3.5, 40.0, 14.5, 96.0, 0.0, 0.0, 0.0, 1.644588416409971E9, 0.0, 2022-02-12 01:06:56.409
186.0, -10034.949783676837, -9547.681754551144, -5506.262839587073, -12953.46176069519, -8034.938041560417, -4385.926352253718, -8083.59778923962, -5788.498316824236, -7951.09664810856, -11043.482845244747, -7801.854050380475, -6882.3256352335975, -5767.465325291792, -8519.032122973458, -10345.259051949866, -15132.689789854265, 0.01125, 0.23362500000000003, 0.951875, 192.0, 0.0, 0.0, 0.0, 0.0, 0.0, 0.0, 0.0, 0.0, 0.0, 1.644588416416938E9, 0.0, 2022-02-12 01:06:56.416
188.0, -10031.2170423528, -9548.41936211817, -5515.561165280481, -12956.300432241016, -8033.887509571017, -4392.184840701204, -8093.343149822134, -5797.52842158418, -7947.967403884817, -11060.112543119496, -7806.033826593617, -6890.394614981964, -5759.508104265703, -8509.286762390944, -10343.247394948889, -15146.994906305661, 0.01125, 0.23362500000000003, 0.951875, 192.0, 0.0, 0.0, 0.0, 0.0, 0.0, 0.0, 0.0, 0.0, 0.0, 1.644588416424744E9, 0.0, 2022-02-12 01:06:56.424
190.0, -10058.821446755106, -9550.945109241618, -5513.2365838571295, -12954.84756885142, -8036.547367161199, -4388.049767976972, -8098.014664413294, -5799.696540796344, -7947.162741084426, -11051.909452904398, -7812.985219119218, -6899.961161608835, -5780.451688820325, -8515.858175260804, -10354.959709043469, -15118.027045491583, 0.01125, 0.23362500000000003, 0.951875, 192.0, 0.0, 0.0, 0.0, 0.0, 0.0, 0.0, 0.0, 0.0, 0.0, 1.644588416432574E9, 0.0, 2022-02-12 01:06:56.432
192.0, -10060.475475844798, -9566.725440827066, -5511.917830934266, -12967.453952724214, -8046.873873099551, -4391.357826156357, -8096.941780679439, -5805.038607721163, -7968.7768779727085, -11076.742240994245, -7811.510003985168, -6901.79400465417, -5786.061976678608, -8515.098215949323, -10357.776028844837, -15164.786894892086, 0.01125, 0.23362500000000003, 0.951875, 192.0, 0.0, 0.0, 0.0, 0.0, 0.0, 0.0, 0.0, 0.0, 0.0, 1.644588416440413E9, 0.0, 2022-02-12 01:06:56.440
194.0, -10092.19260122688, -9584.003339291017, -5516.254069358596, -12964.61528117839, -8030.087713013615, -4389.368520899835, -8089.655111987008, -5798.467194851303, -7966.72051748282, -11076.071688660586, -7827.73737045972, -6916.434397272396, -5779.088232408551, -8521.06613171889, -10354.780895087826, -15135.439054422266, 0.011625, 0.23181250000000003, 0.9509375, 192.0, 0.0, 48.0, 3.5, 24.0, 14.5, 88.0, 0.0, 0.0, 0.0, 1.644588416447125E9, 0.0, 2022-02-12 01:06:56.447
196.0, -10104.933095566405, -9611.585391948867, -5507.648647743303, -12971.253749281615, -8028.97012579085, -4381.925389996218, -8078.970978137372, -5791.649912792434, -7966.38524131599, -11081.793735241145, -7821.814158179064, -6922.491720019784, -5777.098927152029, -8518.048646217423, -10345.594328116695, -15146.257298738636, 0.011625, 0.23181250000000003, 0.9509375, 192.0, 0.0, 0.0, 0.0, 0.0, 0.0, 0.0, 0.0, 0.0, 0.0, 1.644588416455426E9, 0.0, 2022-02-12 01:06:56.455
198.0, -10151.737648455817, -9648.890453444774, -5516.499938547604, -12969.286795769549, -8024.544480388699, -4380.897209751273, -8079.909751404495, -5786.285494123161, -7989.564000316143, -11107.67705532039, -7836.901585686396, -6929.733685223304, -5770.326348582072, -8515.25467816051, -10345.057886249768, -15158.014316322127, 0.011625, 0.23181250000000003, 0.9509375, 192.0, 0.0, 0.0, 0.0, 0.0, 0.0, 0.0, 0.0, 0.0, 0.0, 1.644588416463059E9, 0.0, 2022-02-12 01:06:56.463
200.0, -10181.286654625734, -9662.994404196073, -5515.8517379584, -12971.007880092608, -8015.4920238843, -4374.0128724590395, -8070.11968733307, -5780.697558009334, -7990.860401494551, -11107.185316942372, -7862.606091809999, -6946.050458675678, -5763.509066523203, -8523.703637564617, -10342.442732148496, -15122.765615316108, 0.011625, 0.23181250000000003, 0.9509375, 192.0, 0.0, 0.0, 0.0, 0.0, 0.0, 0.0, 0.0, 0.0, 0.0, 1.644588416469766E9, 0.0, 2022-02-12 01:06:56.469
202.0, -10200.352692646109, -9686.843715529885, -5521.171453138763, -12989.38101403487, -8026.734951345319, -4373.632892803299, -8070.924350133461, -5779.602322531024, -8010.686398826409, -11122.473910149803, -7859.543902819622, -6962.702508294882, -5778.887066708454, -8509.666742046684, -10343.940299027003, -15164.51867395862, 0.011625, 0.23181250000000003, 0.9509375, 192.0, 0.0, 0.0, 0.0, 0.0, 0.0, 0.0, 0.0, 0.0, 0.0, 1.644588416484894E9, 0.0, 2022-02-12 01:06:56.484
204.0, -10234.461454684908, -9734.318820752958, -5530.603889298903, -12978.406307507314, -8017.704846585375, -4369.363709612335, -8075.864085658084, -5783.6032847885235, -8010.082901726116, -11114.203764701339, -7883.326158920069, -6957.5169035812505, -5786.933694712365, -8520.574393340874, -10348.611813618161, -15133.427397421288, 0.0118125, 0.23290625000000004, 0.9494687500000001, 192.0, 0.0, 48.0, 3.5, 40.0, 14.5, 80.0, 0.0, 0.0, 0.0, 1.644588416492773E9, 0.0, 2022-02-12 01:06:56.492
206.0, -10291.391347812576, -9753.876597151351, -5524.635973529336, -12992.6667204698, -8026.5337856452215, -4367.843790989375, -8071.483143744844, -5772.583874772057, -8026.690247856409, -11118.897631036954, -7886.008368254706, -6949.425572088429, -5778.395328330437, -8513.891221748736, -10352.545720642296, -15145.407932449334, 0.0118125, 0.23290625000000004, 0.9494687500000001, 192.0, 0.0, 0.0, 0.0, 0.0, 0.0, 0.0, 0.0, 0.0, 0.0, 1.644588416499282E9, 0.0, 2022-02-12 01:06:56.499
208.0, -10299.594438027672, -9767.622919991365, -5534.828369000956, -12988.911627401309, -8020.074131497638, -4377.9467794831735, -8074.902960646506, -5780.09406090904, -8039.006059051283, -11151.86645410853, -7876.821801283575, -6972.671386321948, -5768.04647064763, -8529.090407978345, -10350.556415385774, -15164.04928732506, 0.0118125, 0.23290625000000004, 0.9494687500000001, 192.0, 0.0, 0.0, 0.0, 0.0, 0.0, 0.0, 0.0, 0.0, 0.0, 1.644588416507601E9, 0.0, 2022-02-12 01:06:56.507
210.0, -10267.586739967674, -9755.910605896785, -5530.358020109895, -12985.737679688655, -8020.878794298029, -4370.973035213117, -8068.242140798824, -5777.948293441331, -8039.87777708504, -11144.378619716004, -7903.286266718658, -6972.805496788681, -5779.959950442309, -8534.723047581083, -10350.914043297058, -15131.885127053873, 0.0118125, 0.23290625000000004, 0.9494687500000001, 192.0, 0.0, 0.0, 0.0, 0.0, 0.0, 0.0, 0.0, 0.0, 0.0, 1.644588416515303E9, 0.0, 2022-02-12 01:06:56.515
212.0, -10280.84132442967, -9759.352774542902, -5531.0285724435535, -12996.265351327105, -8033.708695615375, -4371.3753666133125, -8076.266417058279, -5782.776270243678, -8043.409352708978, -11148.670154651423, -7885.5613333656, -6978.996930002801, -5784.407947588915, -8514.606477571306, -10352.009278775367, -15173.794647907574, 0.0118125, 0.23290625000000004, 0.9494687500000001, 192.0, 0.0, 0.0, 0.0, 0.0, 0.0, 0.0, 0.0, 0.0, 0.0, 1.644588416522463E9, 0.0, 2022-02-12 01:06:56.522
214.0, -10288.217400099922, -9758.011669875583, -5538.918738236277, -12988.151668089828, -8023.024561765738, -4370.034261945994, -8077.1381350920365, -5786.5984185455345, -8032.680515370431, -11148.938375584887, -7874.318405904581, -6960.065002449156, -5792.298113381638, -8525.201204443121, -10350.064677007756, -15139.775292846596, 0.01190625, 0.23345312500000004, 0.945734375, 192.0, 0.0, 48.0, 3.5, 40.0, 14.5, 56.0, 0.0, 0.0, 0.0, 1.644588416529913E9, 0.0, 2022-02-12 01:06:56.529
216.0, -10272.74999293685, -9744.734733669131, -5537.778799269056, -13001.80858395202, -8032.456997925878, -4373.0740991919165, -8076.4899345028325, -5785.994921445242, -8045.152788776492, -11153.185207031394, -7887.260065944203, -6959.305043137675, -5792.298113381638, -8521.535518352452, -10355.00441253238, -15155.019182565116, 0.01190625, 0.23345312500000004, 0.945734375, 192.0, 0.0, 0.0, 0.0, 0.0, 0.0, 0.0, 0.0, 0.0, 0.0, 1.644588416537018E9, 0.0, 2022-02-12 01:06:56.537
218.0, -10249.370068236598, -9731.480149207133, -5537.979964969154, -12998.85815368392, -8030.579451391632, -4379.5337533394995, -8078.479239759356, -5783.759746999711, -8038.380210206535, -11140.265898736227, -7880.129859462961, -6956.354612869574, -5780.205819631317, -8519.836785773849, -10356.412572433064, -15171.671232184319, 0.01190625, 0.23345312500000004, 0.945734375, 192.0, 0.0, 0.0, 0.0, 0.0, 0.0, 0.0, 0.0, 0.0, 0.0, 1.644588416545146E9, 0.0, 2022-02-12 01:06:56.545
220.0, -10222.2126987234, -9716.929163566729, -5527.899328219811, -12992.063223369507, -8021.437587909411, -4375.175163170715, -8072.578379223154, -5777.858886463509, -8028.321925201646, -11139.528291169203, -7877.738222806242, -6964.401240873485, -5780.071709164586, -8527.54813761093, -10354.400915432087, -15142.61396439242, 0.01190625, 0.23345312500000004, 0.945734375, 192.0, 0.0, 0.0, 0.0, 0.0, 0.0, 0.0, 0.0, 0.0, 0.0, 1.644588416552022E9, 0.0, 2022-02-12 01:06:56.552
222.0, -10207.169974704979, -9689.168296953238, -5517.952801937199, -13003.596723508444, -8026.354971689579, -4376.5833230714, -8072.779544923252, -5785.547886556135, -8010.798157548686, -11140.891747580976, -7858.158094663393, -6959.685022793416, -5782.217476632295, -8519.769730540482, -10350.623470619139, -15184.322319546023, 0.01190625, 0.23345312500000004, 0.945734375, 192.0, 0.0, 0.0, 0.0, 0.0, 0.0, 0.0, 0.0, 0.0, 0.0, 1.644588416559833E9, 0.0, 2022-02-12 01:06:56.559
224.0, -10213.674332341472, -9710.178936741226, -5525.462988074182, -12997.606455994423, -8020.789387320207, -4378.013834716539, -8080.736765949341, -5793.750976771233, -8013.323904672135, -11142.322259226115, -7853.955966705796, -6962.613101317061, -5777.456555063314, -8519.63562007375, -10353.171569487044, -15153.119284286415, 0.008, 0.234, 0.9500000000000001, 192.0, 0.0, 32.0, 3.5, 40.0, 14.5, 88.0, 0.0, 0.0, 0.0, 1.644588416567711E9, 0.0, 2022-02-12 01:06:56.567
226.0, -10213.562573619196, -9706.356788439369, -5530.290964876529, -13007.374168321392, -8035.005096793783, -4382.9982737300725, -8074.590036224132, -5784.698520266834, -8028.165462990459, -11140.914099325431, -7873.826667526564, -6956.2875576362085, -5785.033796433663, -8518.92036425118, -10358.692450367505, -15163.736362902686, 0.008, 0.234, 0.9500000000000001, 192.0, 0.0, 0.0, 0.0, 0.0, 0.0, 0.0, 0.0, 0.0, 0.0, 1.644588416575651E9, 0.0, 2022-02-12 01:06:56.575
228.0, -10206.834698538149, -9697.304331934969, -5542.629127815858, -13007.19535436575, -8032.769922348252, -4385.412262131245, -8082.077870616659, -5778.305921352616, -8027.383151934523, -11157.879073367008, -7884.7790223096645, -6958.522732081739, -5774.662587006401, -8532.800797557926, -10357.507807911374, -15174.979290363704, 0.008, 0.234, 0.9500000000000001, 192.0, 0.0, 0.0, 0.0, 0.0, 0.0, 0.0, 0.0, 0.0, 0.0, 1.644588416582241E9, 0.0, 2022-02-12 01:06:56.582
230.0, -10192.998968720314, -9673.186799667692, -5529.374543353862, -13004.177868864283, -8035.362724705068, -4385.121689453326, -8088.448117786422, -5784.564409800102, -8026.39967517849, -11134.543852155668, -7878.878161773463, -6957.695717536893, -5800.680017552379, -8537.78523657146, -10359.452409678986, -15141.786949847574, 0.008, 0.234, 0.9500000000000001, 192.0, 0.0, 0.0, 0.0, 0.0, 0.0, 0.0, 0.0, 0.0, 0.0, 1.644588416591905E9, 0.0, 2022-02-12 01:06:56.591
232.0, -10177.263340623778, -9681.769869538532, -5528.659287531292, -13008.715272988711, -8042.403524208489, -4395.3811401583125, -8090.4597747873995, -5792.655741292923, -8027.4725589123445, -11136.466102178825, -7861.935539476341, -6953.158313412466, -5796.723758783789, -8534.387771414253, -10361.039383535312, -15192.011319638648, 0.008, 0.234, 0.9500000000000001, 192.0, 0.0, 0.0, 0.0, 0.0, 0.0, 0.0, 0.0, 0.0, 0.0, 1.644588416604814E9, 0.0, 2022-02-12 01:06:56.604
234.0, -10194.071852454168, -9668.001194954062, -5536.1918254127295, -12998.634636239367, -8033.082846770627, -4390.10612846686, -8089.476298031366, -5791.33698837006, -8014.1509192169815, -11151.508826197247, -7860.527379575656, -6951.973670956335, -5795.181488416372, -8534.1642539697, -10365.777953359837, -15161.367077990422, 0.006, 0.234, 0.9520000000000001, 192.0, 0.0, 24.0, 3.5, 40.0, 14.5, 96.0, 0.0, 0.0, 0.0, 1.644588416612014E9, 0.0, 2022-02-12 01:06:56.612
236.0, -10171.697756254407, -9655.372459336813, -5534.738962023135, -13013.453842813236, -8042.492931186311, -4390.195535444682, -8084.715376462385, -5786.173735400884, -8017.704846585375, -11146.21146276134, -7849.351507348002, -6951.750153511782, -5791.046415692141, -8537.382905171264, -10372.572883674251, -15175.023993852616, 0.006, 0.234, 0.9520000000000001, 192.0, 0.0, 0.0, 0.0, 0.0, 0.0, 0.0, 0.0, 0.0, 0.0, 1.64458841661994E9, 0.0, 2022-02-12 01:06:56.619
238.0, -10166.467448051864, -9660.066325672427, -5545.311337150495, -13013.09621490195, -8038.693134628908, -4389.457927877656, -8091.711472476897, -5789.347683113538, -8018.598916363588, -11145.20563426085, -7852.100771916005, -6947.27980462072, -5786.061976678608, -8529.157463211712, -10372.23760750742, -15190.96078764925, 0.006, 0.234, 0.9520000000000001, 192.0, 0.0, 0.0, 0.0, 0.0, 0.0, 0.0, 0.0, 0.0, 0.0, 1.644588416627864E9, 0.0, 2022-02-12 01:06:56.627
240.0, -10147.870796665049, -9639.972107407106, -5543.277328405062, -13006.502450287635, -8036.770884605752, -4386.663959820743, -8086.50351601881, -5785.0114446892085, -8009.546459859188, -11126.787796829676, -7869.378670379958, -6947.592729043095, -5799.070691951596, -8533.091370235845, -10375.568017431262, -15152.71695288622, 0.006, 0.234, 0.9520000000000001, 192.0, 0.0, 0.0, 0.0, 0.0, 0.0, 0.0, 0.0, 0.0, 0.0, 1.644588416634853E9, 0.0, 2022-02-12 01:06:56.634
242.0, -10154.53161651273, -9639.681534729187, -5542.673831304769, -13015.711369003222, -8043.521111431255, -4390.910791267252, -8097.634684757553, -5791.649912792434, -8028.21016647937, -11135.39321844497, -7868.08226920155, -6959.327394882131, -5815.34276191506, -8538.88047204977, -10373.712822641472, -15191.363119049445, 0.006, 0.234, 0.9520000000000001, 192.0, 0.0, 0.0, 0.0, 0.0, 0.0, 0.0, 0.0, 0.0, 0.0, 1.644588416642705E9, 0.0, 2022-02-12 01:06:56.642
244.0, -10165.975709673847, -9640.016810896017, -5537.488226591137, -13002.81441245251, -8024.902108299984, -4385.72518655362, -8090.83975444314, -5781.010482431708, -8014.1509192169815, -11149.49716919627, -7865.869446500475, -6961.137886183011, -5794.890915738454, -8538.276974949476, -10371.969386573957, -15162.57407219101, 0.006, 0.23600000000000002, 0.9460000000000001, 192.0, 0.0, 24.0, 3.5, 48.0, 14.5, 72.0, 0.0, 0.0, 0.0, 1.644588416650755E9, 0.0, 2022-02-12 01:06:56.650
246.0, -10135.756151170273, -9631.657258469731, -5524.971249696166, -13003.082633385973, -8025.483253655822, -4385.72518655362, -8074.165353079481, -5779.557619042113, -8007.199526691381, -11129.626468375502, -7840.74608573271, -6926.425627043918, -5789.839421491554, -8522.11666370829, -10366.180284760034, -15173.794647907574, 0.006, 0.23600000000000002, 0.9460000000000001, 192.0, 0.0, 0.0, 0.0, 0.0, 0.0, 0.0, 0.0, 0.0, 0.0, 1.644588416657724E9, 0.0, 2022-02-12 01:06:56.657
248.0, -10151.782351944728, -9631.009057880528, -5538.963441725188, -13009.05054915554, -8038.134341017526, -4394.375311657824, -8096.5618010236985, -5789.928828469376, -8016.296686684691, -11141.361134214538, -7836.387495563924, -6916.501452505762, -5784.832630733566, -8522.273125919477, -10376.909122098581, -15196.10168887397, 0.006, 0.23600000000000002, 0.9460000000000001, 192.0, 0.0, 0.0, 0.0, 0.0, 0.0, 0.0, 0.0, 0.0, 0.0, 1.644588416664094E9, 0.0, 2022-02-12 01:06:56.664
250.0, -10113.04677880368, -9614.133490816772, -5530.983868954643, -13012.448014312748, -8041.531806174733, -4391.536640112, -8101.345074337134, -5798.62365706249, -8011.222840693336, -11129.179433486395, -7849.552673048101, -6938.473217305329, -5804.904497254432, -8532.68903883565, -10393.874096140158, -15170.821865895017, 0.006, 0.23600000000000002, 0.9460000000000001, 192.0, 0.0, 0.0, 0.0, 0.0, 0.0, 0.0, 0.0, 0.0, 0.0, 1.644588416672709E9, 0.0, 2022-02-12 01:06:56.672
252.0, -10120.66872366294, -9610.981894848574, -5533.822540500467, -13021.299305117049, -8049.578434178643, -4401.550221627977, -8105.79307148374, -5808.123148455996, -8012.228669193825, -11141.897576081465, -7855.766458006676, -6942.943566196391, -5809.777177545689, -8525.424721887675, -10393.225895550955, -15214.810098983062, 0.006, 0.23600000000000002, 0.9460000000000001, 192.0, 0.0, 0.0, 0.0, 0.0, 0.0, 0.0, 0.0, 0.0, 0.0, 1.644588416680676E9, 0.0, 2022-02-12 01:06:56.680
254.0, -10128.782406900216, -9608.52320295849, -5537.532930080049, -13010.346950333947, -8035.273317727247, -4391.044901733983, -8110.218716885891, -5808.4360728783695, -8003.265619667247, -11137.807206846144, -7855.632347539944, -6938.987307427801, -5807.296133911149, -8534.767751069994, -10390.498982727408, -15190.223180082225, 0.01, 0.234, 0.9480000000000001, 192.0, 0.0, 40.0, 3.5, 40.0, 14.5, 80.0, 0.0, 0.0, 0.0, 1.644588416687384E9, 0.0, 2022-02-12 01:06:56.687
0.0, -10124.468520220342, -9612.054778582427, -5531.7885317550345, -13019.533517305079, -8032.9934397928055, -4380.4725266066225, -8090.102146876115, -5784.2514853777275, -8005.590201090598, -11113.600267601047, -7839.31557408757, -6935.65689750396, -5790.465270336303, -8526.050570732425, -10383.86051462418, -15189.619682981931, 0.01, 0.234, 0.9480000000000001, 192.0, 0.0, 0.0, 0.0, 0.0, 0.0, 0.0, 0.0, 0.0, 0.0, 1.644588416695175E9, 0.0, 2022-02-12 01:06:56.695
2.0, -10130.078808078624, -9622.515394987511, -5545.400744128317, -13020.025255683096, -8043.92344283145, -4398.599791359877, -8104.384911583056, -5796.276723894683, -8018.621268108042, -11147.954898828853, -7843.182425878338, -6929.80074045667, -5791.046415692141, -8522.250774175021, -10383.882866368636, -15206.3387878345, 0.01, 0.234, 0.9480000000000001, 192.0, 0.0, 0.0, 0.0, 0.0, 0.0, 0.0, 0.0, 0.0, 0.0, 1.644588416702841E9, 0.0, 2022-02-12 01:06:56.702
4.0, -10128.178909799923, -9607.405615735724, -5543.433790616249, -13016.29251435906, -8046.06921029916, -4403.5395268844995, -8103.692007504941, -5807.452596122336, -8014.888526784007, -11134.320334711116, -7849.306803859092, -6934.740475981293, -5810.447729879347, -8538.142864482745, -10395.326959529753, -15178.332052032001, 0.01, 0.234, 0.9480000000000001, 192.0, 0.0, 0.0, 0.0, 0.0, 0.0, 0.0, 0.0, 0.0, 0.0, 1.644588416710301E9, 0.0, 2022-02-12 01:06:56.710
6.0, -10139.779465172227, -9621.330752531381, -5544.551377839015, -13029.994133710163, -8054.115838303071, -4401.729035583619, -8103.379083082567, -5800.344741385548, -8038.3355067176235, -11153.095800053574, -7850.178521892849, -6935.455731803862, -5814.851023537043, -8534.141902225245, -10397.763299675382, -15220.643904285896, 0.01, 0.234, 0.9480000000000001, 192.0, 0.0, 0.0, 0.0, 0.0, 0.0, 0.0, 0.0, 0.0, 0.0, 1.644588416717493E9, 0.0, 2022-02-12 01:06:56.717
8.0, -10124.423816731432, -9613.507641972023, -5548.2841191630505, -13010.793985223054, -8038.424913695445, -4389.860259277852, -8099.065196402693, -5787.425433090381, -8022.06343675416, -11135.214404489328, -7864.640100555433, -6948.263281376753, -5809.173680445395, -8529.135111467256, -10396.936285130536, -15183.24943581217, 0.012, 0.234, 0.9480000000000001, 192.0, 0.0, 48.0, 3.5, 40.0, 14.5, 80.0, 0.0, 0.0, 0.0, 1.644588416732512E9, 0.0, 2022-02-12 01:06:56.732
10.0, -10114.343179982088, -9603.80698487842, -5534.71661027868, -13020.33818010547, -8049.578434178643, -4388.653265077265, -8095.55597252321, -5787.7160057683, -8011.4910616268, -11134.72266611131, -7863.74603077722, -6946.765714498248, -5795.136784927462, -8526.318791665888, -10395.572828718761, -15189.083241115004, 0.012, 0.234, 0.9480000000000001, 192.0, 0.0, 0.0, 0.0, 0.0, 0.0, 0.0, 0.0, 0.0, 0.0, 1.644588416739672E9, 0.0, 2022-02-12 01:06:56.739
12.0, -10128.2906685222, -9612.32299951589, -5540.192787670229, -13023.199203395749, -8044.63869865402, -4390.173183700226, -8104.675484260975, -5792.2310581482725, -8006.104291213071, -11142.255203992749, -7856.1911411513265, -6931.946507924379, -5810.000694990242, -8525.581184098863, -10394.656407196095, -15207.434023312811, 0.012, 0.234, 0.9480000000000001, 192.0, 0.0, 0.0, 0.0, 0.0, 0.0, 0.0, 0.0, 0.0, 0.0, 1.64458841674724E9, 0.0, 2022-02-12 01:06:56.747
14.0, -10105.156613010957, -9615.765168162008, -5538.650517302814, -13019.533517305079, -8039.833073596129, -4387.178049943215, -8097.947609179928, -5791.895781981442, -8008.093596469593, -11129.022971275208, -7848.189216636327, -6937.7356097383035, -5804.6139245765125, -8522.742512553039, -10403.574753233761, -15173.593482207476, 0.012, 0.234, 0.9480000000000001, 192.0, 0.0, 0.0, 0.0, 0.0, 0.0, 0.0, 0.0, 0.0, 0.0, 1.644588416756417E9, 0.0, 2022-02-12 01:06:56.756
16.0, -10121.540441696698, -9606.668008168699, -5542.629127815858, -13024.987342952174, -8055.4122394814785, -4394.464718635645, -8100.853335959117, -5792.789851759655, -8021.884622798518, -11141.271727236715, -7835.493425785712, -6914.869775160525, -5803.0940059535515, -8532.979611513569, -10402.524221244363, -15217.358197850966, 0.012, 0.234, 0.9480000000000001, 192.0, 0.0, 0.0, 0.0, 0.0, 0.0, 0.0, 0.0, 0.0, 0.0, 1.644588416763122E9, 0.0, 2022-02-12 01:06:56.763
18.0, -10111.437453202898, -9602.063548810906, -5543.366735382883, -13017.790081237565, -8040.525977674244, -4383.624122574821, -8102.864992960095, -5794.376825615982, -8006.953657502372, -11134.163872499928, -7845.8646352129745, -6923.072865375622, -5795.6955785388445, -8527.905765522215, -10402.233648566444, -15190.603159737964, 0.006, 0.232, 0.9480000000000001, 192.0, 0.0, 24.0, 3.5, 32.0, 14.5, 80.0, 0.0, 0.0, 0.0, 1.644588416769915E9, 0.0, 2022-02-12 01:06:56.769
20.0, -10108.911706079449, -9590.552400416422, -5534.291927134029, -13029.167119165317, -8045.957451576884, -4386.015759231539, -8088.246952086324, -5786.330197612071, -8008.428872636423, -11125.78196832919, -7850.245577126215, -6924.056342131656, -5808.994866489753, -8526.45290213262, -10400.53491598784, -15200.460279042754, 0.006, 0.232, 0.9480000000000001, 192.0, 0.0, 0.0, 0.0, 0.0, 0.0, 0.0, 0.0, 0.0, 0.0, 1.644588416777913E9, 0.0, 2022-02-12 01:06:56.777
22.0, -10115.237249760301, -9609.461976225612, -5544.797247028023, -13030.7764447661, -8046.270375999257, -4385.702834809164, -8098.84167895814, -5790.174697658384, -8020.051779753182, -11151.978212830809, -7856.548769062611, -6934.762827725748, -5813.778139803188, -8527.794006799937, -10400.467860754474, -15221.046235686093, 0.006, 0.232, 0.9480000000000001, 192.0, 0.0, 0.0, 0.0, 0.0, 0.0, 0.0, 0.0, 0.0, 0.0, 1.644588416784751E9, 0.0, 2022-02-12 01:06:56.784
24.0, -10109.805775857662, -9598.129641786772, -5538.650517302814, -13014.86200271392, -8035.54153866071, -4372.180029413704, -8090.996216654327, -5780.742261498244, -8012.161613960459, -11127.480700907792, -7850.357335848491, -6931.633583502005, -5805.507994354724, -8527.838710288848, -10404.82645092326, -15180.746040433174, 0.006, 0.232, 0.9480000000000001, 192.0, 0.0, 0.0, 0.0, 0.0, 0.0, 0.0, 0.0, 0.0, 0.0, 1.644588416792953E9, 0.0, 2022-02-12 01:06:56.792
26.0, -10116.466595705342, -9596.140336530249, -5539.8575115034, -13026.730779019688, -8038.939003817917, -4374.43755560369, -8090.705643976408, -5781.412813831904, -8020.230593708825, -11140.310602225138, -7836.007515908184, -6916.0767693611115, -5797.550773328635, -8510.314942635887, -10397.338616530731, -15217.291142617602, 0.006, 0.232, 0.9480000000000001, 192.0, 0.0, 0.0, 0.0, 0.0, 0.0, 0.0, 0.0, 0.0, 0.0, 1.644588416799293E9, 0.0, 2022-02-12 01:06:56.799
28.0, -10120.422854473933, -9600.94596158814, -5545.177226683763, -13017.700674259744, -8028.165462990459, -4370.660110790743, -8094.997178911827, -5783.3127121106045, -8009.255887181269, -11134.856776578043, -7842.824797967053, -6928.124359622522, -5792.074595937085, -8513.131262437257, -10400.53491598784, -15189.82084868203, 0.006, 0.23600000000000002, 0.9480000000000001, 192.0, 0.0, 24.0, 3.5, 48.0, 14.5, 80.0, 0.0, 0.0, 0.0, 1.644588416807566E9, 0.0, 2022-02-12 01:06:56.807
30.0, -10108.576429912619, -9593.413423706703, -5538.695220791724, -13031.782273266588, -8030.422989180445, -4371.688291035687, -8083.0613473726935, -5780.09406090904, -8015.91670702895, -11129.022971275208, -7846.691649757821, -6927.632621244505, -5779.803488231121, -8514.74058803804, -10399.216163064977, -15198.381566808412, 0.006, 0.23600000000000002, 0.9480000000000001, 192.0, 0.0, 0.0, 0.0, 0.0, 0.0, 0.0, 0.0, 0.0, 0.0, 1.644588416815375E9, 0.0, 2022-02-12 01:06:56.815
32.0, -10112.152709025468, -9603.605819178321, -5544.484322605649, -13039.471273359213, -8032.859329326074, -4375.085756192894, -8091.130327121059, -5783.558581299613, -8023.449244910389, -11136.44375043437, -7854.671222528365, -6922.961106653346, -5807.519651355702, -8517.691018306139, -10399.037349109334, -15218.63224728492, 0.006, 0.23600000000000002, 0.9480000000000001, 192.0, 0.0, 0.0, 0.0, 0.0, 0.0, 0.0, 0.0, 0.0, 0.0, 1.644588416822198E9, 0.0, 2022-02-12 01:06:56.822
34.0, -10116.846575361084, -9608.165575047204, -5541.757409782102, -13027.535441820079, -8033.596936893098, -4375.510439337545, -8094.79601321173, -5782.418642332393, -8022.845747810095, -11140.176491758406, -7863.835437755041, -6932.170025368932, -5804.680979809878, -8524.240079431544, -10400.601971221206, -15186.825714925018, 0.006, 0.23600000000000002, 0.9480000000000001, 192.0, 0.0, 0.0, 0.0, 0.0, 0.0, 0.0, 0.0, 0.0, 0.0, 1.644588416830098E9, 0.0, 2022-02-12 01:06:56.830
36.0, -10112.443281703387, -9603.538763944956, -5535.565976567981, -13041.43822687128, -8033.373419448545, -4375.085756192894, -8082.971940394872, -5779.267046364194, -8029.841843824607, -11148.714858140333, -7849.731487003743, -6929.778388712214, -5802.825785020088, -8533.359591169308, -10398.523258986863, -15225.047197943593, 0.005, 0.23500000000000001, 0.9450000000000001, 192.0, 0.0, 16.0, 3.5, 40.0, 14.5, 56.0, 0.0, 0.0, 0.0, 1.6445884168381E9, 0.0, 2022-02-12 01:06:56.838
38.0, -10116.556002683164, -9611.026598337485, -5544.0596394609975, -13030.016485454618, -8019.224765208336, -4373.789355014486, -8086.704681718908, -5780.1387643979515, -8022.666933854453, -11152.15702678645, -7852.681917271843, -6927.766731711237, -5784.519706311191, -8527.704599822117, -10395.103442085201, -15193.844162683985, 0.005, 0.23500000000000001, 0.9450000000000001, 192.0, 0.0, 0.0, 0.0, 0.0, 0.0, 0.0, 0.0, 0.0, 0.0, 1.644588416851745E9, 0.0, 2022-02-12 01:06:56.851
40.0, -10112.108005536558, -9605.528069201479, -5543.366735382883, -13039.24775591466, -8029.9983060357945, -4371.643587546777, -8084.111879362093, -5769.365223570493, -8031.048838025194, -11158.34846000057, -7855.453533584301, -6944.083505163611, -5789.19122090235, -8521.915498008191, -10398.523258986863, -15205.824697712029, 0.005, 0.23500000000000001, 0.9450000000000001, 192.0, 0.0, 0.0, 0.0, 0.0, 0.0, 0.0, 0.0, 0.0, 0.0, 1.644588416859647E9, 0.0, 2022-02-12 01:06:56.859
42.0, -10126.301363265678, -9607.651484924732, -5551.949805253721, -13043.986325739184, -8025.036218766716, -4368.044956689472, -8087.55404800821, -5775.9142846958985, -8035.5191869162545, -11165.88099788201, -7865.109487188994, -6945.290499364198, -5794.846212249543, -8523.860099775804, -10400.82548866576, -15226.522413077642, 0.005, 0.23500000000000001, 0.9450000000000001, 192.0, 0.0, 0.0, 0.0, 0.0, 0.0, 0.0, 0.0, 0.0, 0.0, 1.644588416867734E9, 0.0, 2022-02-12 01:06:56.867
44.0, -10130.81641564565, -9614.491118728056, -5546.093648206431, -13041.549985593556, -8025.147977488992, -4369.542523567978, -8088.2916555752345, -5778.484735308259, -8025.706771100376, -11147.507863939747, -7864.9977284667175, -6941.557758040161, -5808.346665900549, -8524.575355598374, -10407.083977113245, -15193.486534772699, 0.005, 0.23500000000000001, 0.9450000000000001, 192.0, 0.0, 0.0, 0.0, 0.0, 0.0, 0.0, 0.0, 0.0, 0.0, 1.644588416874598E9, 0.0, 2022-02-12 01:06:56.874
46.0, -10137.365476771054, -9614.267601283504, -5543.545549338526, -13055.139846222382, -8039.184873006925, -4376.896247493773, -8093.678425988964, -5781.85984872101, -8035.407428193978, -11149.385410473993, -7851.765495749176, -6930.091313134589, -5798.757767529222, -8520.641448574239, -10407.463956768985, -15237.564174838564, 0.0035, 0.23650000000000002, 0.9455, 192.0, 0.0, 8.0, 3.5, 56.0, 14.5, 72.0, 0.0, 0.0, 0.0, 1.644588416882387E9, 0.0, 2022-02-12 01:06:56.882
48.0, -10133.364514513554, -9611.317171015402, -5550.295776164028, -13046.690886818276, -8028.031352523727, -4378.349110883369, -8095.265399845291, -5784.698520266834, -8038.715486373364, -11157.901425111464, -7860.9520627203065, -6948.553854054672, -5782.61980803249, -8536.086503992856, -10406.72634920196, -15213.223125126735, 0.0035, 0.23650000000000002, 0.9455, 192.0, 0.0, 0.0, 0.0, 0.0, 0.0, 0.0, 0.0, 0.0, 0.0, 1.644588416890282E9, 0.0, 2022-02-12 01:06:56.890
50.0, -10122.1886422859, -9616.726293173588, -5551.547473853526, -13053.888148532886, -8038.000230550794, -4376.873895749319, -8096.427690556967, -5782.463345821303, -8045.421009709956, -11167.512675227246, -7874.139591948938, -6942.250662118276, -5816.1250729709955, -8542.07677150688, -10409.63207598115, -15220.018055441149, 0.0035, 0.23650000000000002, 0.9455, 192.0, 0.0, 0.0, 0.0, 0.0, 0.0, 0.0, 0.0, 0.0, 0.0, 1.644588416898329E9, 0.0, 2022-02-12 01:06:56.898
52.0, -10133.72214242484, -9628.729179946087, -5553.849703532423, -13055.810398556043, -8030.512396158266, -4378.4832213501, -8090.772699209774, -5784.5420580556465, -8050.092524301115, -11182.6895097124, -7875.637158827443, -6949.917310466446, -5810.492433368258, -8534.901861536726, -10409.945000403524, -15238.279430661134, 0.0035, 0.23650000000000002, 0.9455, 192.0, 0.0, 0.0, 0.0, 0.0, 0.0, 0.0, 0.0, 0.0, 0.0, 1.644588416905422E9, 0.0, 2022-02-12 01:06:56.905
54.0, -10136.829034904127, -9626.42695026719, -5550.005203486109, -13049.127226963905, -8022.085788498615, -4373.208209658648, -8085.1177078625815, -5782.284531865661, -8042.02354455275, -11162.394125746981, -7873.3349291485465, -6957.002813458778, -5815.700389826345, -8535.415951659197, -10407.910991658091, -15203.857744199962, 0.0035, 0.23650000000000002, 0.9455, 192.0, 0.0, 0.0, 0.0, 0.0, 0.0, 0.0, 0.0, 0.0, 0.0, 1.644588416912152E9, 0.0, 2022-02-12 01:06:56.912
56.0, -10121.853366119072, -9610.80308089293, -5546.205406928708, -13056.77152356762, -8027.941945545906, -4377.678558549709, -8087.21877184138, -5783.200953388328, -8048.103219044593, -11162.528236213713, -7857.88987372993, -6946.318679609142, -5799.271857651694, -8526.966992255091, -10406.592238735228, -15244.537919108621, 7.5E-4, 0.23725000000000002, 0.9477500000000001, 192.0, 127.5, 120.0, 3.5, 56.0, 14.5, 88.0, 0.0, 0.0, 0.0, 1.644588416920007E9, 0.0, 2022-02-12 01:06:56.920
58.0, -10124.066188820147, -9617.173328062694, -5558.409459401305, -13043.829863527997, -8018.151881474481, -4374.370500370324, -8088.5822282531535, -5778.909418452909, -8041.777675363741, -11159.644861178978, -7862.360222620991, -6955.1699704134435, -5777.836534719055, -8531.25852719051, -10409.363855047686, -15217.000569939682, 7.5E-4, 0.23725000000000002, 0.9477500000000001, 192.0, 0.0, 0.0, 0.0, 0.0, 0.0, 0.0, 0.0, 0.0, 0.0, 1.644588416928067E9, 0.0, 2022-02-12 01:06:56.928
60.0, -10134.124473825035, -9605.505717457023, -5546.495979606626, -13048.031991485595, -8027.718428101352, -4374.459907348145, -8086.436460785444, -5777.635369018957, -8042.917614330961, -11160.538930957191, -7865.645929055921, -6940.060191161656, -5809.844232779054, -8527.704599822117, -10411.979009148958, -15225.360122365968, 7.5E-4, 0.23725000000000002, 0.9477500000000001, 192.0, 0.0, 0.0, 0.0, 0.0, 0.0, 0.0, 0.0, 0.0, 0.0, 1.644588416934489E9, 0.0, 2022-02-12 01:06:56.934
62.0, -10150.798875188693, -9634.562985248922, -5554.676718077269, -13051.496511876168, -8028.612497879565, -4374.4822590926005, -8093.834888200151, -5779.647026019934, -8047.387963222023, -11170.641919450989, -7857.867521985474, -6934.9192899369355, -5800.300037896638, -8526.251736432521, -10407.016921879878, -15242.481558618732, 7.5E-4, 0.23725000000000002, 0.9477500000000001, 192.0, 0.0, 0.0, 0.0, 0.0, 0.0, 0.0, 0.0, 0.0, 0.0, 1.644588416942592E9, 0.0, 2022-02-12 01:06:56.942
64.0, -10127.664819677451, -9631.657258469731, -5550.742811053135, -13050.401276397859, -8023.20337572138, -4367.57557005591, -8088.805745697707, -5777.076575407574, -8043.655221897987, -11163.914044369942, -7872.932597748351, -6946.721011009337, -5807.765520544711, -8525.1117974653, -10413.878907427657, -15209.289218102602, 7.5E-4, 0.23725000000000002, 0.9477500000000001, 192.0, 0.0, 0.0, 0.0, 0.0, 0.0, 0.0, 0.0, 0.0, 0.0, 1.644588416950513E9, 0.0, 2022-02-12 01:06:56.950
66.0, -10131.419912745943, -9622.470691498602, -5556.24134018914, -13055.609232855944, -8037.061457283671, -4375.577494570911, -8091.443251543433, -5771.354528827015, -8053.378230736045, -11182.778916690222, -7868.305786646103, -6946.60925228706, -5805.507994354724, -8518.83095727336, -10413.364817305186, -15249.835282544529, 0.002375, 0.23662500000000003, 0.9488750000000001, 192.0, 0.0, 16.0, 3.5, 48.0, 14.5, 88.0, 0.0, 0.0, 0.0, 1.644588416957628E9, 0.0, 2022-02-12 01:06:56.957
68.0, -10130.928174367926, -9624.683514199676, -5564.086802492953, -13050.87066303142, -8026.287916456213, -4380.316064395436, -8095.801841712218, -5787.805412746122, -8046.292727743713, -11178.107402099062, -7884.264932187192, -6943.435304574407, -5796.120261683495, -8531.392637657242, -10415.130605117156, -15228.019979956149, 0.002375, 0.23662500000000003, 0.9488750000000001, 192.0, 0.0, 0.0, 0.0, 0.0, 0.0, 0.0, 0.0, 0.0, 0.0, 1.644588416965203E9, 0.0, 2022-02-12 01:06:56.965
70.0, -10124.133244053513, -9618.693246685654, -5554.00616574361, -13068.662651617844, -8028.947774046394, -4378.729090539109, -8092.359673066101, -5777.680072507867, -8053.400582480501, -11164.003451347764, -7881.538019363645, -6960.690851293904, -5805.57504958809, -8534.432474903164, -10418.326904574264, -15238.190023683313, 0.002375, 0.23662500000000003, 0.9488750000000001, 192.0, 0.0, 0.0, 0.0, 0.0, 0.0, 0.0, 0.0, 0.0, 0.0, 1.6445884169801E9, 0.0, 2022-02-12 01:06:56.980
72.0, -10157.906729925482, -9629.66795321321, -5558.185941956752, -13068.483837662201, -8034.289840971213, -4378.706738794654, -8094.639551000542, -5776.629540518468, -8059.212036038881, -11184.83527718011, -7871.077402958561, -6960.087354193611, -5810.157157201428, -8536.31002143741, -10417.611648751694, -15257.703096592797, 0.002375, 0.23662500000000003, 0.9488750000000001, 192.0, 0.0, 0.0, 0.0, 0.0, 0.0, 0.0, 0.0, 0.0, 0.0, 1.644588416986859E9, 0.0, 2022-02-12 01:06:56.986
74.0, -10153.168160100957, -9647.236424355082, -5557.493037878638, -13057.419724156825, -8027.137282745515, -4374.906942237251, -8088.962207908894, -5769.566389270591, -8054.719335403363, -11168.809076405654, -7875.659510571899, -6954.588825057605, -5807.4972996112465, -8544.580166885873, -10419.466843541484, -15219.615724040954, 0.002375, 0.23662500000000003, 0.9488750000000001, 192.0, 0.0, 0.0, 0.0, 0.0, 0.0, 0.0, 0.0, 0.0, 0.0, 1.644588416994917E9, 0.0, 2022-02-12 01:06:56.994
76.0, -10136.091427337102, -9624.772921177499, -5556.978947756165, -13072.082468519506, -8037.955527061883, -4380.539581839988, -8092.091452132637, -5774.819049217588, -8058.273262771758, -11189.059756882163, -7874.139591948938, -6958.053345448178, -5804.837442021066, -8529.06805623389, -10419.086863885745, -15260.988803027727, 0.002375, 0.23662500000000003, 0.9488750000000001, 192.0, 0.0, 0.0, 3.5, 32.0, 14.5, 72.0, 0.0, 0.0, 0.0, 1.644588417002841E9, 0.0, 2022-02-12 01:06:57.002
78.0, -10144.450979763387, -9629.66795321321, -5566.813715316501, -13052.837616543487, -8033.909861315473, -4386.418090631734, -8107.692969762442, -5787.604247046023, -8056.619233682065, -11175.045213108686, -7880.0851559740495, -6961.830790261125, -5793.4604040933145, -8542.859082562814, -10427.53582328985, -15240.626363828942, 0.002375, 0.23662500000000003, 0.9488750000000001, 192.0, 0.0, 0.0, 0.0, 0.0, 0.0, 0.0, 0.0, 0.0, 0.0, 1.64458841700992E9, 0.0, 2022-02-12 01:06:57.009
80.0, -10137.901918637983, -9638.921575417708, -5561.315186180495, -13065.846331816476, -8038.1566927619815, -4383.981750486106, -8090.482126531855, -5785.994921445242, -8062.676556429453, -11173.659404952456, -7879.347548407024, -6945.312851108653, -5817.980267760786, -8547.485893665063, -10429.547480290828, -15246.281355176134, 0.002375, 0.23662500000000003, 0.9488750000000001, 192.0, 0.0, 0.0, 0.0, 0.0, 0.0, 0.0, 0.0, 0.0, 0.0, 1.644588417017454E9, 0.0, 2022-02-12 01:06:57.017
82.0, -10148.451942020887, -9659.306366360946, -5571.708747352212, -13067.075677761517, -8033.909861315473, -4386.529849354011, -8093.097280633126, -5784.407947588915, -8068.823286154662, -11205.465937312358, -7890.344606679036, -6958.075697192633, -5814.135767714473, -8542.613213373807, -10426.798215722825, -15266.822608330562, 0.002375, 0.23662500000000003, 0.9488750000000001, 192.0, 0.0, 0.0, 0.0, 0.0, 0.0, 0.0, 0.0, 0.0, 0.0, 1.644588417025441E9, 0.0, 2022-02-12 01:06:57.025
84.0, -10162.712354983372, -9627.164557834216, -5564.332671681961, -13064.616985871433, -8025.818529822652, -4376.225695160115, -8088.4034142975115, -5773.433241061359, -8061.201341295403, -11192.837201695109, -7893.026816013672, -6965.51882809625, -5814.292229925661, -8549.899882066236, -10427.379361078663, -15229.696360790296, 0.002375, 0.23662500000000003, 0.9488750000000001, 192.0, 0.0, 0.0, 0.0, 0.0, 0.0, 0.0, 0.0, 0.0, 0.0, 1.64458841703247E9, 0.0, 2022-02-12 01:06:57.032
86.0, -10153.168160100957, -9662.279148373504, -5565.740831582646, -13071.098991763472, -8033.194605492903, -4382.193610929681, -8090.616236998587, -5769.298168337127, -8076.109954847093, -11201.867306455053, -7884.46609788729, -6962.367232128052, -5809.821881034599, -8538.25462320502, -10426.641753511638, -15263.425143173356, 0.0041875, 0.23531250000000004, 0.9484375, 192.0, 0.0, 24.0, 3.5, 40.0, 14.5, 80.0, 0.0, 0.0, 0.0, 1.644588417039559E9, 0.0, 2022-02-12 01:06:57.039
88.0, -10152.609366489574, -9656.557101792945, -5569.250055462129, -13061.219520714227, -8022.264602454258, -4382.774756285519, -8096.606504512609, -5775.646063762434, -8066.990443109327, -11193.127774373028, -7893.742071836242, -6958.768601270748, -5797.841346006554, -8548.938757054659, -10425.702980244516, -15241.229860929236, 0.0041875, 0.23531250000000004, 0.9484375, 192.0, 0.0, 0.0, 0.0, 0.0, 0.0, 0.0, 0.0, 0.0, 0.0, 1.644588417047234E9, 0.0, 2022-02-12 01:06:57.047
90.0, -10134.236232547311, -9641.00028765205, -5557.627148345369, -13068.863817317942, -8031.361762447568, -4384.205267930659, -8093.968998666883, -5773.500296294725, -8066.543408220221, -11179.78378293321, -7883.996711253729, -6955.371136113541, -5807.653761822434, -8540.02041101699, -10425.814738966792, -15248.248308688202, 0.0041875, 0.23531250000000004, 0.9484375, 192.0, 0.0, 0.0, 0.0, 0.0, 0.0, 0.0, 0.0, 0.0, 0.0, 1.64458841705513E9, 0.0, 2022-02-12 01:06:57.055
92.0, -10144.495683252297, -9646.834092954885, -5566.992529272143, -13069.467314418234, -8028.813663579663, -4389.68144532221, -8099.467527802888, -5782.262180121205, -8061.246044784313, -11190.177344104928, -7872.619673325977, -6942.541234796195, -5805.507994354724, -8536.913518537704, -10426.977029678468, -15275.472733434766, 0.0041875, 0.23531250000000004, 0.9484375, 192.0, 0.0, 0.0, 0.0, 0.0, 0.0, 0.0, 0.0, 0.0, 0.0, 1.64458841706223E9, 0.0, 2022-02-12 01:06:57.062
94.0, -10148.250776320789, -9642.542558019466, -5567.19369497224, -13061.420686414325, -8021.214070464858, -4385.188744686692, -8098.595809769132, -5778.596494030535, -8066.141076820026, -11201.30851284367, -7896.960723037806, -6952.755982012271, -5805.195069932351, -8543.395524429741, -10435.716561760493, -15239.598183583998, 0.0041875, 0.23531250000000004, 0.9484375, 192.0, 0.0, 0.0, 0.0, 0.0, 0.0, 0.0, 0.0, 0.0, 0.0, 1.644588417069692E9, 0.0, 2022-02-12 01:06:57.069
96.0, -10146.015601875259, -9649.4268953117, -5564.779706571067, -13072.708317364255, -8028.500739157288, -4387.781547043508, -8096.181821367958, -5775.891932951443, -8077.719280447875, -11207.030559424229, -7884.7790223096645, -6964.244778662298, -5805.865622266009, -8540.802722072927, -10432.922593703579, -15275.629195645954, 0.00309375, 0.23365625, 0.9482187500000001, 192.0, 0.0, 8.0, 3.5, 32.0, 14.5, 80.0, 0.0, 0.0, 0.0, 1.644588417078212E9, 0.0, 2022-02-12 01:06:57.078
98.0, -10151.335317055622, -9650.522130790012, -5568.601854872925, -13063.834674815498, -8011.1557854599705, -4387.5356778545, -8093.231391099858, -5777.56831378559, -8068.68917568793, -11206.002379179285, -7889.5622956231, -6968.335147897619, -5799.473023351792, -8545.1166087528, -10434.464864070997, -15249.947041266805, 0.00309375, 0.23365625, 0.9482187500000001, 192.0, 0.0, 0.0, 0.0, 0.0, 0.0, 0.0, 0.0, 0.0, 0.0, 1.644588417085708E9, 0.0, 2022-02-12 01:06:57.085
100.0, -10145.210939074866, -9624.66116245522, -5562.857456547911, -13071.791895841587, -8016.095520984593, -4389.189706944193, -8094.639551000542, -5776.920113196387, -8072.958358878895, -11185.014091135752, -7890.769289823686, -6980.38273815903, -5791.784023259166, -8543.708448852116, -10432.520262303384, -15253.165692468368, 0.00309375, 0.23365625, 0.9482187500000001, 192.0, 0.0, 0.0, 0.0, 0.0, 0.0, 0.0, 0.0, 0.0, 0.0, 1.644588417099371E9, 0.0, 2022-02-12 01:06:57.099
102.0, -10148.228424576333, -9658.635814027288, -5571.194657229741, -13076.01637554364, -8016.788425062708, -4399.225640204625, -8094.371330067079, -5782.396290587937, -8076.936969391939, -11204.460108811869, -7896.2231154707815, -6954.499418079784, -5814.113415970018, -8541.316812195399, -10435.381285593663, -15277.17146601337, 0.00309375, 0.23365625, 0.9482187500000001, 192.0, 0.0, 0.0, 0.0, 0.0, 0.0, 0.0, 0.0, 0.0, 0.0, 1.644588417107346E9, 0.0, 2022-02-12 01:06:57.107
104.0, -10159.2478345928, -9663.843770485375, -5566.679604849769, -13075.457581932258, -8014.843823295096, -4401.706683839165, -8105.457795316911, -5790.442918591848, -8076.221713569369, -11203.521335544747, -7902.995694040739, -6968.111630453066, -5812.280572924683, -8558.88528333727, -10438.376419350674, -15242.392151640912, 0.00309375, 0.23365625, 0.9482187500000001, 192.0, 0.0, 0.0, 0.0, 0.0, 0.0, 0.0, 0.0, 0.0, 0.0, 1.644588417115335E9, 0.0, 2022-02-12 01:06:57.115
106.0, -10159.940738670915, -9656.422991326213, -5565.763183327101, -13086.901675093375, -8027.606669379076, -4408.769835087041, -8097.053539401715, -5779.624674275479, -8087.21877184138, -11214.65250428349, -7887.528286877667, -6966.748174041292, -5808.234907178272, -8558.237082748066, -10437.124721661177, -15283.765230627685, 0.008, 0.23, 0.9480000000000001, 192.0, 0.0, 32.0, 3.5, 24.0, 14.5, 80.0, 0.0, 0.0, 0.0, 1.644588417122154E9, 0.0, 2022-02-12 01:06:57.122
108.0, -10152.00586938928, -9655.14894189226, -5572.021671774587, -13077.156314510861, -8012.027503493728, -4405.35001818538, -8099.244010358336, -5786.754880756722, -8082.167277594481, -11218.184079907427, -7896.983074782262, -6964.825924018136, -5806.826747277588, -8557.87945483678, -10436.96825944999, -15258.328945437544, 0.008, 0.23, 0.9480000000000001, 192.0, 0.0, 0.0, 0.0, 0.0, 0.0, 0.0, 0.0, 0.0, 0.0, 1.644588417130017E9, 0.0, 2022-02-12 01:06:57.130
110.0, -10134.772674414238, -9647.81756971092, -5568.266578706095, -13083.325395980526, -8016.430797151423, -4404.254782707069, -8096.405338812511, -5787.112508668007, -8077.272245558768, -11189.909123171465, -7894.70319684782, -6978.035804991223, -5792.499279081736, -8557.655937392228, -10436.051837927324, -15261.368782683467, 0.008, 0.23, 0.9480000000000001, 192.0, 0.0, 0.0, 0.0, 0.0, 0.0, 0.0, 0.0, 0.0, 0.0, 1.644588417137966E9, 0.0, 2022-02-12 01:06:57.137
112.0, -10163.852293950593, -9672.180971167203, -5569.384165928861, -13088.175724527327, -8016.408445406967, -4405.461776907656, -8100.160431881003, -5798.735415784767, -8084.134231106548, -11223.526146832246, -7890.903400290418, -6962.613101317061, -5813.062883980619, -8555.733687369071, -10439.426951340074, -15286.827419618061, 0.008, 0.23, 0.9480000000000001, 192.0, 0.0, 0.0, 0.0, 0.0, 0.0, 0.0, 0.0, 0.0, 0.0, 1.644588417145286E9, 0.0, 2022-02-12 01:06:57.145
114.0, -10159.784276459728, -9663.687308274188, -5569.786497329056, -13077.625701144421, -8010.261715681758, -4402.4219396617345, -8095.064234145193, -5787.783061001666, -8080.2450275713245, -11211.590315293111, -7892.512725891201, -6967.798706030692, -5812.973477002797, -8560.315794982409, -10439.762227506904, -15250.125855222448, 0.008, 0.23, 0.9480000000000001, 192.0, 0.0, 0.0, 0.0, 0.0, 0.0, 0.0, 0.0, 0.0, 0.0, 1.644588417151522E9, 0.0, 2022-02-12 01:06:57.151
116.0, -10149.882453666027, -9647.057610399439, -5571.507581652115, -13092.780183885121, -8024.656239110976, -4409.127462998326, -8101.03214991476, -5791.828726748076, -8096.293580090235, -11221.201565408894, -7902.906287062918, -6965.943511240901, -5811.475910124292, -8560.226388004588, -10440.410428096107, -15291.811858631596, 0.008, 0.234, 0.9460000000000001, 192.0, 0.0, 32.0, 3.5, 40.0, 14.5, 72.0, 0.0, 0.0, 0.0, 1.644588417159636E9, 0.0, 2022-02-12 01:06:57.159
118.0, -10151.380020544531, -9673.142096178783, -5578.637788133358, -13084.219465758737, -8016.810776807163, -4411.787320588508, -8107.156527895514, -5794.399177360437, -8092.359673066101, -11208.572829791645, -7912.741054623253, -6978.594598602605, -5807.832575778077, -8574.307987011432, -10444.701963031526, -15268.364878697977, 0.008, 0.234, 0.9460000000000001, 192.0, 0.0, 0.0, 0.0, 0.0, 0.0, 0.0, 0.0, 0.0, 0.0, 1.644588417167664E9, 0.0, 2022-02-12 01:06:57.167
120.0, -10183.052442437702, -9675.779602024508, -5571.217008974196, -13093.338977496504, -8025.818529822652, -4417.352904957879, -8103.98258018286, -5799.294209396149, -8098.707568491408, -11225.850728255598, -7907.957781309818, -6978.684005580427, -5814.158119458928, -8567.066021807912, -10449.060553200312, -15272.701117122308, 0.008, 0.234, 0.9460000000000001, 192.0, 0.0, 0.0, 0.0, 0.0, 0.0, 0.0, 0.0, 0.0, 0.0, 1.644588417174773E9, 0.0, 2022-02-12 01:06:57.174
122.0, -10189.467393096375, -9679.937026493195, -5574.547418898037, -13098.435175232313, -8024.700942599887, -4416.436483435212, -8102.037978415249, -5798.5118983402135, -8104.720187749886, -11237.428931883447, -7888.534115378156, -6976.404127645985, -5820.8189393066095, -8561.41103046072, -10445.372515365187, -15295.477544722266, 0.008, 0.234, 0.9460000000000001, 192.0, 0.0, 0.0, 0.0, 0.0, 0.0, 0.0, 0.0, 0.0, 0.0, 1.644588417182331E9, 0.0, 2022-02-12 01:06:57.182
124.0, -10164.098163139603, -9658.971090194118, -5573.9886252866545, -13083.012471558151, -8013.726236072331, -4417.196442746692, -8090.549181765221, -5790.57702905858, -8090.862106187596, -11225.98483872233, -7896.714853848798, -6977.119383468555, -5808.14550020045, -8566.306062496431, -10442.422085097085, -15256.518454136665, 0.008, 0.234, 0.9460000000000001, 192.0, 0.0, 0.0, 0.0, 0.0, 0.0, 0.0, 0.0, 0.0, 0.0, 1.644588417190429E9, 0.0, 2022-02-12 01:06:57.190
126.0, -10146.216767575355, -9657.182950637693, -5568.110116494909, -13093.45073621878, -8022.733989087819, -4417.531718913522, -8088.98455965335, -5788.565372057602, -8098.864030702595, -11218.564059563168, -7899.3970631834345, -6967.642243819505, -5803.518689098202, -8565.926082840691, -10439.806930995814, -15292.214190031791, 0.004, 0.234, 0.9500000000000001, 192.0, 0.0, 16.0, 3.5, 40.0, 14.5, 88.0, 0.0, 0.0, 0.0, 1.644588417197308E9, 0.0, 2022-02-12 01:06:57.197
128.0, -10182.895980226514, -9689.704738820164, -5575.240322976151, -13087.68398614931, -8013.726236072331, -4419.297506725491, -8094.371330067079, -5795.4050058609255, -8095.868896945584, -11230.566946335668, -7907.019008042695, -6973.632511333527, -5800.031816963175, -8569.949396842647, -10442.489140330452, -15264.900358307405, 0.004, 0.234, 0.9500000000000001, 192.0, 0.0, 0.0, 0.0, 0.0, 0.0, 0.0, 0.0, 0.0, 0.0, 1.644588417204802E9, 0.0, 2022-02-12 01:06:57.204
130.0, -10180.884323225537, -9694.77858481152, -5571.440526418749, -13090.477954206224, -8013.703884327875, -4423.186710260715, -8082.971940394872, -5795.092081438552, -8107.692969762442, -11239.015905739774, -7897.720682349287, -6966.703470552382, -5796.81316576161, -8569.770582887004, -10444.88077698717, -15270.153018254403, 0.004, 0.234, 0.9500000000000001, 192.0, 0.0, 0.0, 0.0, 0.0, 0.0, 0.0, 0.0, 0.0, 0.0, 1.644588417213286E9, 0.0, 2022-02-12 01:06:57.213
132.0, -10168.859084708582, -9672.650357800765, -5577.855477077423, -13094.858896119464, -8011.893393026995, -4422.180881760226, -8090.996216654327, -5799.540078585158, -8111.93980120895, -11252.426952412958, -7898.346531194035, -6976.135906712521, -5808.480776367281, -8567.423649719198, -10443.9643554645, -15294.337605755045, 0.004, 0.234, 0.9500000000000001, 192.0, 0.0, 0.0, 0.0, 0.0, 0.0, 0.0, 0.0, 0.0, 0.0, 1.644588417227047E9, 0.0, 2022-02-12 01:06:57.227
134.0, -10158.107895625579, -9653.539616291479, -5576.5143724101035, -13092.10963155146, -8006.238401679802, -4416.235317735114, -8088.157545108503, -5793.080424437574, -8101.79210922624, -11224.621382310555, -7913.098682534538, -6995.358406944086, -5810.045398479152, -8580.499420225551, -10446.847730499236, -15252.49514013471, 0.004, 0.234, 0.9500000000000001, 192.0, 0.0, 0.0, 0.0, 0.0, 0.0, 0.0, 0.0, 0.0, 0.0, 1.644588417234389E9, 0.0, 2022-02-12 01:06:57.234
136.0, -10160.2983665822, -9675.91371249124, -5573.0498520195315, -13105.811250902565, -8018.464805896856, -4421.242108493103, -8085.430632284955, -5796.075558194585, -8112.878574476073, -11239.954679006896, -7901.654589373421, -6998.308837212186, -5819.120206728006, -8568.518885197507, -10450.155788678621, -15290.761326642196, 0.008, 0.23800000000000002, 0.9500000000000001, 192.0, 0.0, 32.0, 3.5, 56.0, 14.5, 88.0, 0.0, 0.0, 0.0, 1.644588417242738E9, 0.0, 2022-02-12 01:06:57.242
138.0, -10181.800744748205, -9695.471488889634, -5578.77189860009, -13093.49543970769, -8010.01584649275, -4428.461721952167, -8094.12546087807, -5805.597401332546, -8099.333417336156, -11237.428931883447, -7905.521441164189, -6986.529467884239, -5806.424415877392, -8573.279806766488, -10446.82537875478, -15267.716678108774, 0.008, 0.23800000000000002, 0.9500000000000001, 192.0, 0.0, 0.0, 0.0, 0.0, 0.0, 0.0, 0.0, 0.0, 0.0, 1.644588417250574E9, 0.0, 2022-02-12 01:06:57.250
140.0, -10183.007738948792, -9685.748480051576, -5572.803982830523, -13095.842372875497, -8013.525070372233, -4426.248899251092, -8091.3985480545225, -5801.819956519599, -8111.55982155321, -11224.241402654816, -7907.533098165167, -6967.66459556396, -5798.891877995954, -8578.532466713485, -10451.45218985703, -15274.466904934277, 0.008, 0.23800000000000002, 0.9500000000000001, 192.0, 0.0, 0.0, 0.0, 0.0, 0.0, 0.0, 0.0, 0.0, 0.0, 1.644588417257345E9, 0.0, 2022-02-12 01:06:57.257
142.0, -10180.459640080886, -9680.093488704382, -5576.559075899015, -13095.708262408765, -8013.5027186277775, -4424.170187016748, -8087.531696263754, -5792.074595937085, -8120.4558158464215, -11257.478446659858, -7902.839231829552, -6973.3642904000635, -5790.62173254749, -8570.977577087591, -10452.100390446234, -15296.483373222754, 0.008, 0.23800000000000002, 0.9500000000000001, 192.0, 0.0, 0.0, 0.0, 0.0, 0.0, 0.0, 0.0, 0.0, 0.0, 1.644588417265093E9, 0.0, 2022-02-12 01:06:57.265
144.0, -10171.161314387478, -9664.804895496953, -5567.059584505509, -13087.415765215846, -7996.940075986395, -4413.351942700379, -8068.4433064989225, -5787.0678051790965, -8107.044769173238, -11238.725333061855, -7908.583630154566, -6985.210714961376, -5806.446767621847, -8577.951321357647, -10452.122742190688, -15252.673954090353, 0.008, 0.23800000000000002, 0.9500000000000001, 192.0, 0.0, 0.0, 0.0, 0.0, 0.0, 0.0, 0.0, 0.0, 0.0, 1.644588417273183E9, 0.0, 2022-02-12 01:06:57.273
146.0, -10162.131209627534, -9681.233427671603, -5564.980872271165, -13100.02214908864, -8002.304494655668, -4414.82715783443, -8067.303367531702, -5784.877334222476, -8107.514155806799, -11239.261774928782, -7899.955856794818, -6975.219485189854, -5796.232020405772, -8571.066984065412, -10445.797198509837, -15291.163658042391, 0.004, 0.23800000000000002, 0.9540000000000001, 192.0, 0.0, 16.0, 3.5, 56.0, 14.5, 104.0, 0.0, 0.0, 0.0, 1.644588417280292E9, 0.0, 2022-02-12 01:06:57.280
148.0, -10161.572416016152, -9681.188724182693, -5574.949750298232, -13092.847239118486, -7989.742814271786, -4416.615297390855, -8076.691100202931, -5793.728625026778, -8093.320798077679, -11237.563042350179, -7910.8411563445525, -6982.4614503933735, -5794.354473871526, -8571.2234462766, -10448.300593888831, -15268.253119975701, 0.004, 0.23800000000000002, 0.9540000000000001, 192.0, 0.0, 0.0, 0.0, 0.0, 0.0, 0.0, 0.0, 0.0, 0.0, 1.644588417286902E9, 0.0, 2022-02-12 01:06:57.286
150.0, -10174.692890011418, -9683.379195139312, -5566.925474038777, -13103.01728284565, -8002.550363844677, -4421.376218959835, -8076.132306591548, -5797.818994262099, -8114.018513443293, -11237.630097583546, -7902.615714385, -6986.440060906418, -5799.562430329613, -8581.214676048121, -10455.609614325716, -15274.109277022992, 0.004, 0.23800000000000002, 0.9540000000000001, 192.0, 0.0, 0.0, 0.0, 0.0, 0.0, 0.0, 0.0, 0.0, 0.0, 1.644588417294913E9, 0.0, 2022-02-12 01:06:57.294
152.0, -10177.263340623778, -9681.72516604962, -5576.96140729921, -13104.850125890986, -8006.39486389099, -4428.68523939672, -8083.351920050612, -5804.0327792206745, -8122.422769358489, -11245.654373843, -7907.935429565362, -6991.938590042423, -5794.890915738454, -8581.952283615146, -10458.87296901619, -15299.836134891051, 0.004, 0.23800000000000002, 0.9540000000000001, 192.0, 0.0, 0.0, 0.0, 0.0, 0.0, 0.0, 0.0, 0.0, 0.0, 1.644588417303032E9, 0.0, 2022-02-12 01:06:57.303
154.0, -10193.423651864965, -9674.751421779565, -5571.217008974196, -13094.702433908276, -7998.549401587177, -4434.228472021637, -8082.435498527944, -5807.564354844613, -8111.3586558531115, -11238.546519106212, -7909.701217377332, -6984.42840390544, -5792.186354659361, -8589.104841840845, -10457.911844004613, -15265.861483318984, 0.004, 0.23800000000000002, 0.9540000000000001, 192.0, 0.0, 0.0, 0.0, 0.0, 0.0, 0.0, 0.0, 0.0, 0.0, 1.644588417309457E9, 0.0, 2022-02-12 01:06:57.309
156.0, -10191.63551230854, -9703.58517212691, -5569.831200817967, -13111.220373060749, -8009.166480203448, -4443.727963415142, -8085.654149729508, -5814.918078770409, -8122.020437958293, -11246.570795365667, -7893.004464269217, -6979.041633491712, -5812.593497347057, -8588.166068573722, -10453.977936980478, -15305.960512871805, 0.004, 0.23800000000000002, 0.9540000000000001, 192.0, 0.0, 0.0, 3.5, 56.0, 14.5, 112.0, 0.0, 0.0, 0.0, 1.644588417318041E9, 0.0, 2022-02-12 01:06:57.318
158.0, -10183.924160471459, -9701.841736059396, -5581.632921890369, -13101.005625844673, -7999.599933576576, -4440.643422680309, -8086.816440441185, -5813.465215380814, -8121.774568769285, -11260.384173439048, -7915.959705824817, -6989.345787685608, -5812.280572924683, -8597.397339033763, -10458.336527149264, -15284.592245172531, 0.004, 0.23800000000000002, 0.9540000000000001, 192.0, 0.0, 0.0, 0.0, 0.0, 0.0, 0.0, 0.0, 0.0, 0.0, 1.644588417325473E9, 0.0, 2022-02-12 01:06:57.325
160.0, -10160.63364274903, -9672.136267678294, -5572.491058408148, -13100.513887466657, -7996.2471719082805, -4436.106018555882, -8076.132306591548, -5805.217421676805, -8110.777510497273, -11238.658277828488, -7911.399949955935, -6986.752985328792, -5784.609113289012, -8588.255475551543, -10459.007079482923, -15277.842018347028, 0.004, 0.23800000000000002, 0.9540000000000001, 192.0, 0.0, 0.0, 0.0, 0.0, 0.0, 0.0, 0.0, 0.0, 0.0, 1.644588417332521E9, 0.0, 2022-02-12 01:06:57.332
162.0, -10187.656901795495, -9701.171183725737, -5574.659177620313, -13108.560515470566, -7988.5358200712, -4438.318841256958, -8072.3772135230565, -5808.637238578468, -8110.688103519453, -11253.924519291464, -7895.351397437024, -6978.460488135874, -5782.999787688231, -8583.472202238108, -10454.44732361404, -15297.511553467699, 0.004, 0.23800000000000002, 0.9540000000000001, 192.0, 0.0, 0.0, 0.0, 0.0, 0.0, 0.0, 0.0, 0.0, 0.0, 1.644588417347187E9, 0.0, 2022-02-12 01:06:57.347
164.0, -10174.15644814449, -9698.645436602288, -5572.647520619335, -13099.955093855275, -7983.730195013309, -4435.770742389052, -8069.583245466143, -5803.250468164739, -8112.5880017981535, -11248.694211088921, -7905.476737675279, -6987.959979529379, -5803.473985609292, -8590.714167441627, -10454.156750936121, -15259.06655300457, 0.004, 0.23800000000000002, 0.9540000000000001, 192.0, 0.0, 0.0, 0.0, 0.0, 0.0, 0.0, 0.0, 0.0, 0.0, 1.644588417355151E9, 0.0, 2022-02-12 01:06:57.355
166.0, -10186.516962828275, -9681.881628260808, -5571.239360718651, -13115.824832418542, -7993.386148618001, -4443.124466314848, -8068.085678587638, -5805.418587376904, -8120.053484446226, -11249.70003958941, -7900.268781217192, -6995.626627877549, -5794.130956426973, -8587.98725461808, -10456.235463170466, -15300.461983735799, 0.004, 0.23800000000000002, 0.9540000000000001, 192.0, 0.0, 0.0, 3.5, 40.0, 14.5, 120.0, 0.0, 0.0, 0.0, 1.644588417362214E9, 0.0, 2022-02-12 01:06:57.362
168.0, -10199.413919378987, -9696.3879104123, -5581.454107934726, -13111.779166672131, -7993.229686406814, -4445.717268671664, -8077.719280447875, -5816.259183437727, -8118.287696634257, -11259.288937960737, -7907.331932465069, -6992.430328420441, -5799.942409985353, -8601.197135591166, -10459.297652160842, -15285.553370184109, 0.004, 0.23800000000000002, 0.9540000000000001, 192.0, 0.0, 0.0, 0.0, 0.0, 0.0, 0.0, 0.0, 0.0, 0.0, 1.644588417369636E9, 0.0, 2022-02-12 01:06:57.369
170.0, -10171.317776598666, -9706.177974483726, -5575.53089565407, -13113.254381806182, -7994.481384096312, -4440.218739535659, -8069.426783254956, -5810.648895579445, -8113.437368087455, -11260.048897272218, -7913.657476145921, -6989.614008619072, -5781.211648131806, -8597.732615200594, -10460.415239383608, -15285.93334983985, 0.004, 0.23800000000000002, 0.9540000000000001, 192.0, 0.0, 0.0, 0.0, 0.0, 0.0, 0.0, 0.0, 0.0, 0.0, 1.644588417377916E9, 0.0, 2022-02-12 01:06:57.377
172.0, -10165.68513699593, -9694.510363878057, -5581.901142823833, -13114.662541706866, -7997.789442275696, -4445.761972160575, -8078.032204870249, -5808.301962411638, -8126.334324638167, -11274.733993379354, -7913.724531379286, -6994.531392399239, -5814.225174692295, -8590.200077319156, -10457.755381793426, -15307.07810009457, 0.004, 0.23800000000000002, 0.9540000000000001, 192.0, 0.0, 0.0, 0.0, 0.0, 0.0, 0.0, 0.0, 0.0, 0.0, 1.64458841738578E9, 0.0, 2022-02-12 01:06:57.385
174.0, -10190.62968380805, -9708.413148929256, -5581.834087590467, -13109.49928873769, -7995.4872125968, -4449.3829547623345, -8080.2450275713245, -5817.779102060688, -8122.422769358489, -11260.18300773895, -7922.754636139231, -6995.224296477354, -5807.6090583335235, -8602.426481536208, -10462.583358595772, -15271.851750833006, 0.006, 0.23800000000000002, 0.9510000000000001, 192.0, 0.0, 32.0, 3.5, 56.0, 14.5, 80.0, 0.0, 0.0, 0.0, 1.64458841739236E9, 0.0, 2022-02-12 01:06:57.392
176.0, -10191.814326264182, -9709.933067552218, -5574.525067153581, -13123.044445877606, -7996.4259858639225, -4452.333385030435, -8075.640568213531, -5819.656648594934, -8129.620031073097, -11264.295728718726, -7911.176432511382, -6991.871534809057, -5800.188279174362, -8602.918219914225, -10459.387059138664, -15311.45904200781, 0.006, 0.23800000000000002, 0.9510000000000001, 192.0, 0.0, 0.0, 0.0, 0.0, 0.0, 0.0, 0.0, 0.0, 0.0, 1.644588417399292E9, 0.0, 2022-02-12 01:06:57.399
178.0, -10205.247724681822, -9702.132308737315, -5580.604741645425, -13109.454585248779, -7986.188886903392, -4454.099172842404, -8079.149792093014, -5822.29415444066, -8119.919373979495, -11260.808856583699, -7906.303752220125, -7003.5391454147275, -5776.2048573738175, -8605.488670526585, -10460.348184150242, -15292.08007956506, 0.006, 0.23800000000000002, 0.9510000000000001, 192.0, 0.0, 0.0, 0.0, 0.0, 0.0, 0.0, 0.0, 0.0, 0.0, 1.644588417407496E9, 0.0, 2022-02-12 01:06:57.407
180.0, -10186.785183761738, -9699.49480289159, -5572.044023519043, -13110.259248049171, -7993.028520706716, -4443.705611670686, -8069.851466399607, -5812.571145602602, -8125.283792648768, -11266.173275252972, -7903.912115563407, -6975.711223567871, -5805.619753077001, -8598.537278000984, -10463.41037314062, -15287.02858531816, 0.006, 0.23800000000000002, 0.9510000000000001, 192.0, 0.0, 0.0, 0.0, 0.0, 0.0, 0.0, 0.0, 0.0, 0.0, 1.644588417414361E9, 0.0, 2022-02-12 01:06:57.414
182.0, -10184.281788382745, -9692.3869481548, -5578.034291033065, -13111.823870161043, -7997.543573086688, -4454.009765864583, -8082.927236905961, -5824.886956797476, -8123.383894370067, -11279.651377159522, -7894.792603825642, -6974.705395067382, -5804.0327792206745, -8585.550914472451, -10461.935158006569, -15312.666036208397, 0.006, 0.23800000000000002, 0.9510000000000001, 192.0, 0.0, 0.0, 0.0, 0.0, 0.0, 0.0, 0.0, 0.0, 0.0, 1.644588417421963E9, 0.0, 2022-02-12 01:06:57.421
184.0, -10166.668613751963, -9694.82328830043, -5573.9886252866545, -13109.58869571551, -7984.3336921136015, -4460.447068267711, -8070.812591411185, -5831.100741756051, -8115.449025088433, -11253.969222780373, -7908.4942231767445, -6993.838488321125, -5799.04834020714, -8598.1796500897, -10470.69704183305, -15283.273492249667, 0.009000000000000001, 0.23700000000000002, 0.9475, 192.0, 0.0, 48.0, 3.5, 48.0, 14.5, 64.0, 0.0, 0.0, 0.0, 1.644588417429948E9, 0.0, 2022-02-12 01:06:57.429
186.0, -10167.607387019085, -9693.4374801442, -5575.665006120802, -13130.487576781223, -8000.851631266074, -4470.438298039234, -8078.903922904006, -5833.894709812965, -8121.439292602456, -11268.497856676324, -7918.641915159455, -6988.362310929574, -5784.832630733566, -8602.717054214127, -10467.59014935376, -15327.619353248998, 0.009000000000000001, 0.23700000000000002, 0.9475, 192.0, 0.0, 0.0, 0.0, 0.0, 0.0, 0.0, 0.0, 0.0, 0.0, 1.644588417438027E9, 0.0, 2022-02-12 01:06:57.438
188.0, -10207.840527038637, -9718.650247889787, -5586.818526604, -13122.664466221866, -8005.433738879412, -4487.0679959139825, -8093.499612033322, -5851.172608276917, -8119.427635601478, -11265.078039774662, -7927.850833875041, -7006.891907083024, -5788.4759650797805, -8617.983295677102, -10470.987614510968, -15311.593152474541, 0.009000000000000001, 0.23700000000000002, 0.9475, 192.0, 0.0, 0.0, 0.0, 0.0, 0.0, 0.0, 0.0, 0.0, 0.0, 1.644588417444566E9, 0.0, 2022-02-12 01:06:57.444
190.0, -10210.321570673177, -9732.083646307427, -5578.883657322366, -13128.878251180442, -8008.25005868078, -4484.162269134792, -8082.949588650416, -5847.104590786051, -8133.866862519606, -11277.237388758349, -7906.594324898044, -6995.470165666362, -5828.619698121513, -8625.828757980915, -10478.386041925674, -15314.878858909471, 0.009000000000000001, 0.23700000000000002, 0.9475, 192.0, 0.0, 0.0, 0.0, 0.0, 0.0, 0.0, 0.0, 0.0, 0.0, 1.644588417453045E9, 0.0, 2022-02-12 01:06:57.453
192.0, -10212.266172440788, -9730.094341050904, -5587.600837659936, -13133.728579727243, -8008.071244725138, -4489.683150015253, -8084.245989828824, -5843.282442484194, -8150.027173760793, -11303.85831640462, -7903.845060330041, -6992.363273187074, -5817.265011938216, -8620.509042800551, -10476.55319888034, -15334.123710885491, 0.009000000000000001, 0.23700000000000002, 0.9475, 192.0, 0.0, 0.0, 0.0, 0.0, 0.0, 0.0, 0.0, 0.0, 0.0, 1.644588417460675E9, 0.0, 2022-02-12 01:06:57.460
194.0, -10181.040785436724, -9715.699817621688, -5588.070224293498, -13126.531318012634, -7999.197602176381, -4480.429527810756, -8076.400527525012, -5836.174587747406, -8138.4713218773995, -11289.173220297484, -7922.195842527848, -7006.511927427284, -5813.264049680716, -8627.840414981893, -10475.256797701932, -15289.867256863983, 0.0055000000000000005, 0.23750000000000002, 0.9497500000000001, 192.0, 0.0, 8.0, 3.5, 56.0, 14.5, 96.0, 0.0, 0.0, 0.0, 1.644588417475586E9, 0.0, 2022-02-12 01:06:57.475
196.0, -10197.424614122465, -9701.662922103755, -5585.522125425592, -13144.03273392114, -8007.132471458015, -4486.397443580323, -8066.252835542302, -5843.707125628845, -8145.690935336464, -11294.135307566561, -7924.431016973379, -7012.591601919127, -5797.796642517644, -8623.347714346375, -10473.401602912141, -15327.261725337712, 0.0055000000000000005, 0.23750000000000002, 0.9497500000000001, 192.0, 0.0, 0.0, 0.0, 0.0, 0.0, 0.0, 0.0, 0.0, 0.0, 1.644588417482248E9, 0.0, 2022-02-12 01:06:57.482
198.0, -10207.058215982703, -9735.771684142552, -5589.0760527939865, -13127.805367446586, -7995.800137019174, -4487.738548247641, -8072.153696078503, -5840.890805827476, -8136.727885809885, -11286.625121429577, -7920.631220415977, -7018.470110710873, -5795.2261919052835, -8629.628554538316, -10473.714527334516, -15310.542620485143, 0.0055000000000000005, 0.23750000000000002, 0.9497500000000001, 192.0, 0.0, 0.0, 0.0, 0.0, 0.0, 0.0, 0.0, 0.0, 0.0, 1.644588417490638E9, 0.0, 2022-02-12 01:06:57.490
200.0, -10188.148640173513, -9723.433521203224, -5581.007073045621, -13132.722751226755, -8005.031407479216, -4491.717158760686, -8072.980710623349, -5843.483608184291, -8136.3702578986, -11285.70869990691, -7918.440749459357, -7003.583848903639, -5812.884070024976, -8629.226223138121, -10478.810725070325, -15309.827364662573, 0.0055000000000000005, 0.23750000000000002, 0.9497500000000001, 192.0, 0.0, 0.0, 0.0, 0.0, 0.0, 0.0, 0.0, 0.0, 0.0, 1.644588417497282E9, 0.0, 2022-02-12 01:06:57.497
202.0, -10206.924105515971, -9730.20609977318, -5587.332616726472, -13136.388437317424, -8004.427910378923, -4504.055321700015, -8070.298501288713, -5856.246454268272, -8143.880444035583, -11306.317008294704, -7919.4689297043005, -6990.932761541934, -5811.990000246764, -8624.599412035872, -10480.487105904473, -15342.885594711972, 0.0055000000000000005, 0.23750000000000002, 0.9497500000000001, 192.0, 0.0, 0.0, 0.0, 0.0, 0.0, 0.0, 0.0, 0.0, 0.0, 1.644588417504776E9, 0.0, 2022-02-12 01:06:57.504
204.0, -10205.985332248847, -9709.754253596575, -5584.605703902925, -13134.577946016545, -8000.91868649944, -4502.960086221706, -8074.4559257574, -5862.236721782294, -8137.979583499383, -11290.871952876087, -7917.524327936689, -7004.2991047262085, -5796.522593083691, -8635.842339496892, -10481.157658238133, -15308.106280339514, 0.00575, 0.23375, 0.9508750000000001, 192.0, 0.0, 24.0, 3.5, 24.0, 14.5, 96.0, 0.0, 0.0, 0.0, 1.644588417512929E9, 0.0, 2022-02-12 01:06:57.512
206.0, -10189.48974484083, -9725.244012504103, -5583.041081791053, -13149.88889096843, -8010.440529637401, -4508.2574496576135, -8067.862161143084, -5855.285329256693, -8155.27983370779, -11296.504592478823, -7932.924679866395, -7017.352523488107, -5809.553660101135, -8636.445836597186, -10481.78350708288, -15345.120769157502, 0.00575, 0.23375, 0.9508750000000001, 192.0, 0.0, 0.0, 0.0, 0.0, 0.0, 0.0, 0.0, 0.0, 0.0, 1.644588417519998E9, 0.0, 2022-02-12 01:06:57.519
208.0, -10228.046504026235, -9756.961137886185, -5588.651369649336, -13142.401056575902, -8000.851631266074, -4508.346856635435, -8071.416088511478, -5848.11041928654, -8151.971775528405, -11316.777624699787, -7928.789607142164, -7021.979334590356, -5813.934602014376, -8642.637269811305, -10479.727146592993, -15318.41043453341, 0.00575, 0.23375, 0.9508750000000001, 192.0, 0.0, 0.0, 0.0, 0.0, 0.0, 0.0, 0.0, 0.0, 0.0, 1.644588417526494E9, 0.0, 2022-02-12 01:06:57.526
210.0, -10220.558669633707, -9746.366411014367, -5583.108137024419, -13148.816007234574, -8005.612552835054, -4512.772502037586, -8066.252835542302, -5859.599215936568, -8159.928996554494, -11318.029322389284, -7937.931470624384, -7029.333058516152, -5807.139671699962, -8645.453589612674, -10480.576512882295, -15319.751539200728, 0.00575, 0.23375, 0.9508750000000001, 192.0, 0.0, 0.0, 0.0, 0.0, 0.0, 0.0, 0.0, 0.0, 0.0, 1.644588417534585E9, 0.0, 2022-02-12 01:06:57.534
212.0, -10206.767643304784, -9731.390742229312, -5589.72425338319, -13150.514739813178, -8007.020712735738, -4513.823034026985, -8072.5560274786985, -5858.369869991526, -8161.80654308874, -11322.05263639124, -7933.528176966689, -7020.928802600957, -5815.655686337434, -8646.682935557716, -10477.000233769446, -15350.351077360045, 0.00575, 0.23375, 0.9508750000000001, 192.0, 0.0, 0.0, 0.0, 0.0, 0.0, 0.0, 0.0, 0.0, 0.0, 1.644588417543301E9, 0.0, 2022-02-12 01:06:57.543
214.0, -10190.406166363498, -9732.284812007525, -5590.372453972394, -13143.31747809857, -7993.006168962261, -4509.531499091566, -8058.921463360962, -5857.721669402322, -8150.116580738614, -11303.94772338244, -7935.830406645586, -7028.327230015663, -5798.087215195563, -8643.62074656734, -10480.107126248733, -15309.894419895938, 0.008875000000000001, 0.231875, 0.9514375000000002, 192.0, 0.0, 48.0, 3.5, 24.0, 14.5, 96.0, 0.0, 0.0, 0.0, 1.644588417550201E9, 0.0, 2022-02-12 01:06:57.550
216.0, -10216.289486442744, -9742.723076668153, -5582.9740265576875, -13147.899585711908, -8002.215087677848, -4520.2379846856575, -8061.961300606883, -5857.833428124599, -8159.146685498558, -11314.38598804307, -7936.2550897902365, -7019.163014788987, -5809.710122312323, -8641.273813399532, -10479.280111703887, -15343.511443556721, 0.008875000000000001, 0.231875, 0.9514375000000002, 192.0, 0.0, 0.0, 0.0, 0.0, 0.0, 0.0, 0.0, 0.0, 0.0, 1.64458841755732E9, 0.0, 2022-02-12 01:06:57.557
218.0, -10239.937632076459, -9759.732754198641, -5587.109099281919, -13143.965678687773, -7996.448337608378, -4523.411932398311, -8067.6833471874415, -5865.053041583663, -8164.734621612385, -11327.953496927441, -7925.660362918421, -7013.508023441795, -5807.564354844613, -8648.895758258792, -10483.571646639306, -15327.775815460183, 0.008875000000000001, 0.231875, 0.9514375000000002, 192.0, 0.0, 0.0, 0.0, 0.0, 0.0, 0.0, 0.0, 0.0, 0.0, 1.644588417565276E9, 0.0, 2022-02-12 01:06:57.565
220.0, -10217.004742265313, -9752.133161083837, -5575.665006120802, -13157.354373616503, -8001.991570233295, -4528.485778389666, -8066.208132053392, -5868.025823596218, -8169.875522837106, -11322.298505580247, -7924.676886162387, -7020.884099112046, -5814.873375281498, -8656.830627540425, -10485.426841429096, -15328.759292216218, 0.008875000000000001, 0.231875, 0.9514375000000002, 192.0, 0.0, 0.0, 0.0, 0.0, 0.0, 0.0, 0.0, 0.0, 0.0, 1.644588417573593E9, 0.0, 2022-02-12 01:06:57.573
222.0, -10196.128212944057, -9747.662812192775, -5588.4278522047825, -13167.613824321488, -8003.623247578532, -4538.365249438912, -8070.07498384416, -5878.106460345562, -8163.169999500514, -11347.265404136826, -7936.1433310679595, -7038.206701064909, -5804.05513096513, -8653.768438550049, -10481.649396616149, -15356.408400107432, 0.008875000000000001, 0.231875, 0.9514375000000002, 192.0, 0.0, 0.0, 0.0, 0.0, 0.0, 0.0, 0.0, 0.0, 0.0, 1.644588417579935E9, 0.0, 2022-02-12 01:06:57.579
224.0, -10230.996934294335, -9743.326573768447, -5587.086747537464, -13163.03171670815, -7992.469727095334, -4535.280708704079, -8069.829114655151, -5881.660387713956, -8163.348813456156, -11338.302354610249, -7939.607851458532, -7041.9841458778565, -5802.691674553356, -8664.564331121961, -10486.656187374138, -15322.679617724374, 0.008875000000000001, 0.231875, 0.9514375000000002, 192.0, 0.0, 0.0, 3.5, 32.0, 14.5, 96.0, 0.0, 0.0, 0.0, 1.644588417594948E9, 0.0, 2022-02-12 01:06:57.594
226.0, -10229.812291838205, -9779.201123619214, -5584.717462625202, -13166.004498720706, -8001.924514999929, -4539.751057595141, -8066.699870431408, -5883.940265648397, -8182.3254444987115, -11349.455875093447, -7918.776025626186, -7028.863671882591, -5809.955991501331, -8662.686784587715, -10483.54929489485, -15360.811693765128, 0.008875000000000001, 0.231875, 0.9514375000000002, 192.0, 0.0, 0.0, 0.0, 0.0, 0.0, 0.0, 0.0, 0.0, 0.0, 1.644588417602781E9, 0.0, 2022-02-12 01:06:57.602
228.0, -10233.030943039768, -9765.767725201575, -5590.1936400167515, -13153.442818336824, -7995.196639918881, -4536.04066801556, -8064.732916919342, -5877.570018478635, -8176.75986012934, -11353.166264673027, -7932.3211827661025, -7021.040561323233, -5805.306828654627, -8667.067726500956, -10482.141134994166, -15339.666943510407, 0.008875000000000001, 0.231875, 0.9514375000000002, 192.0, 0.0, 0.0, 0.0, 0.0, 0.0, 0.0, 0.0, 0.0, 0.0, 1.644588417609551E9, 0.0, 2022-02-12 01:06:57.609
230.0, -10219.463434155397, -9751.037925605528, -5582.683453879768, -13162.092943441028, -8007.825375536129, -4541.874473318395, -8063.59297795212, -5883.895562159487, -8174.412926961533, -11337.877671465598, -7931.069485076605, -7027.008477092801, -5810.827709535088, -8657.612938596361, -10485.382137940185, -15336.22477486429, 0.008875000000000001, 0.231875, 0.9514375000000002, 192.0, 0.0, 0.0, 0.0, 0.0, 0.0, 0.0, 0.0, 0.0, 0.0, 1.644588417617315E9, 0.0, 2022-02-12 01:06:57.617
232.0, -10196.619951322074, -9759.062201864983, -5591.735910384168, -13170.519551100679, -8007.735968558308, -4550.926929822795, -8071.4384402559335, -5890.645788984989, -8183.130107299103, -11361.43641012149, -7934.757522911731, -7035.211567307898, -5810.090101968062, -8672.208627725677, -10491.55121940985, -15370.691164814374, 0.008875000000000001, 0.231875, 0.9514375000000002, 192.0, 0.0, 0.0, 0.0, 0.0, 0.0, 0.0, 0.0, 0.0, 0.0, 1.64458841762547E9, 0.0, 2022-02-12 01:06:57.625
234.0, -10222.905602801515, -9754.994184374116, -5587.042044048553, -13165.848036509518, -8003.690302811898, -4552.290386234568, -8067.146905320515, -5890.31051281816, -8168.735583869885, -11338.123540654606, -7942.580633471088, -7047.102695358121, -5827.368000432015, -8684.412680198275, -10493.540524666372, -15335.800091719639, 0.0074375000000000005, 0.23293750000000002, 0.9497187500000002, 192.0, 0.0, 24.0, 3.5, 40.0, 14.5, 80.0, 0.0, 0.0, 0.0, 1.644588417632643E9, 0.0, 2022-02-12 01:06:57.632
236.0, -10234.416751195999, -9774.015518905582, -5586.10327078143, -13178.856751782509, -8013.949753516884, -4559.800572371551, -8069.918521632972, -5896.50194603228, -8184.895895111072, -11361.637575821589, -7924.386313484468, -7038.944308631934, -5814.962782259319, -8684.502087176095, -10492.199419999055, -15376.033231739191, 0.0074375000000000005, 0.23293750000000002, 0.9497187500000002, 192.0, 0.0, 0.0, 0.0, 0.0, 0.0, 0.0, 0.0, 0.0, 0.0, 1.644588417640289E9, 0.0, 2022-02-12 01:06:57.640
238.0, -10230.616954638595, -9779.670510252776, -5585.008035303121, -13165.110428942495, -7990.480421838811, -4556.067831047515, -8067.057498342693, -5901.128757134528, -8180.3808427311, -11356.094343196672, -7924.788644884664, -7041.0453726107335, -5804.703331554334, -8685.86554358787, -10491.573571154306, -15354.866129740016, 0.0074375000000000005, 0.23293750000000002, 0.9497187500000002, 192.0, 0.0, 0.0, 0.0, 0.0, 0.0, 0.0, 0.0, 0.0, 0.0, 1.644588417647266E9, 0.0, 2022-02-12 01:06:57.647
240.0, -10199.123346701068, -9749.518006982566, -5573.586293886458, -13155.36506835998, -7988.357006115557, -4549.362307710923, -8057.535655204732, -5887.605951739068, -8172.960063571938, -11348.785322759786, -7932.9693833553065, -7032.775227162269, -5777.367148085493, -8679.696462118205, -10486.678539118593, -15348.56293780362, 0.0074375000000000005, 0.23293750000000002, 0.9497187500000002, 192.0, 0.0, 0.0, 0.0, 0.0, 0.0, 0.0, 0.0, 0.0, 0.0, 1.64458841765531E9, 0.0, 2022-02-12 01:06:57.655
