%OpenBCI Raw EEG Data
%Number of channels = 16
%Sample Rate = 125 Hz
%Board = OpenBCI_GUI$BoardCytonSerialDaisy
Sample Index, EXG Channel 0, EXG Channel 1, EXG Channel 2, EXG Channel 3, EXG Channel 4, EXG Channel 5, EXG Channel 6, EXG Channel 7, EXG Channel 8, EXG Channel 9, EXG Channel 10, EXG Channel 11, EXG Channel 12, EXG Channel 13, EXG Channel 14, EXG Channel 15, Accel Channel 0, Accel Channel 1, Accel Channel 2, Other, Other, Other, Other, Other, Other, Other, Analog Channel 0, Analog Channel 1, Analog Channel 2, Timestamp, Other, Timestamp (Formatted)
0.0, -9424.031904224385, -8879.498705804195, -5830.005506277741, -13543.771331759852, -7711.687113247766, -3601.625991061448, -7621.877804026342, -5414.866556509323, 0.0, 0.0, 0.0, 0.0, 0.0, 0.0, 0.0, 0.0, 0.0, 0.0, 0.0, 192.0, 0.0, 0.0, 0.0, 0.0, 0.0, 0.0, 0.0, 0.0, 0.0, 1.644588322048682E9, 0.0, 2022-02-12 01:05:22.048
222.0, -9434.91720377412, -8891.792165254614, -5838.610927893034, -13538.652782279585, -7705.965066667208, -3601.4024736168953, -7625.968173261664, -5419.381608889295, -10085.487077890288, -12436.756484121857, -6425.634792522764, -5349.86768363329, -4800.305342710655, -8051.411277223979, -10679.372928067796, -15765.802951550837, 0.002, 0.11900000000000001, 0.47300000000000003, 192.0, 0.0, 16.0, 3.5, 56.0, 14.5, 72.0, 0.0, 0.0, 0.0, 1.644588322048687E9, 0.0, 2022-02-12 01:05:22.048
0.0, -4743.4648565608095, -4480.340120832935, -2906.017351867837, -6797.3890063034305, -3865.9577209899094, -1819.7449230843692, -3791.0346735757203, -2690.166555662937, -5050.086086998712, -6222.122159257193, -3206.0895211803345, -2677.873096212518, -2399.0574358770177, -4024.4986444114024, -5340.994041084533, -7898.123013749482, 0.004, 0.24, 0.9480000000000001, 192.0, 0.0, 16.0, 3.5, 64.0, 14.5, 80.0, 0.0, 0.0, 0.0, 1.644588322156784E9, 0.0, 2022-02-12 01:05:22.156
2.0, -9477.944311850586, -8945.414000202894, -5811.565317102113, -13612.190021537546, -7741.012601973129, -3642.7532008592134, -7596.396815347292, -5388.893829452256, -10222.100940001124, -12566.083677540264, -6463.386888907778, -5416.609992576837, -4851.267320068756, -8033.798102593197, -10786.907170642278, -15825.303295290863, 0.004, 0.24, 0.9480000000000001, 192.0, 0.0, 0.0, 0.0, 0.0, 0.0, 0.0, 0.0, 0.0, 0.0, 1.644588322162631E9, 0.0, 2022-02-12 01:05:22.162
4.0, -9466.790791367388, -8970.045622592643, -5817.399122404948, -13601.97527432147, -7737.749247282654, -3650.1292765294647, -7589.378367588326, -5379.394338058751, -10210.858012540104, -12570.419915964594, -6473.847505312861, -5418.532242599994, -4871.182724378434, -8043.252890497791, -10784.47083049665, -15813.32276026282, 0.004, 0.24, 0.9480000000000001, 192.0, 0.0, 0.0, 0.0, 0.0, 0.0, 0.0, 0.0, 0.0, 0.0, 1.64458832217067E9, 0.0, 2022-02-12 01:05:22.170
6.0, -9487.108527077262, -8974.694785439347, -5809.866584523509, -13602.645826655129, -7744.655936319344, -3651.112753285498, -7592.820536234443, -5381.405995059728, -10211.148585218023, -12569.548197930837, -6474.294540201967, -5416.252364665552, -4878.15646864849, -8063.749440163308, -10789.164696832264, -15799.487030444985, 0.005, 0.239, 0.9490000000000001, 192.0, 0.0, 24.0, 3.5, 56.0, 14.5, 88.0, 0.0, 0.0, 0.0, 1.644588322178872E9, 0.0, 2022-02-12 01:05:22.178
8.0, -9502.17360284014, -8972.996052860744, -5808.883107767476, -13605.953884834515, -7749.752134055154, -3649.6375381514476, -7600.487184582614, -5384.870515450301, -10224.671390613485, -12584.63562543817, -6463.453944141143, -5417.504062355049, -4873.39554707951, -8049.377268478545, -10789.745842188102, -15834.445158773085, 0.005, 0.239, 0.9490000000000001, 192.0, 0.0, 0.0, 0.0, 0.0, 0.0, 0.0, 0.0, 0.0, 0.0, 1.644588322192197E9, 0.0, 2022-02-12 01:05:22.192
10.0, -9481.900570619175, -8967.810448147113, -5804.6139245765125, -13590.866457327184, -7735.223500159204, -3644.831913093557, -7595.480393824625, -5382.434175304673, -10212.199117207423, -12575.650224167137, -6466.158505220235, -5416.744103043568, -4861.839695196116, -8051.54538769071, -10790.215228821664, -15791.708623374538, 0.005, 0.239, 0.9490000000000001, 192.0, 0.0, 0.0, 0.0, 0.0, 0.0, 0.0, 0.0, 0.0, 0.0, 1.644588322200365E9, 0.0, 2022-02-12 01:05:22.200
12.0, -9478.950140351075, -8957.506293953216, -5805.463290865814, -13605.909181345605, -7745.997040986663, -3650.822180607579, -7599.347245615393, -5386.792765473458, -10219.351675433121, -12569.72701188648, -6460.2799964284895, -5417.057027465943, -4843.57831997613, -8041.397695708, -10792.070423611454, -15826.71145519155, 0.005, 0.239, 0.9490000000000001, 192.0, 0.0, 0.0, 0.0, 0.0, 0.0, 0.0, 0.0, 0.0, 0.0, 1.64458832220716E9, 0.0, 2022-02-12 01:05:22.207
14.0, -9474.54684669338, -8970.894988881944, -5817.108549727029, -13600.812983609794, -7742.599575829456, -3655.1360672874534, -7598.542582815002, -5384.646998005748, -10225.766626091794, -12569.615253164204, -6477.04380476997, -5425.528338614505, -4872.032090667736, -8051.612442924076, -10793.120955600853, -15814.708568419048, 0.005, 0.239, 0.9490000000000001, 192.0, 0.0, 0.0, 0.0, 0.0, 0.0, 0.0, 0.0, 0.0, 0.0, 1.644588322215132E9, 0.0, 2022-02-12 01:05:22.215
16.0, -9471.797582125377, -8974.381861016973, -5808.4360728783695, -13601.192963265536, -7740.811436273031, -3648.0952677840314, -7595.636856035812, -5389.787899230469, -10212.556745118707, -12575.314948000307, -6486.319778718923, -5413.905431497745, -4870.713337744873, -8047.20914926638, -10794.976150390643, -15800.157582778644, 0.006500000000000001, 0.2375, 0.9515, 192.0, 0.0, 32.0, 3.5, 48.0, 14.5, 104.0, 0.0, 0.0, 0.0, 1.644588322222742E9, 0.0, 2022-02-12 01:05:22.222
18.0, -9493.165849824649, -8960.121448054488, -5806.96085774432, -13604.478669700466, -7749.9532997552515, -3652.4538579528166, -7612.5347748440245, -5380.199000859142, -10215.842451553637, -12575.985500333965, -6456.949586504649, -5410.016227962521, -4869.260474355277, -8045.286899243224, -10796.026682380043, -15835.987429140501, 0.006500000000000001, 0.2375, 0.9515, 192.0, 0.0, 0.0, 0.0, 0.0, 0.0, 0.0, 0.0, 0.0, 0.0, 1.644588322230963E9, 0.0, 2022-02-12 01:05:22.230
20.0, -9485.92388462113, -8958.512122453705, -5805.91032575492, -13594.17451550657, -7734.351782125447, -3649.0116893066993, -7599.548411315491, -5386.345730584351, -10197.715186800384, -12572.319814243296, -6455.988461493071, -5428.657582838247, -4865.259512097778, -8044.884567843029, -10796.652531224792, -15792.155658263644, 0.006500000000000001, 0.2375, 0.9515, 192.0, 0.0, 0.0, 0.0, 0.0, 0.0, 0.0, 0.0, 0.0, 0.0, 1.644588322237326E9, 0.0, 2022-02-12 01:05:22.237
22.0, -9464.35445122176, -8964.792962645646, -5803.429282120381, -13599.762451620396, -7742.241947918171, -3651.112753285498, -7587.411414076259, -5383.663521249714, -10214.59075386414, -12576.119610800697, -6457.240159182568, -5410.038579706977, -4856.095296871102, -8044.459884698378, -10791.086946855421, -15825.303295290863, 0.006500000000000001, 0.2375, 0.9515, 192.0, 0.0, 0.0, 0.0, 0.0, 0.0, 0.0, 0.0, 0.0, 0.0, 1.644588322244375E9, 0.0, 2022-02-12 01:05:22.244
24.0, -9488.82961140032, -8965.642328934948, -5810.961820001819, -13589.905332315604, -7737.6821920492885, -3649.1010962845203, -7594.206344390673, -5385.205791617131, -10212.82496605217, -12574.018546821899, -6468.438383154677, -5408.742178528569, -4845.254700810278, -8040.838902096618, -10788.360034031874, -15810.417033483629, 0.006500000000000001, 0.2375, 0.9515, 192.0, 0.0, 0.0, 0.0, 0.0, 0.0, 0.0, 0.0, 0.0, 0.0, 1.644588322252448E9, 0.0, 2022-02-12 01:05:22.252
26.0, -9490.148364323184, -8976.639387206958, -5803.205764675828, -13591.06762302728, -7740.72202929521, -3651.2915672411405, -7594.094585668396, -5393.006550432033, -10214.233125952856, -12572.342165987751, -6464.236255197079, -5405.7023412826475, -4864.141924875013, -8044.63869865402, -10791.511630000072, -15801.789260123882, 0.00425, 0.23775000000000002, 0.95075, 192.0, 0.0, 8.0, 3.5, 56.0, 14.5, 88.0, 0.0, 0.0, 0.0, 1.64458832226045E9, 0.0, 2022-02-12 01:05:22.260
28.0, -9479.754803151465, -8967.586930702559, -5803.809261776121, -13594.442736440033, -7745.929985753297, -3651.5150846856936, -7597.737920014611, -5380.042538647955, -10214.635457353052, -12583.115706815208, -6451.808685279928, -5402.684855781181, -4858.263416083267, -8042.4482276974, -10788.404737520783, -15835.629801229215, 0.00425, 0.23775000000000002, 0.95075, 192.0, 0.0, 0.0, 0.0, 0.0, 0.0, 0.0, 0.0, 0.0, 0.0, 1.644588322266959E9, 0.0, 2022-02-12 01:05:22.266
30.0, -9474.189218782094, -8962.602491689026, -5801.730549541778, -13587.938378803537, -7733.994154214162, -3646.083610783054, -7591.725300756133, -5378.567323513905, -10201.380872891054, -12583.227465537486, -6451.8310370243835, -5407.646943050259, -4851.379078791032, -8045.443361454411, -10787.309502042473, -15792.110954774733, 0.00425, 0.23775000000000002, 0.95075, 192.0, 0.0, 0.0, 0.0, 0.0, 0.0, 0.0, 0.0, 0.0, 0.0, 1.644588322275322E9, 0.0, 2022-02-12 01:05:22.275
32.0, -9474.502143204469, -8965.463514979305, -5798.780119273677, -13602.154088277113, -7742.756038040643, -3649.570482918082, -7587.254951865072, -5374.901637423234, -10208.064044483192, -12575.426706722583, -6452.702755058141, -5412.519623341515, -4845.902901399481, -8039.363686962568, -10784.962568874666, -15822.978713867513, 0.00425, 0.23775000000000002, 0.95075, 192.0, 0.0, 0.0, 0.0, 0.0, 0.0, 0.0, 0.0, 0.0, 0.0, 1.644588322283389E9, 0.0, 2022-02-12 01:05:22.283
34.0, -9479.374823495726, -8964.882369623467, -5810.783006046177, -13591.335843960744, -7742.018430473618, -3650.9115875854004, -7595.055710679974, -5380.914256681712, -10207.706416571906, -12584.747384160446, -6466.985519765082, -5420.07451296741, -4841.544311230697, -8044.482236442833, -10787.555371231481, -15812.920428862624, 0.00425, 0.23775000000000002, 0.95075, 192.0, 0.0, 0.0, 0.0, 0.0, 0.0, 0.0, 0.0, 0.0, 0.0, 1.644588322290127E9, 0.0, 2022-02-12 01:05:22.290
36.0, -9472.579893181311, -8967.944558613844, -5798.534250084669, -13586.418460180577, -7743.426590374303, -3648.564654417593, -7593.960475201664, -5385.49636429505, -10210.88036428456, -12574.018546821899, -6470.427688411199, -5407.915163983723, -4851.9378724024145, -8040.101294529592, -10792.204534078186, -15795.486068187485, 0.004125, 0.235875, 0.946375, 192.0, 0.0, 16.0, 3.5, 40.0, 14.5, 56.0, 0.0, 0.0, 0.0, 1.644588322297841E9, 0.0, 2022-02-12 01:05:22.297
38.0, -9487.26498928845, -8980.238018064263, -5802.311694897616, -13599.136602775647, -7748.567491599023, -3656.5442271881375, -7593.558143801469, -5382.63534100477, -10213.11553873009, -12583.450982982038, -6458.983595250082, -5408.138681428276, -4861.258549840278, -8034.692172371409, -10788.874124154345, -15831.315914549341, 0.004125, 0.235875, 0.946375, 192.0, 0.0, 0.0, 0.0, 0.0, 0.0, 0.0, 0.0, 0.0, 0.0, 1.644588322305691E9, 0.0, 2022-02-12 01:05:22.305
40.0, -9482.772288652932, -8965.262349279208, -5799.651837307434, -13589.16772474858, -7733.301250136048, -3652.029174808166, -7591.032396678019, -5383.708224738625, -10204.644227581528, -12574.666747411102, -6471.321758189411, -5423.673143824714, -4848.696869456395, -8044.661050398476, -10786.951874131188, -15790.166353007122, 0.004125, 0.235875, 0.946375, 192.0, 0.0, 0.0, 0.0, 0.0, 0.0, 0.0, 0.0, 0.0, 0.0, 1.644588322319349E9, 0.0, 2022-02-12 01:05:22.319
42.0, -9480.537114207402, -8949.794942116136, -5797.014331461708, -13603.226972010967, -7746.377020642402, -3648.207026506308, -7591.859411222865, -5382.612989260315, -10211.30504742921, -12565.480180439972, -6459.117705716813, -5417.638172821781, -4844.986479876814, -8042.135303275026, -10789.18704857672, -15820.341208021786, 0.004125, 0.235875, 0.946375, 192.0, 0.0, 0.0, 0.0, 0.0, 0.0, 0.0, 0.0, 0.0, 0.0, 1.64458832232738E9, 0.0, 2022-02-12 01:05:22.327
44.0, -9485.275684031927, -8969.330366770073, -5809.173680445395, -13593.571018406275, -7744.812398530531, -3654.8454946095344, -7593.468736823647, -5381.651864248737, -10215.887155042548, -12594.760965676423, -6469.5559703774425, -5435.452513152661, -4848.071020611646, -8041.196530007903, -10790.595208477404, -15812.160469551143, 0.004125, 0.235875, 0.946375, 192.0, 0.0, 0.0, 0.0, 0.0, 0.0, 0.0, 0.0, 0.0, 0.0, 1.64458832233532E9, 0.0, 2022-02-12 01:05:22.335
46.0, -9479.397175240181, -8998.767614217713, -5803.988075731764, -13591.179381749556, -7747.226386931705, -3663.137991802453, -7599.101376426384, -5393.475937065594, -10214.836623053148, -12582.579264948281, -6474.495705902065, -5416.095902454365, -4838.929157129426, -8058.630890683043, -10797.121917858352, -15801.588094423783, 0.0050625, 0.23593750000000002, 0.9491875000000001, 192.0, 0.0, 24.0, 3.5, 48.0, 14.5, 96.0, 0.0, 0.0, 0.0, 1.644588322342394E9, 0.0, 2022-02-12 01:05:22.342
48.0, -9484.40396599817, -8972.079631338076, -5802.4458053643475, -13597.147297519125, -7751.048535233562, -3656.588930677048, -7605.672789296244, -5382.322416582396, -10222.190346978945, -12604.551029747849, -6468.773659321507, -5418.420483877717, -4852.451962524887, -8050.293690001213, -10797.27838006954, -15835.003952384468, 0.0050625, 0.23593750000000002, 0.9491875000000001, 192.0, 0.0, 0.0, 0.0, 0.0, 0.0, 0.0, 0.0, 0.0, 0.0, 1.64458832235002E9, 0.0, 2022-02-12 01:05:22.350
50.0, -9486.505029976968, -8974.337157528062, -5794.913267482909, -13581.568131633776, -7733.256546647138, -3641.5462066586265, -7597.424995592237, -5377.583846757871, -10201.11265195759, -12587.83192489528, -6464.437420897177, -5414.9783152315995, -4853.5248462587415, -8043.230538753336, -10788.918827643256, -15787.03710878338, 0.0050625, 0.23593750000000002, 0.9491875000000001, 192.0, 0.0, 0.0, 0.0, 0.0, 0.0, 0.0, 0.0, 0.0, 0.0, 1.644588322357845E9, 0.0, 2022-02-12 01:05:22.357
52.0, -9477.16200079465, -8963.407154489418, -5791.381691858971, -13593.369852706177, -7738.039819960573, -3644.0943055265316, -7586.718509998144, -5379.595503758848, -10207.237029938344, -12564.943738573043, -6452.747458547051, -5414.061893708932, -4838.124494329035, -8034.848634582596, -10783.465001996161, -15812.60750444025, 0.0050625, 0.23593750000000002, 0.9491875000000001, 192.0, 0.0, 0.0, 0.0, 0.0, 0.0, 0.0, 0.0, 0.0, 0.0, 1.644588322366073E9, 0.0, 2022-02-12 01:05:22.366
54.0, -9483.152268308671, -8985.40127103344, -5798.064863451107, -13583.177457234557, -7738.665668805322, -3646.4859421832493, -7598.162603159261, -5378.612027002815, -10201.805556035704, -12576.454886967527, -6445.103161943336, -5411.178518674197, -4827.060380823658, -8043.185835264425, -10781.453344995183, -15805.812574125835, 0.0050625, 0.23593750000000002, 0.9491875000000001, 192.0, 0.0, 0.0, 0.0, 0.0, 0.0, 0.0, 0.0, 0.0, 0.0, 1.644588322372043E9, 0.0, 2022-02-12 01:05:22.372
56.0, -9471.059974558351, -8979.567465730604, -5792.655741292923, -13587.178419492056, -7734.9776309701965, -3642.9096630704003, -7590.339492599905, -5380.422518303695, -10203.906620014504, -12573.549160188337, -6448.567682333909, -5415.894736754267, -4839.6667646964515, -8041.487102685822, -10784.47083049665, -15790.479277429497, 0.00853125, 0.23596875, 0.94959375, 192.0, 0.0, 48.0, 3.5, 48.0, 14.5, 88.0, 0.0, 0.0, 0.0, 1.644588322379857E9, 0.0, 2022-02-12 01:05:22.379
58.0, -9493.054091102373, -8963.340099256051, -5795.784985516666, -13595.40386145161, -7736.72106703771, -3647.469418939283, -7592.865239723354, -5384.021149160999, -10217.518832387786, -12600.281846556885, -6457.575435349398, -5407.266963394519, -4843.198340320389, -8036.323849716646, -10784.739051430113, -15826.242068557987, 0.00853125, 0.23596875, 0.94959375, 192.0, 0.0, 0.0, 0.0, 0.0, 0.0, 0.0, 0.0, 0.0, 0.0, 1.644588322387471E9, 0.0, 2022-02-12 01:05:22.387
60.0, -9483.040509586395, -8956.96985208629, -5799.763596029711, -13581.657538611596, -7726.662782032822, -3647.6258811504704, -7590.563010044457, -5385.49636429505, -10212.64615209653, -12581.238160280964, -6454.155618447736, -5418.286373410985, -4834.2129390493565, -8050.964242334872, -10782.28035954003, -15783.818457581814, 0.00853125, 0.23596875, 0.94959375, 192.0, 0.0, 0.0, 0.0, 0.0, 0.0, 0.0, 0.0, 0.0, 0.0, 1.64458832239579E9, 0.0, 2022-02-12 01:05:22.395
62.0, -9469.361241979748, -8989.156364101931, -5792.767500015199, -13598.890733586639, -7738.017468216118, -3650.173980018375, -7594.318103112949, -5385.429309061684, -10214.16607071949, -12582.311044014818, -6447.60655732233, -5409.54684132896, -4836.314003028155, -8044.661050398476, -10788.091813098408, -15817.144908564676, 0.00853125, 0.23596875, 0.94959375, 192.0, 0.0, 0.0, 0.0, 0.0, 0.0, 0.0, 0.0, 0.0, 0.0, 1.644588322402181E9, 0.0, 2022-02-12 01:05:22.402
64.0, -9486.97441661053, -8997.292399083663, -5800.054168707629, -13590.374718949166, -7731.602517557445, -3660.3663754899953, -7593.781661246021, -5390.078471908388, -10199.63743682354, -12582.758078903924, -6446.4219148662, -5406.752873272047, -4836.515168728253, -8050.07017255666, -10784.448478752194, -15810.685254417092, 0.00853125, 0.23596875, 0.94959375, 192.0, 0.0, 0.0, 0.0, 0.0, 0.0, 0.0, 0.0, 0.0, 0.0, 1.644588322410508E9, 0.0, 2022-02-12 01:05:22.410
66.0, -9476.133820549705, -8963.496561467238, -5789.14651741344, -13586.172590991568, -7727.802721000043, -3653.660852153403, -7585.667978008745, -5381.808326459924, -10195.748233288317, -12587.58605570627, -6444.231443909579, -5412.966658230622, -4821.450092965376, -8053.937024347428, -10786.840115408912, -15791.55216116335, 0.009265625, 0.238984375, 0.9497968750000001, 192.0, 0.0, 40.0, 3.5, 72.0, 14.5, 88.0, 0.0, 0.0, 0.0, 1.644588322418288E9, 0.0, 2022-02-12 01:05:22.418
68.0, -9487.44380324409, -8980.260369808719, -5785.52553481168, -13599.181306264558, -7733.994154214162, -3651.8503608525234, -7589.646588521789, -5384.870515450301, -10205.82887003766, -12611.413015295628, -6435.581318805375, -5407.557536072438, -4841.209035063867, -8038.715486373364, -10784.18025781873, -15826.353827280263, 0.009265625, 0.238984375, 0.9497968750000001, 192.0, 0.0, 0.0, 0.0, 0.0, 0.0, 0.0, 0.0, 0.0, 0.0, 1.644588322425117E9, 0.0, 2022-02-12 01:05:22.425
70.0, -9484.06868983134, -8978.53928548566, -5784.832630733566, -13587.871323570173, -7721.901860463841, -3647.2682532391855, -7589.892457710798, -5378.008529902521, -10202.610218836096, -12597.130250588687, -6442.040972952959, -5416.677047810203, -4837.520997228742, -8045.711582387875, -10784.247313052096, -15784.667823871116, 0.009265625, 0.238984375, 0.9497968750000001, 192.0, 0.0, 0.0, 0.0, 0.0, 0.0, 0.0, 0.0, 0.0, 0.0, 1.644588322440058E9, 0.0, 2022-02-12 01:05:22.440
72.0, -9483.554599708868, -8976.594683718049, -5782.95508419932, -13596.230875996456, -7727.914479722319, -3651.2692154966853, -7585.422108819736, -5383.663521249714, -10209.919239272982, -12586.177895805586, -6442.8456357533505, -5420.208623434141, -4834.883491383015, -8058.921463360962, -10785.968397375154, -15816.183783553099, 0.009265625, 0.238984375, 0.9497968750000001, 192.0, 0.0, 0.0, 0.0, 0.0, 0.0, 0.0, 0.0, 0.0, 0.0, 1.644588322447945E9, 0.0, 2022-02-12 01:05:22.447
74.0, -9477.318463005837, -8977.376994773984, -5783.737395255255, -13586.105535758203, -7721.298363363549, -3644.7648578601907, -7582.203457618172, -5385.943399184156, -10206.924105515971, -12579.561779446814, -6450.13230444578, -5410.30680064044, -4829.720238413839, -8050.271338256757, -10785.744879930602, -15806.37136773722, 0.009265625, 0.238984375, 0.9497968750000001, 192.0, 0.0, 0.0, 0.0, 0.0, 0.0, 0.0, 0.0, 0.0, 0.0, 1.644588322454751E9, 0.0, 2022-02-12 01:05:22.454
76.0, -9459.481770930503, -8961.44020097735, -5773.701461994822, -13577.723631587462, -7717.789139484065, -3639.534549657649, -7583.991597174597, -5370.945378654645, -10187.63455005104, -12568.92234908609, -6438.598804306842, -5407.9375157281775, -4819.326677242122, -8045.2645474987685, -10784.671996196746, -15783.55023664835, 0.008, 0.242, 0.9460000000000001, 192.0, 0.0, 32.0, 3.5, 72.0, 14.5, 72.0, 0.0, 0.0, 0.0, 1.644588322464176E9, 0.0, 2022-02-12 01:05:22.464
78.0, -9470.679994902612, -8963.876541122978, -5772.539171283147, -13586.910198558593, -7726.014581443618, -3646.0612590385986, -7582.628140762823, -5376.198038601642, -10199.436271123443, -12600.818288423812, -6427.244118123546, -5407.35637037234, -4816.175081273924, -8039.430742195934, -10785.431955508227, -15820.475318488518, 0.008, 0.242, 0.9460000000000001, 192.0, 0.0, 0.0, 0.0, 0.0, 0.0, 0.0, 0.0, 0.0, 0.0, 1.644588322470588E9, 0.0, 2022-02-12 01:05:22.470
80.0, -9493.679939947122, -8981.892047153957, -5775.511953295702, -13580.808172322295, -7718.124415650895, -3642.1050002700094, -7581.957588429164, -5372.264131577508, -10189.78031751875, -12590.447078996549, -6435.626022294286, -5417.660524566237, -4828.312078513155, -8051.523035946255, -10785.029624108032, -15776.084754000278, 0.008, 0.242, 0.9460000000000001, 192.0, 0.0, 0.0, 0.0, 0.0, 0.0, 0.0, 0.0, 0.0, 0.0, 1.644588322477683E9, 0.0, 2022-02-12 01:05:22.477
82.0, -9481.20766654106, -8975.119468583998, -5776.316616096094, -13590.799402093817, -7734.463540847724, -3645.4577619383053, -7584.863315208354, -5377.606198502326, -10202.811384536193, -12587.809573150824, -6443.091504942358, -5413.9277832422, -4830.882529125515, -8053.2441202693135, -10787.912999142767, -15808.31596950483, 0.008, 0.242, 0.9460000000000001, 192.0, 0.0, 0.0, 0.0, 0.0, 0.0, 0.0, 0.0, 0.0, 0.0, 1.644588322485328E9, 0.0, 2022-02-12 01:05:22.485
84.0, -9471.842285614286, -8967.855151636024, -5781.85984872101, -13584.250340968412, -7729.188529156271, -3638.104038012509, -7594.8098414909655, -5379.863724692313, -10208.935762516949, -12587.049613839343, -6438.576452562386, -5410.552669829449, -4832.827130893127, -8047.052687055193, -10787.175391575742, -15802.191591524077, 0.008, 0.242, 0.9460000000000001, 192.0, 0.0, 0.0, 0.0, 0.0, 0.0, 0.0, 0.0, 0.0, 0.0, 1.644588322492185E9, 0.0, 2022-02-12 01:05:22.492
86.0, -9460.711116875544, -8946.598642659026, -5768.851133448021, -13576.583692620241, -7714.369322582403, -3629.8115408195904, -7579.029509905519, -5369.045480375944, -10191.523753586263, -12559.892244326145, -6428.071132668392, -5402.103710425343, -4820.5336714427085, -8041.732971874831, -10784.94021713021, -15781.605634880738, 0.016, 0.24, 0.9480000000000001, 192.0, 0.0, 64.0, 3.5, 64.0, 14.5, 80.0, 0.0, 0.0, 0.0, 1.64458832250025E9, 0.0, 2022-02-12 01:05:22.500
88.0, -9462.92393957662, -8949.549072927126, -5772.583874772057, -13590.106498015703, -7719.174947640294, -3633.924261799367, -7580.88470469531, -5373.269960077997, -10191.322587886167, -12577.997157334943, -6422.170272132191, -5391.196059131153, -4801.914668311438, -8039.698963129397, -10779.151115316286, -15816.720225420026, 0.016, 0.24, 0.9480000000000001, 192.0, 0.0, 0.0, 0.0, 0.0, 0.0, 0.0, 0.0, 0.0, 0.0, 1.644588322507346E9, 0.0, 2022-02-12 01:05:22.507
90.0, -9482.414660741648, -8976.974663373789, -5778.28356960816, -13581.970463033971, -7719.152595895839, -3639.467494424283, -7578.291902338494, -5378.187343858164, -10196.195268177422, -12584.657977182625, -6435.961298461116, -5425.3048211699515, -4833.542386715697, -8046.4491899549, -10783.532057229526, -15778.521094145906, 0.016, 0.24, 0.9480000000000001, 192.0, 0.0, 0.0, 0.0, 0.0, 0.0, 0.0, 0.0, 0.0, 0.0, 1.644588322514834E9, 0.0, 2022-02-12 01:05:22.514
92.0, -9465.5837971668, -8969.687994681359, -5773.500296294725, -13584.049175268314, -7733.413008858324, -3641.43444793635, -7580.370614572837, -5377.561495013416, -10204.778338048262, -12593.486916242471, -6434.709600771618, -5402.595448803359, -4833.654145437974, -8055.88162611504, -10785.521362486048, -15812.115766062232, 0.016, 0.24, 0.9480000000000001, 192.0, 0.0, 0.0, 0.0, 0.0, 0.0, 0.0, 0.0, 0.0, 0.0, 1.644588322522862E9, 0.0, 2022-02-12 01:05:22.522
94.0, -9468.82480011282, -8971.699651682336, -5778.61884577499, -13572.15804721809, -7719.353761595937, -3638.282851968152, -7583.701024496678, -5380.40016655924, -10198.609256578597, -12563.021488549888, -6432.60853679282, -5390.100823652843, -4826.546290701186, -8050.584262679132, -10781.051013594988, -15797.69889088856, 0.016, 0.24, 0.9480000000000001, 192.0, 0.0, 0.0, 0.0, 0.0, 0.0, 0.0, 0.0, 0.0, 0.0, 1.644588322530809E9, 0.0, 2022-02-12 01:05:22.530
96.0, -9462.767477365433, -8956.232244519264, -5771.063956149096, -13571.487494884432, -7716.626848772389, -3634.416000177384, -7572.726317969123, -5374.2981403229405, -10188.238047151333, -12567.58124441877, -6427.132359401269, -5391.598390531349, -4821.561851687652, -8051.8359603686295, -10775.731298414625, -15775.682422600083, 0.006, 0.23800000000000002, 0.9480000000000001, 192.0, 0.0, 24.0, 3.5, 56.0, 14.5, 80.0, 0.0, 0.0, 0.0, 1.644588322537664E9, 0.0, 2022-02-12 01:05:22.537
98.0, -9456.196064495573, -8947.023325803677, -5779.535267297658, -13590.017091037882, -7726.573375055001, -3638.394610690428, -7574.35799531436, -5380.5789805148825, -10199.16805018998, -12597.376119777695, -6425.567737289398, -5408.205736661642, -4813.425816705921, -8045.935099832428, -10773.741993158103, -15816.139080064188, 0.006, 0.23800000000000002, 0.9480000000000001, 192.0, 0.0, 0.0, 0.0, 0.0, 0.0, 0.0, 0.0, 0.0, 0.0, 1.644588322545844E9, 0.0, 2022-02-12 01:05:22.545
100.0, -9478.6372159287, -8961.350793999529, -5784.854982478021, -13579.891750799627, -7724.539366309567, -3643.3790497039618, -7584.416280319248, -5384.78110847248, -10198.899829256516, -12592.034052852876, -6437.481217084077, -5422.823777535413, -4835.91167162796, -8052.864140613573, -10777.117106570853, -15774.810704566326, 0.006, 0.23800000000000002, 0.9480000000000001, 192.0, 0.0, 0.0, 0.0, 0.0, 0.0, 0.0, 0.0, 0.0, 0.0, 1.644588322553567E9, 0.0, 2022-02-12 01:05:22.553
102.0, -9478.838381628799, -8988.39640479045, -5782.731566754766, -13587.580750892253, -7737.6821920492885, -3644.4072299489058, -7582.158754129262, -5392.403053331739, -10215.149547475523, -12587.094317328254, -6439.135246173769, -5413.570155330915, -4843.019526364747, -8058.183855793936, -10786.013100864066, -15808.51713520493, 0.006, 0.23800000000000002, 0.9480000000000001, 192.0, 0.0, 0.0, 0.0, 0.0, 0.0, 0.0, 0.0, 0.0, 0.0, 1.644588322567294E9, 0.0, 2022-02-12 01:05:22.567
104.0, -9484.49337297599, -8972.325500527084, -5784.564409800102, -13582.35044268971, -7732.295421635559, -3641.1215235139757, -7588.394890832293, -5393.699454510147, -10203.97367524787, -12599.477183756493, -6442.063324697415, -5398.169803401209, -4840.2926135412, -8051.277166757246, -10784.202609563186, -15802.325701990809, 0.006, 0.23800000000000002, 0.9480000000000001, 192.0, 0.0, 0.0, 0.0, 0.0, 0.0, 0.0, 0.0, 0.0, 0.0, 1.644588322575122E9, 0.0, 2022-02-12 01:05:22.575
106.0, -9480.671224674134, -8959.897930609934, -5779.445860319836, -13580.428192666555, -7733.457712347235, -3642.6861456258475, -7583.276341352027, -5386.412785817717, -10195.815288521682, -12575.069078811299, -6433.837882737861, -5399.309742368429, -4832.044819837191, -8056.30630925969, -10784.292016541007, -15783.75140234845, 0.008, 0.234, 0.9440000000000001, 192.0, 0.0, 32.0, 3.5, 40.0, 14.5, 64.0, 0.0, 0.0, 0.0, 1.644588322583181E9, 0.0, 2022-02-12 01:05:22.583
108.0, -9470.456477458058, -8965.664680679403, -5781.882200465465, -13590.307663715801, -7738.352744382948, -3646.5529974166157, -7583.1869343742055, -5395.420538833206, -10206.678236326961, -12599.052500611842, -6428.540519301953, -5405.814100004924, -4826.6356976790075, -8056.887454615528, -10780.827496150434, -15820.005931854956, 0.008, 0.234, 0.9440000000000001, 192.0, 0.0, 0.0, 0.0, 0.0, 0.0, 0.0, 0.0, 0.0, 0.0, 1.644588322589627E9, 0.0, 2022-02-12 01:05:22.589
110.0, -9479.620692684734, -8970.090326081554, -5781.077537665074, -13570.883997784138, -7726.215747143716, -3640.4509711803166, -7577.442536049192, -5388.82677421889, -10197.312855400189, -12587.340186517262, -6433.949641460138, -5407.378722116795, -4831.933061114915, -8065.224655297358, -10784.917865385756, -15776.26356795592, 0.008, 0.234, 0.9440000000000001, 192.0, 0.0, 0.0, 0.0, 0.0, 0.0, 0.0, 0.0, 0.0, 0.0, 1.644588322597854E9, 0.0, 2022-02-12 01:05:22.597
112.0, -9473.786887381899, -8967.363413258006, -5775.467249806792, -13577.656576354097, -7738.442151360769, -3647.9611573172997, -7575.319120325938, -5398.0133411900215, -10210.478032884364, -12589.664767940614, -6423.310211099411, -5400.986123202578, -4836.224596050334, -8062.006004095794, -10787.018929364554, -15804.851449114258, 0.008, 0.234, 0.9440000000000001, 192.0, 0.0, 0.0, 0.0, 0.0, 0.0, 0.0, 0.0, 0.0, 0.0, 1.644588322605727E9, 0.0, 2022-02-12 01:05:22.605
114.0, -9478.97249209553, -8962.20016028883, -5781.949255698831, -13575.086125741736, -7731.177834412794, -3648.207026506308, -7587.12084139834, -5400.270867380008, -10201.336169402144, -12588.033090595376, -6428.898147213238, -5398.996817946055, -4835.844616394594, -8061.246044784313, -10787.912999142767, -15803.733861891493, 0.008, 0.234, 0.9440000000000001, 192.0, 0.0, 0.0, 0.0, 0.0, 0.0, 0.0, 0.0, 0.0, 0.0, 1.644588322613535E9, 0.0, 2022-02-12 01:05:22.613
116.0, -9461.806352353853, -8969.598587703536, -5774.9755114287755, -13573.007413507392, -7722.639468030867, -3643.468456681783, -7575.453230792669, -5394.59352428836, -10195.547067588219, -12589.754174918435, -6436.564795561409, -5392.335998098373, -4829.854348880572, -8054.808742381185, -10784.694347941202, -15780.041012768866, 0.004, 0.23800000000000002, 0.9420000000000001, 192.0, 0.0, 16.0, 3.5, 56.0, 14.5, 56.0, 0.0, 0.0, 0.0, 1.644588322620051E9, 0.0, 2022-02-12 01:05:22.620
118.0, -9479.598340940278, -8961.239035277253, -5778.060052163608, -13584.272692712868, -7729.724971023199, -3649.458724195805, -7575.989672659597, -5401.88019298079, -10209.11457647259, -12603.433442525084, -6428.048780923937, -5400.226163891097, -4826.568642445641, -8050.383096979034, -10776.401850748283, -15817.994274853978, 0.004, 0.23800000000000002, 0.9420000000000001, 192.0, 0.0, 0.0, 0.0, 0.0, 0.0, 0.0, 0.0, 0.0, 0.0, 1.644588322627205E9, 0.0, 2022-02-12 01:05:22.627
120.0, -9495.378672525725, -8972.884294138466, -5781.301055109627, -13570.191093706024, -7720.516052307613, -3646.0389072941434, -7574.44740229218, -5408.920992484212, -10194.429480365454, -12593.419861009104, -6442.957394475627, -5403.578925559393, -4819.840767364593, -8059.413201738978, -10776.804182148479, -15775.905940044635, 0.004, 0.23800000000000002, 0.9420000000000001, 192.0, 0.0, 0.0, 0.0, 0.0, 0.0, 0.0, 0.0, 0.0, 0.0, 1.644588322634646E9, 0.0, 2022-02-12 01:05:22.634
122.0, -9480.917093863141, -8961.037869577154, -5770.929845682364, -13575.242587952924, -7732.295421635559, -3643.222587492775, -7586.137364642306, -5403.266001137019, -10209.494556128331, -12593.15164007564, -6423.645487266242, -5391.218410875608, -4833.475331482331, -8064.285882030235, -10781.810972906467, -15805.834925870291, 0.004, 0.23800000000000002, 0.9420000000000001, 192.0, 0.0, 0.0, 0.0, 0.0, 0.0, 0.0, 0.0, 0.0, 0.0, 1.644588322642723E9, 0.0, 2022-02-12 01:05:22.642
124.0, -9481.453535730068, -8984.797773933145, -5781.613979532001, -13572.06864024027, -7724.472311076202, -3638.8416455795345, -7575.430879048215, -5398.214506890119, -10212.266172440788, -12603.142869847165, -6423.310211099411, -5395.577001044393, -4829.720238413839, -8054.227597025347, -10784.783754919024, -15801.252818256953, 0.004, 0.23800000000000002, 0.9420000000000001, 192.0, 0.0, 0.0, 0.0, 0.0, 0.0, 0.0, 0.0, 0.0, 0.0, 1.644588322650643E9, 0.0, 2022-02-12 01:05:22.650
126.0, -9474.569198437834, -8965.351756257029, -5771.354528827015, -13571.912178029082, -7717.967953439707, -3634.6395176219366, -7556.744820683578, -5394.392358588262, -10195.524715843763, -12577.72893640148, -6421.231498865069, -5383.551762527438, -4815.906860340459, -8051.54538769071, -10780.358109516872, -15778.610501123727, 0.004, 0.23800000000000002, 0.9400000000000001, 192.0, 0.0, 16.0, 3.5, 56.0, 14.5, 48.0, 0.0, 0.0, 0.0, 1.644588322657249E9, 0.0, 2022-02-12 01:05:22.657
128.0, -9462.186332009594, -8945.950442069823, -5781.211648131806, -13593.97334980647, -7727.57920355549, -3644.563692160093, -7565.886684165798, -5398.929762712689, -10206.410015393498, -12598.381948278184, -6419.108083141814, -5399.935591213178, -4818.1867382749015, -8049.73489638983, -10777.854714137879, -15821.950533622568, 0.004, 0.23800000000000002, 0.9400000000000001, 192.0, 0.0, 0.0, 0.0, 0.0, 0.0, 0.0, 0.0, 0.0, 0.0, 1.644588322665445E9, 0.0, 2022-02-12 01:05:22.665
130.0, -9495.445727759092, -8962.468381222294, -5785.704348767323, -13578.841218810228, -7719.644334273856, -3650.6210149074814, -7576.861390693354, -5400.896716224756, -10196.73171004435, -12585.596750449748, -6433.256737382024, -5420.45449262315, -4814.968087073336, -8057.490951715822, -10782.660339195769, -15783.796105837358, 0.004, 0.23800000000000002, 0.9400000000000001, 192.0, 0.0, 0.0, 0.0, 0.0, 0.0, 0.0, 0.0, 0.0, 0.0, 1.644588322673269E9, 0.0, 2022-02-12 01:05:22.673
132.0, -9478.570160695333, -8993.693768226358, -5785.167906900395, -13583.758602590395, -7736.788122271076, -3658.7123464003025, -7578.001329660575, -5408.183384917186, -10214.568402119685, -12606.138003604176, -6433.569661804398, -5374.25343683403, -4839.286785040711, -8061.782486651241, -10788.963531132165, -15814.529754463407, 0.004, 0.23800000000000002, 0.9400000000000001, 192.0, 0.0, 0.0, 0.0, 0.0, 0.0, 0.0, 0.0, 0.0, 0.0, 1.644588322686924E9, 0.0, 2022-02-12 01:05:22.686
134.0, -9490.796564912387, -8977.0193668627, -5791.4710988367915, -13581.791649078328, -7737.235157160182, -3662.7133086578024, -7583.432803563214, -5409.792710517969, -10216.781224820761, -12606.763852448923, -6428.965202446605, -5398.080396423387, -4844.5394449877085, -8076.892265903029, -10789.879952654834, -15814.060367829845, 0.004, 0.23800000000000002, 0.9400000000000001, 192.0, 0.0, 0.0, 0.0, 0.0, 0.0, 0.0, 0.0, 0.0, 0.0, 1.644588322695174E9, 0.0, 2022-02-12 01:05:22.695
136.0, -9503.090024362806, -8974.024233105687, -5784.743223755744, -13583.624492123663, -7730.440226845769, -3656.588930677048, -7577.487239538103, -5407.222259905608, -10212.981428263358, -12611.301256573352, -6424.673667511185, -5406.439948849672, -4838.124494329035, -8073.137172834537, -10785.856638652878, -15788.713489617527, 0.004, 0.23800000000000002, 0.9400000000000001, 192.0, 0.0, 0.0, 3.5, 56.0, 14.5, 48.0, 0.0, 0.0, 0.0, 1.644588322702932E9, 0.0, 2022-02-12 01:05:22.702
138.0, -9499.02200687194, -8999.996960162754, -5785.704348767323, -13596.342634718732, -7726.640430288367, -3656.3207097435848, -7572.279283080016, -5404.741216271069, -10219.195213221934, -12615.771605464412, -6419.085731397358, -5404.45064359315, -4834.123532071535, -8059.368498250067, -10781.207475806175, -15829.728940693014, 0.004, 0.23800000000000002, 0.9400000000000001, 192.0, 0.0, 0.0, 0.0, 0.0, 0.0, 0.0, 0.0, 0.0, 0.0, 1.644588322709504E9, 0.0, 2022-02-12 01:05:22.709
140.0, -9502.620637729244, -8993.872582182, -5788.967703457797, -13581.29991070031, -7724.248793631648, -3652.9008928419225, -7581.957588429164, -5408.78688201748, -10210.053349739714, -12608.417881538617, -6433.949641460138, -5406.529355827493, -4828.110912813057, -8063.056536085193, -10781.922731628745, -15787.484143672484, 0.004, 0.23800000000000002, 0.9400000000000001, 192.0, 0.0, 0.0, 0.0, 0.0, 0.0, 0.0, 0.0, 0.0, 0.0, 1.644588322717596E9, 0.0, 2022-02-12 01:05:22.717
142.0, -9482.861695630752, -8973.979529616778, -5786.285494123161, -13587.3572334477, -7732.027200702096, -3652.275043997174, -7574.939140670198, -5400.740254013569, -10211.64032359604, -12604.059291369831, -6429.009905935515, -5392.224239376097, -4825.361648245054, -8052.618271424565, -10785.476658997139, -15814.261533529942, 0.004, 0.23800000000000002, 0.9400000000000001, 192.0, 0.0, 0.0, 0.0, 0.0, 0.0, 0.0, 0.0, 0.0, 0.0, 1.64458832272557E9, 0.0, 2022-02-12 01:05:22.725
144.0, -9480.380651996215, -8971.006747604222, -5794.019197704697, -13586.440811925033, -7729.546157067556, -3655.3595847320066, -7579.9012279392755, -5405.568230815916, -10212.489689885342, -12594.82802090979, -6431.267432125501, -5404.025960448499, -4839.219729807345, -8055.725163903852, -10781.006310106077, -15812.138117806688, 0.004, 0.23800000000000002, 0.9400000000000001, 192.0, 0.0, 0.0, 0.0, 0.0, 0.0, 0.0, 0.0, 0.0, 0.0, 1.644588322733645E9, 0.0, 2022-02-12 01:05:22.733
146.0, -9495.445727759092, -8970.157381314919, -5790.688787780856, -13581.366965933677, -7730.328468123493, -3652.8338376085567, -7578.3142540829485, -5405.724693027102, -10218.725826588372, -12610.049558883853, -6430.663935025208, -5399.533259812983, -4837.453941995375, -8064.040012841227, -10783.353243273885, -15785.226617482498, -0.002, 0.242, 0.9460000000000001, 192.0, 127.5, 120.0, 3.5, 72.0, 14.5, 72.0, 0.0, 0.0, 0.0, 1.644588322739711E9, 0.0, 2022-02-12 01:05:22.739
148.0, -9510.644913988699, -8999.259352595729, -5795.650875049934, -13593.079280028258, -7740.3196978950145, -3665.306111014618, -7584.528039041525, -5421.840300779379, -10225.87838481407, -12620.621934011215, -6425.053647166926, -5391.441928320161, -4839.867930396549, -8063.637681441031, -10784.671996196746, -15830.265382559943, -0.002, 0.242, 0.9460000000000001, 192.0, 0.0, 0.0, 0.0, 0.0, 0.0, 0.0, 0.0, 0.0, 0.0, 1.644588322747218E9, 0.0, 2022-02-12 01:05:22.747
150.0, -9505.615771486257, -8990.855096680534, -5796.723758783789, -13587.78191659235, -7728.048590189051, -3657.4830004552605, -7584.460983808159, -5404.584754059882, -10216.982390520858, -12594.537448231871, -6435.93894671666, -5410.150338429254, -4834.011773349259, -8083.195457839425, -10787.063632853466, -15794.212018753531, -0.002, 0.242, 0.9460000000000001, 192.0, 0.0, 0.0, 0.0, 0.0, 0.0, 0.0, 0.0, 0.0, 0.0, 1.644588322755342E9, 0.0, 2022-02-12 01:05:22.755
152.0, -9492.11531783525, -8980.528590742182, -5793.885087237965, -13593.16868700608, -7736.139921681872, -3659.1593812894084, -7580.88470469531, -5401.231992391586, -10221.45273941192, -12603.902829158644, -6433.234385637568, -5408.11632968382, -4819.192566775389, -8066.386946009034, -10789.052938109988, -15817.457832987051, -0.002, 0.242, 0.9460000000000001, 192.0, 0.0, 0.0, 0.0, 0.0, 0.0, 0.0, 0.0, 0.0, 0.0, 1.644588322762418E9, 0.0, 2022-02-12 01:05:22.762
154.0, -9496.987998126508, -8975.745317428746, -5798.6907122958555, -13587.021957280871, -7735.849349003953, -3659.271140011685, -7588.283132110016, -5408.0492744504545, -10222.704437101416, -12615.503384530948, -6439.112894429314, -5409.971524473611, -4841.834883908616, -8060.083754072637, -10790.774022433046, -15820.587077210794, 0.002, 0.24, 0.9450000000000001, 192.0, 0.0, 24.0, 3.5, 56.0, 14.5, 64.0, 0.0, 0.0, 0.0, 1.644588322771346E9, 0.0, 2022-02-12 01:05:22.771
156.0, -9496.45155625958, -9006.054282910143, -5789.2359243912615, -13583.557436890298, -7733.301250136048, -3659.695823156336, -7573.6203877473345, -5406.328190127396, -10213.182593963456, -12614.49755603046, -6442.331545630878, -5402.528393569994, -4832.693020426395, -8067.146905320515, -10788.114164842864, -15796.558951921339, 0.002, 0.24, 0.9450000000000001, 192.0, 0.0, 0.0, 0.0, 0.0, 0.0, 0.0, 0.0, 0.0, 0.0, 1.644588322777898E9, 0.0, 2022-02-12 01:05:22.777
158.0, -9500.83249817282, -8993.44789903735, -5784.743223755744, -13592.565189905787, -7735.357610625936, -3661.2604452682076, -7571.251102835072, -5403.1765941591975, -10216.423596909475, -12615.838660697778, -6422.237327365557, -5388.06681490741, -4825.3392965006, -8062.654204684998, -10784.336720029918, -15835.205118084565, 0.002, 0.24, 0.9450000000000001, 192.0, 0.0, 0.0, 0.0, 0.0, 0.0, 0.0, 0.0, 0.0, 0.0, 1.644588322786195E9, 0.0, 2022-02-12 01:05:22.786
160.0, -9493.92580913613, -8963.854189378522, -5791.158174414418, -13575.73432633094, -7718.750264495643, -3656.0301370656657, -7565.685518465701, -5400.114405168821, -10209.762777061795, -12597.86785815571, -6425.724199500585, -5401.991951703067, -4805.513299168742, -8065.247007041813, -10782.36976651785, -15791.21688499652, 0.002, 0.24, 0.9450000000000001, 192.0, 0.0, 0.0, 0.0, 0.0, 0.0, 0.0, 0.0, 0.0, 0.0, 1.64458832279263E9, 0.0, 2022-02-12 01:05:22.792
162.0, -9484.78394565391, -8963.563616700605, -5784.720872011289, -13581.255207211401, -7730.619040801412, -3655.4266399653725, -7557.616538717335, -5400.8296609913905, -10205.381835148553, -12592.950474375544, -6429.725161758085, -5400.226163891097, -4818.678476652918, -8053.914672602973, -10780.447516494694, -15805.65611191465, 0.002, 0.24, 0.9450000000000001, 192.0, 0.0, 0.0, 0.0, 0.0, 0.0, 0.0, 0.0, 0.0, 0.0, 1.644588322800447E9, 0.0, 2022-02-12 01:05:22.800
164.0, -9500.385463283714, -8975.410041261917, -5792.275761637183, -13583.266864212379, -7729.948488467752, -3656.7677446326907, -7568.255969078061, -5401.075530180398, -10210.858012540104, -12602.069986113309, -6423.421969821688, -5390.927838197689, -4830.368439003043, -8059.59201569462, -10779.061708338466, -15807.779527637904, 0.006, 0.24, 0.9455, 192.0, 0.0, 40.0, 3.5, 64.0, 14.5, 72.0, 0.0, 0.0, 0.0, 1.644588322815469E9, 0.0, 2022-02-12 01:05:22.815
166.0, -9491.40006201268, -8980.953273886833, -5784.631465033468, -13584.965596790982, -7724.874642476398, -3655.560750432104, -7565.797277187977, -5397.499251067549, -10214.523698630775, -12598.58311397828, -6421.343257587345, -5393.7888614879685, -4820.846595865082, -8061.290748273224, -10780.000481605588, -15785.874818071703, 0.006, 0.24, 0.9455, 192.0, 0.0, 0.0, 0.0, 0.0, 0.0, 0.0, 0.0, 0.0, 0.0, 1.644588322822162E9, 0.0, 2022-02-12 01:05:22.822
168.0, -9498.038530115906, -8992.777346703691, -5785.771404000689, -13598.510753930897, -7738.9115379943305, -3662.400384235428, -7576.7272802266225, -5405.300009882451, -10224.336114446654, -12622.700646245557, -6415.822376706884, -5394.302951610441, -4826.725104656828, -8057.133323804537, -10780.626330450337, -15830.555955237862, 0.006, 0.24, 0.9455, 192.0, 0.0, 0.0, 0.0, 0.0, 0.0, 0.0, 0.0, 0.0, 0.0, 1.644588322830293E9, 0.0, 2022-02-12 01:05:22.830
170.0, -9480.291245018392, -8963.273044022686, -5791.068767436596, -13581.322262444766, -7720.359590096426, -3653.794962620135, -7568.680652222712, -5397.499251067549, -10211.2603439403, -12607.121480360209, -6432.183853648169, -5404.204774404142, -4820.868947609538, -8060.374326750556, -10779.12876357183, -15788.065289028322, 0.006, 0.24, 0.9455, 192.0, 0.0, 0.0, 0.0, 0.0, 0.0, 0.0, 0.0, 0.0, 0.0, 1.644588322838183E9, 0.0, 2022-02-12 01:05:22.838
172.0, -9480.045375829384, -8980.439183764362, -5779.7140812533, -13584.630320624152, -7719.912555207319, -3651.693898641336, -7550.35222176936, -5391.576038786893, -10211.170936962479, -12576.656052667626, -6423.086693654859, -5404.495347082061, -4799.925363054916, -8052.573567935654, -10774.680766425225, -15801.789260123882, 0.006, 0.24, 0.9455, 192.0, 0.0, 0.0, 0.0, 0.0, 0.0, 0.0, 0.0, 0.0, 0.0, 1.644588322844762E9, 0.0, 2022-02-12 01:05:22.844
174.0, -9495.848059159287, -8984.06016636612, -5778.931770197364, -13580.428192666555, -7719.554927296034, -3658.6452911669367, -7563.629157975813, -5403.400111603751, -10218.368198677088, -12593.911599387122, -6415.598859262331, -5379.103765380832, -4816.040970807191, -8055.076963314648, -10771.126839056831, -15806.12549854821, 0.007, 0.239, 0.9457500000000001, 192.0, 0.0, 32.0, 3.5, 56.0, 14.5, 72.0, 0.0, 0.0, 0.0, 1.644588322853494E9, 0.0, 2022-02-12 01:05:22.853
176.0, -9484.627483442722, -8974.471267994793, -5771.66745324939, -13578.193018221024, -7716.492738305657, -3662.0651080685984, -7556.409544516748, -5402.438986592172, -10204.621875837074, -12606.026244881898, -6410.45795803761, -5389.430271319184, -4809.178985259412, -8065.35876576409, -10774.9936908476, -15785.36072794923, 0.007, 0.239, 0.9457500000000001, 192.0, 0.0, 0.0, 0.0, 0.0, 0.0, 0.0, 0.0, 0.0, 0.0, 1.644588322860712E9, 0.0, 2022-02-12 01:05:22.860
178.0, -9466.164942522639, -8967.877503380478, -5780.071709164586, -13592.02874803886, -7734.888223992375, -3673.956236118822, -7567.607768488857, -5407.043445949966, -10214.277829441766, -12602.382910535684, -6411.307324326912, -5390.3243410973955, -4818.030276063714, -8060.374326750556, -10779.151115316286, -15831.56178373835, 0.007, 0.239, 0.9457500000000001, 192.0, 0.0, 0.0, 0.0, 0.0, 0.0, 0.0, 0.0, 0.0, 0.0, 1.644588322868238E9, 0.0, 2022-02-12 01:05:22.868
180.0, -9478.838381628799, -8952.365392728496, -5781.569276043091, -13574.840256552729, -7715.419854571803, -3665.373166247984, -7555.44841950517, -5401.835489491879, -10194.87651525456, -12582.042823081354, -6419.041027908448, -5396.44871907815, -4808.016694547737, -8076.467582758378, -10778.435859493717, -15791.373347207707, 0.007, 0.239, 0.9457500000000001, 192.0, 0.0, 0.0, 0.0, 0.0, 0.0, 0.0, 0.0, 0.0, 0.0, 1.644588322874521E9, 0.0, 2022-02-12 01:05:22.874
182.0, -9495.892762648196, -8991.413890291917, -5771.66745324939, -13581.992814778427, -7726.841595988464, -3660.7687068901905, -7553.302652037461, -5400.0697016799095, -10209.852184039615, -12591.251741796941, -6415.531804028965, -5390.9725416865995, -4807.256735236256, -8057.937986604928, -10773.406716991272, -15810.998178839467, 0.007, 0.239, 0.9457500000000001, 192.0, 0.0, 0.0, 0.0, 0.0, 0.0, 0.0, 0.0, 0.0, 0.0, 1.644588322882513E9, 0.0, 2022-02-12 01:05:22.882
184.0, -9501.704216206577, -8998.722910728802, -5779.4905638087475, -13585.569093891276, -7729.076770433995, -3669.597645950037, -7565.238483576594, -5412.609030319337, -10220.290448700243, -12604.729843703491, -6410.547365015432, -5389.251457363541, -4821.4724447098315, -8051.903015601995, -10773.317310013452, -15814.060367829845, 0.0085, 0.2375, 0.9468750000000001, 192.0, 0.0, 40.0, 3.5, 48.0, 14.5, 80.0, 0.0, 0.0, 0.0, 1.644588322890554E9, 0.0, 2022-02-12 01:05:22.890
186.0, -9482.615826441745, -8983.948407643844, -5774.349662584026, -13580.227026966457, -7721.43247383028, -3666.334291259562, -7558.868236406832, -5409.278620395497, -10212.02030325178, -12601.332378546284, -6417.968144174593, -5397.387492345273, -4813.515223683742, -8065.850504142107, -10773.630234435825, -15792.937969319579, 0.0085, 0.2375, 0.9468750000000001, 192.0, 0.0, 0.0, 0.0, 0.0, 0.0, 0.0, 0.0, 0.0, 0.0, 1.644588322897523E9, 0.0, 2022-02-12 01:05:22.897
188.0, -9487.600265455278, -8976.035890106665, -5782.508049310213, -13591.425250938566, -7727.9368314667745, -3668.8153348941014, -7563.11506785334, -5396.828698733891, -10222.324457445677, -12602.11468960222, -6422.103216898825, -5396.202849889141, -4801.75820610025, -8058.429724982945, -10773.540827458004, -15831.673542460627, 0.0085, 0.2375, 0.9468750000000001, 192.0, 0.0, 0.0, 0.0, 0.0, 0.0, 0.0, 0.0, 0.0, 0.0, 1.644588322905302E9, 0.0, 2022-02-12 01:05:22.905
190.0, -9499.759614438964, -8968.101020825032, -5778.99882543073, -13575.68962284203, -7714.749302238143, -3664.702613914325, -7560.075230607418, -5400.986123202578, -10207.192326449434, -12596.370291277206, -6420.918574442694, -5407.378722116795, -4826.836863379105, -8065.3364140196345, -10771.395059990295, -15789.764021606927, 0.0085, 0.2375, 0.9468750000000001, 192.0, 0.0, 0.0, 0.0, 0.0, 0.0, 0.0, 0.0, 0.0, 0.0, 1.644588322913005E9, 0.0, 2022-02-12 01:05:22.913
192.0, -9476.06676531634, -8978.516933741204, -5772.695633494334, -13587.759564847895, -7723.533537809079, -3665.2614075257075, -7556.744820683578, -5398.572134801404, -10205.247724681822, -12595.140945332163, -6413.0284086499705, -5391.687797509169, -4816.130377785013, -8060.061402328182, -10771.08213556792, -15812.31693176233, 0.0085, 0.2375, 0.9468750000000001, 192.0, 0.0, 0.0, 0.0, 0.0, 0.0, 0.0, 0.0, 0.0, 0.0, 1.644588322921203E9, 0.0, 2022-02-12 01:05:22.921
194.0, -9488.136707322206, -8968.481000480771, -5780.585799287057, -13597.415518452588, -7722.86298547542, -3664.501448214227, -7564.478524265114, -5399.73442551308, -10213.406111408009, -12595.655035454636, -6419.041027908448, -5394.995855688555, -4818.700828397373, -8057.781524393741, -10769.629272178325, -15818.530716720907, 0.00825, 0.23875, 0.9474375000000002, 192.0, 0.0, 32.0, 3.5, 64.0, 14.5, 80.0, 0.0, 0.0, 0.0, 1.644588322934782E9, 0.0, 2022-02-12 01:05:22.934
196.0, -9490.662454445655, -8985.155401844431, -5780.496392309236, -13587.647806125618, -7722.840633730964, -3672.0786895845763, -7560.611672474346, -5406.037617449477, -10213.093186985634, -12591.63172145268, -6429.456940824622, -5414.732446042592, -4817.4267789634205, -8070.566722222176, -10775.50778097007, -15792.468582686019, 0.00825, 0.23875, 0.9474375000000002, 192.0, 0.0, 0.0, 0.0, 0.0, 0.0, 0.0, 0.0, 0.0, 0.0, 1.64458832294266E9, 0.0, 2022-02-12 01:05:22.942
198.0, -9502.777099940431, -8984.39544253295, -5782.262180121205, -13586.217294480479, -7733.1000844359505, -3675.543209975149, -7570.088812123396, -5410.798539018458, -10231.533376161264, -12618.140890376675, -6419.644525008742, -5394.25824812153, -4809.670723637429, -8065.314062275179, -10781.386289761816, -15833.640495972693, 0.00825, 0.23875, 0.9474375000000002, 192.0, 0.0, 0.0, 0.0, 0.0, 0.0, 0.0, 0.0, 0.0, 0.0, 1.644588322949797E9, 0.0, 2022-02-12 01:05:22.949
200.0, -9500.854849917276, -8979.500410497238, -5788.43126159087, -13574.63909085263, -7719.152595895839, -3672.235151795763, -7568.233617333605, -5405.143547671264, -10220.469262655886, -12598.337244789273, -6421.767940731996, -5397.096919667354, -4820.846595865082, -8067.459829742888, -10785.051975852488, -15794.435536198085, 0.00825, 0.23875, 0.9474375000000002, 192.0, 0.0, 0.0, 0.0, 0.0, 0.0, 0.0, 0.0, 0.0, 0.0, 1.64458832295811E9, 0.0, 2022-02-12 01:05:22.958
202.0, -9482.504067719468, -8980.126259341987, -5778.820011475088, -13584.563265390787, -7729.47910183419, -3668.994148849744, -7564.389117287293, -5407.02109420551, -10225.587812136151, -12603.63460822518, -6422.349086087834, -5391.151355642242, -4818.879642353016, -8060.597844195109, -10786.884818897823, -15811.489917217485, 0.00825, 0.23875, 0.9474375000000002, 192.0, 0.0, 0.0, 0.0, 0.0, 0.0, 0.0, 0.0, 0.0, 0.0, 1.644588322965783E9, 0.0, 2022-02-12 01:05:22.965
204.0, -9475.507971704958, -8971.364375515506, -5781.926903954376, -13581.702242100508, -7723.488834320168, -3666.401346492928, -7567.943044655686, -5404.607105804337, -10216.557707376207, -12580.925235858589, -6418.146958130236, -5394.794689988457, -4813.895203339482, -8057.35684124909, -10782.28035954003, -15814.79797539687, 0.011125, 0.235375, 0.94471875, 192.0, 0.0, 56.0, 3.5, 32.0, 14.5, 56.0, 0.0, 0.0, 0.0, 1.64458832297333E9, 0.0, 2022-02-12 01:05:22.973
206.0, -9485.655663687667, -8981.646177964947, -5774.640235261945, -13579.3553089327, -7713.564659782012, -3660.500485956727, -7559.49408525158, -5395.755815000036, -10210.58979160664, -12582.15458180363, -6430.507472814021, -5400.159108657731, -4807.6814183809065, -8059.212036038881, -10775.619539692349, -15785.31602446032, 0.011125, 0.235375, 0.94471875, 192.0, 0.0, 0.0, 0.0, 0.0, 0.0, 0.0, 0.0, 0.0, 0.0, 1.644588322979853E9, 0.0, 2022-02-12 01:05:22.979
208.0, -9478.145477550683, -8986.25063732274, -5775.467249806792, -13587.69250961453, -7722.393598841858, -3663.182695291364, -7563.137419597795, -5400.024998190999, -10221.922126045481, -12620.577230522304, -6411.352027815822, -5386.3904340732615, -4804.2839532237, -8053.110009802582, -10774.300786769485, -15831.338266293797, 0.011125, 0.235375, 0.94471875, 192.0, 0.0, 0.0, 0.0, 0.0, 0.0, 0.0, 0.0, 0.0, 0.0, 1.644588322986882E9, 0.0, 2022-02-12 01:05:22.986
210.0, -9492.562352724357, -8960.054392821121, -5781.52457255418, -13570.25814893939, -7711.418892314303, -3657.7065178998137, -7562.913902153243, -5393.185364387675, -10219.68695159995, -12589.553009218336, -6414.056588894915, -5405.0541406934435, -4797.869002565027, -8062.207169795892, -10772.803219890979, -15790.50162917395, 0.011125, 0.235375, 0.94471875, 192.0, 0.0, 0.0, 0.0, 0.0, 0.0, 0.0, 0.0, 0.0, 0.0, 1.644588322995063E9, 0.0, 2022-02-12 01:05:22.995
212.0, -9479.285416517903, -8966.871674879989, -5776.629540518468, -13582.886884556638, -7718.90672670683, -3656.8795033549673, -7562.69038470869, -5396.940457456167, -10221.408035923008, -12572.342165987751, -6419.286897097457, -5395.30878011093, -4806.496775924776, -8054.3617074920785, -10777.631196693326, -15807.80187938236, 0.011125, 0.235375, 0.94471875, 192.0, 0.0, 0.0, 0.0, 0.0, 0.0, 0.0, 0.0, 0.0, 0.0, 1.644588323002955E9, 0.0, 2022-02-12 01:05:23.002
214.0, -9488.919018378141, -8984.01546287721, -5786.509011567714, -13585.747907846917, -7721.745398252654, -3667.8318581380677, -7574.0897743808955, -5406.551707571949, -10221.54214638974, -12612.910582174132, -6422.505548299021, -5391.30781785343, -4808.128453270013, -8046.404486465989, -10778.413507749261, -15816.921391120124, 0.0145625, 0.2356875, 0.947359375, 192.0, 0.0, 72.0, 3.5, 48.0, 14.5, 88.0, 0.0, 0.0, 0.0, 1.644588323009762E9, 0.0, 2022-02-12 01:05:23.009
216.0, -9480.87239037423, -8995.034872893677, -5782.1951248878395, -13578.952977532505, -7718.057360417529, -3664.1661720473976, -7562.355108541859, -5398.549783056949, -10223.01736152379, -12601.35473029074, -6433.189682148658, -5397.16397490072, -4815.392770217988, -8059.279091272247, -10780.93925487271, -15791.50745767444, 0.0145625, 0.2356875, 0.947359375, 192.0, 0.0, 0.0, 0.0, 0.0, 0.0, 0.0, 0.0, 0.0, 0.0, 1.644588323017736E9, 0.0, 2022-02-12 01:05:23.017
218.0, -9491.824745157332, -8982.517895998704, -5787.738357512755, -13588.228951481457, -7730.9319652237855, -3665.0378900811543, -7569.909998167754, -5403.310704625929, -10227.55476564822, -12609.557820505837, -6430.12749315828, -5396.49342256706, -4805.267429979734, -8060.97782385085, -10780.872199639345, -15831.718245949538, 0.0145625, 0.2356875, 0.947359375, 192.0, 0.0, 0.0, 0.0, 0.0, 0.0, 0.0, 0.0, 0.0, 0.0, 1.644588323025648E9, 0.0, 2022-02-12 01:05:23.025
220.0, -9486.505029976968, -8966.558750457616, -5791.359340114515, -13577.701279843008, -7709.340180079959, -3659.919340600889, -7572.189876102195, -5405.210602904631, -10222.88325105706, -12599.991273878966, -6432.742647259552, -5407.915163983723, -4824.020543577736, -8061.961300606883, -10777.966472860155, -15792.826210597303, 0.0145625, 0.2356875, 0.947359375, 192.0, 0.0, 0.0, 0.0, 0.0, 0.0, 0.0, 0.0, 0.0, 0.0, 1.644588323032855E9, 0.0, 2022-02-12 01:05:23.032
222.0, -9494.328140536325, -8968.436296991862, -5786.24079063425, -13591.715823616485, -7715.553965038534, -3659.4499539673275, -7561.572797485924, -5394.526469054994, -10225.654867369518, -12590.49178248546, -6425.03129542247, -5398.460376079128, -4816.622116163029, -8059.122629061059, -10778.569969960448, -15812.965132351535, 0.0145625, 0.2356875, 0.947359375, 192.0, 0.0, 0.0, 0.0, 0.0, 0.0, 0.0, 0.0, 0.0, 0.0, 1.644588323040644E9, 0.0, 2022-02-12 01:05:23.040
224.0, -9479.44187872909, -8981.981454131777, -5797.14844192844, -13583.110402001192, -7713.855232459931, -3666.714270915302, -7569.351204556371, -5396.962809200622, -10226.2136609809, -12602.472317513504, -6426.394751834244, -5398.192155145664, -4817.38207547451, -8058.563835449677, -10777.072403081942, -15819.201269054565, 0.0145625, 0.2356875, 0.947359375, 192.0, 0.0, 0.0, 3.5, 40.0, 14.5, 80.0, 0.0, 0.0, 0.0, 1.644588323048217E9, 0.0, 2022-02-12 01:05:23.048
226.0, -9488.360224766759, -8979.813334919612, -5793.125127926484, -13573.990890263427, -7710.122491135895, -3664.367337747495, -7565.841980676888, -5404.361236615328, -10216.669466098485, -12596.862029655222, -6435.447208338644, -5406.596411060859, -4804.440415434887, -8073.047765856715, -10779.866371138856, -15791.395698952163, 0.0145625, 0.2356875, 0.947359375, 192.0, 0.0, 0.0, 0.0, 0.0, 0.0, 0.0, 0.0, 0.0, 0.0, 1.644588323062468E9, 0.0, 2022-02-12 01:05:23.062
228.0, -9500.40781502817, -8985.133050099976, -5791.046415692141, -13587.804268336806, -7721.8348052304755, -3667.9659686047994, -7565.596111487879, -5397.968637701111, -10231.153396505522, -12607.300294315852, -6427.55704254592, -5384.445832305651, -4813.00113356127, -8056.507474959788, -10777.586493204415, -15834.825138428825, 0.0145625, 0.2356875, 0.947359375, 192.0, 0.0, 0.0, 0.0, 0.0, 0.0, 0.0, 0.0, 0.0, 0.0, 1.644588323069793E9, 0.0, 2022-02-12 01:05:23.069
230.0, -9493.478774247023, -8965.48586672376, -5789.14651741344, -13578.036556009836, -7707.484985290169, -3663.2721022691853, -7562.891550408787, -5398.415672590217, -10222.905602801515, -12595.811497665823, -6423.824301221884, -5403.8247947484015, -4816.935040585404, -8063.324757018657, -10779.106411827375, -15797.631835655195, 0.0145625, 0.2356875, 0.947359375, 192.0, 0.0, 0.0, 0.0, 0.0, 0.0, 0.0, 0.0, 0.0, 0.0, 1.644588323078005E9, 0.0, 2022-02-12 01:05:23.078
232.0, -9481.5876461968, -8986.54121000066, -5782.686863265856, -13581.098745000214, -7711.485947547669, -3668.658872682914, -7561.237521319094, -5399.399149346251, -10220.916297544993, -12592.615198208714, -6425.724199500585, -5405.635286049282, -4815.012790562248, -8066.364594264579, -10776.044222837, -15816.250838786465, 0.0145625, 0.2356875, 0.947359375, 192.0, 0.0, 0.0, 0.0, 0.0, 0.0, 0.0, 0.0, 0.0, 0.0, 1.644588323085013E9, 0.0, 2022-02-12 01:05:23.085
234.0, -9489.634274200711, -8982.048509365142, -5788.028930190674, -13580.137619988636, -7711.038912658562, -3670.245846539241, -7564.299710309471, -5406.730521527591, -10216.892983543037, -12616.486861286981, -6416.716446485097, -5387.910352696223, -4812.419988205432, -8063.4588674853885, -10774.904283869779, -15826.130309835711, 0.002, 0.234, 0.9440000000000001, 192.0, 0.0, 8.0, 3.5, 40.0, 14.5, 64.0, 0.0, 0.0, 0.0, 1.644588323092681E9, 0.0, 2022-02-12 01:05:23.092
236.0, -9481.431183985613, -8974.53832322816, -5788.833592991065, -13573.342689674222, -7704.199278855238, -3660.9698725902886, -7552.632099703801, -5381.003663659533, -10215.283657942255, -12608.149660605153, -6424.338391344356, -5389.989064930566, -4794.695054852374, -8069.292672788224, -10776.625368192837, -15788.445268684063, 0.002, 0.234, 0.9440000000000001, 192.0, 0.0, 0.0, 0.0, 0.0, 0.0, 0.0, 0.0, 0.0, 0.0, 1.644588323100436E9, 0.0, 2022-02-12 01:05:23.100
238.0, -9487.846134644287, -8958.266253264697, -5789.90647672492, -13588.094841014725, -7712.312962092515, -3666.1554773039197, -7557.057745105952, -5391.0843004088765, -10220.670428355985, -12586.759041161424, -6417.364647074301, -5398.3039138679405, -4811.637677149496, -8063.861198885585, -10775.284263525518, -15827.985504625502, 0.002, 0.234, 0.9440000000000001, 192.0, 0.0, 0.0, 0.0, 0.0, 0.0, 0.0, 0.0, 0.0, 0.0, 1.644588323108709E9, 0.0, 2022-02-12 01:05:23.108
240.0, -9494.618713214244, -8973.845419150046, -5791.985188959264, -13576.78485832034, -7705.339217822459, -3664.121468558487, -7563.2268265756165, -5396.202849889141, -10219.30697194421, -12582.400450992638, -6425.008943678015, -5421.527376357005, -4812.688209138895, -8071.818419911674, -10777.541789715504, -15794.055556542346, 0.002, 0.234, 0.9440000000000001, 192.0, 0.0, 0.0, 0.0, 0.0, 0.0, 0.0, 0.0, 0.0, 0.0, 1.64458832311463E9, 0.0, 2022-02-12 01:05:23.114
242.0, -9486.281512532416, -8994.945465915855, -5788.0065784462195, -13578.572997876765, -7714.794005727054, -3666.8930848709447, -7562.668032964234, -5396.202849889141, -10226.392474936543, -12618.677332243602, -6425.74655124504, -5400.047349935455, -4809.603668404063, -8068.711527432386, -10778.234693793618, -15814.976789352511, 0.002, 0.234, 0.9440000000000001, 192.0, 0.0, 0.0, 0.0, 0.0, 0.0, 0.0, 0.0, 0.0, 0.0, 1.644588323122339E9, 0.0, 2022-02-12 01:05:23.122
244.0, -9488.82961140032, -8991.212724591818, -5791.7616715147105, -13576.49428564242, -7710.994209169652, -3661.4839627127603, -7567.563064999947, -5405.568230815916, -10234.863786085103, -12624.019399168421, -6426.394751834244, -5391.374873086796, -4812.174119016423, -8068.420954754467, -10775.08309782542, -15821.235277799999, 0.008, 0.24, 0.9440000000000001, 192.0, 0.0, 32.0, 3.5, 64.0, 14.5, 64.0, 0.0, 0.0, 0.0, 1.644588323130123E9, 0.0, 2022-02-12 01:05:23.130
246.0, -9478.100774061773, -8975.63355870647, -5787.671302279389, -13572.985061762938, -7701.762938709609, -3655.0690120540876, -7555.247253805072, -5395.398187088751, -10226.615992381096, -12592.078756341787, -6427.55704254592, -5405.814100004924, -4795.097386252569, -8064.509399474789, -10773.160847802264, -15787.1265157612, 0.008, 0.24, 0.9440000000000001, 192.0, 0.0, 0.0, 0.0, 0.0, 0.0, 0.0, 0.0, 0.0, 0.0, 1.644588323138258E9, 0.0, 2022-02-12 01:05:23.138
248.0, -9494.506954491968, -8963.54126495615, -5788.319502868593, -13587.156067747603, -7710.457767302724, -3663.0262330801766, -7556.92363463922, -5396.694588267158, -10222.16799523449, -12610.675407728602, -6420.046856408937, -5405.434120349183, -4801.668799122429, -8060.821361639662, -10769.428106478228, -15829.46071975955, 0.008, 0.24, 0.9440000000000001, 192.0, 0.0, 0.0, 0.0, 0.0, 0.0, 0.0, 0.0, 0.0, 0.0, 1.64458832314471E9, 0.0, 2022-02-12 01:05:23.144
250.0, -9515.227021602037, -8989.312826313118, -5794.667398293901, -13570.682832084041, -7701.38295905387, -3667.9659686047994, -7564.255006820561, -5399.108576668332, -10217.205907965412, -12593.173991820096, -6417.677571496674, -5408.675123295203, -4811.771787616228, -8086.659978229997, -10770.36687974535, -15793.921446075612, 0.008, 0.24, 0.9440000000000001, 192.0, 0.0, 0.0, 0.0, 0.0, 0.0, 0.0, 0.0, 0.0, 0.0, 1.644588323152966E9, 0.0, 2022-02-12 01:05:23.152
252.0, -9491.78004166842, -8988.68697746837, -5791.5828575590685, -13575.533160630843, -7707.172060867794, -3662.9591778468107, -7559.0023468735635, -5399.533259812983, -10237.568347164197, -12631.060198671843, -6416.738798229551, -5396.985160945077, -4802.898145067471, -8076.154658336003, -10771.70798441267, -15808.98652183849, 0.008, 0.24, 0.9440000000000001, 192.0, 0.0, 0.0, 0.0, 0.0, 0.0, 0.0, 0.0, 0.0, 0.0, 1.644588323161558E9, 0.0, 2022-02-12 01:05:23.161
254.0, -9482.280550274916, -8972.839590649557, -5802.535212342169, -13578.148314732112, -7706.769729467599, -3664.859076125512, -7562.176294586217, -5401.991951703067, -10236.473111685886, -12615.726901975502, -6419.89039419775, -5398.102748167843, -4803.635752634496, -8069.4044315105, -10772.266778024052, -15818.865992887735, 0.004, 0.23800000000000002, 0.9440000000000001, 192.0, 0.0, 16.0, 3.5, 56.0, 14.5, 64.0, 0.0, 0.0, 0.0, 1.644588323167516E9, 0.0, 2022-02-12 01:05:23.167
0.0, -9481.028852585418, -8954.757029385213, -5793.10277618203, -13566.614814593175, -7700.824165442487, -3655.4266399653725, -7552.766210170533, -5393.095957409854, -10222.413864423497, -12597.130250588687, -6425.858309967317, -5400.539088313471, -4787.810717560139, -8071.371385022568, -10771.41741173475, -15785.405431438141, 0.004, 0.23800000000000002, 0.9440000000000001, 192.0, 0.0, 0.0, 0.0, 0.0, 0.0, 0.0, 0.0, 0.0, 0.0, 1.644588323183987E9, 0.0, 2022-02-12 01:05:23.183
2.0, -9487.868486388741, -8967.564578958105, -5787.045453434641, -13586.910198558593, -7705.540383522557, -3662.758012146713, -7557.30361429496, -5397.3651406008175, -10225.341942947143, -12605.199230337052, -6411.374379560278, -5396.314608611418, -4806.183851502401, -8066.766925664774, -10771.529170457026, -15830.51125174895, 0.004, 0.23800000000000002, 0.9440000000000001, 192.0, 0.0, 0.0, 0.0, 0.0, 0.0, 0.0, 0.0, 0.0, 0.0, 1.644588323190597E9, 0.0, 2022-02-12 01:05:23.190
4.0, -9485.655663687667, -8955.62874741897, -5789.90647672492, -13577.433058909543, -7694.319807805992, -3660.0758028120763, -7558.7341259401, -5395.532297555483, -10210.768605562283, -12607.322646060305, -6412.111987127303, -5413.2125274196305, -4795.231496719301, -8084.4695072733775, -10772.579702446426, -15798.995292066968, 0.004, 0.23800000000000002, 0.9440000000000001, 192.0, 0.0, 0.0, 0.0, 0.0, 0.0, 0.0, 0.0, 0.0, 0.0, 1.644588323197016E9, 0.0, 2022-02-12 01:05:23.197
6.0, -9480.514762462946, -8962.848360878035, -5778.708252752812, -13581.054041511303, -7697.739624707655, -3654.7113841428027, -7540.025715831008, -5385.742233484058, -10219.441082410942, -12589.262436540419, -6411.039103393448, -5401.16493715822, -4791.610514117541, -8078.568646737176, -10768.578740188927, -15812.808670140348, 0.004, 0.23800000000000002, 0.9440000000000001, 192.0, 0.0, 0.0, 0.0, 0.0, 0.0, 0.0, 0.0, 0.0, 0.0, 1.644588323205478E9, 0.0, 2022-02-12 01:05:23.205
8.0, -9497.613846971255, -8972.928997627378, -5787.29132262365, -13571.711012328984, -7698.18665959676, -3659.0699743115874, -7550.084000835896, -5397.968637701111, -10228.962925548904, -12601.48884075747, -6411.061455137904, -5390.771375986502, -4788.637732104985, -8069.940873377428, -10765.762420387557, -15816.60846669775, 0.004, 0.23600000000000002, 0.9420000000000001, 192.0, 0.0, 16.0, 3.5, 48.0, 14.5, 56.0, 0.0, 0.0, 0.0, 1.644588323213438E9, 0.0, 2022-02-12 01:05:23.213
10.0, -9487.712024177556, -8969.77740165918, -5783.1338981549625, -13566.860683782183, -7694.923304906286, -3654.0631835535987, -7547.625308945812, -5403.847146492857, -10226.817158081194, -12604.707491959036, -6421.410312820711, -5391.419576575706, -4779.987607000781, -8075.640568213531, -10770.635100678814, -15785.226617482498, 0.004, 0.23600000000000002, 0.9420000000000001, 192.0, 0.0, 0.0, 0.0, 0.0, 0.0, 0.0, 0.0, 0.0, 0.0, 1.644588323220214E9, 0.0, 2022-02-12 01:05:23.220
12.0, -9485.633311943211, -8968.570407458594, -5783.513877810702, -13578.438887410031, -7705.093348633451, -3661.7074801573135, -7552.095657836874, -5407.646943050259, -10227.666524370496, -12617.06800664282, -6414.682437739663, -5395.398187088751, -4801.288819466689, -8072.757193178796, -10773.674937924736, -15830.757120937958, 0.004, 0.23600000000000002, 0.9420000000000001, 192.0, 0.0, 0.0, 0.0, 0.0, 0.0, 0.0, 0.0, 0.0, 0.0, 1.64458832322787E9, 0.0, 2022-02-12 01:05:23.227
14.0, -9491.265951545949, -8959.383840487462, -5790.129994169473, -13571.420439651065, -7696.040892129051, -3656.8795033549673, -7555.046088104974, -5397.387492345273, -10219.709303344405, -12611.144794362164, -6424.740722744552, -5404.40594010424, -4800.61826713303, -8076.64639671402, -10774.501952469582, -15793.31794897532, 0.004, 0.23600000000000002, 0.9420000000000001, 192.0, 0.0, 0.0, 0.0, 0.0, 0.0, 0.0, 0.0, 0.0, 0.0, 1.644588323234857E9, 0.0, 2022-02-12 01:05:23.234
16.0, -9476.69261416109, -8938.507311166204, -5779.647026019934, -13577.231893209446, -7697.717272963199, -3653.4149829643948, -7543.557291454947, -5399.488556324071, -10223.710265601905, -12566.016622306899, -6414.883603439761, -5398.9521144571445, -4792.817508318128, -8087.375234052567, -10774.948987358688, -15806.773699137415, 0.004, 0.23600000000000002, 0.9420000000000001, 192.0, 0.0, 0.0, 0.0, 0.0, 0.0, 0.0, 0.0, 0.0, 0.0, 1.644588323242586E9, 0.0, 2022-02-12 01:05:23.242
18.0, -9492.428242257625, -8988.664625723914, -5788.900648224431, -13573.745021074417, -7699.505412519624, -3654.621977164981, -7547.222977545617, -5394.571172543904, -10228.314724959699, -12596.035015110376, -6418.884565697261, -5397.87923072329, -4793.622171118519, -8070.656129199998, -10770.456286723173, -15812.451042229062, 0.004, 0.23800000000000002, 0.9480000000000001, 192.0, 0.0, 16.0, 3.5, 56.0, 14.5, 80.0, 0.0, 0.0, 0.0, 1.644588323249921E9, 0.0, 2022-02-12 01:05:23.249
20.0, -9487.600265455278, -8969.710346425814, -5782.3739388434815, -13567.44182913802, -7686.876676902375, -3650.9339393298555, -7549.815779902432, -5391.933666698178, -10227.912393559503, -12602.561724491326, -6427.221766379091, -5394.839393477368, -4778.713557566829, -8067.906864631995, -10772.669109424247, -15781.69504185856, 0.004, 0.23800000000000002, 0.9480000000000001, 192.0, 0.0, 0.0, 0.0, 0.0, 0.0, 0.0, 0.0, 0.0, 0.0, 1.644588323257228E9, 0.0, 2022-02-12 01:05:23.257
22.0, -9480.179486296116, -8959.562654443103, -5780.272874864683, -13583.289215956835, -7698.745453208144, -3653.43733470885, -7546.999460101064, -5396.4263673336945, -10228.515890659797, -12609.379006550194, -6410.569716759886, -5397.611009789826, -4795.678531608407, -8061.313100017679, -10769.495161711593, -15825.146833079676, 0.004, 0.23800000000000002, 0.9480000000000001, 192.0, 0.0, 0.0, 0.0, 0.0, 0.0, 0.0, 0.0, 0.0, 0.0, 1.644588323265371E9, 0.0, 2022-02-12 01:05:23.265
24.0, -9482.325253763825, -8947.738581626247, -5787.0678051790965, -13570.906349528594, -7691.727005449177, -3646.6424043944367, -7546.887701378787, -5387.955056185134, -10210.25451543981, -12596.571456977303, -6418.348123830334, -5407.311666883429, -4789.263580949733, -8060.486085472833, -10770.500990212082, -15791.865085585725, 0.004, 0.23800000000000002, 0.9480000000000001, 192.0, 0.0, 0.0, 0.0, 0.0, 0.0, 0.0, 0.0, 0.0, 0.0, 1.644588323272593E9, 0.0, 2022-02-12 01:05:23.272
26.0, -9475.26210251595, -8954.600567174026, -5775.243732362239, -13574.415573408078, -7699.1701363527945, -3645.189541004842, -7547.893529879276, -5392.9618469431225, -10214.07666374167, -12559.15463675912, -6406.680513224664, -5389.720843997103, -4793.018674018225, -8059.726126161352, -10771.842094879401, -15802.79508862437, 0.004, 0.23800000000000002, 0.9480000000000001, 192.0, 0.0, 0.0, 0.0, 0.0, 0.0, 0.0, 0.0, 0.0, 0.0, 1.644588323279934E9, 0.0, 2022-02-12 01:05:23.279
28.0, -9493.188201569104, -8974.851247650535, -5786.3078458676155, -13573.655614096597, -7703.327560821482, -3656.3877649769506, -7560.365803285337, -5399.332094112885, -10225.721922602883, -12580.768773647402, -6409.183908603658, -5384.669349750203, -4799.254810721256, -8066.923387875961, -10775.016042592055, -15817.793109153881, 0.008, 0.23800000000000002, 0.9500000000000001, 192.0, 0.0, 32.0, 3.5, 56.0, 14.5, 88.0, 0.0, 0.0, 0.0, 1.644588323288125E9, 0.0, 2022-02-12 01:05:23.288
30.0, -9489.075480589328, -8973.353680772028, -5782.61980803249, -13568.760582060884, -7694.409214783814, -3656.00778532121, -7559.091753851385, -5401.701379025148, -10229.029980782268, -12607.63557048268, -6417.252888352024, -5394.660579521726, -4790.180002472402, -8063.883550630039, -10775.530132714526, -15784.064326770822, 0.008, 0.23800000000000002, 0.9500000000000001, 192.0, 0.0, 0.0, 0.0, 0.0, 0.0, 0.0, 0.0, 0.0, 0.0, 1.644588323295938E9, 0.0, 2022-02-12 01:05:23.295
32.0, -9465.829666355809, -8954.242939262742, -5777.970645185786, -13577.813038565284, -7697.76197645211, -3659.852285367523, -7547.625308945812, -5404.204774404142, -10229.544070904742, -12610.608352495236, -6405.473519024077, -5391.173707386698, -4785.8437640480715, -8059.9943470948165, -10775.150153058787, -15825.012722612944, 0.008, 0.23800000000000002, 0.9500000000000001, 192.0, 0.0, 0.0, 0.0, 0.0, 0.0, 0.0, 0.0, 0.0, 0.0, 1.644588323309556E9, 0.0, 2022-02-12 01:05:23.309
34.0, -9488.181410811116, -8963.653023678426, -5782.820973732588, -13563.753791302895, -7685.2002960682275, -3649.570482918082, -7541.232710031594, -5391.956018442634, -10207.549954360718, -12578.846523624245, -6412.536670271954, -5397.521602812005, -4794.985627530293, -8059.323794761157, -10767.729373899625, -15787.014757038924, 0.008, 0.23800000000000002, 0.9500000000000001, 192.0, 0.0, 0.0, 0.0, 0.0, 0.0, 0.0, 0.0, 0.0, 0.0, 1.644588323317722E9, 0.0, 2022-02-12 01:05:23.317
36.0, -9482.25819853046, -8968.324538269584, -5782.038662676652, -13581.657538611596, -7697.6502177298335, -3649.078744540065, -7543.356125754849, -5389.452623063639, -10219.083454499658, -12572.38686947666, -6410.189737104147, -5381.338939826363, -4792.817508318128, -8065.090544830627, -10773.965510602655, -15802.83979211328, 0.005, 0.24, 0.9530000000000001, 192.0, 0.0, 8.0, 3.5, 72.0, 14.5, 112.0, 0.0, 0.0, 0.0, 1.644588323325593E9, 0.0, 2022-02-12 01:05:23.325
38.0, -9493.657588202666, -8965.48586672376, -5790.822898247588, -13588.787745092839, -7707.708502734721, -3662.53449470216, -7559.784657929499, -5407.289315138974, -10232.807425595216, -12597.487878499971, -6414.9059551842165, -5407.892812239267, -4801.37822644451, -8072.041937356226, -10777.407679248772, -15818.88834463219, 0.005, 0.24, 0.9530000000000001, 192.0, 0.0, 0.0, 0.0, 0.0, 0.0, 0.0, 0.0, 0.0, 0.0, 1.644588323332104E9, 0.0, 2022-02-12 01:05:23.332
40.0, -9485.767422409943, -8974.515971483705, -5788.520668568692, -13575.041422252825, -7701.829993942976, -3655.896026598934, -7552.341527025882, -5397.678065023192, -10229.78994009375, -12604.014587880922, -6423.220804121591, -5407.02109420551, -4793.555115885153, -8078.680405459453, -10786.951874131188, -15786.79123959437, 0.005, 0.24, 0.9530000000000001, 192.0, 0.0, 0.0, 0.0, 0.0, 0.0, 0.0, 0.0, 0.0, 0.0, 1.644588323340218E9, 0.0, 2022-02-12 01:05:23.340
42.0, -9475.463268216046, -8970.604416204025, -5778.507087052713, -13577.656576354097, -7699.304246819526, -3650.442200951839, -7551.313346780938, -5399.801480746446, -10229.946402304937, -12598.672520956103, -6411.93317317166, -5386.63630326227, -4798.80777583215, -8066.006966353294, -10782.727394429136, -15821.257629544454, 0.005, 0.24, 0.9530000000000001, 192.0, 0.0, 0.0, 0.0, 0.0, 0.0, 0.0, 0.0, 0.0, 0.0, 1.64458832334823E9, 0.0, 2022-02-12 01:05:23.348
44.0, -9488.248466044482, -8964.033003334165, -5781.7257382542775, -13571.711012328984, -7689.536534492557, -3651.8056573636127, -7559.047050362475, -5396.359312100329, -10210.858012540104, -12593.643378453658, -6412.536670271954, -5394.7276347550915, -4795.56677288613, -8054.540521447721, -10778.726432171636, -15787.394736694663, 0.005, 0.24, 0.9530000000000001, 192.0, 0.0, 0.0, 0.0, 0.0, 0.0, 0.0, 0.0, 0.0, 0.0, 1.644588323355399E9, 0.0, 2022-02-12 01:05:23.355
46.0, -9472.825762370321, -8946.553939170115, -5772.092136394041, -13581.255207211401, -7692.1293368493725, -3656.7677446326907, -7539.6904396641785, -5396.225201633597, -10213.83079455266, -12589.597712707247, -6401.807832933407, -5380.06489039241, -4790.291761194678, -8057.625062182554, -10776.088926325909, -15804.69498690307, 0.0045000000000000005, 0.237, 0.9495, 192.0, 0.0, 16.0, 3.5, 40.0, 14.5, 72.0, 0.0, 0.0, 0.0, 1.644588323361798E9, 0.0, 2022-02-12 01:05:23.361
48.0, -9473.719832148532, -8950.86782584999, -5780.205819631317, -13581.769297333873, -7694.431566528269, -3657.3265382440736, -7549.704021180156, -5394.861745221823, -10215.350713175621, -12588.72599467349, -6399.88558291025, -5396.605181289337, -4788.8388978050825, -8058.474428471855, -10774.300786769485, -15818.486013231995, 0.0045000000000000005, 0.237, 0.9495, 192.0, 0.0, 0.0, 0.0, 0.0, 0.0, 0.0, 0.0, 0.0, 0.0, 1.644588323369867E9, 0.0, 2022-02-12 01:05:23.369
50.0, -9476.849076372275, -8961.306090510618, -5771.913322438398, -13567.531236115843, -7684.820316412487, -3654.085535298054, -7538.706962908145, -5394.25824812153, -10207.013512493791, -12586.401413250138, -6406.501699269021, -5386.63630326227, -4787.408386159943, -8060.329623261646, -10777.206513548674, -15780.733916846983, 0.0045000000000000005, 0.237, 0.9495, 192.0, 0.0, 0.0, 0.0, 0.0, 0.0, 0.0, 0.0, 0.0, 0.0, 1.644588323377804E9, 0.0, 2022-02-12 01:05:23.377
52.0, -9440.30397418785, -8941.033058289655, -5768.806429959111, -13574.616739108174, -7685.624979212878, -3652.073878297076, -7537.008230329541, -5393.297123109952, -10210.947419517925, -12571.58220667627, -6393.962370629593, -5375.214561845608, -4771.248074918756, -8047.92440508895, -10771.395059990295, -15822.777548167414, 0.0045000000000000005, 0.237, 0.9495, 192.0, 0.0, 0.0, 0.0, 0.0, 0.0, 0.0, 0.0, 0.0, 0.0, 1.644588323384688E9, 0.0, 2022-02-12 01:05:23.384
54.0, -9459.280605230404, -8934.282831464152, -5772.360357327504, -13558.523483100354, -7678.271255287083, -3653.3255759865733, -7539.757494897544, -5388.402091074239, -10189.668558796473, -12552.493816911438, -6403.081882367359, -5390.816079475413, -4791.722272839817, -8052.26064351328, -10767.729373899625, -15785.383079693685, 0.0045000000000000005, 0.237, 0.9495, 192.0, 0.0, 0.0, 0.0, 0.0, 0.0, 0.0, 0.0, 0.0, 0.0, 1.644588323392464E9, 0.0, 2022-02-12 01:05:23.392
56.0, -9468.221303012528, -8951.404267716916, -5759.4186972878815, -13569.699355328006, -7693.179868838772, -3651.9174160858893, -7544.0937333218735, -5390.011416675022, -10204.331303159155, -12571.559854931815, -6396.778690430962, -5360.507113994016, -4789.352987927555, -8048.416143466967, -10772.155019301776, -15796.313082732331, 0.00525, 0.2385, 0.9517500000000001, 192.0, 0.0, 24.0, 3.5, 64.0, 14.5, 104.0, 0.0, 0.0, 0.0, 1.644588323400458E9, 0.0, 2022-02-12 01:05:23.400
58.0, -9480.581817696311, -8962.177808544375, -5770.058127648607, -13574.080297241248, -7691.972874638185, -3658.7346981447577, -7550.35222176936, -5400.270867380008, -10218.614067866096, -12598.11372734472, -6387.949751371116, -5371.191247843653, -4790.09059549458, -8050.696021401409, -10772.713812913158, -15813.74744340747, 0.00525, 0.2385, 0.9517500000000001, 192.0, 0.0, 0.0, 0.0, 0.0, 0.0, 0.0, 0.0, 0.0, 0.0, 1.644588323407541E9, 0.0, 2022-02-12 01:05:23.407
60.0, -9472.714003648043, -8963.451857978327, -5770.594569515535, -13566.771276804362, -7689.402424025825, -3656.8347998660565, -7544.943099611176, -5401.656675536236, -10206.58882934914, -12587.161372561619, -6401.517260255488, -5382.501230538039, -4789.3082844386445, -8061.201341295403, -10775.597187947893, -15779.348108690752, 0.00525, 0.2385, 0.9517500000000001, 192.0, 0.0, 0.0, 0.0, 0.0, 0.0, 0.0, 0.0, 0.0, 0.0, 1.644588323415122E9, 0.0, 2022-02-12 01:05:23.415
62.0, -9449.378782436703, -8936.495654165228, -5771.019252660186, -13579.511771143887, -7701.517069520602, -3656.4771719547716, -7556.677765450212, -5400.40497784674, -10214.233125952856, -12593.710433687023, -6397.493946253532, -5386.926875940189, -4789.867078050027, -8054.3617074920785, -10775.239560036607, -15822.330513278308, 0.00525, 0.2385, 0.9517500000000001, 192.0, 0.0, 0.0, 0.0, 0.0, 0.0, 0.0, 0.0, 0.0, 0.0, 1.644588323430264E9, 0.0, 2022-02-12 01:05:23.430
64.0, -9458.721811619022, -8938.015572788188, -5772.941502683342, -13557.96468948897, -7682.138107077851, -3651.8950643414337, -7548.184102557195, -5398.9521144571445, -10208.913410772493, -12556.807703591312, -6406.702864969118, -5392.134832398276, -4774.019691231214, -8054.987556336828, -10774.814876891956, -15784.55606514884, 0.00525, 0.2385, 0.9517500000000001, 192.0, 0.0, 0.0, 0.0, 0.0, 0.0, 0.0, 0.0, 0.0, 0.0, 1.644588323436986E9, 0.0, 2022-02-12 01:05:23.436
66.0, -9464.801486110866, -8950.890177594445, -5759.441049032337, -13561.809189535285, -7683.747432678632, -3645.636575893948, -7530.034486059486, -5386.882172451279, -10210.232163695355, -12565.413125206605, -6396.532821241954, -5369.023128631488, -4787.162516970935, -8049.891358601018, -10770.948025101188, -15791.775678607903, 0.007625, 0.23825000000000002, 0.9468750000000001, 192.0, 0.0, 40.0, 3.5, 56.0, 14.5, 56.0, 0.0, 0.0, 0.0, 1.644588323444886E9, 0.0, 2022-02-12 01:05:23.444
68.0, -9460.889930831187, -8935.91450880939, -5763.3526043120155, -13566.994794248914, -7684.350929778926, -3644.3625264599955, -7540.517454209024, -5379.036710147466, -10203.236067680844, -12565.524883928882, -6380.104289067303, -5369.336053053863, -4786.46961289282, -8056.283957515235, -10766.745897143592, -15804.002082824956, 0.007625, 0.23825000000000002, 0.9468750000000001, 192.0, 0.0, 0.0, 0.0, 0.0, 0.0, 0.0, 0.0, 0.0, 0.0, 1.644588323453011E9, 0.0, 2022-02-12 01:05:23.453
70.0, -9446.830683568798, -8947.179788014864, -5761.452706033315, -13552.846140008705, -7675.94667386373, -3640.0933432690317, -7531.5320529379915, -5380.467221792605, -10193.580114076152, -12576.052555567332, -6389.64848394972, -5379.304931080929, -4778.959426755837, -8054.384059236534, -10767.058821565965, -15769.35687891923, 0.007625, 0.23825000000000002, 0.9468750000000001, 192.0, 0.0, 0.0, 0.0, 0.0, 0.0, 0.0, 0.0, 0.0, 0.0, 1.644588323460716E9, 0.0, 2022-02-12 01:05:23.460
72.0, -9437.375895664203, -8950.510197938705, -5765.945406668831, -13571.286329184333, -7689.0224443700845, -3643.3790497039618, -7531.912032593732, -5380.534277025971, -10203.057253725203, -12589.798878407346, -6385.7369286700405, -5363.323433795385, -4778.378281399999, -8044.996326565305, -10766.231807021119, -15813.121594562721, 0.007625, 0.23825000000000002, 0.9468750000000001, 192.0, 0.0, 0.0, 0.0, 0.0, 0.0, 0.0, 0.0, 0.0, 0.0, 1.644588323467628E9, 0.0, 2022-02-12 01:05:23.467
74.0, -9470.232960013505, -8946.665697892393, -5772.472116049781, -13563.105590713692, -7671.968063350686, -3644.563692160093, -7539.489273964081, -5387.284503851474, -10202.811384536193, -12574.130305544175, -6402.478385267065, -5385.965750928611, -4770.018728973714, -8056.909806359984, -10766.410620976761, -15781.583283136284, 0.007625, 0.23825000000000002, 0.9468750000000001, 192.0, 0.0, 0.0, 0.0, 0.0, 0.0, 0.0, 0.0, 0.0, 0.0, 1.644588323475339E9, 0.0, 2022-02-12 01:05:23.475
76.0, -9461.985166309496, -8937.747351854725, -5764.090211879041, -13568.984099505436, -7680.573484965978, -3639.7133636132917, -7533.476654705603, -5390.816079475413, -10210.634495095552, -12554.90780531261, -6388.508544982498, -5374.096974622843, -4779.004130244748, -8052.64062316902, -10769.9421966007, -15793.921446075612, 0.008812500000000001, 0.23812500000000003, 0.9474375000000002, 192.0, 0.0, 40.0, 3.5, 56.0, 14.5, 80.0, 0.0, 0.0, 0.0, 1.644588323482601E9, 0.0, 2022-02-12 01:05:23.482
78.0, -9458.945329063574, -8936.965040798788, -5771.488639293747, -13572.716840829473, -7685.133240834862, -3641.7697241031797, -7542.6855734211895, -5382.4565270491275, -10198.184573433946, -12582.892189370656, -6382.02653909046, -5370.386585043262, -4790.202354216856, -8051.791256879718, -10769.293996011496, -15808.450079971562, 0.008812500000000001, 0.23812500000000003, 0.9474375000000002, 192.0, 0.0, 0.0, 0.0, 0.0, 0.0, 0.0, 0.0, 0.0, 0.0, 1.644588323490399E9, 0.0, 2022-02-12 01:05:23.490
80.0, -9447.747105091466, -8945.592814158537, -5770.080479393063, -13560.937471501527, -7683.725080934177, -3638.9757560462663, -7540.383343742293, -5380.243704348052, -10196.262323410789, -12562.552101916326, -6394.677626452163, -5379.863724692313, -4779.048833733658, -8056.932158104439, -10772.624405935336, -15771.368535920208, 0.008812500000000001, 0.23812500000000003, 0.9474375000000002, 192.0, 0.0, 0.0, 0.0, 0.0, 0.0, 0.0, 0.0, 0.0, 0.0, 1.644588323497136E9, 0.0, 2022-02-12 01:05:23.497
82.0, -9455.771381350922, -8950.756067127713, -5771.555694527113, -13574.281462941344, -7693.917476405797, -3648.0282125506656, -7546.664183934234, -5391.531335297983, -10206.387663649042, -12576.857218367722, -6382.540629212932, -5368.576093742382, -4775.405499387443, -8049.176102778448, -10772.244426279596, -15813.725091663015, 0.008812500000000001, 0.23812500000000003, 0.9474375000000002, 192.0, 0.0, 0.0, 0.0, 0.0, 0.0, 0.0, 0.0, 0.0, 0.0, 1.644588323505113E9, 0.0, 2022-02-12 01:05:23.505
84.0, -9466.187294267094, -8942.597680401526, -5781.770441743189, -13568.425305894054, -7687.748394936132, -3651.9174160858893, -7546.4406664896815, -5396.940457456167, -10203.817213036682, -12555.667764624091, -6394.275295051968, -5372.2417798330525, -4780.434641889888, -8057.625062182554, -10771.75268790158, -15784.712527360027, 0.008812500000000001, 0.23812500000000003, 0.9474375000000002, 192.0, 0.0, 0.0, 0.0, 0.0, 0.0, 0.0, 0.0, 0.0, 0.0, 1.644588323513241E9, 0.0, 2022-02-12 01:05:23.513
86.0, -9452.373916193714, -8943.223529246276, -5774.304959095116, -13566.167779704068, -7688.307188547515, -3650.2186835072857, -7538.259928019039, -5389.787899230469, -10205.471242126376, -12578.824171879789, -6389.380263016255, -5371.437117032661, -4774.913761009427, -8061.849541884607, -10770.32217625644, -15793.832039097791, 0.01140625, 0.2360625, 0.9507187500000001, 192.0, 0.0, 56.0, 3.5, 40.0, 14.5, 104.0, 0.0, 0.0, 0.0, 1.644588323520292E9, 0.0, 2022-02-12 01:05:23.520
88.0, -9458.118314518728, -8960.188503287853, -5782.262180121205, -13573.141523974124, -7694.610380483911, -3650.9339393298555, -7542.283242020994, -5390.63726551977, -10205.985332248847, -12595.677387199092, -6397.382187531256, -5372.308835066418, -4776.433679632388, -8055.21107378138, -10771.79739139049, -15811.691082917581, 0.01140625, 0.2360625, 0.9507187500000001, 192.0, 0.0, 0.0, 0.0, 0.0, 0.0, 0.0, 0.0, 0.0, 0.0, 1.644588323527589E9, 0.0, 2022-02-12 01:05:23.527
90.0, -9454.720849361522, -8928.896061050424, -5771.935674182853, -13561.228044179446, -7684.775612923577, -3646.7094596278025, -7537.29880300746, -5383.149431127243, -10200.531506601752, -12559.422857692583, -6396.398710775222, -5379.908428181223, -4785.6649500924295, -8055.680460414942, -10774.166676302753, -15771.07796324229, 0.01140625, 0.2360625, 0.9507187500000001, 192.0, 0.0, 0.0, 0.0, 0.0, 0.0, 0.0, 0.0, 0.0, 0.0, 1.644588323535799E9, 0.0, 2022-02-12 01:05:23.535
92.0, -9439.722828832011, -8934.394590186428, -5772.606226516513, -13573.633262352141, -7696.040892129051, -3656.1195440434867, -7535.890643106776, -5382.612989260315, -10206.454718882409, -12564.29553798384, -6390.006111861005, -5370.498343765538, -4781.373415157011, -8055.54634994821, -10774.300786769485, -15814.775623652415, 0.01140625, 0.2360625, 0.9507187500000001, 192.0, 0.0, 0.0, 0.0, 0.0, 0.0, 0.0, 0.0, 0.0, 0.0, 1.644588323542674E9, 0.0, 2022-02-12 01:05:23.542
94.0, -9459.280605230404, -8955.226416018775, -5780.4293370758705, -13564.401991892099, -7681.109926832906, -3652.2303405082635, -7543.534939710491, -5389.139698641265, -10203.392529892031, -12581.036994580865, -6391.749547928518, -5375.438079290161, -4781.70869132384, -8058.630890683043, -10774.077269324931, -15784.55606514884, 0.01140625, 0.2360625, 0.9507187500000001, 192.0, 0.0, 0.0, 0.0, 0.0, 0.0, 0.0, 0.0, 0.0, 0.0, 1.644588323557151E9, 0.0, 2022-02-12 01:05:23.557
96.0, -9465.49439018898, -8952.074820050577, -5769.231113103761, -13576.06960249777, -7686.161421079805, -3652.5209131861825, -7536.002401829052, -5392.492460309561, -10214.769567819783, -12563.848503094734, -6395.817565419384, -5375.818058945902, -4782.3792436574995, -8055.367535992567, -10775.910112370268, -15794.949626320556, 0.009703125, 0.23703125000000003, 0.9503593750000001, 192.0, 0.0, 32.0, 3.5, 56.0, 14.5, 88.0, 0.0, 0.0, 0.0, 1.644588323565192E9, 0.0, 2022-02-12 01:05:23.565
98.0, -9460.755820364455, -8961.261387021708, -5771.354528827015, -13576.807210064795, -7679.90293263232, -3654.1525905314197, -7537.768189641022, -5383.8646869498125, -10212.623800352074, -12587.63075919518, -6393.828260162862, -5383.976445672089, -4778.3335779110885, -8054.741687147819, -10767.327042499428, -15808.740652649481, 0.009703125, 0.23703125000000003, 0.9503593750000001, 192.0, 0.0, 0.0, 0.0, 0.0, 0.0, 0.0, 0.0, 0.0, 0.0, 1.644588323572289E9, 0.0, 2022-02-12 01:05:23.572
100.0, -9453.379744694203, -8944.452875191317, -5766.57125551358, -13561.831541279738, -7669.688185416244, -3648.9893375622437, -7538.617555930324, -5383.775279971991, -10196.68700655544, -12570.15169503113, -6392.151879328714, -5366.8997129082345, -4757.166475911913, -8049.332564989635, -10769.003423333577, -15769.423934152597, 0.009703125, 0.23703125000000003, 0.9503593750000001, 192.0, 0.0, 0.0, 0.0, 0.0, 0.0, 0.0, 0.0, 0.0, 0.0, 1.644588323579949E9, 0.0, 2022-02-12 01:05:23.579
102.0, -9438.605241609244, -8926.012686015689, -5762.391479300437, -13572.515675129376, -7681.601665210923, -3654.5772736760705, -7533.63311691679, -5381.115422381809, -10206.745291560328, -12578.690061413057, -6390.050815349915, -5358.048422103932, -4783.988569258281, -8047.522073688755, -10770.791562890001, -15813.188649796088, 0.009703125, 0.23703125000000003, 0.9503593750000001, 192.0, 0.0, 0.0, 0.0, 0.0, 0.0, 0.0, 0.0, 0.0, 0.0, 1.644588323589179E9, 0.0, 2022-02-12 01:05:23.589
104.0, -9460.10761977525, -8940.049581533622, -5763.419659545381, -13562.21152093548, -7670.895179616831, -3650.0398695516433, -7535.421256473215, -5381.830678204379, -10199.436271123443, -12577.527770701381, -6397.538649742442, -5375.862762434812, -4774.354967398044, -8052.417105724467, -10767.327042499428, -15783.259663970432, 0.009703125, 0.23703125000000003, 0.9503593750000001, 192.0, 0.0, 0.0, 0.0, 0.0, 0.0, 0.0, 0.0, 0.0, 0.0, 1.644588323596245E9, 0.0, 2022-02-12 01:05:23.596
106.0, -9461.895759331675, -8950.15257002742, -5756.378860041959, -13569.229968694446, -7673.040947084541, -3653.4820381977606, -7536.427084973703, -5392.939495198667, -10202.654922325006, -12560.227520492974, -6386.899219381717, -5373.225256589086, -4768.096478950558, -8059.793181394718, -10771.149190801287, -15791.798030352358, 0.002, 0.242, 0.9540000000000001, 192.0, 0.0, 8.0, 3.5, 72.0, 14.5, 104.0, 0.0, 0.0, 0.0, 1.644588323602763E9, 0.0, 2022-02-12 01:05:23.602
108.0, -9459.839398841787, -8939.62489838897, -5764.850171190521, -13570.235797194935, -7678.271255287083, -3652.5879684195484, -7540.562157697936, -5384.669349750203, -10202.45375662491, -12582.78043064838, -6386.318074025879, -5371.258303077019, -4769.504638851242, -8056.3510127486015, -10770.61274893436, -15814.172126552121, 0.002, 0.242, 0.9540000000000001, 192.0, 0.0, 0.0, 0.0, 0.0, 0.0, 0.0, 0.0, 0.0, 0.0, 1.644588323609709E9, 0.0, 2022-02-12 01:05:23.609
110.0, -9448.127084747206, -8932.584098885549, -5763.956101412309, -13561.630375579642, -7673.175057551272, -3652.632671908459, -7534.7283523951, -5382.098899137843, -10190.696739041417, -12551.309174455308, -6387.592123459831, -5365.648015218737, -4760.318071880111, -8054.272300514258, -10773.630234435825, -15775.280091199887, 0.002, 0.242, 0.9540000000000001, 192.0, 0.0, 0.0, 0.0, 0.0, 0.0, 0.0, 0.0, 0.0, 0.0, 1.644588323617642E9, 0.0, 2022-02-12 01:05:23.617
112.0, -9450.116390003728, -8947.939747326345, -5762.078554878063, -13576.360175175689, -7683.210990811705, -3660.858113868012, -7534.504834950547, -5386.189268373164, -10206.901753771515, -12582.221637036997, -6394.811736918895, -5359.791858171447, -4775.539609854175, -8055.054611570194, -10776.200685048187, -15822.419920256129, 0.002, 0.242, 0.9540000000000001, 192.0, 0.0, 0.0, 0.0, 0.0, 0.0, 0.0, 0.0, 0.0, 0.0, 1.64458832362472E9, 0.0, 2022-02-12 01:05:23.624
114.0, -9475.44091647159, -8952.052468306121, -5761.542113011135, -13567.01714599337, -7667.363603992892, -3660.8134103791012, -7537.723486152111, -5392.358349842829, -10198.184573433946, -12572.319814243296, -6395.661103208197, -5370.1854193431645, -4781.306359923645, -8061.760134906785, -10771.864446623857, -15794.368480964718, 0.002, 0.242, 0.9540000000000001, 192.0, 0.0, 0.0, 0.0, 0.0, 0.0, 0.0, 0.0, 0.0, 0.0, 1.644588323632303E9, 0.0, 2022-02-12 01:05:23.632
116.0, -9462.20868375405, -8947.492712437239, -5751.237958817239, -13568.045326238314, -7676.1031360749175, -3651.2915672411405, -7529.229823259095, -5379.461393292117, -10199.793899034727, -12568.609424663715, -6390.140222327736, -5372.711166466614, -4772.410365630432, -8059.614367439076, -10770.098658811887, -15798.280036244398, 0.01, 0.234, 0.9500000000000001, 192.0, 0.0, 40.0, 3.5, 40.0, 14.5, 88.0, 0.0, 0.0, 0.0, 1.64458832364025E9, 0.0, 2022-02-12 01:05:23.640
118.0, -9463.594491910279, -8938.0602762771, -5757.630557731457, -13567.553587860297, -7673.689147673745, -3644.183712504353, -7540.249233275561, -5385.071681150399, -10199.011587978792, -12581.506381214427, -6382.004187346004, -5363.010509373011, -4772.6338830749855, -8047.678535899942, -10766.164751787754, -15816.452004486562, 0.01, 0.234, 0.9500000000000001, 192.0, 0.0, 0.0, 0.0, 0.0, 0.0, 0.0, 0.0, 0.0, 0.0, 1.644588323648416E9, 0.0, 2022-02-12 01:05:23.648
120.0, -9430.558613605335, -8935.623936131471, -5758.256406576205, -13554.813093520772, -7665.7095749032, -3645.211892749297, -7533.119026794318, -5381.58480901537, -10189.44504135192, -12556.114799513198, -6382.585332701842, -5372.755869955525, -4759.401650357443, -8046.292727743713, -10767.304690754974, -15772.419067909608, 0.01, 0.234, 0.9500000000000001, 192.0, 0.0, 0.0, 0.0, 0.0, 0.0, 0.0, 0.0, 0.0, 0.0, 1.644588323655069E9, 0.0, 2022-02-12 01:05:23.655
122.0, -9458.20772149655, -8953.572386929081, -5761.162133355396, -13566.614814593175, -7680.059394843507, -3657.617110921992, -7541.411523987237, -5386.8598207068235, -10200.844431024127, -12579.9194073581, -6391.391920017233, -5363.9716343845885, -4770.063432462625, -8064.598806452609, -10769.718679156147, -15818.776585909915, 0.01, 0.234, 0.9500000000000001, 192.0, 0.0, 0.0, 0.0, 0.0, 0.0, 0.0, 0.0, 0.0, 0.0, 1.644588323664307E9, 0.0, 2022-02-12 01:05:23.664
124.0, -9470.836457113797, -8946.017497303188, -5759.530456010158, -13557.674116811051, -7669.442316227236, -3655.4489917098276, -7542.305593765449, -5386.055157906432, -10192.708396042395, -12581.282863769873, -6389.112042082792, -5365.223332074086, -4780.6805110788955, -8068.666823943476, -10771.70798441267, -15797.676539144104, 0.01, 0.234, 0.9500000000000001, 192.0, 0.0, 0.0, 0.0, 0.0, 0.0, 0.0, 0.0, 0.0, 0.0, 1.64458832367823E9, 0.0, 2022-02-12 01:05:23.678
126.0, -9447.411828924636, -8931.019476773678, -5750.589758228035, -13563.753791302895, -7669.8222958829765, -3649.212855006797, -7532.671991905212, -5385.563419528416, -10188.550971573708, -12579.047689324343, -6379.0984605668145, -5370.788916443457, -4772.231551674789, -8060.106105817093, -10770.679804167725, -15799.531733933894, 0.012, 0.23800000000000002, 0.9500000000000001, 192.0, 0.0, 48.0, 3.5, 56.0, 14.5, 88.0, 0.0, 0.0, 0.0, 1.644588323684472E9, 0.0, 2022-02-12 01:05:23.684
128.0, -9451.949233049063, -8952.43244796186, -5760.312767066093, -13573.566207118774, -7671.498676717124, -3653.347927731029, -7540.383343742293, -5386.748061984546, -10194.317721643178, -12582.981596348476, -6376.572713443365, -5365.625663474281, -4765.749545782751, -8051.21011152388, -10768.869312866846, -15822.688141189594, 0.012, 0.23800000000000002, 0.9500000000000001, 192.0, 0.0, 0.0, 0.0, 0.0, 0.0, 0.0, 0.0, 0.0, 0.0, 1.644588323692426E9, 0.0, 2022-02-12 01:05:23.692
130.0, -9464.577968666312, -8961.216683532797, -5766.705365980311, -13564.290233169822, -7671.56573195049, -3653.8173143645904, -7542.39500074327, -5373.784050200468, -10201.582038591152, -12579.315910257807, -6393.358873529301, -5374.9463409121445, -4771.6951098078625, -8063.145943063015, -10774.345490258394, -15783.304367459343, 0.012, 0.23800000000000002, 0.9500000000000001, 192.0, 0.0, 0.0, 0.0, 0.0, 0.0, 0.0, 0.0, 0.0, 0.0, 1.644588323700652E9, 0.0, 2022-02-12 01:05:23.700
132.0, -9475.910303105153, -8954.57821542957, -5763.106735123007, -13572.515675129376, -7687.368415280393, -3665.7754976481797, -7548.072343834919, -5387.373910829296, -10210.54508811773, -12585.663805683114, -6385.625169947764, -5359.34482328234, -4767.269464405712, -8067.526884976254, -10775.910112370268, -15827.337304036297, 0.012, 0.23800000000000002, 0.9500000000000001, 192.0, 0.0, 0.0, 0.0, 0.0, 0.0, 0.0, 0.0, 0.0, 0.0, 1.644588323707668E9, 0.0, 2022-02-12 01:05:23.707
134.0, -9465.87436984472, -8942.709439123802, -5764.246674090228, -13566.905387271094, -7679.165325065294, -3661.215741779297, -7558.0635736064405, -5385.138736383765, -10203.437233380942, -12601.600599479747, -6393.291818295935, -5369.805439687424, -4787.2519239487565, -8069.31502453268, -10773.831400135923, -15800.917542090125, 0.012, 0.23800000000000002, 0.9500000000000001, 192.0, 0.0, 0.0, 0.0, 0.0, 0.0, 0.0, 0.0, 0.0, 0.0, 1.644588323715177E9, 0.0, 2022-02-12 01:05:23.715
136.0, -9463.370974465726, -8948.386782215452, -5760.133953110451, -13574.683794341541, -7679.880580887864, -3655.4936951987384, -7547.357088012349, -5382.121250882298, -10212.534393374252, -12563.602633905726, -6397.69511195363, -5389.810250974924, -4781.775746557206, -8067.660995442987, -10770.433934978717, -15802.593922924272, 0.006, 0.234, 0.9540000000000001, 192.0, 0.0, 24.0, 3.5, 40.0, 14.5, 104.0, 0.0, 0.0, 0.0, 1.64458832372301E9, 0.0, 2022-02-12 01:05:23.723
138.0, -9477.16200079465, -8977.533456985171, -5769.4546305483145, -13569.431134394543, -7681.534609977557, -3656.8795033549673, -7552.92267238172, -5390.391396330762, -10209.136928217045, -12606.070948370809, -6394.722329941074, -5375.102803123332, -4785.687301836884, -8060.530788961743, -10769.495161711593, -15822.643437700683, 0.006, 0.234, 0.9540000000000001, 192.0, 0.0, 0.0, 0.0, 0.0, 0.0, 0.0, 0.0, 0.0, 0.0, 1.644588323730159E9, 0.0, 2022-02-12 01:05:23.730
140.0, -9468.198951268072, -8957.215721275297, -5763.66552873439, -13557.629413322142, -7669.866999371887, -3647.0447357946323, -7554.084963093396, -5381.428346804184, -10195.547067588219, -12581.215808536508, -6392.21893456208, -5367.883189664268, -4776.344272654566, -8059.971995350361, -10773.429068735728, -15784.734879104482, 0.006, 0.234, 0.9540000000000001, 192.0, 0.0, 0.0, 0.0, 0.0, 0.0, 0.0, 0.0, 0.0, 0.0, 1.644588323736629E9, 0.0, 2022-02-12 01:05:23.736
142.0, -9460.465247686536, -8917.608430100492, -5761.430354288859, -13568.581768105241, -7679.433545998758, -3652.8114858641015, -7543.199663543662, -5379.9307799256785, -10204.912448514993, -12592.592846464258, -6383.233533291046, -5364.642186718248, -4774.243208675767, -8055.389887737023, -10777.318272270952, -15825.593867968782, 0.006, 0.234, 0.9540000000000001, 192.0, 0.0, 0.0, 0.0, 0.0, 0.0, 0.0, 0.0, 0.0, 0.0, 1.644588323744826E9, 0.0, 2022-02-12 01:05:23.744
144.0, -9465.360279722248, -8958.10979105351, -5765.118392123984, -13560.244567423411, -7670.358737749903, -3654.241997509241, -7549.480503735603, -5384.244666605552, -10196.932875744447, -12582.042823081354, -6391.436623506144, -5367.749079197536, -4776.701900565851, -8059.457905227889, -10773.116144313353, -15797.877704844203, 0.006, 0.234, 0.9540000000000001, 192.0, 0.0, 0.0, 0.0, 0.0, 0.0, 0.0, 0.0, 0.0, 0.0, 1.644588323752609E9, 0.0, 2022-02-12 01:05:23.752
146.0, -9463.996823310474, -8964.234169034264, -5758.546979254124, -13567.955919260494, -7678.9194558762865, -3652.34209923054, -7549.167579313229, -5383.082375893877, -10194.049500709712, -12579.360613746718, -6388.21797230458, -5369.939550154156, -4791.3646449285325, -8054.3617074920785, -10774.904283869779, -15800.559914178839, 0.01, 0.242, 0.9500000000000001, 192.0, 0.0, 40.0, 3.5, 72.0, 14.5, 88.0, 0.0, 0.0, 0.0, 1.644588323760007E9, 0.0, 2022-02-12 01:05:23.760
148.0, -9471.171733280627, -8961.306090510618, -5768.091174136541, -13570.347555917211, -7682.383976266859, -3658.86880861149, -7557.683593950701, -5388.871477707801, -10200.598561835119, -12586.44611673905, -6384.038196091437, -5368.39727978674, -4799.701845610362, -8058.720297660863, -10777.832362393423, -15824.431577257106, 0.01, 0.242, 0.9500000000000001, 192.0, 0.0, 0.0, 0.0, 0.0, 0.0, 0.0, 0.0, 0.0, 0.0, 1.644588323767343E9, 0.0, 2022-02-12 01:05:23.767
150.0, -9468.10954429025, -8940.049581533622, -5763.017328145186, -13560.557491845786, -7661.03806031204, -3653.392631219939, -7556.074268349918, -5395.621704533303, -10194.049500709712, -12581.707546914524, -6391.704844439608, -5373.87345717829, -4790.984665272792, -8064.509399474789, -10777.675900182236, -15782.164428492122, 0.01, 0.242, 0.9500000000000001, 192.0, 0.0, 0.0, 0.0, 0.0, 0.0, 0.0, 0.0, 0.0, 0.0, 1.644588323775414E9, 0.0, 2022-02-12 01:05:23.775
152.0, -9456.01725053993, -8939.803712344612, -5762.771458956177, -13578.170666476568, -7670.85047612792, -3657.304186499618, -7552.810913659444, -5390.25728586403, -10201.872611269071, -12589.553009218336, -6380.9760071010605, -5363.323433795385, -4782.111022724035, -8051.768905135264, -10774.569007702949, -15824.856260401757, 0.01, 0.242, 0.9500000000000001, 192.0, 0.0, 0.0, 0.0, 0.0, 0.0, 0.0, 0.0, 0.0, 0.0, 1.644588323783363E9, 0.0, 2022-02-12 01:05:23.783
154.0, -9465.06970704433, -8971.386727259962, -5772.695633494334, -13569.92287277256, -7664.457877213702, -3660.0534510676207, -7557.437724761692, -5383.663521249714, -10197.759890289295, -12583.473334726494, -6396.421062519677, -5373.940512411656, -4774.377319142499, -8060.754306406297, -10772.22207453514, -15798.280036244398, 0.01, 0.242, 0.9500000000000001, 192.0, 0.0, 0.0, 0.0, 0.0, 0.0, 0.0, 0.0, 0.0, 0.0, 1.644588323790013E9, 0.0, 2022-02-12 01:05:23.790
156.0, -9463.72860237701, -8966.692860924348, -5763.28554907865, -13572.113343729181, -7666.424830725769, -3659.0699743115874, -7550.218111302628, -5381.2271811040855, -10204.934800259447, -12570.576378175781, -6400.846707921828, -5367.056175119421, -4785.910819281437, -8063.391812252023, -10774.077269324931, -15799.196457767066, 0.014, 0.244, 0.9560000000000001, 192.0, 0.0, 56.0, 3.5, 80.0, 14.5, 112.0, 0.0, 0.0, 0.0, 1.64458832380533E9, 0.0, 2022-02-12 01:05:23.805
158.0, -9467.886026845697, -8958.467418964794, -5771.0416044046415, -13575.197884464013, -7674.605569196412, -3662.4227359798833, -7562.600977730868, -5386.25632360653, -10206.678236326961, -12607.479108271493, -6388.754414171507, -5362.518770994994, -4790.09059549458, -8053.02060282476, -10775.552484458982, -15822.151699322665, 0.014, 0.244, 0.9560000000000001, 192.0, 0.0, 0.0, 0.0, 0.0, 0.0, 0.0, 0.0, 0.0, 0.0, 1.644588323813244E9, 0.0, 2022-02-12 01:05:23.813
160.0, -9460.621709897723, -8942.843549590534, -5766.750069469223, -13561.786837790829, -7663.18382777975, -3655.404288220917, -7560.611672474346, -5381.383643315273, -10193.82598326516, -12583.741555659957, -6395.88462065275, -5374.387547300762, -4781.775746557206, -8066.386946009034, -10778.726432171636, -15784.109030259733, 0.014, 0.244, 0.9560000000000001, 192.0, 0.0, 0.0, 0.0, 0.0, 0.0, 0.0, 0.0, 0.0, 0.0, 1.644588323819616E9, 0.0, 2022-02-12 01:05:23.819
162.0, -9456.039602284385, -8958.802695131624, -5759.642214732435, -13570.883997784138, -7670.872827872376, -3657.9970905777327, -7547.670012434723, -5380.288407836963, -10198.363387389587, -12593.576323220292, -6382.473573979566, -5359.568340726893, -4781.03813899018, -8056.5298267042435, -10773.56317920246, -15819.245972543476, 0.014, 0.244, 0.9560000000000001, 192.0, 0.0, 0.0, 0.0, 0.0, 0.0, 0.0, 0.0, 0.0, 0.0, 1.644588323828363E9, 0.0, 2022-02-12 01:05:23.828
164.0, -9466.410811711647, -8963.273044022686, -5768.6946712368335, -13565.787800048329, -7661.529798690057, -3656.633634165959, -7556.387192772293, -5381.49540203755, -10197.268151911278, -12592.615198208714, -6388.106213582303, -5362.6752332061815, -4777.283045921689, -8066.923387875961, -10773.116144313353, -15791.082774529788, 0.014, 0.244, 0.9560000000000001, 192.0, 0.0, 0.0, 0.0, 0.0, 0.0, 0.0, 0.0, 0.0, 0.0, 1.644588323835779E9, 0.0, 2022-02-12 01:05:23.835
166.0, -9461.49342793148, -8952.030116561666, -5759.932787410354, -13573.633262352141, -7665.03902256954, -3660.522837701182, -7549.972242113619, -5382.523582282493, -10203.325474658666, -12565.189607762053, -6387.7932891599285, -5372.264131577508, -4759.580464313086, -8063.034184340738, -10776.75947865957, -15794.0779082868, 0.012, 0.24, 0.9520000000000001, 192.0, 0.0, 48.0, 3.5, 64.0, 14.5, 96.0, 0.0, 0.0, 0.0, 1.644588323842252E9, 0.0, 2022-02-12 01:05:23.842
168.0, -9471.931692592108, -8963.921244611889, -5770.348700326526, -13578.058907754292, -7672.504505217613, -3662.2215702797857, -7557.415373017237, -5384.445832305651, -10208.35461716111, -12597.711395944525, -6395.459937508099, -5360.842390160846, -4789.040063505181, -8057.446248226911, -10774.054917580475, -15820.140042321687, 0.012, 0.24, 0.9520000000000001, 192.0, 0.0, 0.0, 0.0, 0.0, 0.0, 0.0, 0.0, 0.0, 0.0, 1.644588323850509E9, 0.0, 2022-02-12 01:05:23.850
170.0, -9464.197989010572, -8969.665642936903, -5771.376880571471, -13563.574977347253, -7658.557016677501, -3660.6122446790037, -7552.341527025882, -5376.756832213025, -10204.443061881431, -12583.853314382233, -6400.198507332624, -5371.437117032661, -4790.4258716614095, -8064.509399474789, -10780.246350794596, -15777.917597045613, 0.012, 0.24, 0.9520000000000001, 192.0, 0.0, 0.0, 0.0, 0.0, 0.0, 0.0, 0.0, 0.0, 0.0, 1.644588323857362E9, 0.0, 2022-02-12 01:05:23.857
172.0, -9467.774268123421, -8946.665697892393, -5764.872522934977, -13572.605082107197, -7663.8990836023195, -3653.2585207532074, -7545.434837989193, -5373.560532755916, -10202.25259092481, -12600.058329112331, -6385.491059481033, -5364.575131484882, -4782.2674849352225, -8055.389887737023, -10778.838190893912, -15814.55210620786, 0.012, 0.24, 0.9520000000000001, 192.0, 0.0, 0.0, 0.0, 0.0, 0.0, 0.0, 0.0, 0.0, 0.0, 1.644588323865253E9, 0.0, 2022-02-12 01:05:23.865
174.0, -9468.10954429025, -8965.239997534753, -5767.510028780703, -13560.892768012616, -7653.37141196387, -3651.380974218962, -7553.056782848452, -5374.722823467591, -10187.366329117576, -12594.15746857613, -6372.281178507946, -5359.881265149268, -4777.148935454958, -8045.30925098768, -10776.401850748283, -15784.109030259733, 0.01, 0.239, 0.9490000000000001, 192.0, 0.0, 32.0, 3.5, 56.0, 14.5, 72.0, 0.0, 0.0, 0.0, 1.644588323871926E9, 0.0, 2022-02-12 01:05:23.871
176.0, -9461.985166309496, -8957.126314297475, -5760.737450210745, -13566.436000637532, -7660.211045767194, -3656.655985910414, -7558.108277095352, -5372.8899804222565, -10197.670483311473, -12574.286767755362, -6374.002262831004, -5357.221407559086, -4764.98958647127, -8049.109047545082, -10779.687557183213, -15785.405431438141, 0.01, 0.239, 0.9490000000000001, 192.0, 0.0, 0.0, 0.0, 0.0, 0.0, 0.0, 0.0, 0.0, 0.0, 1.644588323880137E9, 0.0, 2022-02-12 01:05:23.880
178.0, -9470.545884435878, -8953.997070073732, -5771.175714871373, -13579.198846721512, -7668.548246449023, -3663.205047035819, -7561.684556208201, -5379.371986314295, -10206.924105515971, -12598.20313432254, -6378.696129166619, -5362.094087850343, -4759.982795713281, -8054.048783069705, -10778.458211238172, -15819.469489988029, 0.01, 0.239, 0.9490000000000001, 192.0, 0.0, 0.0, 0.0, 0.0, 0.0, 0.0, 0.0, 0.0, 0.0, 1.644588323887837E9, 0.0, 2022-02-12 01:05:23.887
180.0, -9463.125105276717, -8964.748259156735, -5770.371052070982, -13567.575939604752, -7664.055545813507, -3664.9037796144225, -7562.556274241958, -5382.2777130934855, -10200.643265324028, -12585.887323127667, -6391.0119403614935, -5370.9677303991, -4788.324807682611, -8075.93114089145, -10780.782792661525, -15780.756268591436, 0.01, 0.239, 0.9490000000000001, 192.0, 0.0, 0.0, 0.0, 0.0, 0.0, 0.0, 0.0, 0.0, 0.0, 1.644588323894889E9, 0.0, 2022-02-12 01:05:23.894
182.0, -9458.319480218826, -8959.853227121022, -5765.923054924376, -13575.913140286582, -7672.236284284149, -3663.6297301804702, -7566.9819196441085, -5379.126117125287, -10202.118480458079, -12612.150622862653, -6378.003225088504, -5369.760736198514, -4781.775746557206, -8055.16637029247, -10778.569969960448, -15819.93887662159, 0.01, 0.239, 0.9490000000000001, 192.0, 0.0, 0.0, 0.0, 0.0, 0.0, 0.0, 0.0, 0.0, 0.0, 1.64458832390298E9, 0.0, 2022-02-12 01:05:23.902
184.0, -9472.334023992304, -8952.655965406415, -5777.076575407574, -13568.06767798277, -7664.077897557962, -3660.2993202566295, -7551.82743690341, -5371.0124338880105, -10192.261361153289, -12607.613218738225, -6378.584370444342, -5367.860837919812, -4780.144069211969, -8050.360745234579, -10775.485429225617, -15789.004062295446, 0.01, 0.2385, 0.9475, 192.0, 0.0, 40.0, 3.5, 56.0, 14.5, 72.0, 0.0, 0.0, 0.0, 1.644588323910469E9, 0.0, 2022-02-12 01:05:23.910
186.0, -9447.76945683592, -8926.504424393705, -5768.918188681387, -13574.348518174711, -7669.688185416244, -3666.4907534707495, -7554.464942749137, -5375.326320567885, -10194.138907687535, -12570.934006087067, -6385.669873436675, -5378.92495142519, -4777.70772906634, -8054.898149359006, -10775.03839433651, -15787.484143672484, 0.01, 0.2385, 0.9475, 192.0, 0.0, 0.0, 0.0, 0.0, 0.0, 0.0, 0.0, 0.0, 0.0, 1.644588323924611E9, 0.0, 2022-02-12 01:05:23.924
188.0, -9453.424448183114, -8971.453782493327, -5767.308863080605, -13578.952977532505, -7671.52102846158, -3670.1564395614196, -7563.8750271648205, -5373.806401944924, -10199.100994956612, -12578.846523624245, -6383.904085624706, -5360.507113994016, -4777.75243255525, -8059.16733254997, -10773.116144313353, -15815.982617853, 0.01, 0.2385, 0.9475, 192.0, 0.0, 0.0, 0.0, 0.0, 0.0, 0.0, 0.0, 0.0, 0.0, 1.644588323932165E9, 0.0, 2022-02-12 01:05:23.932
190.0, -9478.368994995237, -8975.410041261917, -5765.8112962021, -13567.821808793762, -7667.900045859819, -3669.2176662942966, -7553.123838081818, -5378.7014339806365, -10196.418785621976, -12620.35371307775, -6384.060547835893, -5367.950244897634, -4765.548380082653, -8071.1478675780145, -10773.026737335533, -15776.710602845027, 0.01, 0.2385, 0.9475, 192.0, 0.0, 0.0, 0.0, 0.0, 0.0, 0.0, 0.0, 0.0, 0.0, 1.644588323940137E9, 0.0, 2022-02-12 01:05:23.940
192.0, -9481.386480496703, -8967.184599302363, -5766.303034580116, -13573.655614096597, -7679.612359954401, -3670.692881428347, -7559.024698618019, -5377.270922335497, -10209.53925961724, -12619.906678188645, -6379.12081231127, -5369.648977476237, -4784.703825080851, -8065.939911119928, -10773.049089079988, -15816.876687631213, 0.01, 0.2385, 0.9475, 192.0, 0.0, 0.0, 0.0, 0.0, 0.0, 0.0, 0.0, 0.0, 0.0, 1.644588323948047E9, 0.0, 2022-02-12 01:05:23.948
194.0, -9466.410811711647, -8934.461645419795, -5777.098927152029, -13564.603157592197, -7668.257673771104, -3659.6734714118807, -7563.852675420365, -5375.795707201446, -10201.224410679866, -12610.250724583952, -6385.424004247667, -5378.835544447368, -4783.7874035581835, -8065.0458413417155, -10772.780868146523, -15786.925350061101, 0.007, 0.24025, 0.94875, 192.0, 0.0, 16.0, 3.5, 72.0, 14.5, 88.0, 0.0, 0.0, 0.0, 1.644588323954656E9, 0.0, 2022-02-12 01:05:23.954
196.0, -9440.929823032597, -8956.388706730451, -5765.163095612896, -13573.745021074417, -7670.917531361286, -3657.304186499618, -7554.062611348941, -5370.006605387522, -10187.63455005104, -12573.571511932792, -6388.396786260222, -5375.549838012438, -4784.167383213924, -8056.865102871073, -10774.948987358688, -15781.136248247178, 0.007, 0.24025, 0.94875, 192.0, 0.0, 0.0, 0.0, 0.0, 0.0, 0.0, 0.0, 0.0, 0.0, 1.644588323962856E9, 0.0, 2022-02-12 01:05:23.962
198.0, -9468.02013731243, -8968.995090603245, -5772.315653838594, -13580.025861266358, -7673.689147673745, -3666.758974404213, -7561.662204463745, -5371.638282732759, -10199.615085079085, -12600.326550045795, -6376.617416932276, -5371.973558899589, -4767.403574872444, -8050.07017255666, -10772.087964068409, -15810.148812550166, 0.007, 0.24025, 0.94875, 192.0, 0.0, 0.0, 0.0, 0.0, 0.0, 0.0, 0.0, 0.0, 0.0, 1.644588323970771E9, 0.0, 2022-02-12 01:05:23.970
200.0, -9484.336910764803, -8960.546131199138, -5766.1689241133845, -13557.987041233426, -7665.798981881021, -3675.856134397523, -7568.211265589151, -5379.997835159044, -10198.2069251784, -12609.937800161577, -6379.456088478099, -5370.990082143555, -4784.100327980558, -8066.923387875961, -10773.004385591077, -15773.827227810292, 0.007, 0.24025, 0.94875, 192.0, 0.0, 0.0, 0.0, 0.0, 0.0, 0.0, 0.0, 0.0, 0.0, 1.644588323976806E9, 0.0, 2022-02-12 01:05:23.976
202.0, -9475.01623332694, -8966.11171556851, -5767.465325291792, -13577.053079253803, -7680.349967521426, -3683.343968790051, -7570.669957479234, -5381.450698548639, -10211.819137551682, -12600.326550045795, -6370.224818018058, -5358.58486397086, -4788.6600838494405, -8067.795105909719, -10776.781830404023, -15820.296504532875, 0.007, 0.24025, 0.94875, 192.0, 0.0, 0.0, 0.0, 0.0, 0.0, 0.0, 0.0, 0.0, 0.0, 1.644588323984333E9, 0.0, 2022-02-12 01:05:23.984
204.0, -9454.519683661423, -8964.25652077872, -5770.1028311375185, -13568.06767798277, -7667.162438292795, -3676.3255210310845, -7573.061594135952, -5395.912277211222, -10197.849297267116, -12609.334303061283, -6383.345292013323, -5376.488611279561, -4785.597894859064, -8069.3820797660455, -10774.70311816968, -15798.861181600236, 0.0055, 0.24012499999999998, 0.9493750000000001, 192.0, 0.0, 16.0, 3.5, 64.0, 14.5, 88.0, 0.0, 0.0, 0.0, 1.644588323992506E9, 0.0, 2022-02-12 01:05:23.992
206.0, -9450.406962681647, -8941.927128067868, -5763.33025256756, -13571.554550117798, -7673.309168018004, -3670.894047128445, -7568.792410944988, -5368.374928042284, -10188.3051023847, -12582.15458180363, -6377.667948921675, -5375.572189756893, -4778.110060466535, -8064.196475052414, -10772.333833257419, -15791.261588485431, 0.0055, 0.24012499999999998, 0.9493750000000001, 192.0, 0.0, 0.0, 0.0, 0.0, 0.0, 0.0, 0.0, 0.0, 0.0, 1.644588324001753E9, 0.0, 2022-02-12 01:05:24.001
208.0, -9471.708175147554, -8950.040811305144, -5773.455592805814, -13581.054041511303, -7675.633749441356, -3672.4810209847715, -7567.138381855296, -5372.487649022061, -10203.213715936388, -12609.31195131683, -6372.035309318938, -5377.583846757871, -4776.388976143477, -8056.865102871073, -10777.921769371243, -15816.876687631213, 0.0055, 0.24012499999999998, 0.9493750000000001, 192.0, 0.0, 0.0, 0.0, 0.0, 0.0, 0.0, 0.0, 0.0, 0.0, 1.644588324007814E9, 0.0, 2022-02-12 01:05:24.007
210.0, -9476.178524038616, -8958.243901520242, -5768.739374725745, -13563.105590713692, -7663.8990836023195, -3670.268198283696, -7562.7574399420555, -5376.242742090552, -10195.368253632576, -12597.823154666801, -6376.528009954454, -5379.617855503304, -4775.740775554273, -8065.649338442009, -10779.262874038563, -15778.476390656995, 0.0055, 0.24012499999999998, 0.9493750000000001, 192.0, 0.0, 0.0, 0.0, 0.0, 0.0, 0.0, 0.0, 0.0, 0.0, 1.644588324015272E9, 0.0, 2022-02-12 01:05:24.015
212.0, -9464.488561688491, -8976.281759295674, -5767.733546225256, -13580.808172322295, -7680.931112877263, -3682.8298786675787, -7574.02271914753, -5388.2679806075075, -10201.246762424322, -12606.763852448923, -6374.494001209021, -5362.295253550441, -4789.665912349929, -8071.751364678307, -10780.983958361621, -15823.828080156814, 0.0055, 0.24012499999999998, 0.9493750000000001, 192.0, 0.0, 0.0, 0.0, 0.0, 0.0, 0.0, 0.0, 0.0, 0.0, 1.644588324023166E9, 0.0, 2022-02-12 01:05:24.023
214.0, -9472.401079225669, -8973.532494727671, -5781.7257382542775, -13573.92383503006, -7675.276121530071, -3683.2322100677743, -7584.550390785979, -5395.644056277759, -10200.39739613502, -12615.525736275404, -6381.557152456899, -5385.719881739603, -4791.319941439622, -8070.611425711087, -10779.553446716482, -15803.376233980207, 0.00875, 0.2370625, 0.9456875, 192.0, 0.0, 48.0, 3.5, 40.0, 14.5, 56.0, 0.0, 0.0, 0.0, 1.644588324030045E9, 0.0, 2022-02-12 01:05:24.030
216.0, -9485.745070665487, -8969.799753403635, -5779.736432997755, -13578.885922299138, -7680.417022754792, -3682.7851751786684, -7573.64273949179, -5396.046387677955, -10216.043617253736, -12615.97277116451, -6392.621265962275, -5385.362253828318, -4794.829165319105, -8073.383042023545, -10783.442650251705, -15801.565742679328, 0.00875, 0.2370625, 0.9456875, 192.0, 0.0, 0.0, 0.0, 0.0, 0.0, 0.0, 0.0, 0.0, 0.0, 1.644588324037754E9, 0.0, 2022-02-12 01:05:24.037
218.0, -9474.099811804273, -8953.505331695716, -5788.721834268789, -13589.301835215312, -7683.0321768560625, -3681.3546635335283, -7571.988710402097, -5389.653788763737, -10219.999876022324, -12605.266285570418, -6389.246152549524, -5395.040559177466, -4791.834031562094, -8070.745536177819, -10780.603978705882, -15828.924277892624, 0.00875, 0.2370625, 0.9456875, 192.0, 0.0, 0.0, 0.0, 0.0, 0.0, 0.0, 0.0, 0.0, 0.0, 1.64458832405261E9, 0.0, 2022-02-12 01:05:24.052
220.0, -9469.383593724204, -8966.312881268606, -5784.43029933337, -13572.515675129376, -7670.358737749903, -3672.7715936626905, -7571.988710402097, -5385.697529995147, -10204.35365490361, -12593.241047053463, -6395.415234019189, -5403.73538777058, -4788.391862915977, -8073.4948007458215, -10781.118068828353, -15781.940911047568, 0.00875, 0.2370625, 0.9456875, 192.0, 0.0, 0.0, 0.0, 0.0, 0.0, 0.0, 0.0, 0.0, 0.0, 1.644588324059631E9, 0.0, 2022-02-12 01:05:24.059
222.0, -9460.644061642179, -8970.179733059374, -5779.781136486667, -13573.476800140954, -7682.205162311217, -3668.72592791628, -7563.6962132091785, -5377.919122924701, -10202.96784674738, -12611.949457162555, -6391.88365839525, -5384.535239283471, -4801.087653766591, -8065.470524486366, -10785.431955508227, -15820.564725466338, 0.00875, 0.2370625, 0.9456875, 192.0, 0.0, 0.0, 0.0, 0.0, 0.0, 0.0, 0.0, 0.0, 0.0, 1.64458832406734E9, 0.0, 2022-02-12 01:05:24.067
224.0, -9475.552675193867, -8974.046584850143, -5778.28356960816, -13566.97244250446, -7666.916569103786, -3667.2283610377744, -7571.407565046259, -5382.568285771405, -10203.213715936388, -12608.462585027526, -6384.9099141251945, -5376.44390779065, -4790.068243750125, -8066.699870431408, -10780.93925487271, -15799.196457767066, 0.0063750000000000005, 0.23653125000000003, 0.94884375, 192.0, 0.0, 16.0, 3.5, 48.0, 14.5, 96.0, 0.0, 0.0, 0.0, 1.644588324075318E9, 0.0, 2022-02-12 01:05:24.075
226.0, -9470.344718735781, -8946.86686359249, -5771.0416044046415, -13578.237721709935, -7667.922397604275, -3664.501448214227, -7567.987748144597, -5375.125154867787, -10208.064044483192, -12597.845506411257, -6380.148992556214, -5381.338939826363, -4779.585275600586, -8062.274225029258, -10783.12972582933, -15801.40928046814, 0.0063750000000000005, 0.23653125000000003, 0.94884375, 192.0, 0.0, 0.0, 0.0, 0.0, 0.0, 0.0, 0.0, 0.0, 0.0, 1.644588324082421E9, 0.0, 2022-02-12 01:05:24.082
228.0, -9454.899663317165, -8966.223474290786, -5782.61980803249, -13581.59048337823, -7675.074955829973, -3665.0378900811543, -7571.228751090616, -5380.467221792605, -10207.63936133854, -12618.63262875469, -6376.729175654552, -5383.328245082885, -4766.777726027694, -8061.469562228866, -10778.949949616188, -15830.243030815487, 0.0063750000000000005, 0.23653125000000003, 0.94884375, 192.0, 0.0, 0.0, 0.0, 0.0, 0.0, 0.0, 0.0, 0.0, 0.0, 1.644588324089836E9, 0.0, 2022-02-12 01:05:24.089
230.0, -9462.320442476326, -8954.19823577383, -5781.993959187742, -13572.538026873832, -7675.611397696901, -3658.15355278892, -7576.839038948899, -5384.177611372186, -10195.859992010593, -12596.772622677401, -6390.654312450209, -5388.78207072998, -4786.402557659454, -8068.398603010011, -10782.459173495672, -15783.84080932627, 0.0063750000000000005, 0.23653125000000003, 0.94884375, 192.0, 0.0, 0.0, 0.0, 0.0, 0.0, 0.0, 0.0, 0.0, 0.0, 1.644588324097979E9, 0.0, 2022-02-12 01:05:24.097
232.0, -9462.029869798407, -8962.893064366945, -5784.09502316654, -13579.869399055171, -7690.85528741542, -3667.5189337156935, -7576.995501160086, -5380.713090981614, -10204.510117114796, -12580.545256202848, -6388.106213582303, -5387.30685559593, -4794.672703107918, -8068.398603010011, -10783.576760718437, -15822.196402811576, 0.0063750000000000005, 0.23653125000000003, 0.94884375, 192.0, 0.0, 0.0, 0.0, 0.0, 0.0, 0.0, 0.0, 0.0, 0.0, 1.644588324104958E9, 0.0, 2022-02-12 01:05:24.104
234.0, -9477.340814750292, -8976.259407551219, -5791.895781981442, -13568.44765763851, -7681.266389044094, -3664.1885237918527, -7579.2530273500715, -5388.06681490741, -10200.263285668289, -12610.183669350585, -6385.446355992121, -5379.059061891921, -4793.197487973868, -8075.417050768978, -10783.487353740617, -15803.219771769021, 0.0061875, 0.23726562500000004, 0.946421875, 192.0, 0.0, 24.0, 3.5, 56.0, 14.5, 64.0, 0.0, 0.0, 0.0, 1.644588324112252E9, 0.0, 2022-02-12 01:05:24.112
236.0, -9468.087192545796, -8951.471322950283, -5778.507087052713, -13573.879131541149, -7678.785345409554, -3655.046660309632, -7565.9313876547085, -5380.020186903499, -10216.624762609574, -12594.135116831674, -6379.634902433741, -5371.660634477214, -4781.731043068296, -8066.11872507557, -10784.739051430113, -15792.379175708196, 0.0061875, 0.23726562500000004, 0.946421875, 192.0, 0.0, 0.0, 0.0, 0.0, 0.0, 0.0, 0.0, 0.0, 0.0, 1.644588324119769E9, 0.0, 2022-02-12 01:05:24.119
238.0, -9477.609035683756, -8959.428543976372, -5785.994921445242, -13584.4068031796, -7684.082708845462, -3664.434392980861, -7573.106297624862, -5379.260227592019, -10216.982390520858, -12606.048596626353, -6385.178135058658, -5391.106652153332, -4779.249999433756, -8055.501646459299, -10782.772097918047, -15823.783376667903, 0.0061875, 0.23726562500000004, 0.946421875, 192.0, 0.0, 0.0, 0.0, 0.0, 0.0, 0.0, 0.0, 0.0, 0.0, 1.644588324128091E9, 0.0, 2022-02-12 01:05:24.128
240.0, -9465.807314611355, -8958.042735820143, -5788.543020313146, -13569.744058816917, -7675.834915141454, -3658.53353244466, -7567.965396400142, -5374.92398916769, -10197.894000756027, -12592.592846464258, -6395.012902618993, -5396.2475533780525, -4776.254865676745, -8074.210056568391, -10783.375595018339, -15781.449172669552, 0.0061875, 0.23726562500000004, 0.946421875, 192.0, 0.0, 0.0, 0.0, 0.0, 0.0, 0.0, 0.0, 0.0, 0.0, 1.644588324135752E9, 0.0, 2022-02-12 01:05:24.135
242.0, -9466.142590778183, -8974.471267994793, -5783.29036036615, -13577.745983331917, -7689.737700192654, -3659.896988856434, -7567.585416744401, -5374.20873334512, -10212.422634651975, -12599.745404689957, -6389.581428716354, -5387.30685559593, -4796.013807775236, -8065.537579719732, -10780.313406027963, -15813.903905618658, 0.0061875, 0.23726562500000004, 0.946421875, 192.0, 0.0, 0.0, 0.0, 0.0, 0.0, 0.0, 0.0, 0.0, 0.0, 1.644588324142129E9, 0.0, 2022-02-12 01:05:24.142
244.0, -9467.148419278672, -8957.930977097867, -5790.442918591848, -13565.318413414767, -7681.109926832906, -3659.7405266452465, -7583.589265774402, -5384.132907883276, -10206.208849693401, -12600.371253534706, -6380.707786167596, -5367.950244897634, -4797.6454851204735, -8061.670727928964, -10782.7944496625, -15794.368480964718, 0.00809375, 0.2386328125, 0.9492109375, 192.0, 0.0, 40.0, 3.5, 64.0, 14.5, 96.0, 0.0, 0.0, 0.0, 1.644588324150407E9, 0.0, 2022-02-12 01:05:24.150
