%OpenBCI Raw EEG Data
%Number of channels = 16
%Sample Rate = 125 Hz
%Board = OpenBCI_GUI$BoardCytonSerialDaisy
Sample Index, EXG Channel 0, EXG Channel 1, EXG Channel 2, EXG Channel 3, EXG Channel 4, EXG Channel 5, EXG Channel 6, EXG Channel 7, EXG Channel 8, EXG Channel 9, EXG Channel 10, EXG Channel 11, EXG Channel 12, EXG Channel 13, EXG Channel 14, EXG Channel 15, Accel Channel 0, Accel Channel 1, Accel Channel 2, Other, Other, Other, Other, Other, Other, Other, Analog Channel 0, Analog Channel 1, Analog Channel 2, Timestamp, Other, Timestamp (Formatted)
182.0, -9790.46640282469, -9253.44339054148, -5823.612907363523, -13693.2821504214, -7725.858119232431, -3661.7745353906794, -7424.266031296973, -5336.590747426838, -10244.877367601082, -12822.145262020262, -6586.723814812161, -5524.457159573693, -5363.703413451125, -7947.09568585106, -10823.273458871063, -16460.986907599796, 0.002, 0.117, 0.47000000000000003, 192.0, 0.0, 16.0, 3.5, 40.0, 14.5, 48.0, 0.0, 0.0, 0.0, 1.644588373992193E9, 0.0, 2022-02-12 01:06:13.992
184.0, -9793.372129603878, -9241.373448535616, -5827.077427754096, -13691.024624231413, -7720.270183118604, -3665.954311603822, -7425.383618519738, -5343.855064374812, -10246.151417035035, -12817.741968362567, -6601.610076619396, -5553.559130854504, -5368.889018164757, -7960.663194735432, -10826.29094437253, -16418.943276279366, 0.002, 0.117, 0.47000000000000003, 192.0, 0.0, 0.0, 0.0, 0.0, 0.0, 0.0, 0.0, 0.0, 0.0, 1.644588373992201E9, 0.0, 2022-02-12 01:06:13.992
0.0, -4805.178023001912, -4572.0046248441495, -2862.6549676245413, -6838.3597538900085, -3754.891902791489, -1793.7051407939364, -3649.369317217984, -2582.677016577365, -5138.643698530638, -6410.055626637415, -3306.60531599585, -2776.5560479826986, -2688.736044017797, -3983.17026891354, -5413.257230908541, -8236.506073058375, 0.004, 0.232, 0.9460000000000001, 192.0, 0.0, 16.0, 3.5, 32.0, 14.5, 72.0, 0.0, 0.0, 0.0, 1.644588374115608E9, 0.0, 2022-02-12 01:06:14.115
2.0, -9633.490101515068, -9152.681726536957, -5737.111656321485, -13678.440592103076, -7501.983046768075, -3594.9428194693114, -7278.5997126817365, -5167.388041900163, -10101.3344647091, -12857.081038603907, -6447.651260811242, -5521.260860116585, -5100.757491678893, -7915.333856980069, -10752.150208014275, -15889.631615833237, 0.004, 0.232, 0.9460000000000001, 192.0, 0.0, 0.0, 0.0, 0.0, 0.0, 0.0, 0.0, 0.0, 0.0, 1.644588374129752E9, 0.0, 2022-02-12 01:06:14.129
4.0, -9630.964354391617, -9156.682688794457, -5730.003801584698, -13679.80404851485, -7510.119081749807, -3603.1682614288643, -7291.429613999083, -5175.568780370806, -10121.160462040956, -12855.672878703223, -6453.7085835586295, -5531.609717799392, -5102.188003324032, -7921.368827983002, -10756.59820516088, -15896.895932781212, 0.004, 0.232, 0.9460000000000001, 192.0, 0.0, 0.0, 0.0, 0.0, 0.0, 0.0, 0.0, 0.0, 0.0, 1.644588374137582E9, 0.0, 2022-02-12 01:06:14.137
6.0, -9619.43085425268, -9144.322174110672, -5730.473188218259, -13681.681595049096, -7511.951924795142, -3598.988485215722, -7306.561744995326, -5176.820478060303, -10116.019560816236, -12843.178253552707, -6443.203263664635, -5539.522235336571, -5089.067529328768, -7917.501976192234, -10756.8887778388, -15916.699578368614, 0.005, 0.234, 0.9490000000000001, 192.0, 0.0, 24.0, 3.5, 48.0, 14.5, 96.0, 0.0, 0.0, 0.0, 1.644588374145312E9, 0.0, 2022-02-12 01:06:14.145
8.0, -9613.306476271926, -9157.152075428019, -5732.104865563496, -13662.749667495451, -7511.661352117223, -3600.4413486053168, -7307.366407795716, -5180.329701939786, -10106.09538627808, -12827.86730860082, -6458.625967338797, -5532.213214899685, -5091.77209040786, -7919.625391915488, -10764.778943631523, -15877.561673827371, 0.005, 0.234, 0.9490000000000001, 192.0, 0.0, 0.0, 0.0, 0.0, 0.0, 0.0, 0.0, 0.0, 0.0, 1.644588374153352E9, 0.0, 2022-02-12 01:06:14.153
10.0, -9619.47555774159, -9156.23565390535, -5735.8823103764435, -13679.55817932584, -7532.224957016106, -3607.8844795089344, -7307.58992524027, -5182.5872281297725, -10119.662895162452, -12838.216166283628, -6445.684307299174, -5518.601002526403, -5111.6204394841725, -7921.704104149831, -10770.143362300798, -15917.86186908029, 0.005, 0.234, 0.9490000000000001, 192.0, 0.0, 0.0, 0.0, 0.0, 0.0, 0.0, 0.0, 0.0, 0.0, 1.644588374159841E9, 0.0, 2022-02-12 01:06:14.159
12.0, -9608.5679064474, -9144.165711899484, -5738.273947033161, -13671.533903066385, -7514.164747496217, -3603.0565027065877, -7313.356675309739, -5184.487126408473, -10103.591990899085, -12829.610744668335, -6442.242138653057, -5522.937240950732, -5103.015017868879, -7928.811958886619, -10770.769211145545, -15895.554828113894, 0.005, 0.234, 0.9490000000000001, 192.0, 0.0, 0.0, 0.0, 0.0, 0.0, 0.0, 0.0, 0.0, 0.0, 1.644588374168135E9, 0.0, 2022-02-12 01:06:14.168
14.0, -9652.399677324258, -9158.649642306524, -5736.776380154655, -13680.653414804152, -7516.958715553131, -3603.1012061954984, -7306.338227550773, -5183.458946163529, -10115.639581160496, -12846.262794287539, -6451.8310370243835, -5518.37748508185, -5101.383340523642, -7917.1219965364935, -10769.22694077813, -15896.225380447553, 0.005, 0.234, 0.9490000000000001, 192.0, 0.0, 0.0, 0.0, 0.0, 0.0, 0.0, 0.0, 0.0, 0.0, 1.644588374175918E9, 0.0, 2022-02-12 01:06:14.175
16.0, -9657.942909949174, -9174.698194825434, -5740.1067900784965, -13690.912865509137, -7517.070474275408, -3600.3519416274958, -7307.9252014071, -5173.512419880917, -10131.486967979308, -12867.787524198, -6450.333470145878, -5540.461008603694, -5100.556325978795, -7919.111301793016, -10764.376612231328, -15918.66653188068, 0.0055, 0.23500000000000001, 0.9475, 192.0, 0.0, 24.0, 3.5, 48.0, 14.5, 72.0, 0.0, 0.0, 0.0, 1.644588374183105E9, 0.0, 2022-02-12 01:06:14.183
18.0, -9643.90601443124, -9188.355110687628, -5739.1680168113735, -13669.477542576498, -7509.783805582978, -3597.1332904259316, -7303.901887405144, -5169.444402390051, -10127.62011618854, -12843.602936697358, -6464.839752297373, -5546.250110417618, -5082.160840292077, -7930.130711809482, -10763.214321519652, -15878.165170927665, 0.0055, 0.23500000000000001, 0.9475, 192.0, 0.0, 0.0, 0.0, 0.0, 0.0, 0.0, 0.0, 0.0, 0.0, 1.644588374189567E9, 0.0, 2022-02-12 01:06:14.189
20.0, -9636.19466259416, -9177.156886715518, -5739.190368555828, -13686.75544104045, -7518.7915585984665, -3596.9991799592, -7306.673503717602, -5166.40456514413, -10126.48017722132, -12824.559250421436, -6466.694947087163, -5544.1713981832745, -5100.86925040117, -7920.072426804594, -10764.309556997963, -15914.86673532328, 0.0055, 0.23500000000000001, 0.9475, 192.0, 0.0, 0.0, 0.0, 0.0, 0.0, 0.0, 0.0, 0.0, 0.0, 1.644588374198187E9, 0.0, 2022-02-12 01:06:14.198
22.0, -9695.650302845277, -9182.789526318256, -5743.906586635899, -13677.881798491693, -7510.588468383368, -3597.982656715233, -7310.897983419655, -5169.198533201044, -10130.794063901194, -12847.849768143866, -6469.600673866353, -5550.496941864127, -5105.451358014508, -7919.491281448756, -10762.521417441538, -15895.264255435975, 0.0055, 0.23500000000000001, 0.9475, 192.0, 0.0, 0.0, 0.0, 0.0, 0.0, 0.0, 0.0, 0.0, 0.0, 1.644588374205506E9, 0.0, 2022-02-12 01:06:14.205
24.0, -9692.789279554998, -9216.518308701314, -5739.011554600186, -13674.014946700925, -7513.9188783072095, -3597.625028803948, -7306.964076395521, -5167.946835511546, -10134.415046502954, -12851.314288534439, -6456.726069060096, -5527.049961930509, -5100.757491678893, -7920.362999482513, -10766.9917663326, -15893.766688557469, 0.0055, 0.23500000000000001, 0.9475, 192.0, 0.0, 0.0, 0.0, 0.0, 0.0, 0.0, 0.0, 0.0, 0.0, 1.644588374212888E9, 0.0, 2022-02-12 01:06:14.212
26.0, -9681.456945116157, -9212.58440167718, -5744.688897691834, -13683.268568905421, -7518.568041153913, -3601.983618972733, -7313.356675309739, -5170.159658212621, -10140.092389594602, -12871.587320755401, -6453.75328704754, -5522.423150828261, -5104.289067302831, -7921.5699936831, -10765.158923287265, -15912.899781811213, 0.00575, 0.2395, 0.95075, 192.0, 0.0, 24.0, 3.5, 80.0, 14.5, 104.0, 0.0, 0.0, 0.0, 1.644588374220144E9, 0.0, 2022-02-12 01:06:14.220
28.0, -9661.183912895192, -9176.709851826412, -5740.866749389977, -13670.729240265995, -7500.954866523131, -3590.248953133697, -7300.772643181401, -5161.218960430499, -10131.911651123959, -12839.043180828474, -6466.717298831618, -5546.205406928708, -5086.899410116603, -7926.509729207723, -10762.588472674905, -15874.946519726102, 0.00575, 0.2395, 0.95075, 192.0, 0.0, 0.0, 0.0, 0.0, 0.0, 0.0, 0.0, 0.0, 0.0, 1.644588374228165E9, 0.0, 2022-02-12 01:06:14.228
30.0, -9655.014831425528, -9169.177313944974, -5734.094170820019, -13679.535827581387, -7512.9801050400865, -3597.245049148208, -7304.393625783161, -5165.912826766113, -10138.036029104715, -12851.470750745626, -6457.75424930504, -5545.579558083959, -5102.9926661244235, -7916.250278502736, -10759.481580195616, -15901.43333690564, 0.00575, 0.2395, 0.95075, 192.0, 0.0, 0.0, 0.0, 0.0, 0.0, 0.0, 0.0, 0.0, 0.0, 1.644588374235176E9, 0.0, 2022-02-12 01:06:14.235
32.0, -9644.53186327599, -9183.996520518842, -5743.481903491247, -13671.936234466582, -7507.950962537642, -3600.8213282610573, -7311.903811920144, -5179.212114717021, -10128.447130733388, -12848.810893155443, -6463.7445168190625, -5534.962479467688, -5105.004323125401, -7929.23664203127, -10759.481580195616, -15881.741450040514, 0.00575, 0.2395, 0.95075, 192.0, 0.0, 0.0, 0.0, 0.0, 0.0, 0.0, 0.0, 0.0, 0.0, 1.644588374241928E9, 0.0, 2022-02-12 01:06:14.241
34.0, -9654.098409902861, -9183.460078651915, -5730.272022518161, -13677.345356624766, -7513.024808528997, -3595.143985169409, -7308.104015362742, -5170.316120423809, -10129.922345867437, -12842.150073307763, -6464.8621040418275, -5535.320107378973, -5101.718616690471, -7926.308563507625, -10765.807123876468, -15879.796848272903, 0.00575, 0.2395, 0.95075, 192.0, 0.0, 0.0, 0.0, 0.0, 0.0, 0.0, 0.0, 0.0, 0.0, 1.644588374258032E9, 0.0, 2022-02-12 01:06:14.258
36.0, -9656.981784937596, -9191.05967176672, -5731.054333574097, -13676.294824635366, -7511.191965483662, -3593.668770035359, -7306.0700066173085, -5170.271416934898, -10135.644392447995, -12867.429896286714, -6457.709545816129, -5531.050924188009, -5102.478576001951, -7910.148252266437, -10766.254158765574, -15905.635464863237, 0.003875, 0.23775000000000002, 0.9513750000000001, 192.0, 0.0, 8.0, 3.5, 48.0, 14.5, 96.0, 0.0, 0.0, 0.0, 1.644588374264997E9, 0.0, 2022-02-12 01:06:14.264
38.0, -9650.812703467931, -9172.440668635449, -5727.679220161345, -13659.687478505073, -7493.511735619514, -3583.4987263081944, -7304.930067650088, -5164.549370354339, -10122.210994030356, -12840.026657584509, -6448.99236547856, -5527.742866008623, -5089.0228258398565, -7911.422301700391, -10765.091868053898, -15863.077743420334, 0.003875, 0.23775000000000002, 0.9513750000000001, 192.0, 0.0, 0.0, 0.0, 0.0, 0.0, 0.0, 0.0, 0.0, 0.0, 1.644588374272318E9, 0.0, 2022-02-12 01:06:14.272
40.0, -9633.870081170808, -9151.139456169542, -5722.3818567254375, -13678.172371169612, -7497.490346132558, -3591.0312641896326, -7300.906753648133, -5161.509533108418, -10115.796043371683, -12819.820680596911, -6438.352935117833, -5534.403685856305, -5086.474726971952, -7906.370807453491, -10758.833379606413, -15897.074746736855, 0.003875, 0.23775000000000002, 0.9513750000000001, 192.0, 0.0, 0.0, 0.0, 0.0, 0.0, 0.0, 0.0, 0.0, 0.0, 1.644588374280564E9, 0.0, 2022-02-12 01:06:14.280
42.0, -9641.514377774523, -9168.015023233298, -5732.194272541317, -13667.443533831065, -7495.031654242475, -3586.3597495984736, -7303.700721705047, -5161.040146474856, -10111.213935758346, -12831.421235969216, -6451.987499235571, -5537.979964969154, -5078.271636756854, -7908.404816198924, -10756.329984227417, -15873.270138891952, 0.003875, 0.23775000000000002, 0.9513750000000001, 192.0, 0.0, 0.0, 0.0, 0.0, 0.0, 0.0, 0.0, 0.0, 0.0, 1.644588374288403E9, 0.0, 2022-02-12 01:06:14.288
44.0, -9642.989592908572, -9192.847811323145, -5728.930917850843, -13666.638871030675, -7504.955828780631, -3591.433595589828, -7304.393625783161, -5166.0692889773, -10127.217784788345, -12836.740951149577, -6457.75424930504, -5528.681639275746, -5098.790538166826, -7911.556412167122, -10763.504894197571, -15876.019403459955, 0.003875, 0.23775000000000002, 0.9513750000000001, 192.0, 0.0, 0.0, 0.0, 0.0, 0.0, 0.0, 0.0, 0.0, 0.0, 1.644588374295107E9, 0.0, 2022-02-12 01:06:14.295
46.0, -9645.560043520933, -9190.277360710783, -5728.081551561541, -13668.114086164724, -7509.806157327433, -3597.8038427595907, -7309.556878752337, -5165.778716299381, -10124.379113242521, -12855.874044403321, -6446.556025332931, -5517.639877514825, -5100.511622489885, -7914.216269757304, -10762.811990119457, -15899.019348504467, 0.0079375, 0.236875, 0.9506875000000001, 192.0, 0.0, 48.0, 3.5, 48.0, 14.5, 88.0, 0.0, 0.0, 0.0, 1.644588374303017E9, 0.0, 2022-02-12 01:06:14.303
48.0, -9651.952642435152, -9178.43093614947, -5732.775417897155, -13664.783676240884, -7508.085073004374, -3591.7465200122024, -7306.606448484236, -5155.787486527859, -10121.540441696698, -12844.586413453391, -6458.782429549984, -5528.838101486934, -5100.779843423348, -7916.674961647387, -10763.996632575589, -15861.021382930445, 0.0079375, 0.236875, 0.9506875000000001, 192.0, 0.0, 0.0, 0.0, 0.0, 0.0, 0.0, 0.0, 0.0, 0.0, 1.644588374310254E9, 0.0, 2022-02-12 01:06:14.310
50.0, -9643.324869075403, -9154.223996904373, -5729.3108975065825, -13677.635929302685, -7519.663276632224, -3594.1605084133757, -7319.659867246136, -5163.990576742956, -10133.47627323583, -12843.088846574885, -6454.021507981004, -5530.581537554448, -5100.466919000974, -7912.003447056228, -10765.047164564987, -15895.800697302902, 0.0079375, 0.236875, 0.9506875000000001, 192.0, 0.0, 0.0, 0.0, 0.0, 0.0, 0.0, 0.0, 0.0, 0.0, 1.644588374318003E9, 0.0, 2022-02-12 01:06:14.318
52.0, -9649.091619144872, -9167.635043577558, -5735.345868509516, -13666.951795453047, -7514.075340518397, -3593.7134735242694, -7309.802747941345, -5163.543541853851, -10126.837805132605, -12815.529145661492, -6459.117705716813, -5550.429886630761, -5090.051006084801, -7906.102586520027, -10764.309556997963, -15874.0971534368, 0.0079375, 0.236875, 0.9506875000000001, 192.0, 0.0, 0.0, 0.0, 0.0, 0.0, 0.0, 0.0, 0.0, 0.0, 1.644588374324829E9, 0.0, 2022-02-12 01:06:14.324
54.0, -9640.843825440863, -9181.850753051132, -5728.439179472826, -13664.917786707616, -7520.803215599444, -3601.9389154838227, -7318.16230036763, -5176.395794915652, -10123.90972660896, -12830.594221424368, -6457.687194071674, -5526.692334019224, -5105.451358014508, -7912.182261011871, -10768.310519255463, -15872.063144691367, 0.0079375, 0.236875, 0.9506875000000001, 192.0, 0.0, 0.0, 0.0, 0.0, 0.0, 0.0, 0.0, 0.0, 0.0, 1.644588374332699E9, 0.0, 2022-02-12 01:06:14.332
56.0, -9672.359785122846, -9197.7204916144, -5738.430409244348, -13675.08783043478, -7532.381419227293, -3609.8514330210014, -7320.263364346429, -5171.567818113305, -10138.259546549267, -12863.719506707133, -6449.685269556674, -5514.778854224545, -5113.788558696337, -7922.017028572206, -10768.93636810021, -15897.499429881505, 0.00796875, 0.2384375, 0.95034375, 192.0, 0.0, 32.0, 3.5, 64.0, 14.5, 88.0, 0.0, 0.0, 0.0, 1.644588374340836E9, 0.0, 2022-02-12 01:06:14.340
58.0, -9668.045898442972, -9183.840058307655, -5739.257423789194, -13671.600958299752, -7516.981067297586, -3603.637648062426, -7307.858146173733, -5171.9030942801355, -10132.313982524156, -12856.499893248068, -6459.363574905822, -5533.733133522646, -5109.541727249829, -7922.106435550027, -10771.350356501383, -15859.032077673923, 0.00796875, 0.2384375, 0.95034375, 192.0, 0.0, 0.0, 0.0, 0.0, 0.0, 0.0, 0.0, 0.0, 0.0, 1.644588374347211E9, 0.0, 2022-02-12 01:06:14.347
60.0, -9635.837034682874, -9170.764287801301, -5731.27785101865, -13688.364766641233, -7523.127797022796, -3604.66582830737, -7303.8348321717785, -5171.232541946476, -10132.202223801878, -12844.988744853586, -6453.261548669523, -5542.897348749322, -5107.261849315388, -7921.637048916466, -10769.383402989317, -15892.090307723322, 0.00796875, 0.2384375, 0.95034375, 192.0, 0.0, 0.0, 0.0, 0.0, 0.0, 0.0, 0.0, 0.0, 0.0, 1.644588374355442E9, 0.0, 2022-02-12 01:06:14.355
62.0, -9635.85938642733, -9155.140418427041, -5742.252557546206, -13675.08783043478, -7509.426177671693, -3595.859240991979, -7307.880497918189, -5158.983785984968, -10123.999133586782, -12842.150073307763, -6459.631795839286, -5544.8195987724785, -5095.415424754075, -7913.277496490181, -10765.114219798354, -15869.827970245835, 0.00796875, 0.2384375, 0.95034375, 192.0, 0.0, 0.0, 0.0, 0.0, 0.0, 0.0, 0.0, 0.0, 0.0, 1.644588374363924E9, 0.0, 2022-02-12 01:06:14.363
64.0, -9631.076113113895, -9166.115124954596, -5725.891080604921, -13668.851693731749, -7503.748834580045, -3591.1653746563647, -7296.838736157267, -5156.9944807284455, -10112.62209565903, -12813.383378193783, -6450.0652492124145, -5523.607793284392, -5100.511622489885, -7911.176432511382, -10764.980109331622, -15860.395534085696, 0.00796875, 0.2384375, 0.95034375, 192.0, 0.0, 0.0, 0.0, 0.0, 0.0, 0.0, 0.0, 0.0, 0.0, 1.64458837437845E9, 0.0, 2022-02-12 01:06:14.378
66.0, -9682.52982885001, -9192.467831667404, -5733.84830163101, -13678.552350825352, -7507.012189270519, -3593.8475839910016, -7301.331436792784, -5166.158695955121, -10127.173081299434, -12848.565023966436, -6440.9680892191045, -5509.705008233191, -5095.281314287343, -7902.235734729259, -10756.8887778388, -15883.909569252679, 0.007984375, 0.23721875, 0.949171875, 192.0, 0.0, 32.0, 3.5, 48.0, 14.5, 80.0, 0.0, 0.0, 0.0, 1.644588374384999E9, 0.0, 2022-02-12 01:06:14.384
68.0, -9679.333529392903, -9179.906151283521, -5735.1223510649625, -13665.409525085632, -7496.730386821078, -3590.897153722901, -7300.459718759027, -5166.002233743934, -10121.942773096893, -12844.899337875764, -6455.541426603964, -5531.944993966222, -5089.6710264290605, -7909.745920866242, -10755.950004571678, -15849.37612406923, 0.007984375, 0.23721875, 0.949171875, 192.0, 0.0, 0.0, 0.0, 0.0, 0.0, 0.0, 0.0, 0.0, 0.0, 1.644588374393258E9, 0.0, 2022-02-12 01:06:14.393
70.0, -9656.154770392748, -9178.38623266056, -5734.429446986848, -13680.206379915046, -7512.8683463178095, -3592.417072345862, -7299.342131536261, -5165.555198854828, -10131.285802279212, -12850.844901900877, -6458.067173727414, -5536.772970768568, -5085.8488781272035, -7912.070502289594, -10760.733277885114, -15878.925130239146, 0.007984375, 0.23721875, 0.949171875, 192.0, 0.0, 0.0, 0.0, 0.0, 0.0, 0.0, 0.0, 0.0, 0.0, 1.644588374400223E9, 0.0, 2022-02-12 01:06:14.400
72.0, -9638.608650995333, -9165.690441809946, -5742.766647668677, -13668.89639722066, -7504.218221213606, -3591.344188612007, -7308.551050251848, -5180.8884955511685, -10124.513223709253, -12828.49315744557, -6457.41897313821, -5548.015898229587, -5082.362005992175, -7910.058845288617, -10763.594301175393, -15863.122446909243, 0.007984375, 0.23721875, 0.949171875, 192.0, 0.0, 0.0, 0.0, 0.0, 0.0, 0.0, 0.0, 0.0, 0.0, 1.644588374407463E9, 0.0, 2022-02-12 01:06:14.407
74.0, -9649.449247056156, -9182.029567006775, -5730.741409151722, -13671.198626899557, -7513.1589189957285, -3592.9535142127893, -7313.334323565284, -5177.088698993766, -10124.401464986977, -12826.146224277762, -6458.178932449691, -5537.711744035691, -5100.086939345234, -7909.18712725486, -10768.690498911203, -15860.775513741437, 0.007984375, 0.23721875, 0.949171875, 192.0, 0.0, 0.0, 0.0, 0.0, 0.0, 0.0, 0.0, 0.0, 0.0, 1.644588374415645E9, 0.0, 2022-02-12 01:06:14.415
76.0, -9668.291767631981, -9201.386177705072, -5735.99406909872, -13682.933292738593, -7521.719637122112, -3600.307238138585, -7319.458701546037, -5175.099393737244, -10136.560813970664, -12860.97024213913, -6448.075943955892, -5529.307488120496, -5101.048064356812, -7899.441766672346, -10766.678841910225, -15887.441144876617, 0.004, 0.23600000000000002, 0.9460000000000001, 192.0, 0.0, 16.0, 3.5, 48.0, 14.5, 72.0, 0.0, 0.0, 0.0, 1.644588374423555E9, 0.0, 2022-02-12 01:06:14.423
78.0, -9664.894302474773, -9174.944064014444, -5733.982412097742, -13674.774906012406, -7510.499061405548, -3591.925333967845, -7314.317800321317, -5173.177143714088, -10122.90389810847, -12834.170500537217, -6455.1167434593135, -5543.47849410516, -5089.402805495597, -7910.774101111187, -10765.717716898647, -15853.958231682567, 0.004, 0.23600000000000002, 0.9460000000000001, 192.0, 0.0, 0.0, 0.0, 0.0, 0.0, 0.0, 0.0, 0.0, 0.0, 1.644588374429921E9, 0.0, 2022-02-12 01:06:14.429
80.0, -9659.440476827678, -9163.924653997976, -5727.746275394711, -13676.51834207992, -7523.8430528453655, -3596.5968485590042, -7316.865899189223, -5181.380233929185, -10132.2916307797, -12849.436742000193, -6448.388868378266, -5530.246261387618, -5092.822622397259, -7905.722606864287, -10768.46698146665, -15885.854171020292, 0.004, 0.23600000000000002, 0.9460000000000001, 192.0, 0.0, 0.0, 0.0, 0.0, 0.0, 0.0, 0.0, 0.0, 0.0, 1.644588374437233E9, 0.0, 2022-02-12 01:06:14.437
82.0, -9657.182950637693, -9167.947967999931, -5732.104865563496, -13668.18114139809, -7513.874174818298, -3591.7465200122024, -7316.5753265113035, -5171.433707646574, -10128.603592944573, -12846.463959987637, -6438.308231628923, -5531.050924188009, -5101.271581801365, -7911.75757786722, -10766.477676210126, -15869.13506616772, 0.004, 0.23600000000000002, 0.9460000000000001, 192.0, 0.0, 0.0, 0.0, 0.0, 0.0, 0.0, 0.0, 0.0, 0.0, 1.644588374445382E9, 0.0, 2022-02-12 01:06:14.445
84.0, -9635.188834093671, -9160.929520240965, -5728.282717261639, -13666.41535358612, -7516.332866708382, -3593.5793630575376, -7313.200213098552, -5180.866143806714, -10122.501566708275, -12841.63598318529, -6444.343202631856, -5528.94986020921, -5095.281314287343, -7911.377598211479, -10770.411583234261, -15862.250728875486, 0.004, 0.23600000000000002, 0.9460000000000001, 192.0, 0.0, 0.0, 0.0, 0.0, 0.0, 0.0, 0.0, 0.0, 0.0, 1.644588374453377E9, 0.0, 2022-02-12 01:06:14.453
86.0, -9645.783560965487, -9176.508686126315, -5729.042676573119, -13680.452249104053, -7518.590392898369, -3594.182860157831, -7313.155509609642, -5174.987635014968, -10127.91068886646, -12848.140340821785, -6443.762057276018, -5533.375505611361, -5086.899410116603, -7910.595287155544, -10767.170580288242, -15891.598569345304, 0.008, 0.23800000000000002, 0.9520000000000001, 192.0, 0.0, 32.0, 3.5, 56.0, 14.5, 96.0, 0.0, 0.0, 0.0, 1.644588374459826E9, 0.0, 2022-02-12 01:06:14.459
88.0, -9663.419087340724, -9167.456229621916, -5730.18261554034, -13667.935272209083, -7510.119081749807, -3595.2110404027753, -7326.812425471834, -5186.0517485203445, -10129.564717956153, -12839.959602351142, -6453.865045769817, -5543.947880738721, -5082.406709481086, -7914.685656390865, -10764.466019209149, -15856.61808927275, 0.008, 0.23800000000000002, 0.9520000000000001, 192.0, 0.0, 0.0, 0.0, 0.0, 0.0, 0.0, 0.0, 0.0, 0.0, 1.644588374468246E9, 0.0, 2022-02-12 01:06:14.468
90.0, -9652.869063957818, -9174.988767503353, -5727.99214458372, -13679.938158981582, -7519.283296976483, -3592.774700257147, -7312.976695653999, -5171.970149513501, -10131.352857512577, -12834.036390070485, -6442.264490397512, -5512.543679779015, -5069.196828507999, -7906.773138853686, -10768.288167511007, -15890.413926889174, 0.008, 0.23800000000000002, 0.9520000000000001, 192.0, 0.0, 0.0, 0.0, 0.0, 0.0, 0.0, 0.0, 0.0, 0.0, 1.644588374476046E9, 0.0, 2022-02-12 01:06:14.476
92.0, -9665.76602050853, -9157.912034739498, -5732.686010919334, -13674.394926356665, -7515.461148674625, -3591.2547816341857, -7312.619067742714, -5168.818553545303, -10122.81449113065, -12850.464922245137, -6443.762057276018, -5528.458121831193, -5089.425157240053, -7903.688598118854, -10764.93540584271, -15871.593758057805, 0.008, 0.23800000000000002, 0.9520000000000001, 192.0, 0.0, 0.0, 0.0, 0.0, 0.0, 0.0, 0.0, 0.0, 0.0, 1.644588374482481E9, 0.0, 2022-02-12 01:06:14.482
94.0, -9641.357915563336, -9157.24148240584, -5723.074760803552, -13671.668013533117, -7507.861555559821, -3585.3986245868955, -7302.292561804362, -5160.861332519214, -10128.223613288834, -12833.455244714647, -6445.103161943336, -5551.838046531445, -5087.391148494619, -7908.829499343575, -10764.331908742417, -15860.909624208169, 0.008, 0.23800000000000002, 0.9520000000000001, 192.0, 0.0, 0.0, 0.0, 0.0, 0.0, 0.0, 0.0, 0.0, 0.0, 1.644588374489512E9, 0.0, 2022-02-12 01:06:14.489
96.0, -9661.966223951129, -9189.427994421481, -5724.192348026318, -13673.52320832291, -7509.806157327433, -3590.561877556071, -7301.890230404167, -5163.945873254046, -10128.849462133583, -12856.701058948167, -6442.242138653057, -5524.479511318149, -5072.773107620848, -7903.1521562519265, -10762.588472674905, -15887.351737898796, 0.01, 0.24, 0.9500000000000001, 192.0, 0.0, 40.0, 3.5, 64.0, 14.5, 88.0, 0.0, 0.0, 0.0, 1.644588374505506E9, 0.0, 2022-02-12 01:06:14.505
98.0, -9661.362726850835, -9168.082078466663, -5722.2030427697955, -13656.647641259151, -7496.1939449541505, -3585.7115490092697, -7300.5491257368485, -5160.771925541392, -10122.859194619561, -12847.44743674367, -6440.252833396535, -5521.126749649853, -5075.321206488754, -7906.1472900089375, -10761.761458130057, -15848.951440924578, 0.01, 0.24, 0.9500000000000001, 192.0, 0.0, 0.0, 0.0, 0.0, 0.0, 0.0, 0.0, 0.0, 0.0, 1.644588374512078E9, 0.0, 2022-02-12 01:06:14.512
100.0, -9641.089694629873, -9166.763325543801, -5716.726865378245, -13673.791429256373, -7511.147261994751, -3590.248953133697, -7307.791090940367, -5150.847751003236, -10120.579316685118, -12834.572831937414, -6438.487045584566, -5517.528118792548, -5057.819790580248, -7891.573952624078, -10760.219187762641, -15882.032022718433, 0.01, 0.24, 0.9500000000000001, 192.0, 0.0, 0.0, 0.0, 0.0, 0.0, 0.0, 0.0, 0.0, 0.0, 1.644588374520305E9, 0.0, 2022-02-12 01:06:14.520
102.0, -9656.646508770766, -9173.29003492475, -5720.884289846932, -13667.398830342154, -7506.565154381413, -3592.126499667943, -7308.4169397851165, -5158.424992373585, -10121.67455216343, -12855.874044403321, -6444.142036931758, -5536.258880646095, -5080.484459457929, -7892.08804274655, -10759.213359262152, -15870.632633046227, 0.01, 0.24, 0.9500000000000001, 192.0, 0.0, 0.0, 0.0, 0.0, 0.0, 0.0, 0.0, 0.0, 0.0, 1.644588374527997E9, 0.0, 2022-02-12 01:06:14.527
104.0, -9671.063383944438, -9174.295863425239, -5717.933859578831, -13671.444496088565, -7512.890698062265, -3590.6736362783477, -7301.756119937435, -5154.133457438166, -10130.391732500999, -12856.16461708124, -6445.8407695103615, -5541.846816759922, -5078.651616412594, -7898.167717238393, -10760.755629629568, -15866.408153344173, 0.01, 0.24, 0.9500000000000001, 192.0, 0.0, 0.0, 0.0, 0.0, 0.0, 0.0, 0.0, 0.0, 0.0, 1.644588374535108E9, 0.0, 2022-02-12 01:06:14.535
106.0, -9664.15669490775, -9178.877971038577, -5715.944554322309, -13671.869179233216, -7513.784767840478, -3594.8534124914904, -7315.547146266359, -5163.655300576127, -10131.710485423862, -12860.679669461211, -6434.46373158261, -5533.621374800369, -5072.594293665206, -7894.65849335891, -10759.012193562055, -15896.113621725277, 0.014, 0.23600000000000002, 0.9440000000000001, 192.0, 0.0, 56.0, 3.5, 48.0, 14.5, 64.0, 0.0, 0.0, 0.0, 1.644588374542744E9, 0.0, 2022-02-12 01:06:14.542
108.0, -9665.251930386059, -9166.875084266077, -5717.911507834377, -13659.061629660324, -7498.29500893295, -3580.414185573362, -7305.622971728203, -5149.126666680178, -10116.779520127717, -12842.284183774495, -6445.147865432247, -5534.023706200565, -5065.888770328614, -7904.739130108253, -10760.710926140659, -15859.255595118475, 0.014, 0.23600000000000002, 0.9440000000000001, 192.0, 0.0, 0.0, 0.0, 0.0, 0.0, 0.0, 0.0, 0.0, 0.0, 1.644588374551096E9, 0.0, 2022-02-12 01:06:14.551
110.0, -9648.644584255766, -9174.318215169695, -5716.726865378245, -13665.878911719194, -7513.9188783072095, -3584.593961786504, -7313.937820665577, -5154.625195816183, -10120.400502729477, -12832.695285403168, -6438.375286862289, -5531.3191451214725, -5062.9606918049685, -7897.452461415824, -10759.995670318089, -15919.515898169984, 0.014, 0.23600000000000002, 0.9440000000000001, 192.0, 0.0, 0.0, 0.0, 0.0, 0.0, 0.0, 0.0, 0.0, 0.0, 1.644588374557835E9, 0.0, 2022-02-12 01:06:14.557
112.0, -9669.58816881039, -9190.523229899793, -5730.383781240437, -13665.498932063454, -7513.225974229094, -3593.244086890708, -7308.171070596108, -5160.436649374563, -10127.62011618854, -12863.428934029214, -6451.8310370243835, -5535.8565492459, -5084.641883926616, -7911.109377278016, -10764.309556997963, -15922.57808716036, 0.014, 0.23600000000000002, 0.9440000000000001, 192.0, 0.0, 0.0, 0.0, 0.0, 0.0, 0.0, 0.0, 0.0, 0.0, 1.644588374564291E9, 0.0, 2022-02-12 01:06:14.564
114.0, -9659.395773338769, -9176.821610548688, -5726.18165328284, -13669.2763768764, -7512.667180617712, -3594.182860157831, -7306.427634528593, -5160.168428441099, -10140.360610528065, -12877.287015591504, -6459.22946443909, -5544.216101672185, -5083.591351937217, -7912.204612756326, -10769.383402989317, -15917.660703380192, 0.014, 0.23600000000000002, 0.9440000000000001, 192.0, 0.0, 0.0, 0.0, 0.0, 0.0, 0.0, 0.0, 0.0, 0.0, 1.644588374572831E9, 0.0, 2022-02-12 01:06:14.572
116.0, -9664.804895496953, -9182.253084451328, -5730.294374262617, -13676.965376969025, -7513.829471329388, -3592.3500171124956, -7312.619067742714, -5166.538675610862, -10135.197357558889, -12872.079059133419, -6450.199359679146, -5538.516406836082, -5080.350348991197, -7900.492298661745, -10766.36591748785, -15944.125168815277, 0.012, 0.234, 0.9420000000000001, 192.0, 0.0, 48.0, 3.5, 40.0, 14.5, 56.0, 0.0, 0.0, 0.0, 1.644588374580419E9, 0.0, 2022-02-12 01:06:14.580
118.0, -9664.804895496953, -9184.28709319676, -5731.836644630032, -13666.772981497406, -7510.767282339011, -3596.6862555368252, -7322.029152158399, -5165.130515710177, -10125.76492139875, -12847.425084999215, -6459.56474060592, -5542.584424326948, -5067.699261629494, -7908.0248365431835, -10766.209455276663, -15909.234095720542, 0.012, 0.234, 0.9420000000000001, 192.0, 0.0, 0.0, 0.0, 0.0, 0.0, 0.0, 0.0, 0.0, 0.0, 1.644588374587394E9, 0.0, 2022-02-12 01:06:14.587
120.0, -9667.934139720695, -9185.739956586356, -5724.70643814879, -13680.876932248704, -7521.026733043997, -3602.832985262035, -7320.620992257714, -5160.995442985945, -10134.996191858792, -12861.350221794872, -6445.505493343532, -5542.919700493777, -5087.1005758167, -7909.18712725486, -10764.063687808954, -15944.326334515374, 0.012, 0.234, 0.9420000000000001, 192.0, 0.0, 0.0, 0.0, 0.0, 0.0, 0.0, 0.0, 0.0, 0.0, 1.644588374594956E9, 0.0, 2022-02-12 01:06:14.594
122.0, -9687.693081819187, -9183.951817029932, -5734.071819075563, -13672.606786800241, -7517.96454405362, -3604.576421329549, -7328.265288861429, -5171.1207832242, -10127.396598743988, -12862.892492162287, -6447.472446855599, -5553.29090992104, -5087.882886872636, -7918.37369422599, -10762.36495523035, -15929.887107597246, 0.012, 0.234, 0.9420000000000001, 192.0, 0.0, 0.0, 0.0, 0.0, 0.0, 0.0, 0.0, 0.0, 0.0, 1.644588374603364E9, 0.0, 2022-02-12 01:06:14.603
124.0, -9670.862218244341, -9185.00234901933, -5731.3002027631055, -13674.774906012406, -7521.741988866567, -3601.0671974500656, -7315.055407888342, -5161.889512764158, -10130.235270289812, -12869.620367243335, -6447.539502088965, -5542.047982460021, -5086.295913016309, -7908.091891776549, -10765.203626776174, -15920.43231969265, 0.012, 0.234, 0.9420000000000001, 192.0, 0.0, 0.0, 0.0, 0.0, 0.0, 0.0, 0.0, 0.0, 0.0, 1.644588374611252E9, 0.0, 2022-02-12 01:06:14.611
126.0, -9678.618273570333, -9187.326930442683, -5739.011554600186, -13677.52417058041, -7520.512642921525, -3600.731921283236, -7316.821195700311, -5153.954643482523, -10135.465578492354, -12878.69517549219, -6443.426781109189, -5525.552395052004, -5077.310511745276, -7907.220173742792, -10760.755629629568, -15944.326334515374, 0.006, 0.23800000000000002, 0.9520000000000001, 192.0, 0.0, 24.0, 3.5, 56.0, 14.5, 96.0, 0.0, 0.0, 0.0, 1.644588374624678E9, 0.0, 2022-02-12 01:06:14.624
128.0, -9659.552235549956, -9186.455212408926, -5735.8823103764435, -13674.283167634389, -7507.39216892626, -3593.4229008463503, -7317.290582333873, -5155.273396405387, -10124.96025859836, -12853.750628680067, -6462.917502274216, -5548.753505796612, -5084.351311248697, -7914.864470346507, -10757.112295283354, -15906.060148007888, 0.006, 0.23800000000000002, 0.9520000000000001, 192.0, 0.0, 0.0, 0.0, 0.0, 0.0, 0.0, 0.0, 0.0, 0.0, 1.644588374632641E9, 0.0, 2022-02-12 01:06:14.632
130.0, -9662.972052451618, -9179.526171627782, -5731.680182418845, -13687.336586396288, -7528.469863947615, -3611.1254824549537, -7315.010704399432, -5161.978919741979, -10128.424778988932, -12864.144189851784, -6455.340260903867, -5553.648537832325, -5087.525258961351, -7913.3669034680015, -10759.749801129079, -15942.024104836477, 0.006, 0.23800000000000002, 0.9520000000000001, 192.0, 0.0, 0.0, 0.0, 0.0, 0.0, 0.0, 0.0, 0.0, 0.0, 1.644588374640596E9, 0.0, 2022-02-12 01:06:14.640
132.0, -9680.406413126757, -9187.304578698227, -5739.257423789194, -13678.597054314263, -7521.362009210827, -3618.52390986966, -7320.464530046526, -5170.338472168264, -10136.069075592646, -12871.274396333027, -6459.698851072651, -5552.933282009755, -5090.878020629647, -7921.145310538449, -10760.465056951649, -15932.904593098712, 0.006, 0.23800000000000002, 0.9520000000000001, 192.0, 0.0, 0.0, 0.0, 0.0, 0.0, 0.0, 0.0, 0.0, 0.0, 1.644588374647325E9, 0.0, 2022-02-12 01:06:14.647
134.0, -9672.203322911659, -9188.623331621091, -5733.13304580844, -13670.41631584362, -7523.463073189626, -3609.1361771984316, -7318.117596878719, -5163.834114531769, -10131.039933090202, -12863.138361351295, -6461.665804584719, -5555.906064022311, -5088.933418862035, -7920.85473786053, -10762.543769185993, -15923.338046471841, 0.006, 0.23800000000000002, 0.9520000000000001, 192.0, 0.0, 0.0, 0.0, 0.0, 0.0, 0.0, 0.0, 0.0, 0.0, 1.644588374655341E9, 0.0, 2022-02-12 01:06:14.655
136.0, -9677.500686347566, -9191.976093289388, -5736.619917943468, -13674.149057167657, -7528.358105225338, -3608.6891423093252, -7323.236146358985, -5154.200512671532, -10130.369380756543, -12862.199588084173, -6453.596824836353, -5546.183055184252, -5078.0481193123005, -7913.031627301172, -10759.347469728884, -15946.293288027442, 0.01, 0.234, 0.9440000000000001, 192.0, 0.0, 40.0, 3.5, 40.0, 14.5, 64.0, 0.0, 0.0, 0.0, 1.644588374663307E9, 0.0, 2022-02-12 01:06:14.663
138.0, -9667.710622276143, -9187.192819975951, -5734.854130131499, -13666.281243119389, -7515.707017863634, -3599.4578718492835, -7317.625858500703, -5156.1674661836, -10122.72508415283, -12853.214186813138, -6452.99332773606, -5536.661212046291, -5085.804174638292, -7910.3717697109905, -10760.733277885114, -15908.027101519956, 0.01, 0.234, 0.9440000000000001, 192.0, 0.0, 0.0, 0.0, 0.0, 0.0, 0.0, 0.0, 0.0, 0.0, 1.644588374670055E9, 0.0, 2022-02-12 01:06:14.670
140.0, -9672.650357800765, -9191.283189211272, -5735.792903398622, -13685.213170673034, -7529.095712792363, -3606.9010027529007, -7318.564631767826, -5163.029451731379, -10137.164311070957, -12867.608710242357, -6450.445228868155, -5537.555281824503, -5098.075282344256, -7904.85088883053, -10761.672051152236, -15940.906517613712, 0.01, 0.234, 0.9440000000000001, 192.0, 0.0, 0.0, 0.0, 0.0, 0.0, 0.0, 0.0, 0.0, 0.0, 1.644588374677174E9, 0.0, 2022-02-12 01:06:14.677
142.0, -9696.790241812498, -9206.48237544088, -5738.966851111276, -13676.339528124277, -7520.356180710338, -3608.107996953487, -7327.505329549948, -5164.281149420875, -10142.059343106668, -12882.562027282958, -6458.000118494048, -5557.090706478442, -5100.109291089689, -7918.776025626186, -10762.543769185993, -15930.244735508531, 0.01, 0.234, 0.9440000000000001, 192.0, 0.0, 0.0, 0.0, 0.0, 0.0, 0.0, 0.0, 0.0, 0.0, 1.644588374684995E9, 0.0, 2022-02-12 01:06:14.684
144.0, -9686.374328896323, -9189.137421743562, -5729.221490528762, -13674.730202523495, -7514.835299829877, -3601.827156761546, -7317.961134667532, -5157.374460384186, -10138.572470971641, -12875.901207435276, -6453.283900413979, -5564.645596104336, -5091.794442152315, -7914.3056767351245, -10761.895568596789, -15915.403177190206, 0.01, 0.234, 0.9440000000000001, 192.0, 0.0, 0.0, 0.0, 0.0, 0.0, 0.0, 0.0, 0.0, 0.0, 1.644588374693188E9, 0.0, 2022-02-12 01:06:14.693
146.0, -9687.178991696715, -9206.325913229693, -5739.302127278105, -13685.2802259064, -7524.513605179025, -3610.365523143473, -7316.977657911499, -5161.330719152775, -10135.197357558889, -12884.886608706309, -6445.304327643434, -5547.613566829392, -5085.5583054492845, -7914.573897668589, -10756.12881852732, -15944.43809323765, 0.008, 0.232, 0.9440000000000001, 192.0, 0.0, 32.0, 3.5, 32.0, 14.5, 64.0, 0.0, 0.0, 0.0, 1.644588374699571E9, 0.0, 2022-02-12 01:06:14.699
148.0, -9685.234389929103, -9197.027587536286, -5735.27881327615, -13673.411449600631, -7513.20362248464, -3608.7785492871467, -7314.854242188245, -5160.59311158575, -10128.469482477842, -12873.822495200933, -6466.627891853797, -5555.570787855481, -5082.563171692273, -7919.558336682122, -10757.805199361468, -15909.412909676184, 0.008, 0.232, 0.9440000000000001, 192.0, 0.0, 0.0, 0.0, 0.0, 0.0, 0.0, 0.0, 0.0, 0.0, 1.644588374708111E9, 0.0, 2022-02-12 01:06:14.708
150.0, -9671.979805467106, -9194.613599135113, -5729.6014701845015, -13686.733089295994, -7523.284259233983, -3610.1867091878307, -7318.028189900898, -5166.851600033236, -10131.2410987903, -12879.07515514793, -6455.317909159411, -5550.966328497688, -5095.3036660317985, -7910.036493544161, -10755.726487127124, -15941.510014714006, 0.008, 0.232, 0.9440000000000001, 192.0, 0.0, 0.0, 0.0, 0.0, 0.0, 0.0, 0.0, 0.0, 0.0, 1.64458837471563E9, 0.0, 2022-02-12 01:06:14.715
152.0, -9674.080869445905, -9175.256988436817, -5739.682106933846, -13673.94789146756, -7519.81973884341, -3608.1974039313086, -7324.510195792937, -5172.8418675472585, -10135.175005814435, -12872.16846611124, -6458.916540016716, -5553.983813999154, -5096.845936399214, -7914.596249413044, -10758.74397262859, -15930.58001167536, 0.008, 0.232, 0.9440000000000001, 192.0, 0.0, 0.0, 0.0, 0.0, 0.0, 0.0, 0.0, 0.0, 0.0, 1.644588374722603E9, 0.0, 2022-02-12 01:06:14.722
154.0, -9679.802916026463, -9189.383290932572, -5732.350734752505, -13674.819609501315, -7507.682741604179, -3600.0390172051216, -7306.137061850675, -5152.680594048571, -10132.269279035245, -12858.69036420469, -6451.495760857554, -5536.705915535202, -5089.760433406882, -7922.374656483491, -10762.230844763619, -15916.09608126832, 0.005, 0.232, 0.9480000000000001, 192.0, 0.0, 8.0, 3.5, 32.0, 14.5, 96.0, 0.0, 0.0, 0.0, 1.644588374730331E9, 0.0, 2022-02-12 01:06:14.730
156.0, -9685.323796906925, -9186.119936242096, -5730.428484729348, -13685.637853817685, -7520.53499466598, -3604.6211248184595, -7316.68708523358, -5160.883684263669, -10129.542366211697, -12882.338509838404, -6438.017658951004, -5538.04702020252, -5070.090898286212, -7909.9023830774295, -10757.31346098345, -15943.275802525975, 0.005, 0.232, 0.9480000000000001, 192.0, 0.0, 0.0, 0.0, 0.0, 0.0, 0.0, 0.0, 0.0, 0.0, 1.644588374737307E9, 0.0, 2022-02-12 01:06:14.737
158.0, -9679.95937823765, -9175.569912859191, -5727.679220161345, -13667.264719875422, -7514.790596340967, -3605.7163602967694, -7323.370256825717, -5164.057631976322, -10127.463653977353, -12880.349204581882, -6448.813551522917, -5558.074183234476, -5082.116136803167, -7916.920830836396, -10756.642908649792, -15906.373072430262, 0.005, 0.232, 0.9480000000000001, 192.0, 0.0, 0.0, 0.0, 0.0, 0.0, 0.0, 0.0, 0.0, 0.0, 1.644588374752404E9, 0.0, 2022-02-12 01:06:14.752
160.0, -9650.879758701296, -9188.355110687628, -5722.739484636722, -13670.75159201045, -7525.139454023773, -3604.464662607272, -7313.490785776471, -5168.885608778669, -10128.715351666851, -12873.64368124529, -6445.70665904363, -5535.744790523624, -5089.693378173516, -7913.478662190279, -10760.375649973828, -15940.370075746785, 0.005, 0.232, 0.9480000000000001, 192.0, 0.0, 0.0, 0.0, 0.0, 0.0, 0.0, 0.0, 0.0, 0.0, 1.644588374759724E9, 0.0, 2022-02-12 01:06:14.759
162.0, -9674.282035146003, -9200.000369548843, -5732.350734752505, -13662.883777962183, -7515.081169018886, -3600.374293371951, -7315.010704399432, -5158.313233651309, -10125.072017320635, -12883.254931361073, -6453.641528325264, -5529.799226498512, -5083.613703681673, -7912.673999389887, -10758.296937739486, -15926.735511629047, 0.005, 0.232, 0.9480000000000001, 192.0, 0.0, 0.0, 0.0, 0.0, 0.0, 0.0, 0.0, 0.0, 0.0, 1.644588374767854E9, 0.0, 2022-02-12 01:06:14.767
164.0, -9675.62313981332, -9174.027642491776, -5725.019362571164, -13666.482408819487, -7511.326075950394, -3595.076929936043, -7308.998085140955, -5154.334623138264, -10121.831014374617, -12844.675820431212, -6444.723182287596, -5540.908043492799, -5064.90529357258, -7913.23279300127, -10757.112295283354, -15914.15147950071, 0.0075, 0.229, 0.9530000000000001, 192.0, 0.0, 40.0, 3.5, 8.0, 14.5, 120.0, 0.0, 0.0, 0.0, 1.644588374775925E9, 0.0, 2022-02-12 01:06:14.775
166.0, -9660.133380905794, -9171.546598857236, -5723.544147437114, -13670.103391421246, -7509.135604993774, -3592.2382583902195, -7306.5393932508705, -5149.439591102551, -10124.937906853904, -12869.709774221155, -6437.347106617344, -5524.054828173498, -5079.076299557245, -7905.18616499736, -10750.719696369135, -15942.672305425682, 0.0075, 0.229, 0.9530000000000001, 192.0, 0.0, 0.0, 0.0, 0.0, 0.0, 0.0, 0.0, 0.0, 0.0, 1.644588374782393E9, 0.0, 2022-02-12 01:06:14.782
168.0, -9658.233482627093, -9164.8634272651, -5720.079627046541, -13660.581548283286, -7498.0714914883965, -3586.829136232035, -7298.895096647156, -5154.267567904898, -10114.05260730417, -12847.939175121686, -6443.538539831465, -5541.556244082003, -5073.376604721142, -7909.723569121787, -10748.46217017915, -15904.562581129383, 0.0075, 0.229, 0.9530000000000001, 192.0, 0.0, 0.0, 0.0, 0.0, 0.0, 0.0, 0.0, 0.0, 0.0, 1.644588374790576E9, 0.0, 2022-02-12 01:06:14.790
170.0, -9652.153808135248, -9185.918770541999, -5716.235127000228, -13668.94110070957, -7511.460186417125, -3592.528831068138, -7304.125404849698, -5166.002233743934, -10113.449110203876, -12850.06259084494, -6437.704734528629, -5533.24139514463, -5072.124907031644, -7898.614752127499, -10748.84214983489, -15936.72674140057, 0.0075, 0.229, 0.9530000000000001, 192.0, 0.0, 0.0, 0.0, 0.0, 0.0, 0.0, 0.0, 0.0, 0.0, 1.644588374799892E9, 0.0, 2022-02-12 01:06:14.799
172.0, -9660.669822772721, -9180.934331528466, -5727.455702716792, -13659.240443615967, -7505.805195069933, -3593.2664386351635, -7306.15941359513, -5149.998384713935, -10119.327618995621, -12876.035317902008, -6440.923385730194, -5529.32983986495, -5069.487401185918, -7903.465080674301, -10751.926690569722, -15924.098005783322, 0.0075, 0.229, 0.9530000000000001, 192.0, 0.0, 0.0, 0.0, 0.0, 0.0, 0.0, 0.0, 0.0, 0.0, 1.644588374806228E9, 0.0, 2022-02-12 01:06:14.806
174.0, -9647.638755755277, -9180.57670361718, -5718.2691357456615, -13665.923615208105, -7505.067587502907, -3592.171203156853, -7298.403358269139, -5150.043088202845, -10108.129395023512, -12861.707849706156, -6443.382077620277, -5525.7982642410125, -5068.86155234117, -7902.414548684901, -10753.044277792487, -15913.86090682279, 0.00875, 0.2305, 0.9525000000000001, 192.0, 0.0, 40.0, 3.5, 32.0, 14.5, 96.0, 0.0, 0.0, 0.0, 1.64458837481207E9, 0.0, 2022-02-12 01:06:14.812
176.0, -9676.696023547176, -9184.845886808143, -5715.318705477561, -13675.199589157057, -7513.9188783072095, -3593.6464182909035, -7299.006855369432, -5154.714602794004, -10113.67262764843, -12862.534864251002, -6426.752379745529, -5528.055790430998, -5082.138488547622, -7899.888801561452, -10754.787713860002, -15943.901651370723, 0.00875, 0.2305, 0.9525000000000001, 192.0, 0.0, 0.0, 0.0, 0.0, 0.0, 0.0, 0.0, 0.0, 0.0, 1.644588374820213E9, 0.0, 2022-02-12 01:06:14.820
178.0, -9673.857352001352, -9177.447459393437, -5715.586926411024, -13668.806990242838, -7498.652636844235, -3593.8475839910016, -7298.246896057952, -5155.362803383208, -10113.00207531477, -12869.329794565416, -6433.1002751708365, -5529.128674164853, -5077.24345651191, -7908.2036504988255, -10756.8887778388, -15909.34585444282, 0.00875, 0.2305, 0.9525000000000001, 192.0, 0.0, 0.0, 0.0, 0.0, 0.0, 0.0, 0.0, 0.0, 0.0, 1.644588374828126E9, 0.0, 2022-02-12 01:06:14.828
180.0, -9653.584319780388, -9170.585473845658, -5714.17876651034, -13681.70394679355, -7501.759529323523, -3593.4229008463503, -7297.285771046373, -5151.518303336895, -10119.059398062158, -12870.939120166198, -6432.720295515096, -5533.621374800369, -5070.202657008488, -7897.899496304929, -10757.000536561078, -15936.100892555822, 0.00875, 0.2305, 0.9525000000000001, 192.0, 0.0, 0.0, 0.0, 0.0, 0.0, 0.0, 0.0, 0.0, 0.0, 1.644588374834782E9, 0.0, 2022-02-12 01:06:14.834
182.0, -9662.301500117957, -9174.921712269988, -5724.818196871066, -13668.270548375911, -7490.717767562601, -3595.8368892475237, -7304.550087994348, -5156.413335372607, -10117.830052117117, -12861.059649116953, -6442.890339242261, -5543.299680149517, -5059.876151070136, -7905.432034186368, -10751.502007425071, -15924.701502883614, 0.00875, 0.2305, 0.9525000000000001, 192.0, 0.0, 0.0, 0.0, 0.0, 0.0, 0.0, 0.0, 0.0, 0.0, 1.644588374842759E9, 0.0, 2022-02-12 01:06:14.842
184.0, -9663.240273385081, -9182.43189840697, -5709.75312110819, -13669.522246065408, -7488.0355582279635, -3588.304351366085, -7296.190535568063, -5143.181102655066, -10111.929191580915, -12865.64175673029, -6446.757191033029, -5539.075200447464, -5073.331901232231, -7915.982057569273, -10751.814931847446, -15908.474136409062, 0.0063750000000000005, 0.23125, 0.95025, 192.0, 0.0, 16.0, 3.5, 32.0, 14.5, 80.0, 0.0, 0.0, 0.0, 1.644588374852394E9, 0.0, 2022-02-12 01:06:14.852
186.0, -9659.798104738964, -9175.994596003842, -5711.317743220061, -13679.178199670101, -7492.975293752586, -3588.192592643809, -7293.418919255605, -5143.896358477636, -10117.42772071692, -12881.466791804647, -6430.373362347289, -5530.693296276724, -5079.053947812789, -7900.313484706103, -10749.110370768354, -15938.470177468083, 0.0063750000000000005, 0.23125, 0.95025, 192.0, 0.0, 0.0, 0.0, 0.0, 0.0, 0.0, 0.0, 0.0, 0.0, 1.644588374858184E9, 0.0, 2022-02-12 01:06:14.858
188.0, -9662.279148373504, -9176.016947748298, -5713.977600810243, -13667.84586523126, -7487.923799505687, -3586.337397854018, -7296.525811734893, -5145.617442800694, -10107.99528455678, -12863.138361351295, -6433.41319959321, -5533.844892244922, -5080.730328646938, -7902.839231829552, -10751.434952191705, -15901.00865376099, 0.0063750000000000005, 0.23125, 0.95025, 192.0, 0.0, 0.0, 0.0, 0.0, 0.0, 0.0, 0.0, 0.0, 0.0, 1.644588374872378E9, 0.0, 2022-02-12 01:06:14.872
190.0, -9656.311232603935, -9181.448421650937, -5710.2895629751165, -13679.178199670101, -7499.725520578089, -3588.8184414885573, -7300.951457137044, -5150.534826580862, -10115.840746860595, -12869.039221887497, -6434.955469960627, -5530.76035151009, -5064.726479616938, -7900.469946917289, -10751.926690569722, -15931.362322731296, 0.0063750000000000005, 0.23125, 0.95025, 192.0, 0.0, 0.0, 0.0, 0.0, 0.0, 0.0, 0.0, 0.0, 0.0, 1.644588374880483E9, 0.0, 2022-02-12 01:06:14.880
192.0, -9687.849544030374, -9176.91101752651, -5717.553879923092, -13678.462943847531, -7494.159936208718, -3588.9078484663787, -7301.174974581597, -5161.554236597328, -10117.472424205831, -12864.16654159624, -6440.632813052275, -5529.463950331682, -5076.416441967063, -7901.9228103068845, -10748.350411456873, -15919.135918514243, 0.0063750000000000005, 0.23125, 0.95025, 192.0, 0.0, 0.0, 0.0, 0.0, 0.0, 0.0, 0.0, 0.0, 0.0, 1.64458837488744E9, 0.0, 2022-02-12 01:06:14.887
194.0, -9667.82238099842, -9178.408584405015, -5717.419769456359, -13673.23263564499, -7496.395110654249, -3588.0584821770767, -7293.307160533329, -5142.152922410121, -10112.912668336949, -12864.680631718711, -6448.098295700347, -5541.131560937352, -5076.86347685617, -7900.1570224949155, -10748.50687366806, -15905.590761374327, 0.0041875, 0.23162500000000003, 0.949125, 192.0, 0.0, 8.0, 3.5, 32.0, 14.5, 80.0, 0.0, 0.0, 0.0, 1.644588374894915E9, 0.0, 2022-02-12 01:06:14.894
196.0, -9666.838904242386, -9188.869200810099, -5719.342019479516, -13673.009118200436, -7509.783805582978, -3598.407339859884, -7298.313951291318, -5151.205378914521, -10121.3392759966, -12878.225788858628, -6444.097333442847, -5524.56891829597, -5076.327034989243, -7910.751749366731, -10751.345545213884, -15937.218479778587, 0.0041875, 0.23162500000000003, 0.949125, 192.0, 0.0, 0.0, 0.0, 0.0, 0.0, 0.0, 0.0, 0.0, 0.0, 1.644588374903001E9, 0.0, 2022-02-12 01:06:14.903
198.0, -9684.832058528908, -9183.616540863102, -5718.000914812197, -13667.287071619878, -7502.385378168271, -3595.769834014158, -7300.862050159222, -5154.267567904898, -10117.76299688375, -12877.443477802692, -6437.3694583618, -5523.205461884197, -5078.964540834969, -7907.600153398533, -10755.41356270475, -15902.43916540613, 0.0041875, 0.23162500000000003, 0.949125, 192.0, 0.0, 0.0, 0.0, 0.0, 0.0, 0.0, 0.0, 0.0, 0.0, 1.644588374910348E9, 0.0, 2022-02-12 01:06:14.910
200.0, -9668.023546698518, -9180.353186172628, -5708.8814030744325, -13680.51930433742, -7507.146299737251, -3596.418034603362, -7306.271172317407, -5150.624233558683, -10119.148805039978, -12862.467809017637, -6436.028353694482, -5530.939165465733, -5071.253188997887, -7901.520478906689, -10753.156036514763, -15931.63054366476, 0.0041875, 0.23162500000000003, 0.949125, 192.0, 0.0, 0.0, 0.0, 0.0, 0.0, 0.0, 0.0, 0.0, 0.0, 1.644588374917566E9, 0.0, 2022-02-12 01:06:14.917
202.0, -9670.549293821967, -9174.00529074732, -5713.955249065787, -13680.27343514841, -7500.396072911749, -3589.9360287113227, -7294.044768100353, -5150.4230678585855, -10108.71054037935, -12852.186006568196, -6434.664897282708, -5533.911947478288, -5063.497133671896, -7901.408720184412, -10748.08219052341, -15917.459537680095, 0.0041875, 0.23162500000000003, 0.949125, 192.0, 0.0, 0.0, 0.0, 0.0, 0.0, 0.0, 0.0, 0.0, 0.0, 1.644588374924863E9, 0.0, 2022-02-12 01:06:14.924
204.0, -9662.81559024043, -9187.282226953772, -5713.664676387868, -13676.674804291106, -7499.323189177894, -3589.511345566672, -7296.592866968259, -5156.7039080505265, -10114.119662537536, -12873.755439967566, -6452.456885869132, -5543.299680149517, -5083.993683337412, -7907.063711531605, -10748.998612046076, -15902.752089828504, 0.00609375, 0.23181250000000003, 0.9495625000000001, 192.0, 0.0, 32.0, 3.5, 32.0, 14.5, 88.0, 0.0, 0.0, 0.0, 1.644588374932843E9, 0.0, 2022-02-12 01:06:14.932
206.0, -9684.317968406436, -9204.24720099535, -5715.855147344488, -13684.296749150366, -7509.0461980159525, -3596.8203660035574, -7300.906753648133, -5153.462905104507, -10124.647334175985, -12880.997405171085, -6443.806760764928, -5528.23460438664, -5075.611779166673, -7901.855755073519, -10746.986955045099, -15938.514880956995, 0.00609375, 0.23181250000000003, 0.9495625000000001, 192.0, 0.0, 0.0, 0.0, 0.0, 0.0, 0.0, 0.0, 0.0, 0.0, 1.644588374939771E9, 0.0, 2022-02-12 01:06:14.939
208.0, -9669.521113577022, -9184.979997274875, -5720.146682279907, -13674.685499034584, -7498.227953699584, -3595.8368892475237, -7300.146794336652, -5155.005175471923, -10113.896145092982, -12867.54165500899, -6440.431647352177, -5530.402723598805, -5072.974273320946, -7910.036493544161, -10747.992783545587, -15900.181639216144, 0.00609375, 0.23181250000000003, 0.9495625000000001, 192.0, 0.0, 0.0, 0.0, 0.0, 0.0, 0.0, 0.0, 0.0, 0.0, 1.644588374947396E9, 0.0, 2022-02-12 01:06:14.947
210.0, -9667.62121529832, -9182.498953640337, -5713.687028132324, -13685.526095095409, -7506.855727059332, -3594.9651712137666, -7302.046692615354, -5157.9332539955685, -10121.741607396794, -12865.887625919298, -6439.828150251884, -5534.068409689476, -5067.76631686286, -7908.226002243281, -10747.903376567767, -15928.836575607846, 0.00609375, 0.23181250000000003, 0.9495625000000001, 192.0, 0.0, 0.0, 0.0, 0.0, 0.0, 0.0, 0.0, 0.0, 0.0, 1.644588374955406E9, 0.0, 2022-02-12 01:06:14.955
212.0, -9674.259683401548, -9162.784715030755, -5719.185557268329, -13673.545560067363, -7503.950000280142, -3594.0040462021884, -7299.208021069529, -5157.128591195177, -10100.730967608806, -12874.046012645485, -6439.358763618322, -5533.911947478288, -5089.715729917972, -7906.951952809329, -10748.573928901425, -15918.15244175821, 0.00609375, 0.23181250000000003, 0.9495625000000001, 192.0, 0.0, 0.0, 0.0, 0.0, 0.0, 0.0, 0.0, 0.0, 0.0, 1.6445883749633E9, 0.0, 2022-02-12 01:06:14.963
214.0, -9663.240273385081, -9172.597130846636, -5711.60831589798, -13670.70688852154, -7502.117157234808, -3589.801918244591, -7294.827079156289, -5155.899245250135, -10106.877697334015, -12837.299744760961, -6447.427743366688, -5536.035363201543, -5080.52916294684, -7907.622505142988, -10748.998612046076, -15902.215647961575, 0.007046875, 0.23090625000000004, 0.94978125, 192.0, 0.0, 32.0, 3.5, 24.0, 14.5, 88.0, 0.0, 0.0, 0.0, 1.644588374969977E9, 0.0, 2022-02-12 01:06:14.969
216.0, -9666.302462375459, -9195.954703802432, -5716.123368277952, -13684.453211361553, -7510.6331718722795, -3597.334456126029, -7292.748366921946, -5161.464829619507, -10112.689150892396, -12867.608710242357, -6439.850501996339, -5530.290964876529, -5077.422270467552, -7897.385406182458, -10748.104542267865, -15933.016351820988, 0.007046875, 0.23090625000000004, 0.94978125, 192.0, 0.0, 0.0, 0.0, 0.0, 0.0, 0.0, 0.0, 0.0, 0.0, 1.644588374977906E9, 0.0, 2022-02-12 01:06:14.977
218.0, -9654.411334325236, -9184.085927496664, -5712.010647298175, -13670.192798399068, -7499.881982789277, -3589.801918244591, -7299.900925147645, -5157.910902251113, -10107.794118856684, -12866.915806164243, -6435.044876938448, -5533.420209100272, -5056.724555101938, -7906.482566175768, -10748.305707967962, -15897.074746736855, 0.007046875, 0.23090625000000004, 0.94978125, 192.0, 0.0, 0.0, 0.0, 0.0, 0.0, 0.0, 0.0, 0.0, 0.0, 1.644588374985332E9, 0.0, 2022-02-12 01:06:14.985
220.0, -9672.940930478684, -9184.801183319234, -5701.751196593189, -13679.669938048119, -7511.370779439304, -3591.791223501113, -7304.706550205536, -5146.846788745736, -10112.890316592493, -12874.001309156574, -6437.458865339621, -5530.425075343261, -5082.33965424772, -7894.814955570097, -10746.919899811734, -15921.549906915416, 0.007046875, 0.23090625000000004, 0.94978125, 192.0, 0.0, 0.0, 0.0, 0.0, 0.0, 0.0, 0.0, 0.0, 0.0, 1.644588374999539E9, 0.0, 2022-02-12 01:06:14.999
222.0, -9690.554105109466, -9189.383290932572, -5716.302182233594, -13674.3278711233, -7504.8217183138995, -3596.395682858906, -7299.58800072527, -5152.390021370652, -10107.52589792322, -12878.873989447831, -6443.337374131367, -5531.408552099294, -5078.830430368237, -7904.917944063895, -10744.08122826591, -15912.855078322302, 0.007046875, 0.23090625000000004, 0.94978125, 192.0, 0.0, 0.0, 0.0, 0.0, 0.0, 0.0, 0.0, 0.0, 0.0, 1.644588375007627E9, 0.0, 2022-02-12 01:06:15.007
224.0, -9679.355881137357, -9185.96347403091, -5718.067970045563, -13673.076173433803, -7507.05689275943, -3598.630857304437, -7298.179840824586, -5152.010041714912, -10111.348046225077, -12853.124779835318, -6448.8359032673725, -5536.840026001933, -5070.672043642049, -7915.333856980069, -10746.830492833913, -15900.181639216144, 0.004, 0.23800000000000002, 0.9500000000000001, 192.0, 0.0, 16.0, 3.5, 56.0, 14.5, 88.0, 0.0, 0.0, 0.0, 1.644588375015551E9, 0.0, 2022-02-12 01:06:15.015
226.0, -9670.549293821967, -9192.91486655651, -5723.901775348399, -13676.943025224571, -7511.616648628313, -3599.4578718492835, -7313.222564843008, -5158.246178417942, -10120.311095751655, -12858.288032804494, -6438.844673495851, -5526.312354363484, -5079.702148401993, -7904.761481852709, -10749.31153646845, -15930.445901208628, 0.004, 0.23800000000000002, 0.9500000000000001, 192.0, 0.0, 0.0, 0.0, 0.0, 0.0, 0.0, 0.0, 0.0, 0.0, 1.64458837502238E9, 0.0, 2022-02-12 01:06:15.022
228.0, -9653.897244202763, -9168.707927311412, -5716.950382822798, -13665.18600764108, -7491.343616407349, -3596.0380549476213, -7306.49468976196, -5162.582416842272, -10103.27906647671, -12862.803085184465, -6445.70665904363, -5531.006220699099, -5060.457296425974, -7910.505880177722, -10750.630289391314, -15894.236075191031, 0.004, 0.23800000000000002, 0.9500000000000001, 192.0, 0.0, 0.0, 0.0, 0.0, 0.0, 0.0, 0.0, 0.0, 0.0, 1.64458837503175E9, 0.0, 2022-02-12 01:06:15.031
230.0, -9656.445343070667, -9166.360994143604, -5713.061179287574, -13672.740897266973, -7497.53504962147, -3589.891325222412, -7294.49180298946, -5140.454189831518, -10104.128432766012, -12855.73993393659, -6436.7436095170515, -5532.727305022157, -5076.707014644982, -7903.912115563407, -10749.088019023899, -15918.845345836324, 0.004, 0.23800000000000002, 0.9500000000000001, 192.0, 0.0, 0.0, 0.0, 0.0, 0.0, 0.0, 0.0, 0.0, 0.0, 1.644588375038809E9, 0.0, 2022-02-12 01:06:15.038
232.0, -9678.260645659047, -9187.192819975951, -5722.56067068108, -13664.336641351778, -7488.951979750631, -3590.830098489535, -7293.374215766695, -5141.884701476658, -10102.541458909685, -12842.865329130333, -6441.213958408112, -5535.521273079071, -5075.43296521103, -7902.369845195991, -10744.707077110657, -15909.323502698364, 0.004, 0.23800000000000002, 0.9500000000000001, 192.0, 0.0, 0.0, 0.0, 0.0, 0.0, 0.0, 0.0, 0.0, 0.0, 1.644588375045185E9, 0.0, 2022-02-12 01:06:15.045
234.0, -9674.282035146003, -9186.969302531399, -5714.022304299153, -13660.358030838732, -7486.739157049556, -3587.0750054210434, -7287.629817441681, -5142.44349508804, -10096.573543140119, -12847.335678021393, -6440.074019440892, -5521.596136283414, -5064.659424383572, -7904.493260919245, -10744.058876521454, -15892.738508312525, 0.006, 0.23600000000000002, 0.9480000000000001, 192.0, 0.0, 24.0, 3.5, 48.0, 14.5, 80.0, 0.0, 0.0, 0.0, 1.644588375052075E9, 0.0, 2022-02-12 01:06:15.052
236.0, -9675.220808413125, -9198.458099181425, -5711.27303973115, -13674.014946700925, -7492.707072819123, -3593.512307824172, -7287.24983778594, -5145.192759656044, -10103.390825198989, -12859.785599683, -6429.971030947093, -5522.0431711725205, -5060.189075492511, -7902.727473107276, -10741.466074164638, -15927.942505829635, 0.006, 0.23600000000000002, 0.9480000000000001, 192.0, 0.0, 0.0, 0.0, 0.0, 0.0, 0.0, 0.0, 0.0, 0.0, 1.644588375059826E9, 0.0, 2022-02-12 01:06:15.059
238.0, -9670.415183355235, -9175.234636692363, -5717.285658989627, -13659.709830249529, -7488.572000094891, -3590.517174067161, -7289.552067464837, -5133.100465905723, -10101.155650753457, -12875.051841145974, -6448.27710965599, -5528.927508464755, -5063.6088923941725, -7909.991790055251, -10742.069571264932, -15888.424621632652, 0.006, 0.23600000000000002, 0.9480000000000001, 192.0, 0.0, 0.0, 0.0, 0.0, 0.0, 0.0, 0.0, 0.0, 0.0, 1.64458837506796E9, 0.0, 2022-02-12 01:06:15.067
240.0, -9670.459886844146, -9171.367784901595, -5712.4576821872815, -13669.298728620855, -7502.921820035198, -3597.4238631038506, -7298.179840824586, -5144.432800344563, -10110.990418313791, -12861.752553195067, -6439.448170596143, -5533.24139514463, -5077.668139656561, -7903.934467307862, -10745.824664333424, -15918.174793502665, 0.006, 0.23600000000000002, 0.9480000000000001, 192.0, 0.0, 0.0, 0.0, 0.0, 0.0, 0.0, 0.0, 0.0, 0.0, 1.644588375076149E9, 0.0, 2022-02-12 01:06:15.076
242.0, -9674.39379386828, -9187.930427542977, -5722.918298592365, -13665.70009776355, -7495.031654242475, -3599.4578718492835, -7300.593829225759, -5151.071268447789, -10112.420929958931, -12862.668974717733, -6440.074019440892, -5537.041191702032, -5075.008282066379, -7911.198784255837, -10741.622536375826, -15911.044587021423, 0.006, 0.23600000000000002, 0.9480000000000001, 192.0, 0.0, 0.0, 0.0, 0.0, 0.0, 0.0, 0.0, 0.0, 0.0, 1.644588375082634E9, 0.0, 2022-02-12 01:06:15.082
244.0, -9661.787409995486, -9186.566971131202, -5725.444045715814, -13664.917786707616, -7493.690549575156, -3596.306275881085, -7298.358654780228, -5143.516378821895, -10105.38013045551, -12849.012058855542, -6449.03706896747, -5538.1811306692525, -5072.795459365304, -7910.66234238891, -10743.544786398983, -15893.520819368461, 0.01, 0.234, 0.9500000000000001, 192.0, 0.0, 40.0, 3.5, 40.0, 14.5, 88.0, 0.0, 0.0, 0.0, 1.644588375090573E9, 0.0, 2022-02-12 01:06:15.090
246.0, -9667.487104831589, -9195.731186357878, -5727.165130038873, -13668.874045476205, -7503.972352024598, -3598.0050084596883, -7297.956323380033, -5142.465846832496, -10105.447185688876, -12862.333698550905, -6444.477313098588, -5528.122845664364, -5069.353290719187, -7901.498127162234, -10745.332925955407, -15926.981380818055, 0.01, 0.234, 0.9500000000000001, 192.0, 0.0, 0.0, 0.0, 0.0, 0.0, 0.0, 0.0, 0.0, 0.0, 1.644588375098375E9, 0.0, 2022-02-12 01:06:15.098
248.0, -9671.599825811367, -9181.649587351036, -5726.449874216303, -13661.117990150213, -7495.836317042866, -3593.8699357354567, -7292.927180877588, -5137.727277007971, -10104.217839743835, -12864.412410785248, -6455.384964392778, -5528.435770086739, -5067.028709295834, -7907.533098165167, -10744.148283499275, -15888.223455932553, 0.01, 0.234, 0.9500000000000001, 192.0, 0.0, 0.0, 0.0, 0.0, 0.0, 0.0, 0.0, 0.0, 0.0, 1.644588375105111E9, 0.0, 2022-02-12 01:06:15.105
250.0, -9669.498761832567, -9177.693328582445, -5716.36923746696, -13672.360917611233, -7500.15020372274, -3591.8135752455682, -7291.094337832254, -5142.599957299228, -10105.849517089071, -12860.053820616464, -6441.437475852666, -5535.09658993442, -5074.784764621826, -7909.030665043672, -10747.098713767376, -15919.650008636716, 0.01, 0.234, 0.9500000000000001, 192.0, 0.0, 0.0, 0.0, 0.0, 0.0, 0.0, 0.0, 0.0, 0.0, 1.644588375120122E9, 0.0, 2022-02-12 01:06:15.120
252.0, -9676.718375291632, -9182.364843173606, -5727.209833527784, -13667.309423364333, -7492.058872229919, -3588.0808339215323, -7301.711416448524, -5143.270509632887, -10103.971970554825, -12860.79142818349, -6435.670725783197, -5543.590252827436, -5067.699261629494, -7905.4990894197335, -10747.344582956384, -15914.799680089913, 0.01, 0.234, 0.9500000000000001, 192.0, 0.0, 0.0, 0.0, 0.0, 0.0, 0.0, 0.0, 0.0, 0.0, 1.644588375128156E9, 0.0, 2022-02-12 01:06:15.128
254.0, -9642.85548244184, -9181.582532117669, -5726.807502127588, -13659.50866454943, -7488.013206483509, -3583.56578154156, -7288.859163386723, -5140.007154942412, -10102.85438333206, -12858.779771182511, -6451.853388768839, -5531.207386399196, -5044.90048228508, -7902.6827696183655, -10751.904338825267, -15897.745299070515, 0.004, 0.23600000000000002, 0.9460000000000001, 192.0, 0.0, 16.0, 3.5, 48.0, 14.5, 72.0, 0.0, 0.0, 0.0, 1.644588375134732E9, 0.0, 2022-02-12 01:06:15.134
0.0, -9660.133380905794, -9186.857543809121, -5717.196252011807, -13660.156865138635, -7497.490346132558, -3588.639627532915, -7290.6920064320575, -5145.572739311783, -10096.037101273192, -12870.603843999368, -6441.459827597121, -5520.4561973161935, -5073.689529143516, -7898.078310260572, -10749.55740565746, -15927.495470940528, 0.004, 0.23600000000000002, 0.9460000000000001, 192.0, 0.0, 0.0, 0.0, 0.0, 0.0, 0.0, 0.0, 0.0, 0.0, 1.644588375142886E9, 0.0, 2022-02-12 01:06:15.142
2.0, -9679.177067181716, -9189.807974077223, -5721.353676480494, -13654.166597624613, -7489.7342908065675, -3584.66101701987, -7290.356730265228, -5138.755457252915, -10098.316979207633, -12854.510587991546, -6437.32475487289, -5529.709819520691, -5073.801287865793, -7916.429092458379, -10749.982088802111, -15891.285644922931, 0.004, 0.23600000000000002, 0.9460000000000001, 192.0, 0.0, 0.0, 0.0, 0.0, 0.0, 0.0, 0.0, 0.0, 0.0, 1.644588375150843E9, 0.0, 2022-02-12 01:06:15.150
4.0, -9668.470581587622, -9179.392061161048, -5716.592754911513, -13667.84586523126, -7496.8197937989, -3582.47054606325, -7284.657035429125, -5139.515416564395, -10109.582258413107, -12861.394925283781, -6433.502606571032, -5527.787569497535, -5067.498095929396, -7901.051092273127, -10749.467998679638, -15917.593648146827, 0.004, 0.23600000000000002, 0.9460000000000001, 192.0, 0.0, 0.0, 0.0, 0.0, 0.0, 0.0, 0.0, 0.0, 0.0, 1.644588375157275E9, 0.0, 2022-02-12 01:06:15.157
6.0, -9663.86612222983, -9176.732203570868, -5723.164167781373, -13665.253062874444, -7499.636113600268, -3585.085700164521, -7290.53554422087, -5147.338527123753, -10100.574505397619, -12865.977032897119, -6442.286842141967, -5538.76227602509, -5066.805191851281, -7898.078310260572, -10742.829530576413, -15908.72000559807, 0.004, 0.23600000000000002, 0.9460000000000001, 192.0, 0.0, 0.0, 0.0, 0.0, 0.0, 0.0, 0.0, 0.0, 0.0, 1.644588375165937E9, 0.0, 2022-02-12 01:06:15.165
8.0, -9642.453151041645, -9170.33960465665, -5712.994124054208, -13662.995536684459, -7500.999570012042, -3584.951589697789, -7286.847506385745, -5140.923576465079, -10095.47830766181, -12858.913881649243, -6445.237272410068, -5539.9469184812215, -5069.085069785723, -7903.465080674301, -10747.478693423116, -15893.520819368461, 0.006, 0.23800000000000002, 0.9460000000000001, 192.0, 0.0, 24.0, 3.5, 56.0, 14.5, 72.0, 0.0, 0.0, 0.0, 1.644588375172364E9, 0.0, 2022-02-12 01:06:15.172
10.0, -9650.902110445752, -9184.443555407948, -5709.574307152547, -13667.220016386513, -7500.731349078578, -3589.667807777859, -7290.468488987504, -5147.673803290582, -10097.065281518137, -12852.230710057105, -6427.1770628901795, -5524.323049106962, -5053.3941451780975, -7892.244504957736, -10743.813007332446, -15931.496433198028, 0.006, 0.23800000000000002, 0.9460000000000001, 192.0, 0.0, 0.0, 0.0, 0.0, 0.0, 0.0, 0.0, 0.0, 0.0, 1.64458837518044E9, 0.0, 2022-02-12 01:06:15.180
12.0, -9690.889381276296, -9208.44932895295, -5721.018400313664, -13655.686516247573, -7499.8372793003655, -3594.1605084133757, -7288.233314541974, -5149.260777146909, -10097.534668151697, -12861.819608428432, -6437.8611967398165, -5533.755485267101, -5064.234741238921, -7908.807147599119, -10743.41067593225, -15896.314787425375, 0.006, 0.23800000000000002, 0.9460000000000001, 192.0, 0.0, 0.0, 0.0, 0.0, 0.0, 0.0, 0.0, 0.0, 0.0, 1.644588375186997E9, 0.0, 2022-02-12 01:06:15.186
14.0, -9667.82238099842, -9202.593171905657, -5720.571365424557, -13669.61165304323, -7513.784767840478, -3594.8981159804007, -7288.389776753161, -5152.278262648376, -10117.450072461375, -12878.941044681198, -6444.410257865222, -5529.776874754057, -5083.591351937217, -7907.287228976158, -10748.752742857068, -15920.454671437106, 0.006, 0.23800000000000002, 0.9460000000000001, 192.0, 0.0, 0.0, 0.0, 0.0, 0.0, 0.0, 0.0, 0.0, 0.0, 1.644588375195123E9, 0.0, 2022-02-12 01:06:15.195
16.0, -9671.085735688894, -9197.7204916144, -5728.617993428468, -13666.348298352756, -7509.023846271497, -3594.9428194693114, -7292.278980288384, -5150.110143436211, -10112.689150892396, -12878.091678391896, -6451.451057368643, -5538.270537647073, -5080.1491832911, -7912.875165089985, -10754.206568504163, -15918.353607458308, 0.006, 0.23800000000000002, 0.9460000000000001, 192.0, 0.0, 0.0, 0.0, 0.0, 0.0, 0.0, 0.0, 0.0, 0.0, 1.644588375202966E9, 0.0, 2022-02-12 01:06:15.202
18.0, -9668.224712398614, -9167.925616255478, -5722.448911958803, -13671.265682132922, -7504.687607847168, -3588.505517066183, -7286.132250563175, -5145.393925356141, -10111.795081114184, -12858.086867104395, -6452.345127146856, -5542.562072582492, -5063.675947627538, -7918.038418059161, -10754.36303071535, -15898.326444426351, 0.006, 0.23800000000000002, 0.9460000000000001, 192.0, 0.0, 24.0, 3.5, 56.0, 14.5, 72.0, 0.0, 0.0, 0.0, 1.644588375210082E9, 0.0, 2022-02-12 01:06:15.210
20.0, -9680.518171849033, -9188.28805545426, -5724.79584512661, -13683.872066005715, -7512.734235851078, -3590.0030839446886, -7290.781413409879, -5151.585358570262, -10112.935020081404, -12864.010079385052, -6432.474426326087, -5536.147121923819, -5072.638997154117, -7901.967513795796, -10755.480617938116, -15932.77048263198, 0.006, 0.23800000000000002, 0.9460000000000001, 192.0, 0.0, 0.0, 0.0, 0.0, 0.0, 0.0, 0.0, 0.0, 0.0, 1.644588375217558E9, 0.0, 2022-02-12 01:06:15.217
22.0, -9656.62415702631, -9192.803107834234, -5731.3002027631055, -13673.32204262281, -7500.977218267587, -3595.434557847328, -7293.307160533329, -5148.880797491169, -10109.179927012912, -12850.979012367608, -6449.148827689747, -5555.8613605334, -5089.872192129158, -7901.5651823956, -10755.972356316133, -15895.823049047358, 0.006, 0.23800000000000002, 0.9460000000000001, 192.0, 0.0, 0.0, 0.0, 0.0, 0.0, 0.0, 0.0, 0.0, 0.0, 1.64458837522567E9, 0.0, 2022-02-12 01:06:15.225
24.0, -9652.153808135248, -9196.714663113913, -5727.5451096946135, -13682.977996227502, -7514.455320174136, -3601.4918805947163, -7296.905791390633, -5157.754440039926, -10103.346121710078, -12868.838056187398, -6446.287804399468, -5541.645651059825, -5078.741023390416, -7905.387330697457, -10760.42035346274, -15922.466328438084, 0.006, 0.23800000000000002, 0.9460000000000001, 192.0, 0.0, 0.0, 0.0, 0.0, 0.0, 0.0, 0.0, 0.0, 0.0, 1.64458837523263E9, 0.0, 2022-02-12 01:06:15.232
26.0, -9685.01087248455, -9182.34249142915, -5732.395438241415, -13675.624272301708, -7508.219183471106, -3602.765930028669, -7298.649227458147, -5156.838018517258, -10103.122604265523, -12859.53973049399, -6435.782484505473, -5543.567901082981, -5074.807116366282, -7904.783833597164, -10757.984013317111, -15915.850212079313, 0.006, 0.23800000000000002, 0.9460000000000001, 192.0, 0.0, 0.0, 0.0, 0.0, 0.0, 0.0, 0.0, 0.0, 0.0, 1.644588375247197E9, 0.0, 2022-02-12 01:06:15.247
28.0, -9690.218828942638, -9203.44253819496, -5720.660772402379, -13677.255949646944, -7508.688570104668, -3599.659037549381, -7294.089471589265, -5158.447344118041, -10107.81647060114, -12858.109218848851, -6439.470522340599, -5535.454217845705, -5067.81102035177, -7910.282362733169, -10759.280414495519, -15901.031005505445, 0.006, 0.244, 0.9520000000000001, 192.0, 0.0, 24.0, 3.5, 80.0, 14.5, 96.0, 0.0, 0.0, 0.0, 1.644588375255355E9, 0.0, 2022-02-12 01:06:15.255
30.0, -9668.984671710095, -9207.868183597111, -5725.6675631603675, -13684.967301484026, -7517.8527853313435, -3601.4918805947163, -7303.298390304851, -5161.129553452677, -10119.081749806614, -12879.388079570304, -6436.497740328043, -5533.4872643336375, -5065.508790672874, -7899.2182492277925, -10757.492274939093, -15934.759787888503, 0.006, 0.244, 0.9520000000000001, 192.0, 0.0, 0.0, 0.0, 0.0, 0.0, 0.0, 0.0, 0.0, 0.0, 1.644588375262367E9, 0.0, 2022-02-12 01:06:15.262
32.0, -9656.892377959774, -9196.960532302921, -5726.628688171946, -13676.09365893527, -7507.481575904081, -3606.208098674786, -7303.8348321717785, -5162.8059342868255, -10108.598781657074, -12878.494009792092, -6447.047763710948, -5548.95467149671, -5081.713805402971, -7906.169641753393, -10760.8897400963, -15901.9027235392, 0.006, 0.244, 0.9520000000000001, 192.0, 0.0, 0.0, 0.0, 0.0, 0.0, 0.0, 0.0, 0.0, 0.0, 1.644588375269932E9, 0.0, 2022-02-12 01:06:15.269
34.0, -9649.158674378237, -9179.906151283521, -5725.1981765268065, -13687.269531162923, -7516.53403240848, -3608.6891423093252, -7299.453890258538, -5162.269492419898, -10117.897107350482, -12882.226751116128, -6456.3237376599, -5556.62131984488, -5077.8693053566585, -7910.66234238891, -10764.778943631523, -15931.96581983159, 0.006, 0.244, 0.9520000000000001, 192.0, 0.0, 0.0, 0.0, 0.0, 0.0, 0.0, 0.0, 0.0, 0.0, 1.644588375277887E9, 0.0, 2022-02-12 01:06:15.277
36.0, -9692.476355132623, -9207.39879696355, -5730.160263795885, -13679.491124092476, -7506.475747403592, -3606.2528021636967, -7299.140965836164, -5161.174256941588, -10106.207145000357, -12875.945910924187, -6441.3704206193, -5553.939110510244, -5057.350403946687, -7904.962647552807, -10760.84503660739, -15927.495470940528, 0.007, 0.24, 0.9520000000000001, 192.0, 0.0, 32.0, 3.5, 48.0, 14.5, 96.0, 0.0, 0.0, 0.0, 1.644588375285919E9, 0.0, 2022-02-12 01:06:15.285
38.0, -9669.074078687916, -9187.43868916496, -5722.001877069697, -13675.55721706834, -7507.034541014975, -3603.481185851239, -7297.6210472132025, -5157.553274339828, -10108.151746767968, -12852.700096690667, -6438.665859540208, -5543.076162704964, -5077.109346045178, -7905.27557197518, -10763.191969775196, -15909.971703287567, 0.007, 0.24, 0.9520000000000001, 192.0, 0.0, 0.0, 0.0, 0.0, 0.0, 0.0, 0.0, 0.0, 0.0, 1.644588375292613E9, 0.0, 2022-02-12 01:06:15.292
40.0, -9659.306366360946, -9184.756479830323, -5724.7511416377, -13681.458077604542, -7514.388264940771, -3606.9457062418114, -7294.804727411834, -5159.900207507635, -10115.080787549114, -12867.742820709089, -6444.700830543141, -5532.392028855327, -5075.5223721888515, -7896.714853848798, -10764.153094786776, -15943.856947881814, 0.007, 0.24, 0.9520000000000001, 192.0, 0.0, 0.0, 0.0, 0.0, 0.0, 0.0, 0.0, 0.0, 0.0, 1.644588375299497E9, 0.0, 2022-02-12 01:06:15.299
42.0, -9665.810723997442, -9204.336607973171, -5730.003801584698, -13672.673842033606, -7504.285276446972, -3601.916563739367, -7295.810555912323, -5159.967262741001, -10104.128432766012, -12859.02564037152, -6453.596824836353, -5539.656345803302, -5073.086032043223, -7906.527269664678, -10761.292071496497, -15905.300188696408, 0.007, 0.24, 0.9520000000000001, 192.0, 0.0, 0.0, 0.0, 0.0, 0.0, 0.0, 0.0, 0.0, 0.0, 1.644588375307464E9, 0.0, 2022-02-12 01:06:15.307
44.0, -9668.202360654159, -9197.29580846975, -5716.950382822798, -13681.23456015999, -7510.6331718722795, -3606.185746930331, -7289.686177931569, -5162.358899397719, -10111.660970647452, -12867.45224803117, -6442.577414819886, -5553.492075621138, -5066.38050870663, -7898.882973060963, -10761.068554051943, -15930.378845975263, 0.007, 0.24, 0.9520000000000001, 192.0, 0.0, 0.0, 0.0, 0.0, 0.0, 0.0, 0.0, 0.0, 0.0, 1.644588375315699E9, 0.0, 2022-02-12 01:06:15.315
46.0, -9680.562875337944, -9206.460023696425, -5729.266194017672, -13677.591225813774, -7513.740064351567, -3607.9738864867554, -7299.58800072527, -5161.218960430499, -10112.979723570315, -12884.819553472944, -6442.622118308797, -5545.914834250789, -5056.501037657385, -7902.369845195991, -10761.269719752041, -15926.087311039844, 0.007, 0.24, 0.9520000000000001, 192.0, 0.0, 0.0, 3.5, 48.0, 14.5, 96.0, 0.0, 0.0, 0.0, 1.644588375322157E9, 0.0, 2022-02-12 01:06:15.322
48.0, -9680.652282315765, -9196.848773580645, -5727.567461439069, -13682.888589249682, -7513.829471329388, -3603.1012061954984, -7294.715320434013, -5157.799143528837, -10112.018598558736, -12861.707849706156, -6453.172141691702, -5550.608700586403, -5079.188058279522, -7913.165737767904, -10764.8907023538, -15908.250618964508, 0.007, 0.24, 0.9520000000000001, 192.0, 0.0, 0.0, 0.0, 0.0, 0.0, 0.0, 0.0, 0.0, 0.0, 1.644588375330168E9, 0.0, 2022-02-12 01:06:15.330
50.0, -9686.284921918503, -9199.441575937459, -5737.491635977225, -13692.499839365464, -7526.793483113466, -3607.146871941909, -7300.415015270116, -5163.141210453655, -10125.72021790984, -12875.990614413096, -6456.077868470892, -5556.57661635597, -5076.036462311324, -7900.313484706103, -10760.93444358521, -15939.833633879858, 0.007, 0.24, 0.9520000000000001, 192.0, 0.0, 0.0, 0.0, 0.0, 0.0, 0.0, 0.0, 0.0, 0.0, 1.644588375338185E9, 0.0, 2022-02-12 01:06:15.338
52.0, -9665.855427486353, -9201.073253282697, -5731.881348118943, -13681.94981598256, -7515.327038207894, -3608.152700442398, -7295.6764454455915, -5156.860370261714, -10117.830052117117, -12893.849658232888, -6466.13615347578, -5558.364755912395, -5086.407671738586, -7916.943182580851, -10759.168655773241, -15906.551886385905, 0.007, 0.24, 0.9520000000000001, 192.0, 0.0, 0.0, 0.0, 0.0, 0.0, 0.0, 0.0, 0.0, 0.0, 1.644588375345264E9, 0.0, 2022-02-12 01:06:15.345
54.0, -9662.994404196073, -9212.115015043619, -5728.595641684013, -13684.207342172545, -7517.472805675603, -3597.2897526371185, -7291.161393065619, -5152.859408004214, -10115.438415460398, -12877.711698736155, -6457.128400460291, -5549.558168597004, -5078.71867164596, -7919.625391915488, -10756.955833072167, -15931.027046564466, 0.007, 0.24, 0.9520000000000001, 192.0, 0.0, 0.0, 0.0, 0.0, 0.0, 0.0, 0.0, 0.0, 0.0, 1.644588375352804E9, 0.0, 2022-02-12 01:06:15.352
56.0, -9678.797087525974, -9202.190840505462, -5735.99406909872, -13682.016871215925, -7513.047160273452, -3595.859240991979, -7289.350901764739, -5152.434724859563, -10105.76011011125, -12872.012003900052, -6448.902958500738, -5550.943976753232, -5054.534084145318, -7910.014141799706, -10754.541844670994, -15924.0085988055, 0.0055, 0.237, 0.9500000000000001, 192.0, 0.0, 16.0, 3.5, 40.0, 14.5, 80.0, 0.0, 0.0, 0.0, 1.644588375367895E9, 0.0, 2022-02-12 01:06:15.367
58.0, -9680.026433471017, -9196.58055264718, -5727.120426549963, -13681.748650282461, -7512.890698062265, -3590.248953133697, -7279.404375482128, -5146.310346878809, -10097.154688495957, -12858.01981187103, -6459.765906306017, -5555.168456455285, -5079.143354790611, -7912.450481945334, -10759.816856362446, -15905.769575329969, 0.0055, 0.237, 0.9500000000000001, 192.0, 0.0, 0.0, 0.0, 0.0, 0.0, 0.0, 0.0, 0.0, 0.0, 1.644588375374415E9, 0.0, 2022-02-12 01:06:15.374
60.0, -9666.928311220207, -9184.801183319234, -5727.701571905801, -13690.689348064585, -7520.892622577265, -3592.9088107238786, -7290.356730265228, -5155.183989427565, -10115.99720907178, -12886.384175584815, -6446.667784055207, -5550.072258719476, -5073.063680298767, -7908.114243521005, -10763.594301175393, -15943.029933336966, 0.0055, 0.237, 0.9500000000000001, 192.0, 0.0, 0.0, 0.0, 0.0, 0.0, 0.0, 0.0, 0.0, 0.0, 1.644588375382383E9, 0.0, 2022-02-12 01:06:15.382
62.0, -9661.854465228853, -9206.348264974149, -5731.814292885577, -13676.98772871348, -7516.131701008285, -3592.797052001602, -7293.933009378077, -5161.464829619507, -10106.184793255901, -12882.36086158286, -6450.378173634788, -5555.168456455285, -5067.319281973753, -7914.864470346507, -10766.343565743395, -15908.116508497777, 0.0055, 0.237, 0.9500000000000001, 192.0, 0.0, 0.0, 0.0, 0.0, 0.0, 0.0, 0.0, 0.0, 0.0, 1.644588375390385E9, 0.0, 2022-02-12 01:06:15.390
64.0, -9678.461811359146, -9218.284096513284, -5723.812368370577, -13691.426955631609, -7517.24928823105, -3594.09345318001, -7292.837773899767, -5162.0459749753445, -10113.583220670607, -12874.984785912608, -6454.312080658923, -5539.365773125383, -5075.120040788655, -7912.830461601075, -10766.030641321022, -15932.412854720695, 0.0055, 0.237, 0.9500000000000001, 192.0, 0.0, 0.0, 0.0, 0.0, 0.0, 0.0, 0.0, 0.0, 0.0, 1.644588375397449E9, 0.0, 2022-02-12 01:06:15.397
66.0, -9692.20813419916, -9215.244259267361, -5725.689914904823, -13689.169429441623, -7510.610820127824, -3601.2907148946188, -7298.425710013594, -5166.650434333138, -10114.14201428199, -12884.350166839382, -6464.370365663811, -5554.743773310634, -5058.311528958265, -7913.657476145921, -10753.759533615057, -15931.33997098684, 0.00675, 0.2355, 0.9490000000000001, 192.0, 0.0, 32.0, 3.5, 40.0, 14.5, 80.0, 0.0, 0.0, 0.0, 1.644588375405148E9, 0.0, 2022-02-12 01:06:15.405
68.0, -9667.934139720695, -9182.968340273897, -5713.888193832421, -13687.716566052028, -7510.029674771986, -3599.8378515050235, -7297.576343724292, -5161.7554022974255, -10111.415101458442, -12871.252044588571, -6464.0350894969815, -5559.214122201696, -5079.165706535066, -7929.460159475823, -10757.156998772263, -15915.157308001199, 0.00675, 0.2355, 0.9490000000000001, 192.0, 0.0, 0.0, 0.0, 0.0, 0.0, 0.0, 0.0, 0.0, 0.0, 1.644588375412983E9, 0.0, 2022-02-12 01:06:15.412
70.0, -9666.01188969754, -9187.706910098423, -5724.527624193147, -13696.2325806895, -7515.461148674625, -3596.28392413663, -7296.726977434991, -5163.252969175932, -10112.555040425665, -12868.16750385374, -6448.925310245194, -5561.114020480397, -5078.6963199015045, -7915.870298846996, -10761.694402896692, -15950.137788073755, 0.00675, 0.2355, 0.9490000000000001, 192.0, 0.0, 0.0, 0.0, 0.0, 0.0, 0.0, 0.0, 0.0, 0.0, 1.644588375420188E9, 0.0, 2022-02-12 01:06:15.420
72.0, -9673.499724090067, -9200.670921882502, -5730.0708568180635, -13674.797257756862, -7503.547668879947, -3588.237296132719, -7289.641474442658, -5158.626158073683, -10101.848554831571, -12877.443477802692, -6458.067173727414, -5561.896331536333, -5063.76535460536, -7912.2493162452365, -10761.22501626313, -15907.155383486199, 0.00675, 0.2355, 0.9490000000000001, 192.0, 0.0, 0.0, 0.0, 0.0, 0.0, 0.0, 0.0, 0.0, 0.0, 1.644588375427137E9, 0.0, 2022-02-12 01:06:15.427
74.0, -9678.081831703405, -9217.434730223982, -5723.7900166261215, -13680.496952592965, -7515.304686463438, -3593.8699357354567, -7286.042843585354, -5155.005175471923, -10117.092444550091, -12881.064460404452, -6458.1118772163245, -5541.869168504378, -5059.04913652529, -7911.735226122764, -10765.65066166528, -15924.477985439062, 0.00675, 0.2355, 0.9490000000000001, 192.0, 0.0, 0.0, 0.0, 0.0, 0.0, 0.0, 0.0, 0.0, 0.0, 1.644588375434814E9, 0.0, 2022-02-12 01:06:15.434
76.0, -9678.908846248252, -9211.153890032041, -5728.685048661834, -13682.709775294039, -7513.20362248464, -3596.28392413663, -7294.9164861341105, -5164.571722098794, -10110.14105202449, -12898.498821079591, -6450.13230444578, -5542.204444671207, -5060.546703403796, -7916.630258158477, -10765.181275031719, -15925.997904062022, 0.0063750000000000005, 0.23475000000000001, 0.9455, 192.0, 0.0, 24.0, 3.5, 40.0, 14.5, 56.0, 0.0, 0.0, 0.0, 1.644588375442778E9, 0.0, 2022-02-12 01:06:15.442
78.0, -9653.651375013755, -9165.601034832125, -5720.303144491094, -13684.408507872642, -7506.095767747852, -3590.85245023399, -7287.562762208315, -5157.955605740024, -10109.090520035092, -12877.599940013879, -6457.3742696493, -5557.247168689629, -5079.769203635359, -7922.128787294482, -10766.723545399136, -15909.725834098559, 0.0063750000000000005, 0.23475000000000001, 0.9455, 192.0, 0.0, 0.0, 0.0, 0.0, 0.0, 0.0, 0.0, 0.0, 0.0, 1.644588375452278E9, 0.0, 2022-02-12 01:06:15.452
80.0, -9647.772866222009, -9193.428956678981, -5716.056313044585, -13687.649510818663, -7505.827546814388, -3594.3616741134733, -7288.948570364544, -5162.291844164353, -10098.898124563471, -12855.225843814116, -6446.153693932735, -5558.856494290411, -5065.508790672874, -7926.2191565298035, -10756.08411503841, -15944.236927537553, 0.0063750000000000005, 0.23475000000000001, 0.9455, 192.0, 0.0, 0.0, 0.0, 0.0, 0.0, 0.0, 0.0, 0.0, 0.0, 1.644588375458236E9, 0.0, 2022-02-12 01:06:15.458
82.0, -9685.659073073753, -9214.640762167068, -5720.414903213371, -13677.077135691303, -7498.764395566511, -3591.6794647788365, -7289.485012231471, -5160.302538907831, -10100.686264119895, -12870.223864343629, -6451.272243413001, -5549.312299407995, -5067.319281973753, -7920.362999482513, -10755.927652827222, -15907.28949395293, 0.0063750000000000005, 0.23475000000000001, 0.9455, 192.0, 0.0, 0.0, 0.0, 0.0, 0.0, 0.0, 0.0, 0.0, 0.0, 1.644588375465579E9, 0.0, 2022-02-12 01:06:15.465
84.0, -9688.20717194166, -9206.7729481188, -5719.0961502905075, -13686.554275340353, -7506.207526470128, -3593.9146392243674, -7285.081718573776, -5155.653376061127, -10121.987476585804, -12887.993501185598, -6456.211978937624, -5551.592177342436, -5051.851874810681, -7915.400912213435, -10758.900434839778, -15926.243773251032, 0.0063750000000000005, 0.23475000000000001, 0.9455, 192.0, 0.0, 0.0, 0.0, 0.0, 0.0, 0.0, 0.0, 0.0, 0.0, 1.644588375473376E9, 0.0, 2022-02-12 01:06:15.473
86.0, -9691.403471398768, -9206.68354114098, -5715.855147344488, -13683.000347971958, -7503.458261902126, -3595.8815927364344, -7291.58607621027, -5158.961434240513, -10125.04966557618, -12896.688329778712, -6457.620138838308, -5543.47849410516, -5070.314415730764, -7918.194880270348, -10756.151170271776, -15923.829784849857, 0.0063750000000000005, 0.23475000000000001, 0.9455, 192.0, 0.0, 0.0, 3.5, 40.0, 14.5, 80.0, 0.0, 0.0, 0.0, 1.64458837548037E9, 0.0, 2022-02-12 01:06:15.480
88.0, -9654.746610492064, -9182.856581551621, -5711.675371131346, -13680.832228759793, -7502.094805490352, -3591.56770605656, -7290.6920064320575, -5160.324890652286, -10115.460767204853, -12854.644698458278, -6459.318871416912, -5554.430848888261, -5062.983043549424, -7915.825595358086, -10758.431048206217, -15899.376976415751, 0.0063750000000000005, 0.23475000000000001, 0.9455, 192.0, 0.0, 0.0, 0.0, 0.0, 0.0, 0.0, 0.0, 0.0, 0.0, 1.644588375495277E9, 0.0, 2022-02-12 01:06:15.495
90.0, -9667.285939131492, -9202.436709694472, -5712.792958354111, -13687.694214307574, -7513.605953884835, -3600.374293371951, -7305.175936839097, -5162.917693009102, -10109.04581654618, -12865.507646263559, -6450.400525379244, -5558.923549523777, -5064.257092983376, -7923.849871617541, -10759.347469728884, -15938.470177468083, 0.0063750000000000005, 0.23475000000000001, 0.9455, 192.0, 0.0, 0.0, 0.0, 0.0, 0.0, 0.0, 0.0, 0.0, 0.0, 1.644588375503041E9, 0.0, 2022-02-12 01:06:15.503
92.0, -9687.849544030374, -9204.805994606733, -5719.0961502905075, -13677.255949646944, -7502.161860723718, -3591.5900578010155, -7292.614256455214, -5157.106239450722, -10105.983627555803, -12896.040129189507, -6455.51907485951, -5545.087819705942, -5050.175493976533, -7911.936391822862, -10760.688574396203, -15902.305054939397, 0.0063750000000000005, 0.23475000000000001, 0.9455, 192.0, 0.0, 0.0, 0.0, 0.0, 0.0, 0.0, 0.0, 0.0, 0.0, 1.644588375509708E9, 0.0, 2022-02-12 01:06:15.509
94.0, -9661.899168717762, -9195.351206702138, -5715.3410572220155, -13678.619406058719, -7511.191965483662, -3588.7066827662807, -7279.739651648957, -5151.138323681155, -10121.428682974421, -12878.672823747735, -6455.139095203769, -5538.8293312584565, -5067.632206396128, -7902.481603918267, -10758.945138328689, -15920.253505737008, 0.0063750000000000005, 0.23475000000000001, 0.9455, 192.0, 0.0, 0.0, 0.0, 0.0, 0.0, 0.0, 0.0, 0.0, 0.0, 1.644588375517599E9, 0.0, 2022-02-12 01:06:15.517
96.0, -9661.183912895192, -9168.23854067785, -5719.721999135256, -13673.94789146756, -7500.440776400659, -3584.213982130764, -7281.192515038552, -5143.359916610708, -10112.935020081404, -12876.124724879828, -6451.719278302107, -5536.325935879461, -5061.463124926463, -7904.739130108253, -10756.397039460784, -15917.0572062799, 0.0051875, 0.237375, 0.94475, 192.0, 0.0, 16.0, 3.5, 64.0, 14.5, 64.0, 0.0, 0.0, 0.0, 1.644588375525679E9, 0.0, 2022-02-12 01:06:15.525
98.0, -9656.95943319314, -9181.828401306677, -5717.352714222993, -13670.304557121344, -7493.6681978307015, -3577.217886116253, -7275.693985902547, -5140.476541575974, -10106.788290356195, -12839.803140139955, -6452.725106802596, -5546.652441817813, -5053.036517266813, -7901.811051584608, -10754.474789437627, -15891.822086789858, 0.0051875, 0.237375, 0.94475, 192.0, 0.0, 0.0, 0.0, 0.0, 0.0, 0.0, 0.0, 0.0, 0.0, 1.644588375532754E9, 0.0, 2022-02-12 01:06:15.532
100.0, -9669.789334510486, -9217.971172090909, -5715.005781055186, -13683.89441775017, -7505.849898558843, -3595.367502613962, -7288.188611053063, -5152.92646323758, -10108.889354334993, -12878.002271414074, -6440.9680892191045, -5530.425075343261, -5039.245490937888, -7897.0501300156275, -10755.905301082767, -15934.759787888503, 0.0051875, 0.237375, 0.94475, 192.0, 0.0, 0.0, 0.0, 0.0, 0.0, 0.0, 0.0, 0.0, 0.0, 1.644588375540177E9, 0.0, 2022-02-12 01:06:15.540
102.0, -9677.590093325389, -9195.328854957683, -5716.011609555675, -13669.522246065408, -7499.278485688983, -3596.753310770191, -7293.173050066597, -5157.754440039926, -10112.867964848037, -12865.529998008013, -6448.880606756283, -5538.605813813903, -5068.682738385527, -7915.0656360466055, -10756.352335971873, -15903.467345651074, 0.0051875, 0.237375, 0.94475, 192.0, 0.0, 0.0, 0.0, 0.0, 0.0, 0.0, 0.0, 0.0, 0.0, 1.644588375547328E9, 0.0, 2022-02-12 01:06:15.547
104.0, -9656.445343070667, -9161.533017341259, -5711.116577519962, -13676.317176379822, -7507.258058459528, -3594.451081091295, -7291.675483188091, -5156.793315028348, -10117.293610250188, -12860.07617236092, -6444.633775309775, -5542.7632382825905, -5057.23864522441, -7905.074406275083, -10757.84990285038, -15925.14853777272, 0.0051875, 0.237375, 0.94475, 192.0, 0.0, 0.0, 0.0, 0.0, 0.0, 0.0, 0.0, 0.0, 0.0, 1.644588375555343E9, 0.0, 2022-02-12 01:06:15.555
106.0, -9663.128514662805, -9196.379386947083, -5717.2186037562615, -13675.55721706834, -7503.927648535687, -3598.7202642822585, -7297.464585002016, -5161.263663919409, -10116.556002683164, -12875.588283012901, -6451.853388768839, -5540.036325459043, -5061.753697604382, -7907.1978219983375, -10752.686649881203, -15923.829784849857, 0.004, 0.23600000000000002, 0.9460000000000001, 192.0, 0.0, 16.0, 3.5, 48.0, 14.5, 72.0, 0.0, 0.0, 0.0, 1.644588375562354E9, 0.0, 2022-02-12 01:06:15.562
108.0, -9665.408392597246, -9214.685465655979, -5714.715208377267, -13673.456153089543, -7500.261962445017, -3597.1332904259316, -7298.49276524696, -5163.275320920387, -10122.680380663918, -12882.472620305136, -6453.619176580808, -5543.344383638428, -5046.532159630318, -7911.668170889398, -10757.984013317111, -15900.874543294258, 0.004, 0.23600000000000002, 0.9460000000000001, 192.0, 0.0, 0.0, 0.0, 0.0, 0.0, 0.0, 0.0, 0.0, 0.0, 1.644588375569889E9, 0.0, 2022-02-12 01:06:15.569
110.0, -9665.073116430416, -9211.757387132333, -5713.12823452094, -13685.32492939531, -7510.834337572377, -3603.3917788734175, -7298.626875713691, -5165.018756987901, -10120.758130640761, -12887.859390718866, -6438.107065928825, -5537.734095780146, -5066.156991262078, -7905.789662097653, -10755.502969682571, -15936.749093145025, 0.004, 0.23600000000000002, 0.9460000000000001, 192.0, 0.0, 0.0, 0.0, 0.0, 0.0, 0.0, 0.0, 0.0, 0.0, 1.644588375577856E9, 0.0, 2022-02-12 01:06:15.577
112.0, -9675.041994457484, -9201.67675038299, -5724.885252104432, -13670.081039676792, -7499.345540922349, -3598.697912537803, -7294.648265200647, -5161.040146474856, -10113.940848581893, -12882.182047627217, -6449.975842234593, -5549.133485452353, -5063.00539529388, -7907.331932465069, -10753.200740003675, -15900.136935727232, 0.004, 0.23600000000000002, 0.9460000000000001, 192.0, 0.0, 0.0, 0.0, 0.0, 0.0, 0.0, 0.0, 0.0, 0.0, 1.64458837558498E9, 0.0, 2022-02-12 01:06:15.584
114.0, -9666.503628075556, -9179.906151283521, -5718.515004934669, -13684.028528216902, -7506.743968337056, -3596.149813669898, -7293.664788444614, -5160.436649374563, -10119.886412607004, -12878.248140603084, -6458.067173727414, -5548.261767418596, -5056.791610335304, -7904.627371385976, -10758.185179017208, -15921.035816792944, 0.004, 0.23600000000000002, 0.9460000000000001, 192.0, 0.0, 0.0, 0.0, 0.0, 0.0, 0.0, 0.0, 0.0, 0.0, 1.644588375592448E9, 0.0, 2022-02-12 01:06:15.592
116.0, -9665.162523408238, -9201.989674805365, -5724.348810237505, -13686.353109640255, -7502.743006079556, -3598.5861538155264, -7291.876648888189, -5165.756364554926, -10116.556002683164, -12862.534864251002, -6455.697888815152, -5556.889540778344, -5060.814924337259, -7903.889763818952, -10753.178388259219, -15923.71802612758, 0.006, 0.23600000000000002, 0.9420000000000001, 192.0, 0.0, 24.0, 3.5, 48.0, 14.5, 56.0, 0.0, 0.0, 0.0, 1.644588375600657E9, 0.0, 2022-02-12 01:06:15.600
118.0, -9667.330642620402, -9208.270514997306, -5716.726865378245, -13676.451286846554, -7500.641942100757, -3598.5190985821605, -7293.709491933524, -5164.661129076616, -10115.661932904952, -12874.180123112217, -6456.5249033599985, -5554.00616574361, -5051.248377710388, -7916.697313391843, -10755.815894104946, -15900.33810142733, 0.006, 0.23600000000000002, 0.9420000000000001, 192.0, 0.0, 0.0, 0.0, 0.0, 0.0, 0.0, 0.0, 0.0, 0.0, 1.644588375615154E9, 0.0, 2022-02-12 01:06:15.615
120.0, -9684.452078873168, -9209.29869524225, -5712.032999042631, -13681.70394679355, -7504.329979935883, -3598.273229393152, -7291.094337832254, -5164.728184309982, -10118.724121895328, -12905.472565349648, -6441.839807252862, -5543.2326249161515, -5066.961654062468, -7901.7439963512425, -10752.709001625659, -15936.793796633936, 0.006, 0.23600000000000002, 0.9420000000000001, 192.0, 0.0, 0.0, 0.0, 0.0, 0.0, 0.0, 0.0, 0.0, 0.0, 1.644588375622169E9, 0.0, 2022-02-12 01:06:15.622
122.0, -9674.10322119036, -9195.977055546888, -5720.258441002184, -13666.75062975295, -7493.467032130603, -3594.115804924465, -7288.523887219893, -5158.670861562594, -10108.978761312814, -12889.893399464298, -6450.758153290529, -5553.805000043511, -5063.519485416351, -7908.427167943379, -10750.183254502208, -15898.43820314863, 0.006, 0.23600000000000002, 0.9420000000000001, 192.0, 0.0, 0.0, 0.0, 0.0, 0.0, 0.0, 0.0, 0.0, 0.0, 1.644588375630176E9, 0.0, 2022-02-12 01:06:15.630
124.0, -9658.971090194118, -9193.317197956705, -5719.453778201792, -13677.591225813774, -7501.8265845568885, -3589.9360287113227, -7288.188611053063, -5150.288957391854, -10109.895182835482, -12882.159695882761, -6448.232406167079, -5538.315241135984, -5055.517560901351, -7907.3766359539795, -10753.781885359513, -15919.448842936617, 0.006, 0.23600000000000002, 0.9420000000000001, 192.0, 0.0, 0.0, 0.0, 0.0, 0.0, 0.0, 0.0, 0.0, 0.0, 1.644588375638135E9, 0.0, 2022-02-12 01:06:15.638
126.0, -9663.463790829634, -9199.553334659737, -5734.138874308929, -13677.70298453605, -7505.671084603201, -3591.791223501113, -7295.788204167868, -5163.968224998502, -10112.555040425665, -12874.873027190331, -6453.797990536451, -5545.847779017423, -5047.694450341994, -7895.41845267039, -10754.385382459806, -15918.57712490286, 0.012, 0.23600000000000002, 0.9480000000000001, 192.0, 0.0, 48.0, 3.5, 48.0, 14.5, 80.0, 0.0, 0.0, 0.0, 1.644588375644775E9, 0.0, 2022-02-12 01:06:15.644
128.0, -9673.745593279076, -9204.023683550797, -5727.858034116988, -13674.573740312308, -7504.911125291721, -3595.7474822697027, -7299.699759447546, -5165.398736643641, -10116.310133494155, -12866.491123019592, -6457.888359771772, -5545.043116217032, -5068.392165707608, -7903.129804507471, -10760.107429040365, -15899.779307815947, 0.012, 0.23600000000000002, 0.9480000000000001, 192.0, 0.0, 0.0, 0.0, 0.0, 0.0, 0.0, 0.0, 0.0, 0.0, 1.644588375652707E9, 0.0, 2022-02-12 01:06:15.652
130.0, -9684.854410273363, -9201.900267827543, -5719.163205523873, -13694.980883000004, -7513.695360862656, -3603.592944573515, -7298.470413502505, -5165.376384899186, -10123.328581253121, -12887.904094207775, -6457.195455693657, -5548.664098818791, -5068.928607574536, -7901.364016695502, -10755.190045260197, -15937.956087345612, 0.012, 0.23600000000000002, 0.9480000000000001, 192.0, 0.0, 0.0, 0.0, 0.0, 0.0, 0.0, 0.0, 0.0, 0.0, 1.64458837566082E9, 0.0, 2022-02-12 01:06:15.660
132.0, -9694.644474344788, -9218.30644825774, -5723.410036970382, -13681.346318882266, -7502.541840379458, -3605.3587323854845, -7299.431538514083, -5174.942931526057, -10118.657066661963, -12903.50561183758, -6465.063269741925, -5562.924511781277, -5066.760488362371, -7917.636086658966, -10754.31832722644, -15908.116508497777, 0.012, 0.23600000000000002, 0.9480000000000001, 192.0, 0.0, 0.0, 0.0, 0.0, 0.0, 0.0, 0.0, 0.0, 0.0, 1.644588375667923E9, 0.0, 2022-02-12 01:06:15.667
134.0, -9663.843770485375, -9197.67578812549, -5716.592754911513, -13685.101411950758, -7509.470881160603, -3605.537546341127, -7296.525811734893, -5176.26168444892, -10124.155595797969, -12904.623199060345, -6459.765906306017, -5552.866226776388, -5068.325110474242, -7913.702179634832, -10758.721620884136, -15927.517822684984, 0.012, 0.23600000000000002, 0.9480000000000001, 192.0, 0.0, 0.0, 0.0, 0.0, 0.0, 0.0, 0.0, 0.0, 0.0, 1.644588375674581E9, 0.0, 2022-02-12 01:06:15.674
136.0, -9679.378232881812, -9186.477564153382, -5732.551900452602, -13675.512513579431, -7509.381474182782, -3600.8213282610573, -7301.599657726248, -5173.601826858739, -10118.14297653949, -12899.906980980275, -6454.669708570208, -5545.512502850593, -5060.971386548446, -7909.835327844064, -10759.682745895714, -15926.646104651227, 0.006, 0.234, 0.9480000000000001, 192.0, 0.0, 24.0, 3.5, 40.0, 14.5, 80.0, 0.0, 0.0, 0.0, 1.644588375682511E9, 0.0, 2022-02-12 01:06:15.682
138.0, -9674.930235735206, -9203.040206794763, -5721.2642695026725, -13662.481446561987, -7503.815889813411, -3590.2266013892418, -7303.611314727225, -5169.600864601239, -10118.969991084337, -12872.50374227807, -6460.056478983936, -5543.411438871794, -5064.3688517056535, -7915.42326395789, -10763.124914541831, -15893.520819368461, 0.006, 0.234, 0.9480000000000001, 192.0, 0.0, 0.0, 0.0, 0.0, 0.0, 0.0, 0.0, 0.0, 0.0, 1.64458837569044E9, 0.0, 2022-02-12 01:06:15.690
140.0, -9682.261607916547, -9204.090738784163, -5723.65590615939, -13677.188894413579, -7513.985933540575, -3596.5297933256384, -7293.284808788873, -5173.445364647551, -10121.67455216343, -12870.7379544661, -6454.6473568257525, -5532.682601533246, -5075.097689044201, -7906.817842342597, -10761.895568596789, -15928.255430252007, 0.006, 0.234, 0.9480000000000001, 192.0, 0.0, 0.0, 0.0, 0.0, 0.0, 0.0, 0.0, 0.0, 0.0, 1.644588375697597E9, 0.0, 2022-02-12 01:06:15.697
142.0, -9689.771794053531, -9190.00913977732, -5724.080589304041, -13675.825438001804, -7497.870325788299, -3596.082758436532, -7281.326625505284, -5171.545466368851, -10117.38301722801, -12901.046919947496, -6464.638586597274, -5544.1713981832745, -5070.604988408683, -7910.058845288617, -10760.018022062544, -15896.068918236366, 0.006, 0.234, 0.9480000000000001, 192.0, 0.0, 0.0, 0.0, 0.0, 0.0, 0.0, 0.0, 0.0, 0.0, 1.644588375704981E9, 0.0, 2022-02-12 01:06:15.704
144.0, -9683.066270716938, -9191.998445033842, -5718.738522379223, -13687.09071720728, -7505.715788092111, -3593.8475839910016, -7282.421860983594, -5166.561027355317, -10117.38301722801, -12891.636835531812, -6457.597787093853, -5547.121828451375, -5048.834389309214, -7910.260010988714, -10758.118123783843, -15918.24184873603, 0.006, 0.234, 0.9480000000000001, 192.0, 0.0, 0.0, 0.0, 0.0, 0.0, 0.0, 0.0, 0.0, 0.0, 1.644588375713076E9, 0.0, 2022-02-12 01:06:15.713
146.0, -9683.021567228028, -9197.564029403215, -5722.515967192169, -13680.251083403957, -7501.983046768075, -3591.5900578010155, -7288.859163386723, -5160.436649374563, -10110.90101133597, -12892.262684376561, -6450.646394568253, -5548.1053052074085, -5058.602101636184, -7902.414548684901, -10755.03358304901, -15919.91822957018, 0.01, 0.234, 0.9460000000000001, 192.0, 0.0, 40.0, 3.5, 40.0, 14.5, 72.0, 0.0, 0.0, 0.0, 1.644588375720327E9, 0.0, 2022-02-12 01:06:15.720
148.0, -9648.309308088936, -9199.06159628172, -5720.303144491094, -13670.617481543719, -7496.618628098801, -3584.0351681751217, -7279.694948160047, -5160.6378150746605, -10107.436490945398, -12865.015907885541, -6452.188664935668, -5543.500845849615, -5059.295005714298, -7901.453423673323, -10756.777019116524, -15891.844438534314, 0.01, 0.234, 0.9460000000000001, 192.0, 0.0, 0.0, 0.0, 0.0, 0.0, 0.0, 0.0, 0.0, 0.0, 1.644588375726796E9, 0.0, 2022-02-12 01:06:15.726
150.0, -9657.898206460262, -9179.414412905504, -5721.353676480494, -13677.814743258328, -7509.381474182782, -3594.987522958222, -7288.099204075242, -5171.187838457566, -10108.911706079449, -12872.146114366784, -6454.80381903694, -5523.876014217855, -5058.66915686955, -7893.94323753634, -10759.638042406803, -15930.49060469754, 0.01, 0.234, 0.9460000000000001, 192.0, 0.0, 0.0, 0.0, 0.0, 0.0, 0.0, 0.0, 0.0, 0.0, 1.64458837574282E9, 0.0, 2022-02-12 01:06:15.742
152.0, -9695.49384063409, -9174.586436103158, -5723.633554414935, -13674.37257461221, -7509.113253249318, -3601.022493961155, -7296.950494879544, -5173.7806408143815, -10106.184793255901, -12856.477541503615, -6457.441324882666, -5539.656345803302, -5062.536008660318, -7921.771159383197, -10758.69926913968, -15903.467345651074, 0.01, 0.234, 0.9460000000000001, 192.0, 0.0, 0.0, 0.0, 0.0, 0.0, 0.0, 0.0, 0.0, 0.0, 1.644588375749798E9, 0.0, 2022-02-12 01:06:15.749
154.0, -9685.212038184649, -9219.692256413968, -5719.252612501695, -13681.145153182168, -7505.827546814388, -3594.3169706245626, -7287.383948252672, -5171.1207832242, -10123.14976729748, -12899.795222257999, -6453.172141691702, -5539.566938825481, -5049.281424198321, -7911.489356933756, -10758.341641228395, -15921.684017382147, 0.01, 0.234, 0.9460000000000001, 192.0, 0.0, 0.0, 0.0, 0.0, 0.0, 0.0, 0.0, 0.0, 0.0, 1.644588375757237E9, 0.0, 2022-02-12 01:06:15.757
156.0, -9674.617311312832, -9206.504727185336, -5719.364371223971, -13675.08783043478, -7500.10550023383, -3593.2887903796186, -7291.20609655453, -5181.134364740177, -10116.533650938709, -12903.058576948473, -6447.472446855599, -5533.9566509671995, -5066.358156962176, -7902.146327751438, -10751.636117891803, -15924.992075561533, 0.006, 0.23800000000000002, 0.9460000000000001, 192.0, 0.0, 24.0, 3.5, 56.0, 14.5, 72.0, 0.0, 0.0, 0.0, 1.644588375765283E9, 0.0, 2022-02-12 01:06:15.765
158.0, -9666.72714552011, -9193.00427353433, -5720.660772402379, -13667.935272209083, -7494.316398419905, -3581.4870693072166, -7281.974826094488, -5161.420126130596, -10111.504508436265, -12878.538713281003, -6453.8873975142715, -5537.935261480244, -5055.606967879173, -7904.739130108253, -10750.295013224484, -15893.945502513112, 0.006, 0.23800000000000002, 0.9460000000000001, 192.0, 0.0, 0.0, 0.0, 0.0, 0.0, 0.0, 0.0, 0.0, 0.0, 1.644588375773394E9, 0.0, 2022-02-12 01:06:15.773
160.0, -9674.90788399075, -9171.14426745704, -5719.878461346443, -13687.515400351931, -7499.680817089179, -3576.3461680824958, -7282.623026683692, -5155.251044660931, -10113.359703226055, -12882.226751116128, -6449.841731767861, -5542.651479560313, -5059.898502814592, -7891.663359601898, -10748.059838778954, -15924.38857846124, 0.006, 0.23800000000000002, 0.9460000000000001, 192.0, 0.0, 0.0, 0.0, 0.0, 0.0, 0.0, 0.0, 0.0, 0.0, 1.644588375780018E9, 0.0, 2022-02-12 01:06:15.780
162.0, -9676.763078780543, -9189.763270588312, -5723.99118232622, -13671.198626899557, -7488.661407072713, -3576.1673541268533, -7272.810610867812, -5152.1218004371885, -10108.688188634897, -12853.080076346407, -6460.503513873043, -5544.640784816836, -5058.825619080737, -7911.355246467024, -10747.523396912027, -15887.32938615434, 0.006, 0.23800000000000002, 0.9460000000000001, 192.0, 0.0, 0.0, 0.0, 0.0, 0.0, 0.0, 0.0, 0.0, 0.0, 1.644588375787895E9, 0.0, 2022-02-12 01:06:15.787
164.0, -9675.779602024508, -9207.979942319387, -5711.317743220061, -13680.921635737615, -7494.718729820101, -3574.4462698037946, -7270.240160255452, -5157.016832472901, -10115.796043371683, -12896.576571056436, -6453.127438202791, -5537.644688802325, -5040.497188627385, -7901.542830651145, -10747.79161784549, -15904.495525896016, 0.006, 0.23800000000000002, 0.9460000000000001, 192.0, 0.0, 0.0, 0.0, 0.0, 0.0, 0.0, 0.0, 0.0, 0.0, 1.644588375795035E9, 0.0, 2022-02-12 01:06:15.795
166.0, -9678.975901481617, -9205.789471362767, -5717.5091764341805, -13682.910940994137, -7496.305703676428, -3580.727109995736, -7276.051613813832, -5161.062498219311, -10115.505470693764, -12906.992483972608, -6451.585167835376, -5540.170435925775, -5062.826581338237, -7911.534060422667, -10746.875196322822, -15917.258371979997, 0.002, 0.23800000000000002, 0.9500000000000001, 192.0, 0.0, 8.0, 3.5, 56.0, 14.5, 88.0, 0.0, 0.0, 0.0, 1.644588375803047E9, 0.0, 2022-02-12 01:06:15.803
168.0, -9649.918633689718, -9184.53296238577, -5715.586926411024, -13680.09462119277, -7490.516601862503, -3573.507496536672, -7276.29748300284, -5162.962396498013, -10107.972932812327, -12889.446364575191, -6467.097278487358, -5556.755430311612, -5058.870322569647, -7907.75661560972, -10748.976260301622, -15893.252598434998, 0.002, 0.23800000000000002, 0.9500000000000001, 192.0, 0.0, 0.0, 0.0, 0.0, 0.0, 0.0, 0.0, 0.0, 0.0, 1.644588375809866E9, 0.0, 2022-02-12 01:06:15.809
170.0, -9678.238293914592, -9186.231694964374, -5715.765740366667, -13687.269531162923, -7501.62541885679, -3578.9613221837667, -7275.671634158091, -5164.482315120973, -10101.245057731277, -12895.12370766684, -6458.693022572163, -5543.590252827436, -5052.500075399885, -7894.077348003072, -10748.998612046076, -15932.479909954061, 0.002, 0.23800000000000002, 0.9500000000000001, 192.0, 0.0, 0.0, 0.0, 0.0, 0.0, 0.0, 0.0, 0.0, 0.0, 1.644588375817716E9, 0.0, 2022-02-12 01:06:15.817
172.0, -9691.49287837659, -9197.049939280741, -5721.4430834583145, -13676.27247289091, -7490.069566973397, -3576.6143890159597, -7271.871837600689, -5165.711661066015, -10114.499642193276, -12897.247123390094, -6461.285824928978, -5549.692279063735, -5056.366927190653, -7907.913077820907, -10746.919899811734, -15896.426546147652, 0.002, 0.23800000000000002, 0.9500000000000001, 192.0, 0.0, 0.0, 0.0, 0.0, 0.0, 0.0, 0.0, 0.0, 0.0, 1.644588375825651E9, 0.0, 2022-02-12 01:06:15.825
174.0, -9664.089639674383, -9186.321101942194, -5715.408112455382, -13689.124725952714, -7498.138546721762, -3583.0963949079987, -7277.929160348077, -5164.191742443054, -10108.084691534603, -12866.893454419787, -6449.640566067764, -5547.255938918107, -5035.177473447022, -7904.806185341619, -10745.377629444318, -15912.162174244188, 0.005, 0.23800000000000002, 0.9500000000000001, 192.0, 0.0, 32.0, 3.5, 56.0, 14.5, 88.0, 0.0, 0.0, 0.0, 1.644588375832762E9, 0.0, 2022-02-12 01:06:15.832
176.0, -9680.048785215473, -9202.928448072487, -5724.684086404334, -13690.532885853398, -7497.803270554933, -3589.913676966867, -7284.455869729027, -5170.6737483350935, -10113.42675845942, -12885.892437206798, -6449.238234667568, -5541.466837104183, -5068.548627918795, -7915.445615702345, -10748.395114945784, -15921.77342435997, 0.005, 0.23800000000000002, 0.9500000000000001, 192.0, 0.0, 0.0, 0.0, 0.0, 0.0, 0.0, 0.0, 0.0, 0.0, 1.644588375840286E9, 0.0, 2022-02-12 01:06:15.840
178.0, -9663.642604785276, -9187.952779287432, -5722.314801492072, -13683.648548561163, -7501.312494434416, -3586.270342620652, -7287.339244763762, -5167.1198209667, -10110.275162491222, -12885.959492440164, -6467.812534309928, -5545.043116217032, -5062.156029004577, -7913.635124401466, -10749.9373853132, -15893.163191457177, 0.005, 0.23800000000000002, 0.9500000000000001, 192.0, 0.0, 0.0, 0.0, 0.0, 0.0, 0.0, 0.0, 0.0, 0.0, 1.644588375848245E9, 0.0, 2022-02-12 01:06:15.848
180.0, -9682.954511994662, -9202.034378294275, -5726.047542816108, -13697.66309233464, -7514.432968429682, -3587.253819376686, -7284.478221473482, -5168.729146567482, -10112.130357281012, -12902.164507170262, -6461.151714462247, -5545.601909828414, -5057.596273135695, -7901.498127162234, -10746.204643989164, -15931.697598898125, 0.005, 0.23800000000000002, 0.9500000000000001, 192.0, 0.0, 0.0, 0.0, 0.0, 0.0, 0.0, 0.0, 0.0, 0.0, 1.644588375862025E9, 0.0, 2022-02-12 01:06:15.862
182.0, -9700.522983136534, -9205.007160306832, -5734.675316175856, -13678.66410954763, -7506.565154381413, -3585.1304036534316, -7292.189573310563, -5171.83603904677, -10107.592953156585, -12901.225733903138, -6462.448115640655, -5556.822485544978, -5054.936415545513, -7908.226002243281, -10747.523396912027, -15895.86775253627, 0.005, 0.23800000000000002, 0.9500000000000001, 192.0, 0.0, 0.0, 0.0, 0.0, 0.0, 0.0, 0.0, 0.0, 0.0, 1.64458837586985E9, 0.0, 2022-02-12 01:06:15.869
184.0, -9683.5356573505, -9202.213192249917, -5730.272022518161, -13680.832228759793, -7505.849898558843, -3583.275208863641, -7285.618160440703, -5172.797164058347, -10123.082712064113, -12890.005158186575, -6457.486028371576, -5543.746715038624, -5055.159932990066, -7903.062749274105, -10750.27266148003, -15907.892991053224, 0.0035, 0.23800000000000002, 0.9510000000000001, 192.0, 0.0, 8.0, 3.5, 56.0, 14.5, 96.0, 0.0, 0.0, 0.0, 1.644588375877976E9, 0.0, 2022-02-12 01:06:15.877
186.0, -9681.166372438238, -9195.10533751313, -5734.205929542295, -13687.247179418468, -7503.8829450467765, -3589.600752544493, -7284.746442406946, -5165.756364554926, -10115.147842782479, -12891.368614598348, -6454.669708570208, -5545.959537739699, -5068.369813963153, -7905.096758019538, -10747.433989934205, -15912.832726577846, 0.0035, 0.23800000000000002, 0.9510000000000001, 192.0, 0.0, 0.0, 0.0, 0.0, 0.0, 0.0, 0.0, 0.0, 0.0, 1.644588375885062E9, 0.0, 2022-02-12 01:06:15.885
188.0, -9679.892323004286, -9201.386177705072, -5731.0096300851865, -13680.407545615142, -7499.367892666804, -3596.28392413663, -7282.019529583398, -5167.6786145780825, -10108.934057823904, -12879.209265614661, -6470.561798877931, -5554.140276210342, -5066.33580521772, -7924.028685573183, -10752.530187670016, -15889.318691410863, 0.0035, 0.23800000000000002, 0.9510000000000001, 192.0, 0.0, 0.0, 0.0, 0.0, 0.0, 0.0, 0.0, 0.0, 0.0, 1.644588375892763E9, 0.0, 2022-02-12 01:06:15.892
190.0, -9689.525924864522, -9211.131538287585, -5731.9484033523095, -13695.651435333662, -7510.767282339011, -3599.8825549939343, -7290.133212820675, -5173.288902436364, -10119.52878469572, -12908.132422939829, -6460.235292939579, -5542.874997004867, -5062.200732493488, -7918.932487837374, -10751.189083002697, -15931.652895409215, 0.0035, 0.23800000000000002, 0.9510000000000001, 192.0, 0.0, 0.0, 0.0, 0.0, 0.0, 0.0, 0.0, 0.0, 0.0, 1.644588375900551E9, 0.0, 2022-02-12 01:06:15.900
192.0, -9694.733881322609, -9213.858451111133, -5742.699592435311, -13685.749612539961, -7501.58071536788, -3599.7931480161133, -7289.954398865033, -5174.808821059325, -10117.584182928107, -12898.677635035234, -6467.343147676367, -5552.374488398372, -5046.375697419131, -7922.039380316661, -10751.27848998052, -15900.963950272078, 0.0035, 0.23800000000000002, 0.9510000000000001, 192.0, 0.0, 0.0, 0.0, 0.0, 0.0, 0.0, 0.0, 0.0, 0.0, 1.644588375908753E9, 0.0, 2022-02-12 01:06:15.908
194.0, -9678.372404381324, -9205.834174851678, -5730.853167873999, -13689.549409097364, -7504.285276446972, -3595.2557438916856, -7285.908733118622, -5174.0712134923, -10114.924325337926, -12898.543524568502, -6459.028298738993, -5556.151933211319, -5071.007319808879, -7911.578763911577, -10750.809103346957, -15918.107738269298, -2.5E-4, 0.23800000000000002, 0.9495, 192.0, 127.5, 112.0, 3.5, 56.0, 14.5, 80.0, 0.0, 0.0, 0.0, 1.644588375915698E9, 0.0, 2022-02-12 01:06:15.915
196.0, -9685.994349240584, -9200.827384093689, -5735.792903398622, -13683.179161927601, -7501.424253156692, -3593.735825268725, -7290.312026776318, -5177.066347249312, -10106.609476400552, -12901.337492625415, -6449.260586412023, -5549.200540685719, -5065.419383695053, -7908.4942231767445, -10747.523396912027, -15923.405101705206, -2.5E-4, 0.23800000000000002, 0.9495, 192.0, 0.0, 0.0, 0.0, 0.0, 0.0, 0.0, 0.0, 0.0, 0.0, 1.644588375922441E9, 0.0, 2022-02-12 01:06:15.922
198.0, -9690.934084765207, -9202.615523650113, -5735.681144676345, -13684.833191017295, -7498.160898466218, -3589.176069399842, -7290.49084073196, -5164.504666865429, -10109.38109271301, -12885.423050573238, -6459.922368517205, -5547.52415985157, -5058.512694658362, -7908.896554576941, -10752.41842894774, -15894.079612979844, -2.5E-4, 0.23800000000000002, 0.9495, 192.0, 0.0, 0.0, 0.0, 0.0, 0.0, 0.0, 0.0, 0.0, 0.0, 1.644588375930229E9, 0.0, 2022-02-12 01:06:15.930
200.0, -9680.071136959927, -9205.789471362767, -5741.09026683453, -13704.189801715589, -7508.375645682293, -3598.697912537803, -7291.764890165912, -5179.972074028501, -10124.557927198164, -12907.394815372803, -6458.313042916423, -5558.00712800111, -5050.8683980546475, -7914.3056767351245, -10752.12785626982, -15937.39729373423, -2.5E-4, 0.23800000000000002, 0.9495, 192.0, 0.0, 0.0, 0.0, 0.0, 0.0, 0.0, 0.0, 0.0, 0.0, 1.644588375937616E9, 0.0, 2022-02-12 01:06:15.937
202.0, -9681.702814305165, -9218.10528255764, -5745.1582843253955, -13687.314234651833, -7502.541840379458, -3597.960304970778, -7288.903866875633, -5177.066347249312, -10119.349970740077, -12905.114937438362, -6476.3061972029445, -5573.0498520195315, -5059.317357458754, -7921.5699936831, -10755.614728404847, -15906.23896196353, -2.5E-4, 0.23800000000000002, 0.9495, 192.0, 0.0, 0.0, 0.0, 0.0, 0.0, 0.0, 0.0, 0.0, 0.0, 1.644588375944796E9, 0.0, 2022-02-12 01:06:15.944
204.0, -9696.857297045863, -9226.82246289521, -5739.65975518939, -13691.963397498537, -7507.749796837545, -3595.143985169409, -7284.858201129223, -5166.493972121951, -10119.171156784434, -12901.6951205367, -6465.510304631031, -5556.420154144783, -5064.435906939019, -7926.800301885642, -10754.810065604457, -15919.135918514243, -2.5E-4, 0.23800000000000002, 0.9495, 192.0, 0.0, 0.0, 3.5, 24.0, 14.5, 80.0, 0.0, 0.0, 0.0, 1.644588375953092E9, 0.0, 2022-02-12 01:06:15.953
206.0, -9697.058462745961, -9217.457081968438, -5743.548958724614, -13689.61646433073, -7500.306665933927, -3582.984636185722, -7284.478221473482, -5160.794277285848, -10115.95250558287, -12929.7018563392, -6448.6570893117305, -5535.8565492459, -5064.592369150206, -7910.260010988714, -10751.144379513786, -15922.443976693628, -2.5E-4, 0.23800000000000002, 0.9495, 192.0, 0.0, 0.0, 0.0, 0.0, 0.0, 0.0, 0.0, 0.0, 0.0, 1.644588375960856E9, 0.0, 2022-02-12 01:06:15.960
208.0, -9681.72516604962, -9206.68354114098, -5742.699592435311, -13688.700042808063, -7494.539915864458, -3584.0351681751217, -7276.118669047198, -5163.6329488316715, -10106.117738022534, -12911.708702052678, -6460.905845273238, -5553.29090992104, -5059.920854559047, -7907.466042931801, -10753.51366442605, -15889.519857110961, -2.5E-4, 0.23800000000000002, 0.9495, 192.0, 0.0, 0.0, 0.0, 0.0, 0.0, 0.0, 0.0, 0.0, 0.0, 1.644588375967673E9, 0.0, 2022-02-12 01:06:15.967
210.0, -9678.4841631036, -9210.01395106482, -5750.008612872197, -13691.449307376064, -7507.995666026553, -3593.0652729350654, -7282.421860983594, -5167.633911089171, -10110.56573516914, -12910.702873552189, -6463.208074952135, -5555.190808199741, -5062.938340060513, -7908.4942231767445, -10752.686649881203, -15929.663590152693, -2.5E-4, 0.23800000000000002, 0.9495, 192.0, 0.0, 0.0, 0.0, 0.0, 0.0, 0.0, 0.0, 0.0, 0.0, 1.64458837597447E9, 0.0, 2022-02-12 01:06:15.974
212.0, -9694.219791200137, -9211.422110965505, -5755.082458863551, -13681.078097948803, -7501.312494434416, -3592.417072345862, -7283.807669139823, -5170.629044846183, -10113.538517181698, -12902.924466481742, -6477.133211747791, -5555.48138087766, -5050.890749799103, -7919.401874470935, -10755.525321427027, -15896.627711847748, -2.5E-4, 0.23800000000000002, 0.9495, 192.0, 0.0, 0.0, 0.0, 0.0, 0.0, 0.0, 0.0, 0.0, 0.0, 1.644588375990426E9, 0.0, 2022-02-12 01:06:15.990
214.0, -9689.6376835868, -9207.376445219094, -5749.069839605074, -13697.149002212169, -7511.549593394947, -3597.826194504046, -7286.020491840898, -5172.886571036169, -10117.226555016823, -12901.002216458586, -6464.124496474802, -5557.247168689629, -5070.560284919773, -7918.977191326284, -10759.928615084722, -15911.938656799633, 0.002875, 0.23700000000000002, 0.9497500000000001, 192.0, 0.0, 24.0, 3.5, 48.0, 14.5, 88.0, 0.0, 0.0, 0.0, 1.644588375997112E9, 0.0, 2022-02-12 01:06:15.997
216.0, -9699.070119746939, -9218.038227324276, -5752.623766973468, -13704.61448486024, -7506.6992648481455, -3599.3237613825518, -7288.3450732642505, -5177.513382138417, -10118.768825384239, -12919.375350400847, -6460.682327828686, -5573.407479930816, -5069.442697697008, -7915.110339535516, -10760.8897400963, -15924.880316839257, 0.002875, 0.23700000000000002, 0.9497500000000001, 192.0, 0.0, 0.0, 0.0, 0.0, 0.0, 0.0, 0.0, 0.0, 0.0, 1.64458837600503E9, 0.0, 2022-02-12 01:06:16.005
218.0, -9701.707625592664, -9225.347247761161, -5739.078609833552, -13693.438612632586, -7500.418424656204, -3596.708607281281, -7281.170163294097, -5172.797164058347, -10112.555040425665, -12919.218888189662, -6461.084659228881, -5561.806924558512, -5058.71386035846, -7926.465025718811, -10756.911129583255, -15895.398365902707, 0.002875, 0.23700000000000002, 0.9497500000000001, 192.0, 0.0, 0.0, 0.0, 0.0, 0.0, 0.0, 0.0, 0.0, 0.0, 1.644588376013293E9, 0.0, 2022-02-12 01:06:16.013
220.0, -9672.270378145025, -9207.555259174736, -5742.788999413133, -13700.010025502448, -7505.626381114291, -3594.026397946644, -7281.281922016374, -5175.1217454817, -10113.717331137339, -12929.724208083655, -6459.363574905822, -5556.330747166961, -5052.723592844438, -7915.75854012472, -10754.810065604457, -15930.468252953084, 0.002875, 0.23700000000000002, 0.9497500000000001, 192.0, 0.0, 0.0, 0.0, 0.0, 0.0, 0.0, 0.0, 0.0, 0.0, 1.644588376020114E9, 0.0, 2022-02-12 01:06:16.020
222.0, -9677.34422413638, -9198.145174759053, -5746.789961670633, -13680.09462119277, -7491.924761763187, -3589.511345566672, -7283.7629656509125, -5178.899190294646, -10101.401519942465, -12914.79324278751, -6461.889322029272, -5551.636880831347, -5059.920854559047, -7911.511708678211, -10754.452437693171, -15894.392537402218, 0.002875, 0.23700000000000002, 0.9497500000000001, 192.0, 0.0, 0.0, 0.0, 0.0, 0.0, 0.0, 0.0, 0.0, 0.0, 1.644588376027756E9, 0.0, 2022-02-12 01:06:16.027
224.0, -9677.366575880835, -9216.942991845965, -5741.626708701457, -13691.605769587251, -7496.059834487419, -3586.2926943651078, -7274.442288213049, -5173.288902436364, -10103.502583921265, -12892.955588454675, -6454.580301592387, -5550.139313952842, -5062.33484296022, -7912.85281334553, -10755.100638282376, -15907.468307908573, 0.0054375, 0.23550000000000001, 0.949875, 192.0, 0.0, 32.0, 3.5, 40.0, 14.5, 88.0, 0.0, 0.0, 0.0, 1.644588376035676E9, 0.0, 2022-02-12 01:06:16.035
226.0, -9695.58324761191, -9220.027532580798, -5743.414848257881, -13687.604807329752, -7498.853802544332, -3591.2994851230965, -7284.075890073287, -5181.670806607104, -10109.448147946376, -12919.576516100946, -6448.075943955892, -5544.19374992773, -5057.708031857972, -7913.724531379286, -10753.468960937138, -15920.007636548, 0.0054375, 0.23550000000000001, 0.949875, 192.0, 0.0, 0.0, 0.0, 0.0, 0.0, 0.0, 0.0, 0.0, 0.0, 1.644588376042863E9, 0.0, 2022-02-12 01:06:16.042
228.0, -9684.67559631772, -9205.431843451483, -5741.626708701457, -13682.396850871666, -7496.126889720785, -3582.336435596518, -7273.972901579488, -5168.326815167286, -10104.70957812185, -12883.545504038992, -6455.295557414956, -5559.459991390704, -5057.484514413419, -7923.514595450712, -10753.871292337333, -15888.983415244034, 0.0054375, 0.23550000000000001, 0.949875, 192.0, 0.0, 0.0, 0.0, 0.0, 0.0, 0.0, 0.0, 0.0, 0.0, 1.644588376049426E9, 0.0, 2022-02-12 01:06:16.049
230.0, -9686.329625407414, -9194.255971223829, -5740.33030752305, -13694.779717299905, -7506.945134037153, -3585.644493775904, -7278.018567325898, -5169.198533201044, -10117.472424205831, -12907.439518861715, -6460.972900506605, -5550.362831397394, -5044.229929951422, -7913.61277265701, -10753.647774892781, -15924.209764505598, 0.0054375, 0.23550000000000001, 0.949875, 192.0, 0.0, 0.0, 0.0, 0.0, 0.0, 0.0, 0.0, 0.0, 0.0, 1.644588376057401E9, 0.0, 2022-02-12 01:06:16.057
232.0, -9709.68719836321, -9220.675733170001, -5739.123313322462, -13684.877894506204, -7499.077319988885, -3590.5842293005267, -7288.143907564153, -5173.9594547700235, -10115.058435804658, -12918.101300966895, -6462.448115640655, -5562.879808292367, -5066.805191851281, -7915.959705824817, -10755.882949338311, -15895.063089735877, 0.0054375, 0.23550000000000001, 0.949875, 192.0, 0.0, 0.0, 0.0, 0.0, 0.0, 0.0, 0.0, 0.0, 0.0, 1.644588376065304E9, 0.0, 2022-02-12 01:06:16.065
234.0, -9693.34807316638, -9230.73401817489, -5738.162188310885, -13695.651435333662, -7504.598200869346, -3593.825232246546, -7282.310102261317, -5174.875876292691, -10119.305267251166, -12914.256800920582, -6461.799915051451, -5565.785535071556, -5059.205598736477, -7922.620525672499, -10757.22405400563, -15910.016406776478, 0.00771875, 0.23575000000000002, 0.9479375000000001, 192.0, 0.0, 40.0, 3.5, 48.0, 14.5, 72.0, 0.0, 0.0, 0.0, 1.644588376072465E9, 0.0, 2022-02-12 01:06:16.072
236.0, -9700.522983136534, -9225.324896016706, -5742.073743590563, -13691.069327720325, -7502.29597119045, -3592.484127579228, -7284.67938717358, -5178.250989705442, -10122.658028919463, -12919.196536445206, -6460.592920850864, -5563.975043770676, -5064.8382383392145, -7919.04424655965, -10753.625423148325, -15918.554773158405, 0.00771875, 0.23575000000000002, 0.9479375000000001, 192.0, 0.0, 0.0, 0.0, 0.0, 0.0, 0.0, 0.0, 0.0, 0.0, 1.644588376079951E9, 0.0, 2022-02-12 01:06:16.079
238.0, -9680.719337549132, -9214.01491332232, -5736.3516970100045, -13679.3793653702, -7490.315436162405, -3584.2363338752193, -7273.056480056821, -5170.137306468166, -10098.182868740902, -12917.475452122148, -6471.56762737842, -5561.806924558512, -5049.974328276436, -7919.535984937666, -10752.46313243665, -15884.580121586338, 0.00771875, 0.23575000000000002, 0.9479375000000001, 192.0, 0.0, 0.0, 0.0, 0.0, 0.0, 0.0, 0.0, 0.0, 0.0, 1.644588376088E9, 0.0, 2022-02-12 01:06:16.088
240.0, -9685.256741673558, -9208.337570230671, -5733.2448045307165, -13696.031414989402, -7500.217258956106, -3583.0740431635436, -7275.9175033471, -5170.78550705737, -10101.42387168692, -12921.23054519064, -6461.263473184523, -5553.9167587657885, -5058.020956280346, -7911.511708678211, -10746.159940500253, -15915.492584168029, 0.00771875, 0.23575000000000002, 0.9479375000000001, 192.0, 0.0, 0.0, 0.0, 0.0, 0.0, 0.0, 0.0, 0.0, 0.0, 1.64458837609597E9, 0.0, 2022-02-12 01:06:16.095
