%OpenBCI Raw EEG Data
%Number of channels = 16
%Sample Rate = 125 Hz
%Board = OpenBCI_GUI$BoardCytonSerialDaisy
Sample Index, EXG Channel 0, EXG Channel 1, EXG Channel 2, EXG Channel 3, EXG Channel 4, EXG Channel 5, EXG Channel 6, EXG Channel 7, EXG Channel 8, EXG Channel 9, EXG Channel 10, EXG Channel 11, EXG Channel 12, EXG Channel 13, EXG Channel 14, EXG Channel 15, Accel Channel 0, Accel Channel 1, Accel Channel 2, Other, Other, Other, Other, Other, Other, Other, Analog Channel 0, Analog Channel 1, Analog Channel 2, Timestamp, Other, Timestamp (Formatted)
114.0, -10094.383072183498, -11803.24099102509, -6767.616482688962, -14371.076449284132, -289.5892011629583, -1066.4240797071552, -1580.31303647912, -3260.270149739999, -20620.914771665906, -17178.232035426146, -22563.70604797674, -13040.991191982173, -7626.102283728395, -11970.02970815059, -5578.43662243326, -8466.170247336657, 0.0, 0.0, 0.0, 192.0, 0.0, 0.0, 0.0, 0.0, 0.0, 0.0, 0.0, 0.0, 0.0, 1.6444976413775775E9, 0.0, 2022-02-10 23:54:01.377
116.0, -10099.345159452578, -11815.020360353037, -6772.243293791211, -14375.502094686282, -302.5532129470364, -1075.1859635336357, -1593.0311790741896, -3277.4362894816745, -20623.2170013448, -17186.07749772996, -22548.596268724952, -13037.705485547243, -7616.714551057166, -12002.305627144055, -5567.260750205606, -8466.572578736852, 0.0, 0.0, 0.0, 192.0, 0.0, 0.0, 0.0, 0.0, 0.0, 0.0, 0.0, 0.0, 0.0, 1.6444976413775856E9, 0.0, 2022-02-10 23:54:01.377
118.0, -10094.248961716767, -11790.768717619028, -6768.868180378459, -14372.305795229173, -295.19948902124037, -1071.6320361652417, -1583.7105016363266, -3277.391585992764, -20614.11984135149, -17182.97060525067, -22565.874167188904, -13043.29342166107, -7619.195594691706, -11998.125850930912, -5576.737889854657, -8469.344195049309, 0.0, 0.0, 0.0, 192.0, 0.0, 0.0, 0.0, 0.0, 0.0, 0.0, 0.0, 0.0, 0.0, 1.6444976413775923E9, 0.0, 2022-02-10 23:54:01.377
120.0, -10083.989511011781, -11787.415955950733, -6754.853636604981, -14365.846141081589, -284.3588929604164, -1069.910951842183, -1572.8699055755028, -3264.4052224642305, -20610.07417560508, -17172.53234059004, -22542.717759933206, -13029.278877887593, -7601.671827038745, -11982.300815856555, -5565.852590304922, -8463.800962424393, 0.0, 0.0, 0.0, 192.0, 0.0, 0.0, 0.0, 0.0, 0.0, 0.0, 0.0, 0.0, 0.0, 1.6444976413775995E9, 0.0, 2022-02-10 23:54:01.377
122.0, -10081.553170866153, -11787.438307695187, -6760.776848885638, -14369.310661472162, -295.0206750655979, -1078.4269664796552, -1576.8261643440921, -3268.450888210641, -20602.429879001367, -17171.07947720045, -22541.689579688264, -13027.267220886615, -7602.074158438941, -11995.577752063007, -5564.913817037799, -8468.830104926838, 0.012, -0.026000000000000002, 0.992, 192.0, 0.0, 48.0, 127.5, 24.0, 15.5, 0.0, 0.0, 0.0, 0.0, 1.6444976413776069E9, 0.0, 2022-02-10 23:54:01.377
124.0, -10072.65717657294, -11782.297406470467, -6743.923633566336, -14359.855873567567, -274.7029393557238, -1071.9449605876162, -1570.0088822852233, -3264.852257353337, -20586.962471838295, -17169.06782019947, -22534.31350401801, -13025.948467963752, -7602.565896816957, -11994.2813508846, -5558.00712800111, -8465.76791593646, 0.012, -0.026000000000000002, 0.992, 192.0, 0.0, 0.0, 0.0, 0.0, 0.0, 0.0, 0.0, 0.0, 0.0, 1.6444976413776133E9, 0.0, 2022-02-10 23:54:01.377
126.0, -10082.536647622186, -11790.969883319127, -6743.834226588515, -14361.264033468251, -286.52701217258124, -1069.463916953077, -1588.7843476276814, -3262.907655585725, -20592.058669574104, -17159.456570083687, -22517.92967533227, -13006.301284587536, -7592.820536234443, -11995.600103807463, -5553.425020387772, -8464.203293824588, 0.012, -0.026000000000000002, 0.992, 192.0, 0.0, 0.0, 0.0, 0.0, 0.0, 0.0, 0.0, 0.0, 0.0, 1.6444976413776205E9, 0.0, 2022-02-10 23:54:01.377
128.0, -10080.18971445438, -11772.23912146558, -6744.1918544998, -14348.098855984075, -278.1004045129305, -1063.1160215277698, -1577.116737022011, -3266.9533213321356, -20598.093640577037, -17170.475980100153, -22537.107472074924, -13027.446034842258, -7589.892457710798, -11981.160876889335, -5562.656290847814, -8462.19163682361, 0.012, -0.026000000000000002, 0.992, 192.0, 0.0, 0.0, 0.0, 0.0, 0.0, 0.0, 0.0, 0.0, 0.0, 1.644497641377627E9, 0.0, 2022-02-10 23:54:01.377
130.0, -10061.861284001026, -11769.780429575496, -6742.962508554758, -14350.55754787416, -275.59700913393607, -1047.3580416867783, -1553.312129177109, -3252.2905769694544, -20589.912902106393, -17154.315668858966, -22522.623541667886, -13008.603514266433, -7578.068384893941, -11957.445676022253, -5551.502770364616, -8451.038116340413, 0.012, -0.026000000000000002, 0.992, 192.0, 0.0, 0.0, 0.0, 0.0, 0.0, 0.0, 0.0, 0.0, 0.0, 1.644497641377634E9, 0.0, 2022-02-10 23:54:01.377
132.0, -10078.893313275972, -11780.084583769392, -6748.863369090959, -14349.730533329313, -289.36568371840525, -1048.7438498430074, -1574.1886584983658, -3266.3721759762975, -20593.578588197066, -17148.928898445236, -22528.300884759534, -13004.96017992022, -7589.7583472440665, -11963.346536558454, -5554.229683188162, -8454.81556115336, 0.008, -0.026000000000000002, 0.99, 192.0, 0.0, 32.0, 127.5, 24.0, 15.0, 120.0, 0.0, 0.0, 0.0, 1.6444976413776405E9, 0.0, 2022-02-10 23:54:01.377
134.0, -10059.022612455203, -11773.714336599629, -6740.772037598138, -14349.864643796045, -274.90410505582156, -1052.2530737224906, -1556.6648908454051, -3270.5072487005295, -20589.532922450653, -17158.383686349833, -22533.330027261978, -13014.884354458376, -7592.1052804118735, -11963.45829528073, -5557.269520434084, -8452.490979730008, 0.008, -0.026000000000000002, 0.99, 192.0, 0.0, 0.0, 0.0, 0.0, 0.0, 0.0, 0.0, 0.0, 0.0, 1.6444976413776472E9, 0.0, 2022-02-10 23:54:01.377
136.0, -10060.207254911335, -11786.588941405886, -6749.042183046602, -14353.373867675527, -289.2539249961287, -1067.0946320408145, -1553.8709227884917, -3249.5413124014513, -20588.907073605904, -17162.049372440502, -22524.07640505748, -13016.247810870149, -7595.592152546901, -11970.499094784152, -5544.484322605649, -8453.809732652871, 0.008, -0.026000000000000002, 0.99, 192.0, 0.0, 0.0, 0.0, 0.0, 0.0, 0.0, 0.0, 0.0, 0.0, 1.644497641377654E9, 0.0, 2022-02-10 23:54:01.377
138.0, -10084.704766834351, -11777.692947112673, -6747.991651057202, -14346.26601293874, -292.33846573096105, -1065.8429343513174, -1563.3704141819971, -3257.297367727443, -20593.17625679687, -17176.756820292096, -22538.94031512026, -13029.681209287788, -7607.907963741775, -11987.195847892268, -5547.971194740677, -8457.184846065622, 0.008, -0.026000000000000002, 0.99, 192.0, 0.0, 0.0, 0.0, 0.0, 0.0, 0.0, 0.0, 0.0, 0.0, 1.6444976413776608E9, 0.0, 2022-02-10 23:54:01.377
140.0, -10078.625092342507, -11775.591883133875, -6741.867273076448, -14341.616850092036, -287.55519241752535, -1059.2491697370017, -1562.9457310373464, -3245.1827222326665, -20598.428916743866, -17158.49544507211, -22521.014216067102, -13005.00488340913, -7600.889515982809, -11972.533103529586, -5544.618433072381, -8450.72519191804, 0.008, -0.026000000000000002, 0.99, 192.0, 0.0, 0.0, 0.0, 0.0, 0.0, 0.0, 0.0, 0.0, 0.0, 1.6444976413776677E9, 0.0, 2022-02-10 23:54:01.377
142.0, -10089.488040147788, -11788.600598406863, -6752.037316803613, -14349.283498440207, -296.8088146220225, -1072.4366989656328, -1555.0332135001677, -3260.068984039901, -20604.68740519135, -17149.24182286761, -22535.341684262956, -13020.472290572203, -7600.084853182418, -11993.253170639655, -5547.792380785034, -8453.58621520832, 0.01, -0.024, 0.988, 192.0, 0.0, 40.0, 127.5, 32.0, 15.0, 112.0, 0.0, 0.0, 0.0, 1.6444976413776743E9, 0.0, 2022-02-10 23:54:01.377
144.0, -10080.100307476558, -11790.925179830216, -6736.1675782403445, -14340.74513205828, -279.01682603559806, -1058.5339139144319, -1553.468591388296, -3251.485914169063, -20601.46875398979, -17166.944404476217, -22531.787756894562, -13021.075787672495, -7598.8555072373765, -11974.902388441848, -5551.726287809168, -8454.256767541978, 0.01, -0.024, 0.988, 192.0, 0.0, 0.0, 0.0, 0.0, 0.0, 0.0, 0.0, 0.0, 0.0, 1.6444976413776813E9, 0.0, 2022-02-10 23:54:01.377
146.0, -10066.219874169812, -11783.929083815705, -6735.5193776511405, -14339.806358791157, -278.9050673133215, -1062.914855827672, -1553.1109634770112, -3255.129248515278, -20589.532922450653, -17163.837511996928, -22504.652739125817, -13002.613246752411, -7596.195649647195, -11974.120077385913, -5544.640784816836, -8449.518197717452, 0.01, -0.024, 0.988, 192.0, 0.0, 0.0, 0.0, 0.0, 0.0, 0.0, 0.0, 0.0, 0.0, 1.6444976413776922E9, 0.0, 2022-02-10 23:54:01.377
148.0, -10075.94288300787, -11774.340185444378, -6737.039296274102, -14338.286440168196, -281.2072969922182, -1066.6475971517084, -1555.6590623449163, -3251.530617657974, -20593.735050408253, -17161.982317207137, -22529.59728593794, -13014.280857358082, -7592.574667045435, -11972.197827362756, -5544.104342949909, -8451.306337273876, 0.01, -0.024, 0.988, 192.0, 0.0, 0.0, 0.0, 0.0, 0.0, 0.0, 0.0, 0.0, 0.0, 1.644497641377699E9, 0.0, 2022-02-10 23:54:01.377
150.0, -10056.876844987493, -11761.622042849309, -6730.266717704144, -14341.750960558767, -276.9157620567992, -1060.947902315605, -1557.6260158569833, -3249.518960656996, -20592.21513178529, -17157.646078782807, -22514.241637497144, -13006.055415398529, -7591.144155400295, -11977.294025098567, -5539.2987178920175, -8448.177093050133, 0.009000000000000001, -0.024, 0.99, 192.0, 0.0, 32.0, 127.5, 32.0, 15.5, 0.0, 0.0, 0.0, 0.0, 1.6444976413777056E9, 0.0, 2022-02-10 23:54:01.377
152.0, -10076.769897552716, -11760.772676560007, -6740.839092831504, -14344.70139082687, -292.07024479749737, -1068.4133849636776, -1575.4850596767735, -3264.651091653239, -20596.21609404279, -17150.381761834833, -22531.69834991674, -13023.445072584758, -7597.760271759066, -11949.801379418539, -5540.461008603694, -8455.575520464841, 0.009000000000000001, -0.024, 0.99, 192.0, 0.0, 0.0, 0.0, 0.0, 0.0, 0.0, 0.0, 0.0, 0.0, 1.6444976413777125E9, 0.0, 2022-02-10 23:54:01.377
154.0, -10068.276234659701, -11785.493705927576, -6741.219072487244, -14327.73641678529, -284.85063133843323, -1058.4892104255212, -1562.9010275484356, -3251.105934513323, -20593.288015519145, -17143.430369309233, -22540.348475020943, -13008.04472065505, -7598.45317583718, -11981.47380131171, -5550.4522383752155, -8453.787380908416, 0.009000000000000001, -0.024, 0.99, 192.0, 0.0, 0.0, 0.0, 0.0, 0.0, 0.0, 0.0, 0.0, 0.0, 1.6444976413777192E9, 0.0, 2022-02-10 23:54:01.377
156.0, -10074.08768821808, -11784.934912316194, -6742.7389911102055, -14328.518727841227, -287.0411022950533, -1054.3988411902, -1568.667777617905, -3250.7930100909484, -20596.394907998434, -17155.612070037376, -22525.350454491432, -12991.973816391686, -7592.731129256622, -11965.31349007052, -5547.904139507311, -8442.1421220472, 0.009000000000000001, -0.024, 0.99, 192.0, 0.0, 0.0, 0.0, 0.0, 0.0, 0.0, 0.0, 0.0, 0.0, 1.644497641377726E9, 0.0, 2022-02-10 23:54:01.377
158.0, -10083.162496466935, -11773.155542988246, -6741.308479465066, -14335.894803511477, -289.36568371840525, -1049.526160898943, -1577.0273300441897, -3249.496608912541, -20598.674785932875, -17160.59650905091, -22530.156079549324, -13013.00680792413, -7602.565896816957, -11948.214405562212, -5555.883712277855, -8448.132389561224, 0.009000000000000001, -0.024, 0.99, 192.0, 0.0, 0.0, 0.0, 0.0, 0.0, 0.0, 0.0, 0.0, 0.0, 1.6444976413777325E9, 0.0, 2022-02-10 23:54:01.377
160.0, -10064.454086357842, -11752.122551455803, -6729.797331070582, -14331.402102875962, -276.3569684454165, -1047.0004137754934, -1552.5968733545392, -3243.9310245431693, -20584.88375960395, -17140.122311129846, -22513.772250863585, -13004.311979331014, -7590.764175744555, -11953.690582953763, -5545.66896506178, -8444.444351726097, 0.009500000000000001, -0.025, 0.99, 192.0, 0.0, 40.0, 127.5, 24.0, 15.0, 120.0, 0.0, 0.0, 0.0, 1.6444976413777394E9, 0.0, 2022-02-10 23:54:01.377
162.0, -10080.927322021404, -11771.143885987269, -6739.252118975177, -14332.653800565458, -289.1868697627628, -1056.20933249108, -1561.895199047947, -3242.388754175753, -20590.002309084215, -17144.927936187738, -22520.1648497778, -13010.995150923152, -7589.333664099416, -11952.416533519809, -5543.0538109605095, -8445.137255804213, 0.009500000000000001, -0.025, 0.99, 192.0, 0.0, 0.0, 0.0, 0.0, 0.0, 0.0, 0.0, 0.0, 0.0, 1.644497641377746E9, 0.0, 2022-02-10 23:54:01.377
164.0, -10051.959461207327, -11761.666746338218, -6727.629211858418, -14333.860794766046, -258.36381415889434, -1041.367774172756, -1543.9467482503353, -3239.4383239076524, -20592.572759696577, -17146.40315132179, -22539.387350009365, -13017.521860304101, -7584.304521596971, -11956.1716265883, -5546.093648206431, -8447.014802338457, 0.009500000000000001, -0.025, 0.99, 192.0, 0.0, 0.0, 0.0, 0.0, 0.0, 0.0, 0.0, 0.0, 0.0, 1.644497641377753E9, 0.0, 2022-02-10 23:54:01.377
166.0, -10055.044001942159, -11762.76198181653, -6721.862461788948, -14337.50412911226, -266.99158751864286, -1056.075222024348, -1548.6853180748606, -3233.3139459268987, -20585.17433228187, -17135.808424449973, -22511.13474501786, -12993.270217570092, -7573.329815069415, -11938.31258276851, -5533.151988166808, -8447.394781994199, 0.009500000000000001, -0.025, 0.99, 192.0, 0.0, 0.0, 0.0, 0.0, 0.0, 0.0, 0.0, 0.0, 0.0, 1.6444976413777597E9, 0.0, 2022-02-10 23:54:01.377
168.0, -10074.490019618275, -11770.205112720147, -6721.348371666476, -14329.16692843043, -268.9808927751652, -1052.0072045334823, -1551.859265787514, -3234.3421261718427, -20580.50281769071, -17134.66848548275, -22521.908285845315, -13004.021406653095, -7573.419222047237, -11952.349478286444, -5535.09658993442, -8443.617337181251, 0.009500000000000001, -0.025, 0.99, 192.0, 0.0, 0.0, 0.0, 0.0, 0.0, 0.0, 0.0, 0.0, 0.0, 1.6444976413777666E9, 0.0, 2022-02-10 23:54:01.377
170.0, -10059.000260710747, -11758.805723047939, -6708.116138948934, -14326.507070840249, -257.73796531414575, -1045.8604748082728, -1552.3957076544414, -3231.0564197369126, -20581.575701424565, -17133.1932703487, -22503.98218679216, -12988.464592512202, -7573.866256936343, -11969.917949428314, -5530.961517210188, -8438.565842934351, 0.00875, -0.025500000000000002, 0.99, 192.0, 0.0, 32.0, 127.5, 24.0, 15.0, 120.0, 0.0, 0.0, 0.0, 1.6444976413777733E9, 0.0, 2022-02-10 23:54:01.377
172.0, -10061.928339234393, -11756.70465906914, -6713.748778551671, -14326.819995262624, -269.13735498635236, -1048.4532771650884, -1558.184809468366, -3239.907710541214, -20576.59126241103, -17133.10386337088, -22498.863637311893, -12991.057394869018, -7562.824495175421, -11933.64106817735, -5529.531005565048, -8443.28206101442, 0.00875, -0.025500000000000002, 0.99, 192.0, 0.0, 0.0, 0.0, 0.0, 0.0, 0.0, 0.0, 0.0, 0.0, 1.6444976413777804E9, 0.0, 2022-02-10 23:54:01.377
174.0, -10044.672792514897, -11739.627926305286, -6706.149185436868, -14316.940524213378, -261.7165758271904, -1032.9635182575605, -1537.8447220140365, -3226.6754778236723, -20567.181177995346, -17120.028092864526, -22502.998710036125, -12979.970929619185, -7555.761343927544, -11938.066713579503, -5529.9109852207885, -8438.208215023067, 0.00875, -0.025500000000000002, 0.99, 192.0, 0.0, 0.0, 0.0, 0.0, 0.0, 0.0, 0.0, 0.0, 0.0, 1.644497641377787E9, 0.0, 2022-02-10 23:54:01.377
176.0, -10042.392914580454, -11742.243080406557, -6702.662313301839, -14326.015332462232, -255.3910321463385, -1041.2560154504795, -1550.3169954200978, -3238.9912890185465, -20567.985840795736, -17112.875534638828, -22493.27570119807, -12976.461705739703, -7550.9557188696535, -11933.194033288246, -5523.42897932875, -8435.14602603269, 0.00875, -0.025500000000000002, 0.99, 192.0, 0.0, 0.0, 0.0, 0.0, 0.0, 0.0, 0.0, 0.0, 0.0, 1.644497641377794E9, 0.0, 2022-02-10 23:54:01.377
178.0, -10051.937109462871, -11737.012772204014, -6706.797386026071, -14325.948277228867, -262.7447560721345, -1036.6068526037757, -1557.6930710903491, -3237.4043151622195, -20567.35999195099, -17123.40320627728, -22507.89374207184, -12988.755165190121, -7549.189931057684, -11918.2630679921, -5529.642764287325, -8441.829197624827, 0.00875, -0.025500000000000002, 0.99, 192.0, 0.0, 0.0, 0.0, 0.0, 0.0, 0.0, 0.0, 0.0, 0.0, 1.644497641377803E9, 0.0, 2022-02-10 23:54:01.377
180.0, -10034.681562743373, -11743.248908907046, -6703.869307502426, -14319.868602737022, -253.60289258991392, -1036.1598177146695, -1545.0866872175561, -3226.0496289789235, -20564.186044238337, -17122.039749865504, -22495.175599476766, -12969.75618240311, -7547.424143245715, -11937.664382179306, -5530.71564802118, -8433.849624854282, 0.0063750000000000005, -0.02475, 0.989, 192.0, 0.0, 16.0, 127.5, 32.0, 15.0, 112.0, 0.0, 0.0, 0.0, 1.6444976413778095E9, 0.0, 2022-02-10 23:54:01.377
182.0, -10046.013897182214, -11753.128379956292, -6712.430025628809, -14330.30686739765, -274.6805876112685, -1061.6631581381748, -1549.6464430864387, -3242.1205332422896, -20561.92851804835, -17132.478014526132, -22500.607073379408, -12990.38684253536, -7554.666108449234, -11951.075428852491, -5532.302621877507, -8440.801017379883, 0.0063750000000000005, -0.02475, 0.989, 192.0, 0.0, 0.0, 0.0, 0.0, 0.0, 0.0, 0.0, 0.0, 0.0, 1.6444976413778167E9, 0.0, 2022-02-10 23:54:01.377
184.0, -10057.279176387688, -11760.102124226347, -6704.51750809163, -14328.69754179687, -256.374508902372, -1050.3084719548788, -1540.4151726263967, -3242.3216989423872, -20565.92948030585, -17138.2447645956, -22506.127954259868, -12996.891200171853, -7571.11699236834, -11950.203710818734, -5535.14129342333, -8443.48322671452, 0.0063750000000000005, -0.02475, 0.989, 192.0, 0.0, 0.0, 0.0, 0.0, 0.0, 0.0, 0.0, 0.0, 0.0, 1.6444976413778234E9, 0.0, 2022-02-10 23:54:01.377
186.0, -10057.390935109966, -11760.817380048917, -6710.440720372287, -14333.346704643573, -267.0809944964641, -1052.275425466946, -1555.860228045014, -3243.036954764957, -20569.639869885432, -17130.287543569513, -22498.39425067833, -12983.6142639654, -7568.300672566971, -11948.504978240131, -5530.693296276724, -8438.878767356726, 0.0063750000000000005, -0.02475, 0.989, 192.0, 0.0, 0.0, 0.0, 0.0, 0.0, 0.0, 0.0, 0.0, 0.0, 1.64449764137783E9, 0.0, 2022-02-10 23:54:01.377
188.0, -10060.810752011628, -11750.580281088387, -6717.2356506867, -14332.653800565458, -271.6183986208914, -1054.5776551458425, -1537.9788324807685, -3240.801780319426, -20573.327907720555, -17136.121348872348, -22523.137631790356, -13000.512182773613, -7565.350242298871, -11941.59828920344, -5538.225834158163, -8442.075066813835, 0.0063750000000000005, -0.02475, 0.989, 192.0, 0.0, 0.0, 0.0, 0.0, 0.0, 0.0, 0.0, 0.0, 0.0, 1.6444976413778367E9, 0.0, 2022-02-10 23:54:01.377
190.0, -10054.775781008695, -11748.345106642855, -6704.785729025094, -14335.760693044745, -257.06741298048655, -1049.593216132309, -1528.4569893428074, -3230.1399982142448, -20570.846864086016, -17116.76473817405, -22503.088117013947, -12982.630787209368, -7557.281262550505, -11946.895652639349, -5526.580575296948, -8439.124636545735, 0.0051875, -0.024375, 0.9884999999999999, 192.0, 0.0, 16.0, 127.5, 32.0, 15.0, 112.0, 0.0, 0.0, 0.0, 1.6444976413778436E9, 0.0, 2022-02-10 23:54:01.377
192.0, -10064.699955546852, -11756.36938290231, -6720.186080954801, -14337.034742478698, -276.8710585678886, -1062.914855827672, -1544.4608383728075, -3250.4130304352084, -20579.184064767847, -17131.24866858109, -22515.046300297538, -12995.28187457107, -7561.371631785826, -11961.424286535297, -5529.173377653763, -8447.394781994199, 0.0051875, -0.024375, 0.9884999999999999, 192.0, 0.0, 0.0, 0.0, 0.0, 0.0, 0.0, 0.0, 0.0, 0.0, 1.6444976413778503E9, 0.0, 2022-02-10 23:54:01.377
194.0, -10057.905025232438, -11776.24008372308, -6719.292011176588, -14334.106663955054, -266.25397995161774, -1057.0810505248369, -1544.796114539637, -3241.204111719622, -20579.139361278936, -17147.945421689205, -22521.997692823137, -13009.072900899995, -7560.522265496525, -11964.665289481318, -5538.42699985826, -8446.38895349371, 0.0051875, -0.024375, 0.9884999999999999, 192.0, 0.0, 0.0, 0.0, 0.0, 0.0, 0.0, 0.0, 0.0, 0.0, 1.6444976413778572E9, 0.0, 2022-02-10 23:54:01.377
196.0, -10058.307356632633, -11770.85331330935, -6716.1851186973, -14339.716951813336, -262.45418339421553, -1058.466858681066, -1537.956480736313, -3256.492704927052, -20580.435762457342, -17147.744255989106, -22509.033681039058, -12999.059319384018, -7557.013041617041, -11934.289268766555, -5528.94986020921, -8444.846683126294, 0.0051875, -0.024375, 0.9884999999999999, 192.0, 0.0, 0.0, 0.0, 0.0, 0.0, 0.0, 0.0, 0.0, 0.0, 1.644497641377864E9, 0.0, 2022-02-10 23:54:01.377
198.0, -10065.66108055843, -11767.455848152144, -6725.461092646253, -14343.092065226087, -272.7359858436568, -1064.6359401507307, -1540.4822278597628, -3245.4956466550407, -20578.625271156463, -17149.510043801074, -22521.59536142294, -13010.10108114494, -7556.610710216846, -11954.472894009697, -5532.839063744434, -8451.14987506269, 0.0051875, -0.024375, 0.9884999999999999, 192.0, 0.0, 0.0, 0.0, 0.0, 0.0, 0.0, 0.0, 0.0, 0.0, 1.6444976413778706E9, 0.0, 2022-02-10 23:54:01.377
200.0, -10051.959461207327, -11751.675516566696, -6716.922726264325, -14341.862719281045, -261.761279316101, -1050.9119690551722, -1529.9769079657685, -3232.7551523155157, -20577.150056022412, -17134.73554071612, -22513.45932644121, -13011.911572445819, -7572.368690057838, -11959.211463834223, -5537.66704054678, -8446.076029071335, 0.00559375, -0.0241875, 0.98925, 192.0, 0.0, 24.0, 127.5, 32.0, 15.0, 120.0, 0.0, 0.0, 0.0, 1.6444976413778777E9, 0.0, 2022-02-10 23:54:01.377
202.0, -10073.46183937333, -11772.194417976669, -6725.394037412887, -14351.60807986356, -275.93228530076567, -1070.2909314979233, -1552.0827832320672, -3257.1409055162558, -20579.944024079326, -17136.233107594624, -22518.868448599394, -13001.562714763013, -7570.35703305686, -11926.555565185019, -5533.9566509671995, -8451.44044774061, 0.00559375, -0.0241875, 0.98925, 192.0, 0.0, 0.0, 0.0, 0.0, 0.0, 0.0, 0.0, 0.0, 0.0, 1.6444976413778844E9, 0.0, 2022-02-10 23:54:01.377
204.0, -10059.961385722327, -11771.412106920732, -6719.627287343417, -14343.27087918173, -271.35017768742773, -1069.6650826531747, -1553.7368123217598, -3249.496608912541, -20583.274434003168, -17146.805482721982, -22536.258105785622, -13016.873659714898, -7570.960530157153, -11964.598234247951, -5536.907081235299, -8454.167360564155, 0.00559375, -0.0241875, 0.98925, 192.0, 0.0, 0.0, 0.0, 0.0, 0.0, 0.0, 0.0, 0.0, 0.0, 1.644497641377891E9, 0.0, 2022-02-10 23:54:01.377
206.0, -10059.626109555496, -11766.986461518582, -6721.214261199744, -14346.690696083391, -273.406538177316, -1073.7778036329512, -1560.375280424986, -3260.5383706734624, -20578.200588011812, -17145.084398398925, -22517.32617823198, -13003.552020019535, -7559.672899207223, -11968.398030805354, -5530.626241043358, -8449.451142484086, 0.00559375, -0.0241875, 0.98925, 192.0, 0.0, 0.0, 0.0, 0.0, 0.0, 0.0, 0.0, 0.0, 0.0, 1.6444976413778977E9, 0.0, 2022-02-10 23:54:01.377
208.0, -10079.072127231613, -11774.630758122297, -6724.634078101406, -14345.975440260821, -275.84287832294444, -1070.5144489424765, -1552.9097977769136, -3254.3245857148872, -20586.73895439374, -17156.23791888212, -22533.75471040663, -13017.90183995984, -7572.771021458033, -11973.740097730173, -5534.71661027868, -8452.490979730008, 0.00559375, -0.0241875, 0.98925, 192.0, 0.0, 0.0, 0.0, 0.0, 0.0, 0.0, 0.0, 0.0, 0.0, 1.6444976413779047E9, 0.0, 2022-02-10 23:54:01.377
210.0, -10063.224740412801, -11768.104048741347, -6709.770168038627, -14344.455521637861, -258.6096833479027, -1058.466858681066, -1535.3413266350422, -3247.1273240002783, -20587.364803238488, -17152.95221244719, -22515.046300297538, -13013.945581191252, -7563.673861464723, -11951.298946297044, -5527.631107286347, -8446.05367732688, 0.005796875, -0.02409375, 0.988625, 192.0, 0.0, 24.0, 127.5, 32.0, 15.0, 112.0, 0.0, 0.0, 0.0, 1.6444976413779137E9, 0.0, 2022-02-10 23:54:01.377
212.0, -10066.733964292283, -11768.372269674812, -6717.705037320261, -14345.617812349536, -275.7311196006679, -1071.3861669762334, -1549.9370157643577, -3244.0204315209903, -20585.576663682066, -17146.2466891106, -22516.40975670931, -13009.452880555735, -7556.186027072195, -11947.476797995187, -5526.8040927415, -8449.026459339435, 0.005796875, -0.02409375, 0.988625, 192.0, 0.0, 0.0, 0.0, 0.0, 0.0, 0.0, 0.0, 0.0, 0.0, 1.6444976413779206E9, 0.0, 2022-02-10 23:54:01.377
214.0, -10054.015821697214, -11754.871816023806, -6716.922726264325, -14341.21451869184, -267.3715671743831, -1057.5504371583984, -1539.0293644701678, -3240.466504152597, -20580.614576412987, -17141.999857664094, -22524.478736457677, -13010.369302078403, -7567.898341166776, -11947.253280550633, -5533.129636422353, -8449.071162828346, 0.005796875, -0.02409375, 0.988625, 192.0, 0.0, 0.0, 0.0, 0.0, 0.0, 0.0, 0.0, 0.0, 0.0, 1.6444976413779273E9, 0.0, 2022-02-10 23:54:01.377
216.0, -10056.183940909379, -11766.338260929379, -6714.70990356325, -14337.347666901072, -263.2811979390619, -1062.3113587273788, -1536.6600795579052, -3241.44998090863, -20571.11508501948, -17125.034883622513, -22508.765460105595, -12996.645330982845, -7564.679689965212, -11941.59828920344, -5527.832272986445, -8441.203348780078, 0.005796875, -0.02409375, 0.988625, 192.0, 0.0, 0.0, 0.0, 0.0, 0.0, 0.0, 0.0, 0.0, 0.0, 1.6444976413779345E9, 0.0, 2022-02-10 23:54:01.377
218.0, -10078.558037109142, -11763.968976017115, -6723.80706355656, -14336.185376189396, -267.97506427467636, -1057.2598644804793, -1545.801943040126, -3234.87856803877, -20580.189893268336, -17143.273907098046, -22522.64589341234, -13006.658912498822, -7557.840056161887, -11944.504015982631, -5530.76035151009, -8442.544453447397, 0.005796875, -0.02409375, 0.988625, 192.0, 0.0, 0.0, 0.0, 0.0, 0.0, 0.0, 0.0, 0.0, 0.0, 1.6444976413779411E9, 0.0, 2022-02-10 23:54:01.377
220.0, -10055.51338857572, -11764.974804517604, -6710.172499438822, -14335.090140711087, -250.20542743270727, -1051.850742322295, -1538.8505505145254, -3233.06807673789, -20574.177274009857, -17137.797729706494, -22505.658567626306, -12997.449993783235, -7563.897378909276, -11942.179434559279, -5529.642764287325, -8437.403552222677, 0.0048984375, -0.022046875, 0.9853125, 192.0, 0.0, 16.0, 127.5, 48.0, 15.0, 88.0, 0.0, 0.0, 0.0, 1.6444976413779483E9, 0.0, 2022-02-10 23:54:01.377
222.0, -10070.757278294239, -11771.725031343107, -6721.638944344395, -14341.683905325403, -263.2811979390619, -1077.3317310013451, -1553.7591640662151, -3243.5286931429737, -20579.854617101504, -17136.92601167274, -22508.966625805693, -13001.205086851727, -7564.322062053927, -11959.524388256597, -5531.47560733266, -8443.170302292145, 0.0048984375, -0.022046875, 0.9853125, 192.0, 0.0, 0.0, 0.0, 0.0, 0.0, 0.0, 0.0, 0.0, 0.0, 1.6444976413779552E9, 0.0, 2022-02-10 23:54:01.377
224.0, -10054.261690886224, -11771.233292965091, -6720.767226310638, -14337.146501200976, -256.4415641357379, -1066.4464314516106, -1544.9078732619137, -3242.008774520013, -20576.457151944298, -17150.560575790474, -22523.607018423918, -13004.535496775568, -7562.153942841762, -11953.087085853469, -5536.437694601738, -8443.99731683699, 0.0048984375, -0.022046875, 0.9853125, 192.0, 0.0, 0.0, 0.0, 0.0, 0.0, 0.0, 0.0, 0.0, 0.0, 1.644497641377962E9, 0.0, 2022-02-10 23:54:01.377
226.0, -10063.18003692389, -11769.84748480886, -6723.292973434088, -14344.187300704396, -259.01201474809824, -1068.4804401970434, -1549.5570361086175, -3247.1273240002783, -20576.390096710933, -17140.3458285744, -22509.190143250245, -12990.565656491, -7561.371631785826, -11949.08612359597, -5531.117979421375, -8442.186825536111, 0.0048984375, -0.022046875, 0.9853125, 192.0, 0.0, 0.0, 0.0, 0.0, 0.0, 0.0, 0.0, 0.0, 0.0, 1.6444976413779688E9, 0.0, 2022-02-10 23:54:01.377
228.0, -10082.313130177634, -11771.479162154099, -6735.362915439954, -14345.304887927163, -276.3569684454165, -1076.236495523035, -1560.8670188030028, -3251.5082659135182, -20585.889588104437, -17148.43716006722, -22523.562314935007, -13012.403310823836, -7567.272492322028, -11951.45540850823, -5540.2374911591405, -8447.730058161027, 0.0048984375, -0.022046875, 0.9853125, 192.0, 0.0, 0.0, 0.0, 0.0, 0.0, 0.0, 0.0, 0.0, 0.0, 1.6444976413779757E9, 0.0, 2022-02-10 23:54:01.377
230.0, -10067.13629569248, -11767.99229001907, -6723.80706355656, -14353.731495586813, -262.9459217722323, -1055.2929109684123, -1535.9448237353354, -3235.526768627974, -20583.207378769803, -17147.00664842208, -22522.4670794567, -13008.312941588514, -7564.970262643131, -11941.441826992253, -5535.09658993442, -8444.667869170651, 0.01, -0.02, 0.986, 192.0, 0.0, 40.0, 127.5, 48.0, 15.0, 104.0, 0.0, 0.0, 0.0, 1.6444976413779824E9, 0.0, 2022-02-10 23:54:01.377
232.0, -10085.509429634742, -11784.443173938176, -6732.926575294326, -14355.005545020766, -275.50760215611484, -1073.4872309550324, -1551.9710245097906, -3259.040803794957, -20588.772963139174, -17155.835587481928, -22523.316445746, -13020.919325461307, -7569.574722000924, -11949.488454996164, -5533.28609863354, -8446.43365698262, 0.01, -0.02, 0.986, 192.0, 0.0, 0.0, 0.0, 0.0, 0.0, 0.0, 0.0, 0.0, 0.0, 1.6444976413779898E9, 0.0, 2022-02-10 23:54:01.377
234.0, -10077.261635930734, -11786.834810594895, -6731.987802027203, -14350.60225136307, -273.92062829978806, -1074.3589489887893, -1558.475382146285, -3245.8979780552363, -20592.37159399648, -17161.423523595753, -22528.74791964864, -13032.788101767077, -7576.794335459988, -11962.899501669348, -5544.506674350104, -8451.753372162982, 0.01, -0.02, 0.986, 192.0, 0.0, 0.0, 0.0, 0.0, 0.0, 0.0, 0.0, 0.0, 0.0, 1.6444976413779967E9, 0.0, 2022-02-10 23:54:01.377
236.0, -10084.90593253445, -11796.177839777212, -6736.100523006979, -14348.590594362093, -280.38028244737177, -1075.5435914449206, -1557.5142571347067, -3264.5393329309622, -20594.763230653196, -17153.756875247585, -22522.422375967788, -13021.455767328236, -7572.949835413675, -11966.2746150821, -5538.874034747367, -8446.791284893905, 0.01, -0.02, 0.986, 192.0, 0.0, 0.0, 0.0, 0.0, 0.0, 0.0, 0.0, 0.0, 0.0, 1.6444976413780036E9, 0.0, 2022-02-10 23:54:01.378
0.0, -5139.269547375387, -6077.01463425334, -3516.0411615420776, -7434.301964557406, -315.07018984200835, -653.967339273374, -1043.982928274027, -1929.357877893195, -10301.181411884, -8581.84052489287, -11272.677632889467, -6512.739540665096, -3791.079377064631, -5981.215057517893, -2773.449155503411, -4228.525367799445, 0.01, -0.02, 0.99, 192.0, 0.0, 40.0, 127.5, 48.0, 15.0, 120.0, 0.0, 0.0, 0.0, 1.6444976419668548E9, 0.0, 2022-02-10 23:54:01.966
2.0, -10289.670263489517, -12157.180864474878, -7041.559462733205, -14867.32987968086, -648.7593828152875, -1328.6323939123624, -2097.5547549193807, -3880.620465352591, -20475.270804795124, -17217.057015545015, -22843.52753681273, -13335.386018203024, -7420.019199850464, -12125.955477470814, -6273.262950570936, -8911.841680031024, 0.01, -0.02, 0.99, 192.0, 0.0, 0.0, 0.0, 0.0, 0.0, 0.0, 0.0, 0.0, 0.0, 1.644497641966944E9, 0.0, 2022-02-10 23:54:01.966
4.0, -10288.686786733484, -12147.994297503747, -7044.86752091259, -14867.262824447493, -654.4814293958461, -1330.9569753357143, -2100.2593159984726, -3877.5806281066693, -20479.875264152917, -17213.257218987612, -22862.839444022113, -13359.12357081456, -7421.449711495604, -12145.177977702377, -6286.316369332835, -8921.38587491344, 0.01, -0.02, 0.99, 192.0, 0.0, 0.0, 0.0, 0.0, 0.0, 0.0, 0.0, 0.0, 0.0, 1.6444976419669616E9, 0.0, 2022-02-10 23:54:01.966
6.0, -10284.529362264797, -12151.88350103897, -7038.854901654113, -14866.949900025118, -639.1257809550501, -1323.0221060540803, -2081.550905889381, -3872.0597472262084, -20474.488493739187, -17213.88306783236, -22846.925001969936, -13338.4482071934, -7434.436075024138, -12125.709608281804, -6285.019968154427, -8917.496671378216, 0.008, -0.020999999999999998, 0.992, 192.0, 0.0, 24.0, 127.5, 40.0, 15.5, 8.0, 0.0, 0.0, 0.0, 1.6444976419669693E9, 0.0, 2022-02-10 23:54:01.966
8.0, -10294.27472284731, -12161.897082554948, -7045.58277673516, -14866.949900025118, -648.4464583929132, -1336.9472428497365, -2095.0066560514756, -3872.9314652599655, -20475.270804795124, -17227.048245316535, -22852.08825493911, -13336.21303274787, -7434.592537235325, -12123.317971625087, -6278.917941918128, -8913.786281798635, 0.008, -0.020999999999999998, 0.992, 192.0, 0.0, 0.0, 0.0, 0.0, 0.0, 0.0, 0.0, 0.0, 0.0, 1.6444976419669764E9, 0.0, 2022-02-10 23:54:01.966
10.0, -10286.988054154881, -12160.26540520971, -7032.909337629001, -14866.033478502452, -633.7613622857765, -1323.6703066432842, -2083.160231490163, -3856.458229596404, -20473.61677570543, -17226.064768560504, -22850.836557249615, -13343.365590973568, -7428.445807510115, -12136.751370042726, -6279.566142507332, -8913.227488187253, 0.008, -0.020999999999999998, 0.992, 192.0, 0.0, 0.0, 0.0, 0.0, 0.0, 0.0, 0.0, 0.0, 0.0, 1.6444976419669857E9, 0.0, 2022-02-10 23:54:01.966
12.0, -10288.306807077743, -12170.323690214598, -7039.480750498861, -14873.789533828442, -640.645699578011, -1334.421495726287, -2085.350702446783, -3869.779869291767, -20471.04632509307, -17226.467099960697, -22845.248621135786, -13341.555099672689, -7428.959897632587, -12134.896175252936, -6275.72164246102, -8908.62302882946, 0.008, -0.020999999999999998, 0.992, 192.0, 0.0, 0.0, 0.0, 0.0, 0.0, 0.0, 0.0, 0.0, 0.0, 1.6444976419669929E9, 0.0, 2022-02-10 23:54:01.966
14.0, -10298.253333360355, -12151.034134749669, -7039.212529565398, -14873.99069952854, -644.2219786908602, -1328.6994491457283, -2077.1476122316853, -3869.28813091375, -20471.04632509307, -17224.723663893183, -22858.90553699798, -13355.83786437963, -7431.597403478313, -12125.486090837252, -6283.790622209385, -8913.04867423161, 0.008, -0.020999999999999998, 0.992, 192.0, 0.0, 0.0, 0.0, 0.0, 0.0, 0.0, 0.0, 0.0, 0.0, 1.6444976419670002E9, 0.0, 2022-02-10 23:54:01.967
16.0, -10294.297074591765, -12157.73965808626, -7037.133817331054, -14879.399821686724, -642.4785426233462, -1335.1814550377674, -2085.1718884911406, -3863.8566570111107, -20474.80141816156, -17223.248448759132, -22849.920135726945, -13344.147902029503, -7427.730551687545, -12113.773776742672, -6276.973340150516, -8907.930124751345, 0.008, -0.0195, 0.993, 192.0, 0.0, 32.0, 127.5, 56.0, 15.5, 8.0, 0.0, 0.0, 0.0, 1.6444976419670079E9, 0.0, 2022-02-10 23:54:01.967
18.0, -10304.08713866319, -12166.725059357294, -7054.858750684113, -14879.265711219992, -659.7787928317539, -1360.058946616524, -2090.737472860512, -3877.3124071732054, -20488.234816579203, -17229.864565117903, -22861.498339354795, -13362.319870271669, -7434.100798857307, -12144.686239324361, -6287.724529233519, -8916.937877766833, 0.008, -0.0195, 0.993, 192.0, 0.0, 0.0, 0.0, 0.0, 0.0, 0.0, 0.0, 0.0, 0.0, 1.6444976419670146E9, 0.0, 2022-02-10 23:54:01.967
20.0, -10312.223173644921, -12184.472344454807, -7040.799503421725, -14877.812847830397, -640.645699578011, -1352.7499261796388, -2069.257446438962, -3877.982959506865, -20490.58174974701, -17237.46415823271, -22866.66159232397, -13357.78246614724, -7448.428267053159, -12157.113809241511, -6282.874200686718, -8920.38004641295, 0.008, -0.0195, 0.993, 192.0, 0.0, 0.0, 0.0, 0.0, 0.0, 0.0, 0.0, 0.0, 0.0, 1.644497641967022E9, 0.0, 2022-02-10 23:54:01.967
22.0, -10323.846080761681, -12182.348928731553, -7044.778113934769, -14879.243359475537, -654.6825950959438, -1355.7003564477393, -2091.296266471895, -3883.7497095763338, -20491.542874758587, -17245.0190478586, -22851.440054349907, -13351.233405021836, -7437.833540181344, -12142.45106487883, -6275.252255827458, -8918.10016847851, 0.008, -0.0195, 0.993, 192.0, 0.0, 0.0, 0.0, 0.0, 0.0, 0.0, 0.0, 0.0, 0.0, 1.6444976419670289E9, 0.0, 2022-02-10 23:54:01.967
24.0, -10317.028798702813, -12175.621053650506, -7045.180445334965, -14874.035403017451, -653.9002840400082, -1350.9617866232143, -2089.2399059820063, -3870.226904180873, -20494.11332537095, -17243.45442574673, -22870.126112714544, -13357.715410913876, -7443.041496639431, -12151.97290801679, -6284.8858576876955, -8919.128348723454, 0.008, -0.0195, 0.993, 192.0, 0.0, 0.0, 0.0, 0.0, 0.0, 0.0, 0.0, 0.0, 0.0, 1.6444976419670355E9, 0.0, 2022-02-10 23:54:01.967
26.0, -10301.56139153974, -12162.433524421875, -7027.164939303987, -14879.936263553653, -643.1714467014607, -1349.4642197447085, -2079.226324466029, -3870.9868634923537, -20484.09974385497, -17232.74794015264, -22850.590688060605, -13343.656163651487, -7435.508958757992, -12127.229526904766, -6271.877142414706, -8912.33341840904, 0.005, -0.018750000000000003, 0.9944999999999999, 192.0, 0.0, 8.0, 127.5, 56.0, 15.5, 16.0, 0.0, 0.0, 0.0, 1.6444976419670424E9, 0.0, 2022-02-10 23:54:01.967
28.0, -10316.335894624699, -12176.045736795157, -7039.883081899057, -14882.953749055117, -658.7059090978992, -1361.288292561566, -2081.8861820562106, -3873.3561484046163, -20490.782915447107, -17243.65559144683, -22865.544005101205, -13369.159504074993, -7435.464255269081, -12141.713457311806, -6273.709985460042, -8919.038941745632, 0.005, -0.018750000000000003, 0.9944999999999999, 192.0, 0.0, 0.0, 0.0, 0.0, 0.0, 0.0, 0.0, 0.0, 0.0, 1.6444976419670496E9, 0.0, 2022-02-10 23:54:01.967
30.0, -10298.432147315998, -12163.148780244444, -7030.67416318347, -14878.639862375245, -645.9430630139188, -1340.903501618326, -2083.6296181237244, -3877.2453519398396, -20488.637147979396, -17236.65949543232, -22860.492510854307, -13360.218806292869, -7437.90059541471, -12113.662018020394, -6270.491334258478, -8916.04380798862, 0.005, -0.018750000000000003, 0.9944999999999999, 192.0, 0.0, 0.0, 0.0, 0.0, 0.0, 0.0, 0.0, 0.0, 0.0, 1.6444976419670568E9, 0.0, 2022-02-10 23:54:01.967
32.0, -10306.299961364266, -12169.876655325492, -7033.557538218205, -14875.108286751305, -654.6825950959438, -1350.4029930118315, -2096.7277403745343, -3875.6136745946023, -20489.084182868504, -17231.831518629973, -22846.36620835855, -13342.806797362186, -7431.887976156232, -12130.15760542841, -6265.618653967221, -8917.988409756234, 0.005, -0.018750000000000003, 0.9944999999999999, 192.0, 0.0, 0.0, 0.0, 0.0, 0.0, 0.0, 0.0, 0.0, 0.0, 1.6444976419670644E9, 0.0, 2022-02-10 23:54:01.967
34.0, -10307.484603820396, -12170.726021614793, -7036.664430697493, -14868.022783758974, -653.8779322955528, -1355.2980250475437, -2086.1777169916295, -3876.820668795189, -20488.994775890682, -17231.94327735225, -22864.448769622897, -13353.312117256179, -7443.8908629287325, -12145.267384680199, -6269.641967969176, -8920.692970835325, 0.005, -0.018750000000000003, 0.9944999999999999, 192.0, 0.0, 0.0, 0.0, 0.0, 0.0, 0.0, 0.0, 0.0, 0.0, 1.6444976419670713E9, 0.0, 2022-02-10 23:54:01.967
36.0, -10300.309693850242, -12166.926225057392, -7031.925860872968, -14868.84979830382, -640.2433681778155, -1353.1746093242896, -2063.4683446250374, -3867.8352675241554, -20491.85579918096, -17234.826652386982, -22858.3467433866, -13349.69113465442, -7443.689697228635, -12140.685277066861, -6258.846075397262, -8915.216793443775, 0.0035, -0.019375000000000003, 0.99125, 192.0, 0.0, 8.0, 127.5, 48.0, 15.0, 112.0, 0.0, 0.0, 0.0, 1.6444976419670808E9, 0.0, 2022-02-10 23:54:01.967
38.0, -10312.08906317819, -12165.540416901162, -7043.548767989728, -14871.196731471628, -645.6524903359998, -1357.712013448717, -2089.619885637747, -3881.5368868752585, -20488.57009274603, -17244.303792036033, -22860.470159109853, -13354.854387623596, -7439.465217526582, -12143.881576523969, -6254.062802083827, -8916.04380798862, 0.0035, -0.019375000000000003, 0.99125, 192.0, 0.0, 0.0, 0.0, 0.0, 0.0, 0.0, 0.0, 0.0, 0.0, 1.6444976419670887E9, 0.0, 2022-02-10 23:54:01.967
40.0, -10285.021100642813, -12148.620146348494, -7029.087189327144, -14866.70403083611, -633.359030885581, -1336.8354841274602, -2088.5917053928024, -3867.4776396128705, -20480.657575208854, -17236.70419892123, -22861.364228888062, -13345.198434018903, -7430.435112766638, -12128.347114127531, -6255.917996873617, -8916.356732410995, 0.0035, -0.019375000000000003, 0.99125, 192.0, 0.0, 0.0, 0.0, 0.0, 0.0, 0.0, 0.0, 0.0, 0.0, 1.644497641967098E9, 0.0, 2022-02-10 23:54:01.967
42.0, -10315.642990546583, -12169.429620436385, -7032.328192273163, -14869.6097576153, -633.873121008053, -1342.9151586193036, -2065.323539414828, -3861.5097238433036, -20481.81986592053, -17222.712006892205, -22843.393426345996, -13342.225652006347, -7440.09106637133, -12146.854358536526, -6246.239691524469, -8910.299409663607, 0.0035, -0.019375000000000003, 0.99125, 192.0, 0.0, 0.0, 0.0, 0.0, 0.0, 0.0, 0.0, 0.0, 0.0, 1.644497641967108E9, 0.0, 2022-02-10 23:54:01.967
44.0, -10324.382522628608, -12176.112792028522, -7042.587642978149, -14871.107324493805, -633.582548330134, -1347.832542399471, -2066.2399609374957, -3873.110279215608, -20489.061831124047, -17246.382504270376, -22862.772388788748, -13361.045820837715, -7432.938508145632, -12133.622125818983, -6250.061839826327, -8916.826119044557, 0.0035, -0.019375000000000003, 0.99125, 192.0, 0.0, 0.0, 0.0, 0.0, 0.0, 0.0, 0.0, 0.0, 0.0, 1.6444976419671178E9, 0.0, 2022-02-10 23:54:01.967
46.0, -10304.489470063385, -12170.681318125882, -7034.898642885523, -14870.61558611579, -627.8605017495754, -1335.4943794601418, -2062.2389986799953, -3862.448497110426, -20491.274653825123, -17239.900498378338, -22850.993019460802, -13352.596861433609, -7437.9676506480755, -12127.698913538326, -6246.820836880307, -8915.373255654962, 0.00575, -0.019687500000000004, 0.991625, 192.0, 0.0, 32.0, 127.5, 48.0, 15.5, 0.0, 0.0, 0.0, 0.0, 1.644497641967128E9, 0.0, 2022-02-10 23:54:01.967
48.0, -10309.831536988204, -12157.31497494161, -7042.565291233694, -14868.782743070453, -645.2948624247149, -1340.2329492846668, -2096.41481595216, -3879.3464159186383, -20488.52538925712, -17233.999637842135, -22855.41866486295, -13353.043896322715, -7439.04053438193, -12126.178994915366, -6247.647851425154, -8916.04380798862, 0.00575, -0.019687500000000004, 0.991625, 192.0, 0.0, 0.0, 0.0, 0.0, 0.0, 0.0, 0.0, 0.0, 0.0, 1.644497641967139E9, 0.0, 2022-02-10 23:54:01.967
50.0, -10303.70715900745, -12168.244977980254, -7033.378724262563, -14866.458161647102, -629.8945104950084, -1325.7490188776278, -2074.5101063859593, -3857.0170232077867, -20485.127924099914, -17220.20861151321, -22853.76463577326, -13349.847596865608, -7434.413723279682, -12128.861204250003, -6250.978261348994, -8916.960229511289, 0.00575, -0.019687500000000004, 0.991625, 192.0, 0.0, 0.0, 0.0, 0.0, 0.0, 0.0, 0.0, 0.0, 0.0, 1.644497641967149E9, 0.0, 2022-02-10 23:54:01.967
52.0, -10315.039493446291, -12171.08364952608, -7037.334983031152, -14868.46981864808, -638.9916704883183, -1341.4399434852533, -2082.713196601057, -3878.34058741815, -20489.598272990977, -17241.59923095694, -22849.204879904377, -13340.571622916654, -7437.811188436889, -12132.035151962657, -6238.9306710875835, -8912.66869457587, 0.00575, -0.019687500000000004, 0.991625, 192.0, 0.0, 0.0, 0.0, 0.0, 0.0, 0.0, 0.0, 0.0, 0.0, 1.6444976419671576E9, 0.0, 2022-02-10 23:54:01.967
54.0, -10318.861641748148, -12167.93205355788, -7046.096866857632, -14867.195769214126, -638.7234495548546, -1340.0988388179348, -2078.9134000436547, -3868.4611163689037, -20494.895636426885, -17248.707085693728, -22868.539138858217, -13351.255756766292, -7446.103685629808, -12137.310163654109, -6248.743086903463, -8920.111825479487, 0.00575, -0.019687500000000004, 0.991625, 192.0, 0.0, 0.0, 0.0, 0.0, 0.0, 0.0, 0.0, 0.0, 0.0, 1.644497641967166E9, 0.0, 2022-02-10 23:54:01.967
56.0, -10300.913190950536, -12164.69105061186, -7029.4224654939735, -14871.487304149547, -620.9314609684302, -1331.8957486028373, -2070.486792384004, -3869.534000102759, -20482.691583954285, -17230.870393618392, -22846.56737405865, -13350.316983499168, -7434.659592468691, -12112.946762197824, -6239.131836787682, -8913.205136442797, 0.005875, -0.021843750000000002, 0.9918125, 192.0, 0.0, 24.0, 127.5, 32.0, 15.5, 0.0, 0.0, 0.0, 0.0, 1.6444976419671736E9, 0.0, 2022-02-10 23:54:01.967
58.0, -10314.726569023916, -12169.876655325492, -7044.286375556752, -14871.889635549742, -633.291975652215, -1338.221292283689, -2080.6344843667134, -3865.6000930786245, -20489.844142179983, -17240.526347223087, -22860.62662132104, -13361.135227815537, -7430.189243577629, -12138.07012296559, -6241.970508333506, -8916.982581255745, 0.005875, -0.021843750000000002, 0.9918125, 192.0, 0.0, 0.0, 0.0, 0.0, 0.0, 0.0, 0.0, 0.0, 0.0, 1.6444976419671805E9, 0.0, 2022-02-10 23:54:01.967
60.0, -10297.22515311541, -12160.131294742978, -7032.752875417814, -14866.301699435915, -619.2997836231928, -1323.4467891987313, -2065.6811673261127, -3859.743936031334, -20482.736287443196, -17246.829539159484, -22858.95024048689, -13361.448152237912, -7442.8403309393325, -12132.392779873942, -6244.250386267947, -8912.735749809235, 0.005875, -0.021843750000000002, 0.9918125, 192.0, 0.0, 0.0, 0.0, 0.0, 0.0, 0.0, 0.0, 0.0, 0.0, 1.644497641967188E9, 0.0, 2022-02-10 23:54:01.967
62.0, -10306.769347997826, -12163.93109130038, -7037.603203964616, -14869.050964003918, -626.9440802269078, -1333.0580393145133, -2078.3993099211825, -3872.462078626404, -20480.031726364105, -17239.27464953359, -22838.498394310285, -13353.222710278358, -7438.95112740411, -12125.68725653735, -6240.472941455, -8911.86403177548, 0.005875, -0.021843750000000002, 0.9918125, 192.0, 0.0, 0.0, 0.0, 0.0, 0.0, 0.0, 0.0, 0.0, 0.0, 1.6444976419671946E9, 0.0, 2022-02-10 23:54:01.967
64.0, -10301.047301417268, -12148.88836728196, -7041.604166222116, -14867.75456282551, -629.4698273503575, -1338.9812515951696, -2088.4575949260707, -3877.491221128848, -20479.629394963908, -17235.430149487274, -22853.33995262861, -13366.723163929364, -7445.500188529514, -12140.931146255869, -6249.458342726033, -8919.24010744573, 0.005875, -0.021843750000000002, 0.9918125, 192.0, 0.0, 0.0, 0.0, 0.0, 0.0, 0.0, 0.0, 0.0, 0.0, 1.6444976419672017E9, 0.0, 2022-02-10 23:54:01.967
66.0, -10299.326217094209, -12151.481169638773, -7038.586680720649, -14873.968347784084, -621.5349580687235, -1339.4282864842758, -2083.9201908016435, -3875.6360263390575, -20482.915101398838, -17221.39325396934, -22844.421606590942, -13352.082771311138, -7445.097857129319, -12118.378236100465, -6243.848054867752, -8920.29063943513, 0.0069375, -0.023921875000000002, 0.99090625, 192.0, 0.0, 32.0, 127.5, 24.0, 15.0, 120.0, 0.0, 0.0, 0.0, 1.6444976419672108E9, 0.0, 2022-02-10 23:54:01.967
68.0, -10320.202746415467, -12180.158457774933, -7050.567215748694, -14876.695260607632, -632.2637954072709, -1346.4914377321527, -2086.9823797920203, -3895.2832097152723, -20488.95007240177, -17237.46415823271, -22853.56347007316, -13353.312117256179, -7448.070639141874, -12132.459835107307, -6242.305784500335, -8927.845529061024, 0.0069375, -0.023921875000000002, 0.99090625, 192.0, 0.0, 0.0, 0.0, 0.0, 0.0, 0.0, 0.0, 0.0, 0.0, 1.6444976419672232E9, 0.0, 2022-02-10 23:54:01.967
70.0, -10308.266914876333, -12168.513198913717, -7036.217395808387, -14877.075240263373, -617.422237088947, -1335.226158526678, -2066.418774893138, -3866.3824041345606, -20480.679926953308, -17243.923812380293, -22852.892917739504, -13360.129399315048, -7443.153255361707, -12132.2139659183, -6244.339793245768, -8921.363523168984, 0.0069375, -0.023921875000000002, 0.99090625, 192.0, 0.0, 0.0, 0.0, 0.0, 0.0, 0.0, 0.0, 0.0, 0.0, 1.6444976419672315E9, 0.0, 2022-02-10 23:54:01.967
72.0, -10315.0841969352, -12169.384916947474, -7041.671221455482, -14880.718574609587, -626.9440802269078, -1338.2436440281444, -2076.342949431294, -3880.2404856968506, -20483.563301988044, -17244.572012969496, -22846.321504869644, -13366.49964648481, -7445.701354229612, -12145.200329446832, -6239.020078065405, -8918.703665578803, 0.0069375, -0.023921875000000002, 0.99090625, 192.0, 0.0, 0.0, 0.0, 0.0, 0.0, 0.0, 0.0, 0.0, 0.0, 1.6444976419672391E9, 0.0, 2022-02-10 23:54:01.967
74.0, -10317.542888825285, -12163.55111164464, -7048.130875603066, -14870.570882626878, -645.7866008027316, -1336.9248911052814, -2085.417757680149, -3874.451383882926, -20486.513732256142, -17249.087065349468, -22861.341877143608, -13373.004004121305, -7443.957918162098, -12143.881576523969, -6247.916072358617, -8920.894136535422, 0.0069375, -0.023921875000000002, 0.99090625, 192.0, 0.0, 0.0, 0.0, 0.0, 0.0, 0.0, 0.0, 0.0, 0.0, 1.6444976419672465E9, 0.0, 2022-02-10 23:54:01.967
76.0, -10296.196972870466, -12162.701745355338, -7041.782980177758, -14869.475647148569, -631.7497052847988, -1325.5702049219854, -2066.508181870959, -3878.787622307256, -20487.67602296782, -17236.346571009944, -22849.070769437643, -13357.35778300259, -7450.66344149869, -12132.839814763049, -6245.345621746257, -8916.110863221988, 0.008, -0.028, 0.99, 192.0, 0.0, 32.0, 127.5, 16.0, 15.0, 120.0, 0.0, 0.0, 0.0, 1.6444976419672537E9, 0.0, 2022-02-10 23:54:01.967
78.0, -10310.524441066318, -12170.748373359249, -7050.410753537507, -14875.33180419586, -639.259891421782, -1340.679984173773, -2062.641330080191, -3877.6029798511245, -20485.73142120021, -17234.692541920253, -22855.03868520721, -13366.298480784713, -7444.561415262391, -12129.799977517127, -6238.260118753925, -8920.447101646318, 0.008, -0.028, 0.99, 192.0, 0.0, 0.0, 0.0, 0.0, 0.0, 0.0, 0.0, 0.0, 0.0, 1.6444976419672618E9, 0.0, 2022-02-10 23:54:01.967
80.0, -10303.438938073987, -12162.1205999995, -7039.480750498861, -14873.208388472605, -624.4630365923687, -1340.970556851692, -2067.3575481602606, -3895.037340526264, -20484.18915083279, -17235.83248088747, -22864.314659156164, -13369.092448841626, -7451.602214765813, -12139.612393333005, -6239.288298998868, -8928.739598839236, 0.008, -0.028, 0.99, 192.0, 0.0, 0.0, 0.0, 0.0, 0.0, 0.0, 0.0, 0.0, 0.0, 1.64449764196727E9, 0.0, 2022-02-10 23:54:01.967
82.0, -10316.313542880243, -12171.329518715087, -7048.354393047619, -14872.51548439449, -631.6602983069776, -1342.7363446636612, -2072.319635429339, -3878.0276629957752, -20487.117229356438, -17231.3174285075, -22846.545022314196, -13361.448152237912, -7442.080371627852, -12136.63961132045, -6233.655659396131, -8927.264383705186, 0.008, -0.028, 0.99, 192.0, 0.0, 0.0, 0.0, 0.0, 0.0, 0.0, 0.0, 0.0, 0.0, 1.6444976419672794E9, 0.0, 2022-02-10 23:54:01.967
84.0, -10313.072539934223, -12172.760030360227, -7052.4894657718505, -14870.190902971139, -636.4435716204133, -1336.8801876163707, -2073.8619057967553, -3871.6797675704684, -20497.600197505977, -17239.900498378338, -22870.170816203456, -13372.378155276556, -7449.679964742657, -12163.998146533746, -6244.675069412598, -8929.745427339725, 0.008, -0.028, 0.99, 192.0, 0.0, 0.0, 0.0, 0.0, 0.0, 0.0, 0.0, 0.0, 0.0, 1.6444976419672873E9, 0.0, 2022-02-10 23:54:01.967
86.0, -10267.69849868995, -12134.091512452545, -7033.423427751473, -14859.7079348216, -621.9372894689191, -1320.809283353005, -2066.9775685045206, -3858.0675551971863, -20471.627470448908, -17221.59441966944, -22846.723836269837, -13349.065285809671, -7434.592537235325, -12128.078893194068, -6237.56721467581, -8917.80959580059, 0.008, -0.022, 0.986, 192.0, 0.0, 32.0, 127.5, 40.0, 15.0, 104.0, 0.0, 0.0, 0.0, 1.6444976419672956E9, 0.0, 2022-02-10 23:54:01.967
88.0, -10310.256220132855, -12154.610413862518, -7050.67897447097, -14866.234644202548, -638.74580129931, -1331.4263619692758, -2080.2992081998837, -3879.972264763387, -20462.932641855794, -17203.91418980529, -22842.812280990158, -13344.237309007325, -7421.539118473425, -12110.06338716309, -6233.365086718212, -8918.9048312789, 0.008, -0.022, 0.986, 192.0, 0.0, 0.0, 0.0, 0.0, 0.0, 0.0, 0.0, 0.0, 0.0, 1.6444976419673035E9, 0.0, 2022-02-10 23:54:01.967
90.0, -10294.878219947603, -12162.92526279989, -7041.53711098875, -14860.445542388625, -628.6875162944217, -1334.801475382027, -2067.6034173492694, -3881.3804246640716, -20490.44763928028, -17238.067655333, -22858.972592231345, -13360.956413859894, -7438.571147748369, -12132.370428129487, -6234.594432663254, -8923.062255747587, 0.008, -0.022, 0.986, 192.0, 0.0, 0.0, 0.0, 0.0, 0.0, 0.0, 0.0, 0.0, 0.0, 1.6444976419673107E9, 0.0, 2022-02-10 23:54:01.967
92.0, -10296.264028103833, -12158.49961739774, -7043.414657522996, -14859.596176099323, -626.7652662712653, -1342.3563650079209, -2057.0086904774535, -3875.5466193612365, -20479.29411879708, -17233.530251208576, -22835.927943697923, -13345.556061930189, -7430.7480371890115, -12137.533681098663, -6226.748970359442, -8922.034075502645, 0.008, -0.022, 0.986, 192.0, 0.0, 0.0, 0.0, 0.0, 0.0, 0.0, 0.0, 0.0, 0.0, 1.6444976419673183E9, 0.0, 2022-02-10 23:54:01.967
94.0, -10302.835440973693, -12156.152684229934, -7045.336907546152, -14854.187053941137, -633.8060657746871, -1334.1532747928234, -2058.1933329335848, -3869.6904623139458, -20485.709069455752, -17246.963649626214, -22855.016333462758, -13361.828131893652, -7433.229080823551, -12138.628916576972, -6234.080342540782, -8928.046694761122, 0.008, -0.022, 0.986, 192.0, 0.0, 0.0, 0.0, 0.0, 0.0, 0.0, 0.0, 0.0, 0.0, 1.6444976419673252E9, 0.0, 2022-02-10 23:54:01.967
96.0, -10272.41471677002, -12131.409303117909, -7033.6469451960265, -14846.408646870692, -627.3017081381927, -1318.037667040547, -2063.7142138140457, -3873.7361280603564, -20479.607043219454, -17227.60703892792, -22839.079539666123, -13346.897166597506, -7430.010429621987, -12125.173166414877, -6235.019115807905, -8922.302296436108, -0.002, -0.024, 0.994, 192.0, 127.5, 120.0, 127.5, 32.0, 15.5, 8.0, 0.0, 0.0, 0.0, 1.6444976419673395E9, 0.0, 2022-02-10 23:54:01.967
98.0, -10290.631388501095, -12136.997239231736, -7041.112427844099, -14854.790551041431, -631.2132634178714, -1340.4564667292198, -2074.018368007942, -3896.333741704672, -20475.1813978173, -17225.617733671395, -22841.71704551185, -13352.574509689155, -7423.930755130144, -12121.619239046484, -6239.534168187877, -8928.761950583692, -0.002, -0.024, 0.994, 192.0, 0.0, 0.0, 0.0, 0.0, 0.0, 0.0, 0.0, 0.0, 0.0, 1.644497641967347E9, 0.0, 2022-02-10 23:54:01.967
100.0, -10278.025004628302, -12139.50063461073, -7035.882119641557, -14855.41639988618, -618.4057138449805, -1339.0706585729909, -2058.372146889227, -3868.885799513555, -20470.62164194842, -17218.912210334805, -22850.322467127142, -13356.486064968833, -7423.170795818663, -12139.50063461073, -6239.33300248778, -8929.544261639627, -0.002, -0.024, 0.994, 192.0, 0.0, 0.0, 0.0, 0.0, 0.0, 0.0, 0.0, 0.0, 0.0, 1.6444976419673572E9, 0.0, 2022-02-10 23:54:01.967
102.0, -10283.903513420048, -12137.98071598777, -7041.023020866278, -14858.6574028322, -630.2297866618379, -1346.066754587502, -2068.676301083124, -3875.457212383415, -20477.774200174117, -17229.104605806424, -22840.80062398918, -13350.473445710355, -7425.093045841819, -12155.996222018746, -6238.014249564916, -8925.632706359947, -0.002, -0.024, 0.994, 192.0, 0.0, 0.0, 0.0, 0.0, 0.0, 0.0, 0.0, 0.0, 0.0, 1.6444976419673643E9, 0.0, 2022-02-10 23:54:01.967
104.0, -10274.18050458199, -12129.151776927922, -7042.095904600133, -14851.773065539965, -634.0519349636954, -1337.9977748391361, -2071.9843592625093, -3872.238561181851, -20476.321336784524, -17223.44961445923, -22851.887089239015, -13360.621137693064, -7434.748999446511, -12146.45202713633, -6248.7877903923745, -8928.069046505576, -0.002, -0.024, 0.994, 192.0, 0.0, 0.0, 0.0, 0.0, 0.0, 0.0, 0.0, 0.0, 0.0, 1.6444976419673715E9, 0.0, 2022-02-10 23:54:01.967
106.0, -10263.831646899182, -12141.802864289626, -7033.8257591516685, -14847.7050480491, -622.809007502676, -1326.128998533368, -2071.1796964621185, -3877.62533159558, -20469.079371581003, -17210.820878841983, -22834.47508030833, -13335.318962969657, -7429.563394732881, -12136.103169453523, -6240.383534477179, -8921.072950491065, 0.004, -0.012, 0.988, 192.0, 0.0, 16.0, 127.5, 80.0, 15.0, 112.0, 0.0, 0.0, 0.0, 1.6444976419673789E9, 0.0, 2022-02-10 23:54:01.967
108.0, -10273.241731314865, -12124.904945481414, -7037.849073153624, -14846.900385248708, -635.0577634641843, -1345.3291470204767, -2082.064996011853, -3896.4007969380377, -20465.95012735726, -17219.806280113018, -22831.926981440425, -13339.386980460524, -7421.9414498736205, -12125.799015259627, -6242.261081011425, -8925.208023215297, 0.004, -0.012, 0.988, 192.0, 0.0, 0.0, 0.0, 0.0, 0.0, 0.0, 0.0, 0.0, 0.0, 1.644497641967386E9, 0.0, 2022-02-10 23:54:01.967
110.0, -10262.334080020677, -12123.1615094139, -7041.2241865663755, -14841.379504368248, -632.1073331960837, -1332.2086730252115, -2073.481926141015, -3870.6739390699795, -20463.402028489356, -17208.630407885365, -22835.52561229773, -13351.12164629956, -7426.255336553495, -12133.532718841163, -6250.8441508822625, -8923.933973781344, 0.004, -0.012, 0.988, 192.0, 0.0, 0.0, 0.0, 0.0, 0.0, 0.0, 0.0, 0.0, 0.0, 1.644497641967393E9, 0.0, 2022-02-10 23:54:01.967
112.0, -10263.943405621458, -12140.573518344585, -7040.911262144001, -14849.359077138792, -622.227862146838, -1348.257225544122, -2085.484812913515, -3893.718587603401, -20460.898633110362, -17213.860716087904, -22826.987245915803, -13325.819471576151, -7424.04251385242, -12129.285887394653, -6248.608976436732, -8925.118616237476, 0.004, -0.012, 0.988, 192.0, 0.0, 0.0, 0.0, 0.0, 0.0, 0.0, 0.0, 0.0, 0.0, 1.6444976419673998E9, 0.0, 2022-02-10 23:54:01.967
114.0, -10274.314615048721, -12140.64057357795, -7044.375782534574, -14853.851777774309, -634.7224872973546, -1353.1075540909237, -2089.7763478489337, -3897.652494627535, -20467.157121557848, -17224.92482959328, -22839.37011234404, -13347.657125908987, -7424.221327808062, -12122.803881502616, -6255.694479429064, -8935.378066942461, 0.004, -0.012, 0.988, 192.0, 0.0, 0.0, 0.0, 0.0, 0.0, 0.0, 0.0, 0.0, 0.0, 1.6444976419674075E9, 0.0, 2022-02-10 23:54:01.967
116.0, -10259.31659451921, -12123.675599536373, -7040.464227254895, -14856.645745831222, -623.2560423917821, -1340.031783584569, -2075.985321520009, -3888.6223898675908, -20465.123112812416, -17215.537096922053, -22829.691806994895, -13341.666858394965, -7413.760711402979, -12134.426788619374, -6253.302842772347, -8931.175938984865, 0.008, -0.026000000000000002, 0.986, 192.0, 0.0, 32.0, 127.5, 24.0, 15.0, 104.0, 0.0, 0.0, 0.0, 1.6444976419674144E9, 0.0, 2022-02-10 23:54:01.967
118.0, -10270.537170235773, -12130.06819845059, -7050.6119192376045, -14858.813865043387, -638.4328768769357, -1356.259150059122, -2089.374016448738, -3898.4124539390154, -20468.2300052917, -17210.016216041593, -22835.95029544238, -13344.997268318804, -7431.887976156232, -12141.40053288943, -6254.174560806104, -8935.91450880939, 0.008, -0.026000000000000002, 0.986, 192.0, 0.0, 0.0, 0.0, 0.0, 0.0, 0.0, 0.0, 0.0, 0.0, 1.6444976419674215E9, 0.0, 2022-02-10 23:54:01.967
120.0, -10264.591606210663, -12123.630896047462, -7043.794637178736, -14856.84691153132, -628.3969436165028, -1348.6372051998621, -2076.342949431294, -3880.642817097046, -20465.234871534693, -17215.604152155418, -22838.029007676723, -13353.602689934098, -7432.714990701079, -12143.814521290604, -6258.957834119539, -8932.248822718719, 0.008, -0.026000000000000002, 0.986, 192.0, 0.0, 0.0, 0.0, 0.0, 0.0, 0.0, 0.0, 0.0, 0.0, 1.6444976424462633E9, 0.0, 2022-02-10 23:54:02.446
122.0, -10270.291301046766, -12139.366524143998, -7046.63330872456, -14855.841083030831, -637.2258826763491, -1355.6556529588286, -2096.9065543301767, -3897.0489975272417, -20465.10076106796, -17225.863602860405, -22822.9862836583, -13342.538576428722, -7428.602269721302, -12148.64249809295, -6251.112371815726, -8930.058351762098, 0.008, -0.026000000000000002, 0.986, 192.0, 0.0, 0.0, 0.0, 0.0, 0.0, 0.0, 0.0, 0.0, 0.0, 1.6444976424464371E9, 0.0, 2022-02-10 23:54:02.446
124.0, -10276.281568560787, -12138.83008227707, -7053.53999776125, -14852.17539694016, -640.3104234111814, -1352.5040569906303, -2107.3671707352605, -3889.8293840681777, -20469.504054725654, -17229.439881973252, -22843.57224030164, -13353.625041678553, -7431.820920922866, -12153.984565017769, -6261.684746943087, -8934.640459375436, 0.008, -0.026000000000000002, 0.986, 192.0, 0.0, 0.0, 0.0, 0.0, 0.0, 0.0, 0.0, 0.0, 0.0, 1.644497642446444E9, 0.0, 2022-02-10 23:54:02.446
126.0, -10268.883141146081, -12128.101244938523, -7051.4389337824505, -14858.27742317646, -636.4435716204133, -1346.6926034322505, -2083.137879745708, -3891.8186893247, -20475.33786002849, -17225.394216226843, -22838.632504777015, -13346.673649152954, -7441.968612905576, -12143.12161721249, -6260.09777308676, -8931.980601785255, 0.004, -0.022, 0.99, 192.0, 0.0, 16.0, 127.5, 40.0, 15.0, 120.0, 0.0, 0.0, 0.0, 1.6444976424464512E9, 0.0, 2022-02-10 23:54:02.446
128.0, -10280.37193779611, -12131.364599628998, -7059.262044341808, -14861.451370889114, -636.8906065095194, -1359.254283816133, -2071.023234250931, -3885.8954770440437, -20475.516673984133, -17225.193050526745, -22842.208783889866, -13358.676535925453, -7438.459389026093, -12147.457855636818, -6258.242578296969, -8933.72403785277, 0.004, -0.022, 0.99, 192.0, 0.0, 0.0, 0.0, 0.0, 0.0, 0.0, 0.0, 0.0, 0.0, 1.6444976424464579E9, 0.0, 2022-02-10 23:54:02.446
130.0, -10273.197027825956, -12125.910773981903, -7052.310651816208, -14864.245338946026, -621.5349580687235, -1351.1406005788567, -2071.8278970513225, -3885.5378491327588, -20481.462238009244, -17228.45640521722, -22851.50710958327, -13368.69011744143, -7439.085237870841, -12141.646402078439, -6257.750839918953, -8937.076799521064, 0.004, -0.022, 0.99, 192.0, 0.0, 0.0, 0.0, 0.0, 0.0, 0.0, 0.0, 0.0, 0.0, 1.6444976424464643E9, 0.0, 2022-02-10 23:54:02.446
132.0, -10275.812181927227, -12135.656134564417, -7054.948157661934, -14862.077219733861, -621.8702342355531, -1367.0550426310353, -2081.9532372895765, -3882.7885845647556, -20481.14931358687, -17226.467099960697, -22835.927943697923, -13366.320832529169, -7427.439979009626, -12160.801847076636, -6254.956871862039, -8936.786226843147, 0.004, -0.022, 0.99, 192.0, 0.0, 0.0, 0.0, 0.0, 0.0, 0.0, 0.0, 0.0, 0.0, 1.6444976424464772E9, 0.0, 2022-02-10 23:54:02.446
134.0, -10283.478830275397, -12153.448123150842, -7059.865541442102, -14859.104437721306, -638.3434698991144, -1370.6536734883398, -2097.219478752551, -3896.0208172822977, -20484.770296188628, -17238.827614644484, -22852.267068894755, -13354.139131801026, -7448.517674030981, -12165.249844223243, -6263.182313821592, -8942.463569934795, 0.004, -0.022, 0.99, 192.0, 0.0, 0.0, 0.0, 0.0, 0.0, 0.0, 0.0, 0.0, 0.0, 1.644497642446484E9, 0.0, 2022-02-10 23:54:02.446
136.0, -10265.373917266597, -12137.556032843118, -7053.4282390389735, -14860.311431921893, -630.4980075953016, -1354.8286384139824, -2099.0746735423418, -3894.1656224925073, -20481.216368820234, -17235.877184376383, -22843.304019368177, -13341.868024095062, -7452.228063610562, -12157.40438191943, -6256.6556044406425, -8940.787189100647, 0.008, -0.024, 0.992, 192.0, 0.0, 32.0, 127.5, 32.0, 15.5, 0.0, 0.0, 0.0, 0.0, 1.6444976424464908E9, 0.0, 2022-02-10 23:54:02.446
138.0, -10282.920036664014, -12142.249899178732, -7061.25134959833, -14866.145237224728, -649.742859571321, -1375.548705524052, -2119.951202863598, -3913.164605279518, -20486.267863067136, -17228.3669982394, -22848.735493270815, -13354.07207656766, -7454.172665378173, -12158.007879019724, -6261.930616132095, -8945.257537991707, 0.008, -0.024, 0.992, 192.0, 0.0, 0.0, 0.0, 0.0, 0.0, 0.0, 0.0, 0.0, 0.0, 1.6444976424464977E9, 0.0, 2022-02-10 23:54:02.446
140.0, -10255.583853195174, -12119.58523030105, -7049.963718648401, -14854.857606274798, -630.0733244506508, -1363.1211356069011, -2111.70340915959, -3906.9508203209425, -20482.780990932108, -17236.190108798757, -22849.204879904377, -13370.724126186864, -7449.925833931665, -12161.69591685485, -6266.356261534245, -8948.118561281986, 0.008, -0.024, 0.992, 192.0, 0.0, 0.0, 0.0, 0.0, 0.0, 0.0, 0.0, 0.0, 0.0, 1.6444976424465044E9, 0.0, 2022-02-10 23:54:02.446
142.0, -10271.65475745854, -12129.241183905744, -7052.467114027395, -14858.6574028322, -631.4591326068798, -1371.0113013996247, -2084.03194952392, -3883.5708956206913, -20478.265938552137, -17231.27272501859, -22835.45855706436, -13359.101219070104, -7444.673173984668, -12143.83687303506, -6253.235787538981, -8939.691953622336, 0.008, -0.024, 0.992, 192.0, 0.0, 0.0, 0.0, 0.0, 0.0, 0.0, 0.0, 0.0, 0.0, 1.6444976424465113E9, 0.0, 2022-02-10 23:54:02.446
144.0, -10286.876295432603, -12144.865053280004, -7062.346585076641, -14852.264803917982, -645.3619176580809, -1372.9111996783256, -2108.7529788914894, -3888.510631145314, -20487.54191250109, -17242.247431546144, -22855.329257885132, -13370.947643631416, -7446.327203074361, -12168.870826825003, -6264.14343883317, -8940.764837356191, 0.008, -0.024, 0.992, 192.0, 0.0, 0.0, 0.0, 0.0, 0.0, 0.0, 0.0, 0.0, 0.0, 1.644497642446518E9, 0.0, 2022-02-10 23:54:02.446
146.0, -10274.851056915648, -12146.429675391875, -7055.35048906213, -14851.728362051055, -640.4668856223685, -1361.3776995393873, -2099.2758392424394, -3891.394006180049, -20488.994775890682, -17237.799434399538, -22845.025103691234, -13358.07303882516, -7446.304851329905, -12163.573463389095, -6268.971415635517, -8934.52870065316, 0.006, -0.024, 0.99, 192.0, 0.0, 24.0, 127.5, 32.0, 15.0, 120.0, 0.0, 0.0, 0.0, 1.6444976424465249E9, 0.0, 2022-02-10 23:54:02.446
148.0, -10292.620693757617, -12152.35288767253, -7063.598282766138, -14858.389181898736, -646.5912636031227, -1372.1959438557558, -2094.9843043070205, -3893.0927387586526, -20495.901464927374, -17245.68960019226, -22849.540156071205, -13356.798989391207, -7442.437999539137, -12154.588062118062, -6267.652662712653, -8938.95434605531, 0.006, -0.024, 0.99, 192.0, 0.0, 0.0, 0.0, 0.0, 0.0, 0.0, 0.0, 0.0, 0.0, 1.6444976424465325E9, 0.0, 2022-02-10 23:54:02.446
150.0, -10265.820952155704, -12133.197442674333, -7051.7295064603695, -14844.106417191795, -645.7642490582764, -1361.5788652394851, -2104.7967201229003, -3895.4843754153703, -20489.173589846327, -17237.866489632903, -22853.51876658425, -13375.105068100103, -7444.76258096249, -12185.478172955296, -6272.167715092625, -8937.836758832545, 0.006, -0.024, 0.99, 192.0, 0.0, 0.0, 0.0, 0.0, 0.0, 0.0, 0.0, 0.0, 0.0, 1.6444976424465392E9, 0.0, 2022-02-10 23:54:02.446
152.0, -10271.65475745854, -12143.92628001288, -7052.534169260761, -14846.207481170593, -644.9819380023406, -1368.3290920649877, -2107.4118742241712, -3897.7642533498115, -20479.741153686187, -17223.807242370516, -22832.306961096165, -13348.998230576306, -7444.360249562294, -12156.957347030324, -6262.891741143673, -8934.998087286722, 0.006, -0.024, 0.99, 192.0, 0.0, 0.0, 0.0, 0.0, 0.0, 0.0, 0.0, 0.0, 0.0, 1.644497642446546E9, 0.0, 2022-02-10 23:54:02.446
154.0, -10295.548772281263, -12160.824198821092, -7065.632291511571, -14846.095722448317, -654.9061125404969, -1375.6381125018731, -2111.3681329927604, -3893.9644567924092, -20494.96269166025, -17242.895632135347, -22856.580955574627, -13360.107047570593, -7453.882092700254, -12178.996167063257, -6267.272683056914, -8940.00487804471, 0.008, -0.024, 0.991, 192.0, 0.0, 40.0, 127.5, 32.0, 15.5, 0.0, 0.0, 0.0, 0.0, 1.6444976424465528E9, 0.0, 2022-02-10 23:54:02.446
156.0, -10279.65668197354, -12147.189634703354, -7051.7295064603695, -14845.693391048122, -631.034449462229, -1360.4389262722643, -2086.423586180638, -3885.3590351771163, -20501.06471789655, -17243.432074002278, -22853.42935960643, -13357.313079513679, -7452.8092089664, -12176.93980657337, -6262.66822369912, -8935.19925298682, 0.008, -0.024, 0.991, 192.0, 0.0, 0.0, 0.0, 0.0, 0.0, 0.0, 0.0, 0.0, 0.0, 1.6444976424465597E9, 0.0, 2022-02-10 23:54:02.446
158.0, -10288.306807077743, -12143.993335246247, -7058.3009193302305, -14852.84594927382, -641.1374379560278, -1368.7984786985492, -2102.896821844199, -3894.1879742369624, -20498.80719170656, -17231.138614551855, -22855.597478818596, -13370.74647793132, -7445.857816440799, -12183.131239787488, -6261.461229498534, -8938.48495942175, 0.008, -0.024, 0.991, 192.0, 0.0, 0.0, 0.0, 0.0, 0.0, 0.0, 0.0, 0.0, 0.0, 1.6444976424465663E9, 0.0, 2022-02-10 23:54:02.446
160.0, -10278.382632539588, -12141.78051254517, -7052.0647826272, -14847.861510260287, -640.4892373668239, -1355.9238738922922, -2102.4944904440035, -3890.790509079756, -20492.66046198135, -17244.21438505821, -22862.034781221722, -13375.082716355648, -7436.581842491847, -12163.618166878006, -6259.248406797458, -8937.322668710074, 0.008, -0.024, 0.991, 192.0, 0.0, 0.0, 0.0, 0.0, 0.0, 0.0, 0.0, 0.0, 0.0, 1.6444976424465733E9, 0.0, 2022-02-10 23:54:02.446
162.0, -10283.65764423104, -12152.956384772824, -7049.181407592465, -14845.84985325931, -644.1772752019496, -1363.2999495625436, -2106.584859679325, -3887.884782300566, -20497.421383550332, -17242.672114690795, -22849.271935137742, -13361.246986537813, -7439.196996593118, -12172.156533259933, -6252.520531716411, -8932.897023307924, 0.008, -0.024, 0.991, 192.0, 0.0, 0.0, 0.0, 0.0, 0.0, 0.0, 0.0, 0.0, 0.0, 1.64449764244658E9, 0.0, 2022-02-10 23:54:02.446
164.0, -10287.233923343889, -12157.091457497056, -7050.25429132632, -14844.88872824773, -647.6641473369774, -1370.3407490659654, -2106.383693979227, -3892.0869102581637, -20496.95199691677, -17246.09193159246, -22858.48085385333, -13369.539483730732, -7438.682906470645, -12165.83098957908, -6255.38155500669, -8937.277965221163, 0.008, -0.023, 0.9915, 192.0, 0.0, 32.0, 127.5, 40.0, 15.5, 0.0, 0.0, 0.0, 0.0, 1.6444976424465888E9, 0.0, 2022-02-10 23:54:02.446
166.0, -10270.671280702505, -12140.372352644486, -7045.873349413079, -14843.502920091501, -644.5796066021451, -1365.4010135413425, -2110.0493800698973, -3890.075253257186, -20489.62062473543, -17239.98990535616, -22847.394388603498, -13364.935024372939, -7441.096894871819, -12168.177922746889, -6258.153171319148, -8933.277002963663, 0.008, -0.023, 0.9915, 192.0, 0.0, 0.0, 0.0, 0.0, 0.0, 0.0, 0.0, 0.0, 0.0, 1.644497642446596E9, 0.0, 2022-02-10 23:54:02.446
168.0, -10291.70427223495, -12154.07397199559, -7060.200817608931, -14850.834292272843, -655.7554788297986, -1376.7109962357279, -2121.3593627642827, -3893.4950701588477, -20498.963653917748, -17244.370847269398, -22851.216536905355, -13371.282919798246, -7445.254319340506, -12189.300321257153, -6261.595339965265, -8942.329459468063, 0.008, -0.023, 0.9915, 192.0, 0.0, 0.0, 0.0, 0.0, 0.0, 0.0, 0.0, 0.0, 0.0, 1.6444976424466023E9, 0.0, 2022-02-10 23:54:02.446
170.0, -10284.551714009252, -12152.732867328272, -7057.2503873408305, -14845.447521859112, -652.1791997169495, -1361.9141414063147, -2102.0698072993528, -3887.683616600468, -20499.768316718142, -17246.56131822602, -22862.168891688456, -13378.860161168595, -7445.097857129319, -12185.187600277377, -6262.310595787835, -8941.72596236777, 0.008, -0.023, 0.9915, 192.0, 0.0, 0.0, 0.0, 0.0, 0.0, 0.0, 0.0, 0.0, 0.0, 1.6444976424466095E9, 0.0, 2022-02-10 23:54:02.446
172.0, -10280.03666162928, -12148.530739370673, -7053.495294272339, -14849.336725394336, -660.6728626099662, -1363.9928536406583, -2105.646086412202, -3881.0227967527867, -20503.702223742275, -17246.44955950374, -22850.613039805063, -13363.63862319453, -7447.33303157485, -12179.577312419095, -6256.90147362965, -8937.34502045453, 0.008, -0.023, 0.9915, 192.0, 0.0, 0.0, 0.0, 0.0, 0.0, 0.0, 0.0, 0.0, 0.0, 1.644497642446616E9, 0.0, 2022-02-10 23:54:02.446
174.0, -10294.65470250305, -12154.096323740045, -7056.11044837361, -14846.36394338178, -672.2734179822705, -1374.3640630679206, -2098.672342142146, -3893.5174219033033, -20503.59046502, -17237.59826869944, -22860.51486259876, -13367.572530218666, -7440.761618704989, -12185.299358999653, -6260.477752742499, -8942.083590279055, 0.007, -0.0245, 0.99075, 192.0, 0.0, 24.0, 127.5, 24.0, 15.0, 120.0, 0.0, 0.0, 0.0, 1.6444976424466228E9, 0.0, 2022-02-10 23:54:02.446
176.0, -10290.65374024555, -12157.158512730422, -7049.360221548107, -14852.823597529365, -659.1305922425499, -1371.1454118663564, -2111.6140021817687, -3894.7691195928005, -20504.484534798212, -17249.399989771842, -22852.28942063921, -13364.97972786185, -7446.818941452378, -12174.391707705463, -6260.745973675964, -8942.105942023509, 0.007, -0.0245, 0.99075, 192.0, 0.0, 0.0, 0.0, 0.0, 0.0, 0.0, 0.0, 0.0, 0.0, 1.6444976424466295E9, 0.0, 2022-02-10 23:54:02.446
178.0, -10301.986074684391, -12161.561806388117, -7052.176541349476, -14859.663231332688, -673.6145226495889, -1388.1103859079344, -2131.931737891643, -3916.0479803142525, -20508.10551739997, -17261.671097477807, -22854.81516776266, -13369.271262797269, -7447.735362975045, -12184.673510154906, -6264.769287677919, -8953.304165995618, 0.007, -0.0245, 0.99075, 192.0, 0.0, 0.0, 0.0, 0.0, 0.0, 0.0, 0.0, 0.0, 0.0, 1.6444976424466364E9, 0.0, 2022-02-10 23:54:02.446
180.0, -10292.039548401779, -12140.171186944388, -7044.44283776794, -14857.718629565077, -653.0732694951618, -1368.9325891652811, -2096.7947956079, -3884.6884828434568, -20506.87617145493, -17253.736228196172, -22863.24177542231, -13386.16918160548, -7439.04053438193, -12181.723079886804, -6263.159962077137, -8951.694840394835, 0.007, -0.0245, 0.99075, 192.0, 0.0, 0.0, 0.0, 0.0, 0.0, 0.0, 0.0, 0.0, 0.0, 1.644497642446643E9, 0.0, 2022-02-10 23:54:02.446
182.0, -10300.600266528161, -12150.430637649375, -7045.828645924169, -14861.496074378023, -654.6602433514886, -1372.0171299001133, -2092.570315905847, -3883.1015089871303, -20509.87130521194, -17246.918946137303, -22852.468234594853, -13378.279015812757, -7447.0648106413855, -12172.536512915673, -6253.951043361551, -8944.497578680228, 0.007, -0.0245, 0.99075, 192.0, 0.0, 0.0, 0.0, 0.0, 0.0, 0.0, 0.0, 0.0, 0.0, 1.64449764244665E9, 0.0, 2022-02-10 23:54:02.446
184.0, -10303.640103774083, -12169.40726869193, -7054.67993672847, -14859.171492954672, -670.3958714480248, -1391.6196097874176, -2109.4235312251485, -3898.0995295166413, -20516.621532037443, -17256.396085786353, -22873.56828136066, -13377.250835567813, -7451.848083954822, -12189.70265265735, -6261.841209154273, -8951.091343294544, 0.0095, -0.02525, 0.990375, 192.0, 0.0, 48.0, 127.5, 24.0, 15.0, 120.0, 0.0, 0.0, 0.0, 1.6444976424466567E9, 0.0, 2022-02-10 23:54:02.446
186.0, -10291.883086190592, -12172.2235884933, -7045.605128479616, -14863.932414523651, -661.969263788374, -1377.9850456696804, -2096.6606851411684, -3891.6622271135125, -20510.117174400948, -17254.74205669666, -22858.65966780897, -13374.926254144462, -7448.160046119696, -12193.45774572584, -6262.779982421396, -8954.287642751651, 0.0095, -0.02525, 0.990375, 192.0, 0.0, 0.0, 0.0, 0.0, 0.0, 0.0, 0.0, 0.0, 0.0, 1.6444976424466636E9, 0.0, 2022-02-10 23:54:02.446
188.0, -10302.835440973693, -12174.972853061301, -7057.853884441124, -14864.625318601766, -679.1130517855945, -1389.451490575253, -2125.762656421978, -3906.2579162428283, -20514.63222678092, -17265.80617020204, -22862.593574833107, -13372.914597143485, -7445.679002485157, -12189.300321257153, -6262.735278932486, -8954.354697985018, 0.0095, -0.02525, 0.990375, 192.0, 0.0, 0.0, 0.0, 0.0, 0.0, 0.0, 0.0, 0.0, 0.0, 1.6444976424466703E9, 0.0, 2022-02-10 23:54:02.446
190.0, -10295.772289725815, -12172.156533259933, -7050.6119192376045, -14862.613661600788, -666.1266882570611, -1368.7314234651833, -2101.2651444989615, -3892.131613747074, -20515.995683192694, -17263.973327156702, -22873.81415054967, -13383.375213548568, -7445.9472234186205, -12191.066109069123, -6269.0384708688825, -8952.96888982879, 0.0095, -0.02525, 0.990375, 192.0, 0.0, 0.0, 0.0, 0.0, 0.0, 0.0, 0.0, 0.0, 0.0, 1.644497642446677E9, 0.0, 2022-02-10 23:54:02.446
192.0, -10297.158097882044, -12161.897082554948, -7048.935538403456, -14866.391106413736, -668.0936417691281, -1378.1191561364124, -2094.3361037178165, -3895.5290789042806, -20513.715805258253, -17258.586556742976, -22855.23985090731, -13375.306233800202, -7450.328165331861, -12172.201236748844, -6256.767363162919, -8944.564633913593, 0.0095, -0.02525, 0.990375, 192.0, 0.0, 0.0, 0.0, 0.0, 0.0, 0.0, 0.0, 0.0, 0.0, 1.644497642446684E9, 0.0, 2022-02-10 23:54:02.446
194.0, -10308.222211387421, -12170.100172770044, -7055.596358251138, -14865.18411221315, -671.3122929706923, -1379.5049642926413, -2109.736455647523, -3903.8886313305657, -20518.76729950515, -17260.26293757712, -22870.684906325925, -13383.755193204308, -7454.172665378173, -12194.664739926428, -6264.501066744455, -8951.001936316721, 0.01075, -0.023625, 0.9911875, 192.0, 0.0, 48.0, 127.5, 40.0, 15.5, 0.0, 0.0, 0.0, 0.0, 1.6444976424466906E9, 0.0, 2022-02-10 23:54:02.446
196.0, -10293.268894346822, -12152.35288767253, -7045.336907546152, -14861.496074378023, -664.2938452117259, -1367.9491124092476, -2097.5547549193807, -3882.9003432870322, -20516.085090170516, -17253.378600284886, -22860.872490510046, -13375.730916944853, -7459.604139280813, -12169.787248347671, -6264.836342911285, -8945.726924625269, 0.01075, -0.023625, 0.9911875, 192.0, 0.0, 0.0, 0.0, 0.0, 0.0, 0.0, 0.0, 0.0, 0.0, 1.6444976424466991E9, 0.0, 2022-02-10 23:54:02.446
198.0, -10311.37380735562, -12178.303262985142, -7056.3116140737075, -14864.22298720157, -681.1247087865721, -1383.6176852724177, -2113.670362671657, -3898.613619639113, -20521.2930466286, -17262.90044342285, -22860.96189748787, -13382.637605981543, -7454.485589800548, -12207.293475543676, -6262.578816721299, -8947.604471159515, 0.01075, -0.023625, 0.9911875, 192.0, 0.0, 0.0, 0.0, 0.0, 0.0, 0.0, 0.0, 0.0, 0.0, 1.644497642446706E9, 0.0, 2022-02-10 23:54:02.446
200.0, -10304.288304363288, -12171.463629181819, -7052.15418960502, -14868.805094814908, -674.1956680054269, -1381.9636561827251, -2109.51293820297, -3900.290000473261, -20520.130755916925, -17264.97915565719, -22870.774313303747, -13392.159449119503, -7460.073525914375, -12194.50827771524, -6276.168677350125, -8957.595700931037, 0.01075, -0.023625, 0.9911875, 192.0, 0.0, 0.0, 0.0, 0.0, 0.0, 0.0, 0.0, 0.0, 0.0, 1.6444976424467127E9, 0.0, 2022-02-10 23:54:02.446
202.0, -10304.198897385466, -12176.917454828914, -7054.903454173023, -14868.335708181348, -673.4580604384018, -1370.5195630216078, -2111.3234295038496, -3892.5339451472696, -20523.885848985417, -17260.061771877023, -22863.130016700034, -13382.145867603525, -7463.470991071581, -12180.516085686219, -6267.719717946019, -8954.19823577383, 0.01075, -0.023625, 0.9911875, 192.0, 0.0, 0.0, 0.0, 0.0, 0.0, 0.0, 0.0, 0.0, 0.0, 1.6444976424467194E9, 0.0, 2022-02-10 23:54:02.446
204.0, -10316.671170791527, -12173.676451882893, -7062.056012398722, -14866.167588969183, -676.0285110507621, -1376.12985087989, -2107.478929457537, -3888.711796845412, -20523.796442007595, -17260.88878642187, -22876.0493249952, -13383.17404784847, -7458.151275891219, -12172.290643726665, -6271.407755781145, -8956.522817197183, 0.007375, -0.0208125, 0.9885937499999999, 192.0, 0.0, 16.0, 127.5, 56.0, 15.0, 104.0, 0.0, 0.0, 0.0, 1.644497642446726E9, 0.0, 2022-02-10 23:54:02.446
206.0, -10293.93944668048, -12164.31107095612, -7050.880140171068, -14863.463027890091, -654.4367259069355, -1361.8917896618593, -2093.799661850889, -3892.131613747074, -20520.01899719465, -17262.095780622458, -22868.315621413665, -13388.493763028833, -7445.991926907531, -12178.012690307223, -6267.205627823548, -8955.181712529864, 0.007375, -0.0208125, 0.9885937499999999, 192.0, 0.0, 0.0, 0.0, 0.0, 0.0, 0.0, 0.0, 0.0, 0.0, 1.644497642446733E9, 0.0, 2022-02-10 23:54:02.446
208.0, -10306.434071830998, -12165.719230856805, -7057.138628618554, -14861.831350544853, -663.3103684556924, -1358.4272692712868, -2106.22723176804, -3906.2802679872834, -20516.95680820427, -17249.80232117204, -22863.71116205587, -13375.753268689308, -7457.771296235478, -12172.044774537657, -6267.6303109681985, -8955.762857885702, 0.007375, -0.0208125, 0.9885937499999999, 192.0, 0.0, 0.0, 0.0, 0.0, 0.0, 0.0, 0.0, 0.0, 0.0, 1.6444976424467397E9, 0.0, 2022-02-10 23:54:02.446
210.0, -10298.521554293819, -12171.687146626371, -7053.294128572242, -14860.199673199615, -659.0635370091841, -1358.8519524159376, -2080.9921122779983, -3889.0247212677864, -20520.957770461773, -17252.998620629147, -22873.43417089393, -13391.488896785844, -7452.920967688677, -12166.54624540165, -6268.367918535223, -8946.777456614669, 0.007375, -0.0208125, 0.9885937499999999, 192.0, 0.0, 0.0, 0.0, 0.0, 0.0, 0.0, 0.0, 0.0, 0.0, 1.6444976424467463E9, 0.0, 2022-02-10 23:54:02.446
212.0, -10303.438938073987, -12177.65506239594, -7045.359259290607, -14855.841083030831, -655.934292785441, -1360.5730367389963, -2079.539248888403, -3888.510631145314, -20522.321226873544, -17263.973327156702, -22859.732551542827, -13377.563759990187, -7448.428267053159, -12175.039908294668, -6267.697366201564, -8944.229357746764, 0.007375, -0.0208125, 0.9885937499999999, 192.0, 0.0, 0.0, 0.0, 0.0, 0.0, 0.0, 0.0, 0.0, 0.0, 1.6444976424467533E9, 0.0, 2022-02-10 23:54:02.446
214.0, -10305.919981708525, -12176.738640873271, -7047.34856454713, -14852.555376595901, -649.4969903823127, -1356.5050192481303, -2079.092213999297, -3874.227866438373, -20522.164764662357, -17270.65649874884, -22869.38850514752, -13385.073946127171, -7447.33303157485, -12189.970873590813, -6260.7683254204185, -8939.379029199961, 0.0056875, -0.01940625, 0.987296875, 192.0, 0.0, 16.0, 127.5, 56.0, 15.0, 104.0, 0.0, 0.0, 0.0, 1.64449764244676E9, 0.0, 2022-02-10 23:54:02.446
216.0, -10283.434126786486, -12146.183806202866, -7033.132855073554, -14848.397952127214, -628.195777916405, -1344.9268156202813, -2066.508181870959, -3856.748802274323, -20506.809116221564, -17248.260050804623, -22847.774368259237, -13373.875722155062, -7425.830653408844, -12152.554053372629, -6251.224130538003, -8928.918412794877, 0.0056875, -0.01940625, 0.987296875, 192.0, 0.0, 0.0, 0.0, 0.0, 0.0, 0.0, 0.0, 0.0, 0.0, 1.6444976424467669E9, 0.0, 2022-02-10 23:54:02.446
218.0, -10292.821859457716, -12152.68816383936, -7041.961794133401, -14848.465007360579, -649.809914804687, -1361.1988855837449, -2089.575182148836, -3882.8109363092112, -20504.037499909104, -17248.572975226998, -22843.818109490647, -13372.422858765467, -7432.37971453425, -12167.574425646595, -6252.542883460866, -8928.67254360587, 0.0056875, -0.01940625, 0.987296875, 192.0, 0.0, 0.0, 0.0, 0.0, 0.0, 0.0, 0.0, 0.0, 0.0, 1.6444976424467735E9, 0.0, 2022-02-10 23:54:02.446
220.0, -10294.833516458693, -12173.072954782601, -7040.419523765984, -14844.642859058722, -645.5630833581786, -1347.2737487880886, -2093.196164750596, -3879.2123054519066, -20507.122040643935, -17257.088989864467, -22858.70437129788, -13382.592902492632, -7432.871452912266, -12171.642443137462, -6263.986976621983, -8936.942689054333, 0.0056875, -0.01940625, 0.987296875, 192.0, 0.0, 0.0, 0.0, 0.0, 0.0, 0.0, 0.0, 0.0, 0.0, 1.6444976424467804E9, 0.0, 2022-02-10 23:54:02.446
222.0, -10284.84228668717, -12164.065201767113, -7034.876291141069, -14852.465969618079, -635.1248186975502, -1344.1221528198903, -2081.3720919337384, -3868.952854746921, -20506.45148831028, -17257.692486964763, -22840.957086200367, -13365.650280195508, -7433.7431709460225, -12141.422884633886, -6256.521493973911, -8933.81344483059, 0.0056875, -0.01940625, 0.987296875, 192.0, 0.0, 0.0, 0.0, 0.0, 0.0, 0.0, 0.0, 0.0, 0.0, 1.644497642446787E9, 0.0, 2022-02-10 23:54:02.446
224.0, -10296.42049031502, -12167.485018668775, -7044.86752091259, -14850.70018180611, -648.8040863041981, -1359.2989873050437, -2081.0144640224535, -3888.91296254551, -20506.406784821367, -17251.054018861534, -22851.417702605453, -13384.761021704797, -7433.430246523649, -12172.581216404584, -6260.924787631606, -8940.518968167182, 0.008, -0.02, 0.992, 192.0, 0.0, 32.0, 127.5, 48.0, 15.5, 0.0, 0.0, 0.0, 0.0, 1.644497642446794E9, 0.0, 2022-02-10 23:54:02.446
226.0, -10284.507010520341, -12159.46074240932, -7033.512834729295, -14847.950917238108, -625.6923825374106, -1349.5983302114405, -2068.162210960652, -3874.205514693918, -20500.036537651606, -17250.875204905893, -22846.321504869644, -13380.22361758037, -7431.217423822573, -12184.874675855002, -6265.104563844749, -8938.52966291066, 0.008, -0.02, 0.992, 192.0, 0.0, 0.0, 0.0, 0.0, 0.0, 0.0, 0.0, 0.0, 0.0, 1.6444976424468007E9, 0.0, 2022-02-10 23:54:02.446
228.0, -10300.197935127966, -12162.366469188508, -7040.82185516618, -14848.80028352741, -631.2356151623268, -1362.9199699068035, -2086.289475713906, -3881.782756064267, -20503.836334209005, -17258.251280576143, -22846.746188014295, -13380.98357689185, -7429.943374388621, -12168.848475080547, -6244.205682779037, -8935.825101831568, 0.008, -0.02, 0.992, 192.0, 0.0, 0.0, 0.0, 0.0, 0.0, 0.0, 0.0, 0.0, 0.0, 1.644497642446809E9, 0.0, 2022-02-10 23:54:02.446
230.0, -10292.218362357422, -12166.568597146106, -7037.849073153624, -14846.36394338178, -623.5242633252458, -1359.3436907939542, -2094.246696739995, -3883.5708956206913, -20505.691528998796, -17263.056905634036, -22859.75490328728, -13380.64830072502, -7433.385543034738, -12170.480152425785, -6255.850941640251, -8941.72596236777, 0.008, -0.02, 0.992, 192.0, 0.0, 0.0, 0.0, 0.0, 0.0, 0.0, 0.0, 0.0, 0.0, 1.6444976424468155E9, 0.0, 2022-02-10 23:54:02.446
232.0, -10295.235847858889, -12171.843608837558, -7029.288355027242, -14842.98882996903, -618.9868592008185, -1358.583731482474, -2076.275894197928, -3885.1131659881075, -20506.87617145493, -17260.195882343756, -22843.505185068272, -13375.395640778022, -7432.111493600785, -12167.127390757489, -6253.034621838882, -8940.273098978174, 0.008, -0.02, 0.992, 192.0, 0.0, 0.0, 0.0, 0.0, 0.0, 0.0, 0.0, 0.0, 0.0, 1.6444976424468224E9, 0.0, 2022-02-10 23:54:02.446
234.0, -10297.56042928224, -12166.143914001455, -7031.635288195049, -14840.530138078946, -624.0830569366285, -1359.7013187052391, -2073.057242996364, -3888.555334634225, -20500.394165562888, -17264.330955067988, -22855.955106729878, -13378.279015812757, -7417.627563193747, -12155.280966196176, -6252.4311247385895, -8939.133160010953, 0.006, -0.022, 0.99, 192.0, 0.0, 24.0, 127.5, 40.0, 15.0, 120.0, 0.0, 0.0, 0.0, 1.6444976424468293E9, 0.0, 2022-02-10 23:54:02.446
236.0, -10287.122164621613, -12163.21583547781, -7022.918107857479, -14843.212347413582, -609.7108852518661, -1349.5759784669851, -2048.604434562258, -3867.589398335147, -20501.4894010412, -17260.732324210683, -22851.730627027828, -13386.12447811657, -7414.163042803174, -12147.144931214445, -6247.334927002779, -8932.405284929906, 0.006, -0.022, 0.99, 192.0, 0.0, 0.0, 0.0, 0.0, 0.0, 0.0, 0.0, 0.0, 0.0, 1.644497642446836E9, 0.0, 2022-02-10 23:54:02.446
238.0, -10305.092967163679, -12160.77949533218, -7032.149378317521, -14848.241489916027, -632.0626297071731, -1362.7858594400716, -2080.3439116887944, -3884.286151443261, -20506.965578432748, -17258.050114876045, -22845.695656024895, -13379.933044902451, -7430.5692232333695, -12166.83681807957, -6246.262043268925, -8932.29352620763, 0.006, -0.022, 0.99, 192.0, 0.0, 0.0, 0.0, 0.0, 0.0, 0.0, 0.0, 0.0, 0.0, 1.6444976424468431E9, 0.0, 2022-02-10 23:54:02.446
240.0, -10302.477813062407, -12159.125466242489, -7030.0706660831775, -14847.056847459895, -621.4902545798129, -1363.769336196105, -2065.278835925917, -3875.725433316879, -20504.372776075936, -17264.643879490362, -22852.37882761703, -13394.819306709685, -7424.266031296973, -12168.781419847182, -6252.6099386942315, -8939.021401288677, 0.006, -0.022, 0.99, 192.0, 0.0, 0.0, 0.0, 0.0, 0.0, 0.0, 0.0, 0.0, 0.0, 1.6444976429265604E9, 0.0, 2022-02-10 23:54:02.926
242.0, -10300.332045594698, -12176.738640873271, -7025.645020681027, -14847.03449571544, -617.6457545335, -1374.1852491122781, -2058.5956643337804, -3877.714738573401, -20505.57977027652, -17264.1744928568, -22843.52753681273, -13381.140039103037, -7423.014333607475, -12179.376146718998, -6242.194025778059, -8937.836758832545, 0.006, -0.022, 0.99, 192.0, 0.0, 0.0, 0.0, 0.0, 0.0, 0.0, 0.0, 0.0, 0.0, 1.6444976429266808E9, 0.0, 2022-02-10 23:54:02.926
244.0, -10308.490432320885, -12183.622978165506, -7023.923936357968, -14846.31923989287, -630.2968418952039, -1372.6206270004068, -2080.7909465779003, -3908.8283668551885, -20507.63613076641, -17269.2259871037, -22857.27385965274, -13388.829039195662, -7418.096949827308, -12172.737678615771, -6247.670203169609, -8944.430523446861, 0.006, -0.024, 0.988, 192.0, 0.0, 24.0, 127.5, 32.0, 15.0, 112.0, 0.0, 0.0, 0.0, 1.644497642926744E9, 0.0, 2022-02-10 23:54:02.926
246.0, -10288.17269661101, -12158.767838331205, -7012.479843196851, -14838.6525915447, -616.1705393994498, -1352.392298268354, -2063.803620791867, -3871.947988503932, -20498.82954345102, -17257.78189394258, -22842.968743201345, -13380.245969324824, -7413.000752091498, -12145.021515491191, -6248.228996780992, -8939.602546644515, 0.006, -0.024, 0.988, 192.0, 0.0, 0.0, 0.0, 0.0, 0.0, 0.0, 0.0, 0.0, 0.0, 1.644497642926751E9, 0.0, 2022-02-10 23:54:02.926
248.0, -10296.912228693036, -12156.465608652308, -7017.129006043555, -14836.640934543722, -630.5650628286676, -1358.9637111382142, -2067.7598795604563, -3874.227866438373, -20497.846066694983, -17249.712914194217, -22835.99499893129, -13379.284844313246, -7412.9560486025875, -12170.971890803801, -6244.4739037125, -8931.868843062979, 0.006, -0.024, 0.988, 192.0, 0.0, 0.0, 0.0, 0.0, 0.0, 0.0, 0.0, 0.0, 0.0, 1.6444976429267576E9, 0.0, 2022-02-10 23:54:02.926
250.0, -10293.380653069098, -12159.281928453676, -7012.725712385859, -14831.500033319002, -619.8362254901201, -1354.3816035248763, -2058.1486294446745, -3866.0247762232757, -20495.901464927374, -17246.94129788176, -22847.595554303596, -13383.419917037478, -7416.42056899316, -12171.865960582014, -6246.083229313283, -8933.254651219208, 0.006, -0.024, 0.988, 192.0, 0.0, 0.0, 0.0, 0.0, 0.0, 0.0, 0.0, 0.0, 0.0, 1.644497642926764E9, 0.0, 2022-02-10 23:54:02.926
252.0, -10284.328196564698, -12148.798960304137, -7010.065854795677, -14825.733283249532, -609.5767747851343, -1354.515713991608, -2073.4372226521045, -3875.1219362165853, -20493.509828270653, -17250.249356061144, -22830.652932006473, -13365.203245306402, -7409.536231700926, -12166.702707612838, -6238.6400984096645, -8929.365447683984, 0.006, -0.024, 0.988, 192.0, 0.0, 0.0, 0.0, 0.0, 0.0, 0.0, 0.0, 0.0, 0.0, 1.6444976429267707E9, 0.0, 2022-02-10 23:54:02.926
254.0, -10294.94527518097, -12159.863073809514, -7015.407921720496, -14825.822690227353, -625.8935482375084, -1358.0025861266358, -2076.1194319867413, -3872.6408925820465, -20492.10166836997, -17252.439827017766, -22839.392464088498, -13369.74064943083, -7408.820975878356, -12158.83489356457, -6245.479732212989, -8931.108883751498, 0.004, -0.02, 0.988, 192.0, 0.0, 16.0, 127.5, 48.0, 15.0, 112.0, 0.0, 0.0, 0.0, 1.6444976429267776E9, 0.0, 2022-02-10 23:54:02.926
0.0, -10288.17269661101, -12157.829065064081, -7003.405034947996, -14823.699274504099, -597.3727223125366, -1351.7217459346946, -2025.9174139401216, -3860.19097092044, -20491.185246847304, -17262.18518760028, -22834.363321586054, -13375.596806478121, -7402.875411853244, -12155.92916678538, -6240.495293199456, -8928.203156972308, 0.004, -0.02, 0.988, 192.0, 0.0, 0.0, 0.0, 0.0, 0.0, 0.0, 0.0, 0.0, 0.0, 1.644497642926784E9, 0.0, 2022-02-10 23:54:02.926
2.0, -10298.007464171347, -12170.16722800341, -7005.394340204518, -14828.84017572882, -605.0170189162516, -1361.511810006119, -2049.8114287628446, -3872.0597472262084, -20492.414592792346, -17267.169626613813, -22830.876449451025, -13378.435478023945, -7408.150423544696, -12137.533681098663, -6232.269851239902, -8928.29256395013, 0.004, -0.02, 0.988, 192.0, 0.0, 0.0, 0.0, 0.0, 0.0, 0.0, 0.0, 0.0, 0.0, 1.6444976429267907E9, 0.0, 2022-02-10 23:54:02.926
4.0, -10301.159060139546, -12170.03311753668, -7005.886078582535, -14824.593344282312, -599.004399657774, -1359.7236704496945, -2063.8259725363223, -3866.047127967731, -20494.314491071047, -17266.342612068966, -22843.57224030164, -13383.129344359559, -7402.495432197504, -12162.92526279989, -6241.411714722123, -8930.885366306946, 0.004, -0.02, 0.988, 192.0, 0.0, 0.0, 0.0, 0.0, 0.0, 0.0, 0.0, 0.0, 0.0, 1.6444976429268043E9, 0.0, 2022-02-10 23:54:02.926
6.0, -10311.351455611164, -12190.060280568634, -7005.506098926795, -14821.441748314113, -601.6419055035002, -1355.2980250475437, -2045.8104665053447, -3857.531113330259, -20499.768316718142, -17269.76242897063, -22832.821051218638, -13380.402431536011, -7399.32148448485, -12174.972853061301, -6240.6294036661875, -8924.917450537378, 0.004, -0.02, 0.988, 192.0, 0.0, 0.0, 0.0, 0.0, 0.0, 0.0, 0.0, 0.0, 0.0, 1.6444976429268107E9, 0.0, 2022-02-10 23:54:02.926
8.0, -10345.326107183231, -12208.098138344067, -7015.229107764853, -14821.307637847382, -614.9188417099526, -1359.3660425384096, -2051.420754363627, -3866.1812384344626, -20507.92670344433, -17283.776972744105, -22849.42839734893, -13392.070042141682, -7404.954124087588, -12166.278024468187, -6244.42920022359, -8926.95145928281, 0.006, -0.02, 0.986, 192.0, 0.0, 24.0, 127.5, 48.0, 15.0, 104.0, 0.0, 0.0, 0.0, 1.6444976429268172E9, 0.0, 2022-02-10 23:54:02.926
10.0, -10363.341613214208, -12232.550946778172, -7007.808328605692, -14815.876163944742, -600.0325799027181, -1347.9219493772923, -2041.8542077367554, -3856.6370435520466, -20517.15797390437, -17279.17251338631, -22853.496414839796, -13396.205114865914, -7400.506126940982, -12151.816445805604, -6244.630365923687, -8923.486938892238, 0.006, -0.02, 0.986, 192.0, 0.0, 0.0, 0.0, 0.0, 0.0, 0.0, 0.0, 0.0, 0.0, 1.644497642926824E9, 0.0, 2022-02-10 23:54:02.926
12.0, -10422.596087765229, -12291.023110273256, -7017.441930465929, -14825.576821038345, -602.3124578371594, -1360.7742024390939, -2052.203065419563, -3857.2181889078847, -20539.934401504328, -17291.778897259104, -22863.152368444487, -13397.210943366403, -7405.982304332531, -12155.750352829738, -6242.708115900531, -8919.798901057113, 0.006, -0.02, 0.986, 192.0, 0.0, 0.0, 0.0, 0.0, 0.0, 0.0, 0.0, 0.0, 0.0, 1.6444976429268303E9, 0.0, 2022-02-10 23:54:02.926
14.0, -10462.806876040326, -12331.703285181915, -7012.658657152493, -14824.347475093304, -599.0714548911399, -1351.4088215123204, -2051.353699130261, -3851.697308027424, -20552.585488866032, -17309.4367753788, -22890.1532757465, -13432.861975772617, -7404.775310131945, -12168.066164024613, -6239.131836787682, -8927.57730812756, 0.006, -0.02, 0.986, 192.0, 0.0, 0.0, 0.0, 0.0, 0.0, 0.0, 0.0, 0.0, 0.0, 1.644497642926837E9, 0.0, 2022-02-10 23:54:02.926
16.0, -10505.40930097214, -12369.500085055839, -7013.351561230607, -14830.494204818513, -601.7089607368662, -1339.0706585729909, -2052.7618590309453, -3853.0607644391976, -20570.01984954117, -17310.174382945825, -22890.801476335702, -13434.4713013734, -7410.922039857154, -12152.442294650353, -6233.029810551383, -8918.994238256722, 0.006, -0.02, 0.986, 192.0, 0.0, 0.0, 0.0, 0.0, 0.0, 0.0, 0.0, 0.0, 0.0, 1.644497642926844E9, 0.0, 2022-02-10 23:54:02.926
18.0, -10548.011725903956, -12410.426129153506, -7025.1979857919205, -14838.876108989252, -622.0266964467403, -1360.193057083256, -2068.4974871274817, -3864.9071890005102, -20589.868198617485, -17333.084921012512, -22917.91414235999, -13444.060199744727, -7414.811243392378, -12161.137123243467, -6243.512778700921, -8926.9067557939, 0.006, -0.02, 0.986, 192.0, 0.0, 24.0, 127.5, 48.0, 15.0, 104.0, 0.0, 0.0, 0.0, 1.6444976429268503E9, 0.0, 2022-02-10 23:54:02.926
20.0, -10532.007876873957, -12400.88193427109, -7016.726674643359, -14833.51169031998, -597.1715566124388, -1343.0716208304907, -2048.157399673152, -3841.013174177787, -20597.22192254328, -17339.47751992673, -22924.66436918549, -13452.307993448734, -7420.779159161945, -12189.188562534877, -6239.5788716767875, -8922.659924347392, 0.006, -0.02, 0.986, 192.0, 0.0, 0.0, 0.0, 0.0, 0.0, 0.0, 0.0, 0.0, 0.0, 1.6444976429268568E9, 0.0, 2022-02-10 23:54:02.926
22.0, -10536.098246109277, -12406.425166896006, -7020.928802600957, -14829.354265851292, -612.9071847089749, -1351.5876354679629, -2052.8512660087667, -3852.8372469946444, -20591.343413751532, -17338.896374570893, -22914.20375278041, -13444.015496255815, -7425.674191197657, -12188.003920078745, -6230.861691339218, -8921.251764446708, 0.006, -0.02, 0.986, 192.0, 0.0, 0.0, 0.0, 0.0, 0.0, 0.0, 0.0, 0.0, 0.0, 1.6444976429268637E9, 0.0, 2022-02-10 23:54:02.926
24.0, -10512.986542342489, -12393.729376045392, -7016.994895576822, -14822.22405937005, -607.9227456954414, -1345.3738505093875, -2052.873617753222, -3851.7643632607897, -20588.2588730167, -17343.590240906506, -22916.282465014752, -13433.957211250927, -7426.344743531316, -12176.828047851091, -6238.349525731746, -8919.888308034933, 0.006, -0.02, 0.986, 192.0, 0.0, 0.0, 0.0, 0.0, 0.0, 0.0, 0.0, 0.0, 0.0, 1.64449764292687E9, 0.0, 2022-02-10 23:54:02.926
26.0, -10487.080870518788, -12365.58852977616, -7011.0046280628, -14826.6497047722, -596.2327833453159, -1339.5623969510075, -2046.6598327946465, -3848.5680638036806, -20576.74772462222, -17322.646656351884, -22890.466200168874, -13418.959190721416, -7416.84525213781, -12146.362620158508, -6230.749932616942, -8916.714360322281, 0.006, -0.02, 0.986, 192.0, 0.0, 0.0, 0.0, 0.0, 0.0, 0.0, 0.0, 0.0, 0.0, 1.6444976429268765E9, 0.0, 2022-02-10 23:54:02.926
28.0, -10489.673672875604, -12352.959794158913, -7019.632401422549, -14827.610829783778, -591.4271582874248, -1349.5536267225298, -2041.8318559923002, -3848.9033399705104, -20569.3045937186, -17318.064548738545, -22900.703299129404, -13432.191423438959, -7414.118339314264, -12167.194445990855, -6234.885005341173, -8920.558860368594, 0.006, -0.02, 0.992, 192.0, 0.0, 24.0, 127.5, 48.0, 15.5, 0.0, 0.0, 0.0, 0.0, 1.6444976429268832E9, 0.0, 2022-02-10 23:54:02.926
30.0, -10457.35305039323, -12334.340791027642, -7006.668389638471, -14822.134652392228, -579.1113470925507, -1346.8937691323483, -2042.413001348138, -3835.5817002751473, -20565.124817505457, -17323.473670896732, -22890.466200168874, -13429.598621082143, -7417.158176560185, -12187.288664256175, -6237.23193850898, -8916.423787644362, 0.006, -0.02, 0.992, 192.0, 0.0, 0.0, 0.0, 0.0, 0.0, 0.0, 0.0, 0.0, 0.0, 1.6444976429268897E9, 0.0, 2022-02-10 23:54:02.926
32.0, -10447.205358410522, -12306.803441858703, -7008.858860595091, -14828.303733861892, -588.0743966191288, -1341.5069987186193, -2052.7618590309453, -3854.044241195231, -20550.551480120597, -17290.773068758615, -22873.992964505313, -13418.333341876667, -7399.8132228628665, -12144.999163746736, -6227.866557582207, -8917.675485333859, 0.006, -0.02, 0.992, 192.0, 0.0, 0.0, 0.0, 0.0, 0.0, 0.0, 0.0, 0.0, 0.0, 1.6444976429268963E9, 0.0, 2022-02-10 23:54:02.926
34.0, -10433.481387314963, -12297.303950465197, -7007.093072783122, -14811.4952220315, -589.8178326866428, -1341.775219652083, -2053.745335786979, -3849.4397818374377, -20554.060704000083, -17298.0820891955, -22885.347650688607, -13416.65696104252, -7418.119301571764, -12182.50539094274, -6236.337868730769, -8915.86499403298, 0.006, -0.02, 0.992, 192.0, 0.0, 0.0, 0.0, 0.0, 0.0, 0.0, 0.0, 0.0, 0.0, 1.6444976429269028E9, 0.0, 2022-02-10 23:54:02.926
36.0, -10402.099538099712, -12287.71505209387, -7002.354502958597, -14815.339722077815, -581.8829634050088, -1335.0696963154908, -2035.7298297560014, -3851.1832179049516, -20543.354218405988, -17290.23662689169, -22860.38075213203, -13387.800858950719, -7413.425435236149, -12156.890291796959, -6230.079380283282, -8908.846546274013, 0.005, -0.024, 0.992, 192.0, 0.0, 16.0, 127.5, 16.0, 15.5, 0.0, 0.0, 0.0, 0.0, 1.6444976429269123E9, 0.0, 2022-02-10 23:54:02.926
38.0, -10409.945000403524, -12281.322453179653, -7011.406959462996, -14815.116204633261, -592.8576699325645, -1348.4360394997645, -2042.0777251813086, -3852.3455086166277, -20537.4980613587, -17283.799324488562, -22872.227176693345, -13404.5646672922, -7407.278705510939, -12168.446143680352, -6237.008421064427, -8913.741578309724, 0.005, -0.024, 0.992, 192.0, 0.0, 0.0, 0.0, 0.0, 0.0, 0.0, 0.0, 0.0, 0.0, 1.644497642926919E9, 0.0, 2022-02-10 23:54:02.926
40.0, -10375.05392730879, -12253.069848188145, -6993.413805176474, -14810.131765619728, -565.3426725080816, -1329.481760201664, -2022.452893549549, -3830.7090199838904, -20527.707997287274, -17271.70703073824, -22855.351609629586, -13383.442268781933, -7398.963856573565, -12156.242091207754, -6228.402999449134, -8910.880555019445, 0.005, -0.024, 0.992, 192.0, 0.0, 0.0, 0.0, 0.0, 0.0, 0.0, 0.0, 0.0, 0.0, 1.6444976429269257E9, 0.0, 2022-02-10 23:54:02.926
42.0, -10377.467915709964, -12254.410952855464, -6997.5488779007055, -14819.228925613037, -584.2746000617266, -1336.2990422605328, -2037.6520797791577, -3837.2580811092953, -20522.589447807008, -17270.053001648546, -22845.33802811361, -13373.629852966054, -7392.370091959249, -12156.756181330227, -6217.249478965936, -8907.684255562337, 0.005, -0.024, 0.992, 192.0, 0.0, 0.0, 0.0, 0.0, 0.0, 0.0, 0.0, 0.0, 0.0, 1.6444976429269333E9, 0.0, 2022-02-10 23:54:02.926
44.0, -10378.183171532533, -12233.735589234304, -7003.762662859281, -14823.162832637172, -588.9014111639751, -1338.221292283689, -2056.8969317551773, -3850.624424293569, -20526.83627925352, -17275.37271682891, -22864.404066133986, -13401.502478301822, -7416.487624226525, -12153.939861528857, -6232.202796006536, -8921.072950491065, 0.005, -0.024, 0.992, 192.0, 0.0, 0.0, 0.0, 0.0, 0.0, 0.0, 0.0, 0.0, 0.0, 1.6444976429269395E9, 0.0, 2022-02-10 23:54:02.926
46.0, -10353.775066587337, -12226.18069960841, -6995.760738344281, -14815.004445910985, -583.715806450344, -1335.6061381824181, -2059.0426992228868, -3868.8634477690994, -20524.087014685516, -17264.55447251254, -22846.85794673657, -13384.716318215886, -7412.888993369222, -12157.203216219332, -6233.096865784749, -8919.284810934641, 0.0055, -0.026000000000000002, 0.991, 192.0, 0.0, 24.0, 127.5, 16.0, 15.0, 120.0, 0.0, 0.0, 0.0, 1.6444976429269462E9, 0.0, 2022-02-10 23:54:02.926
48.0, -10358.67009862305, -12219.27401057172, -7005.371988460063, -14815.339722077815, -589.907239664464, -1340.903501618326, -2041.2730623809175, -3844.9917846908315, -20520.19781115029, -17270.18711211528, -22848.86960373755, -13383.106992615103, -7402.6295426642355, -12149.089532982056, -6231.644002395154, -8923.732808081248, 0.0055, -0.026000000000000002, 0.991, 192.0, 0.0, 0.0, 0.0, 0.0, 0.0, 0.0, 0.0, 0.0, 0.0, 1.6444976429269533E9, 0.0, 2022-02-10 23:54:02.926
50.0, -10330.484548864908, -12198.88921962848, -6994.19611623241, -14813.752748221488, -571.3776435110144, -1313.9472978052256, -2030.1418936421746, -3840.074400910664, -20510.810078479062, -17241.59923095694, -22839.75009199978, -13378.971919890872, -7394.582914660325, -12144.283907924166, -6225.921955814595, -8919.32951442355, 0.0055, -0.026000000000000002, 0.991, 192.0, 0.0, 0.0, 0.0, 0.0, 0.0, 0.0, 0.0, 0.0, 0.0, 1.6444976429269595E9, 0.0, 2022-02-10 23:54:02.926
52.0, -10339.805226302771, -12208.053434855156, -7000.76752910227, -14816.323198833848, -580.4748035043244, -1327.1795305227674, -2037.1156379122303, -3839.560310788192, -20510.273636612135, -17256.686658464274, -22831.524650040228, -13361.6046144491, -7396.281647238929, -12139.366524143998, -6223.977354046983, -8920.156528968399, 0.0055, -0.026000000000000002, 0.991, 192.0, 0.0, 0.0, 0.0, 0.0, 0.0, 0.0, 0.0, 0.0, 0.0, 1.6444976429269664E9, 0.0, 2022-02-10 23:54:02.926
54.0, -10326.170662185034, -12193.636559681483, -6996.587752889127, -14812.433995298625, -576.6526552024669, -1327.2242340116782, -2031.5277017984035, -3837.816874720678, -20512.955845946773, -17254.69735320775, -22840.75592050027, -13371.774658176264, -7407.770443888956, -12160.69008835436, -6229.922918072095, -8921.542337124627, 0.0055, -0.026000000000000002, 0.991, 192.0, 0.0, 0.0, 0.0, 0.0, 0.0, 0.0, 0.0, 0.0, 0.0, 1.6444976429269729E9, 0.0, 2022-02-10 23:54:02.926
56.0, -10308.065749176234, -12177.878579840492, -6983.71314808287, -14812.5457540209, -570.1930010548832, -1312.4273791822648, -2025.0456959063645, -3835.9393281864322, -20502.71874698624, -17241.241603045655, -22815.967835899333, -13365.471466239867, -7401.489603697015, -12142.920451512391, -6225.273755225391, -8917.47431963376, 0.00375, -0.027000000000000003, 0.9904999999999999, 192.0, 0.0, 8.0, 127.5, 16.0, 15.0, 120.0, 0.0, 0.0, 0.0, 1.6444976429269793E9, 0.0, 2022-02-10 23:54:02.926
58.0, -10315.33006612421, -12187.780402634193, -6995.134889499533, -14818.066634901363, -579.6924924483886, -1324.5867281659519, -2036.0874576672863, -3848.456305081404, -20498.67308123983, -17241.93450712377, -22826.42845230442, -13371.662899453986, -7399.880278096232, -12135.320858397587, -6229.386476205168, -8924.246898203719, 0.00375, -0.027000000000000003, 0.9904999999999999, 192.0, 0.0, 0.0, 0.0, 0.0, 0.0, 0.0, 0.0, 0.0, 0.0, 1.644497642926986E9, 0.0, 2022-02-10 23:54:02.926
60.0, -10307.305789864755, -12169.809600092125, -6989.949284785901, -14813.193954610106, -566.7508324087659, -1328.4088764678093, -2025.3139168398282, -3842.2872236117396, -20494.739174215698, -17243.141501324357, -22831.278780851222, -13361.403448749, -7397.443937950604, -12147.301393425632, -6224.42438893609, -8921.609392357992, 0.00375, -0.027000000000000003, 0.9904999999999999, 192.0, 0.0, 0.0, 0.0, 0.0, 0.0, 0.0, 0.0, 0.0, 0.0, 1.6444976429269924E9, 0.0, 2022-02-10 23:54:02.926
62.0, -10325.164833684545, -12186.88633285598, -6992.720901098359, -14815.965570922563, -586.1521465959725, -1342.803399897027, -2047.0398124503868, -3862.6273110660686, -20508.77606973363, -17247.187167070766, -22825.981417415314, -13355.681402168442, -7400.819051363355, -12161.472399410297, -6226.860729081718, -8924.179842970354, 0.00375, -0.027000000000000003, 0.9904999999999999, 192.0, 0.0, 0.0, 0.0, 0.0, 0.0, 0.0, 0.0, 0.0, 0.0, 1.644497642926999E9, 0.0, 2022-02-10 23:54:02.926
64.0, -10313.51957482333, -12181.41015546443, -6988.9211045409575, -14815.987922667018, -594.5116990222573, -1338.64597542834, -2063.7812690474116, -3865.4883343563483, -20504.462183053754, -17258.519501509607, -22834.67624600843, -13364.845617395118, -7408.41864447816, -12156.286794696665, -6245.636194424176, -8927.9572877833, 0.00375, -0.027000000000000003, 0.9904999999999999, 192.0, 0.0, 0.0, 0.0, 0.0, 0.0, 0.0, 0.0, 0.0, 0.0, 1.6444976429270055E9, 0.0, 2022-02-10 23:54:02.927
66.0, -10302.813089229237, -12167.820294835603, -6986.9988545178, -14822.447576814602, -591.9188966654416, -1331.0463823135356, -2042.5694635593254, -3864.415450622493, -20495.63324399391, -17236.257164032122, -22814.537324254194, -13360.218806292869, -7406.295228754906, -12125.776663515171, -6239.33300248778, -8927.756122083203, 0.006875, -0.0245, 0.99025, 192.0, 0.0, 40.0, 127.5, 40.0, 15.0, 120.0, 0.0, 0.0, 0.0, 1.644497642927012E9, 0.0, 2022-02-10 23:54:02.927
68.0, -10308.557487554252, -12166.993280290757, -6995.224296477354, -14811.78579470942, -599.4067310579695, -1339.0483068285355, -2051.845437508278, -3866.1141832010967, -20502.137601630402, -17253.26684156261, -22829.736510483803, -13371.685251198442, -7410.676170668146, -12163.908739555925, -6237.701325142542, -8931.064180262587, 0.006875, -0.0245, 0.99025, 192.0, 0.0, 0.0, 0.0, 0.0, 0.0, 0.0, 0.0, 0.0, 0.0, 1.6444976429270203E9, 0.0, 2022-02-10 23:54:02.927
70.0, -10270.447763257953, -12134.046808963634, -6979.265150936264, -14803.627407983233, -577.4796697473133, -1314.7072571167062, -2035.8862919671885, -3837.526302042759, -20491.095839869482, -17234.31256226451, -22820.0358533902, -13341.130416528036, -7390.17962100263, -12150.877672538481, -6231.755761117431, -8920.536508624138, 0.006875, -0.0245, 0.99025, 192.0, 0.0, 0.0, 0.0, 0.0, 0.0, 0.0, 0.0, 0.0, 0.0, 1.6444976429270267E9, 0.0, 2022-02-10 23:54:02.927
72.0, -10277.488562761375, -12150.520044627196, -6978.929874769435, -14803.873277172243, -579.8266029151205, -1316.897728073326, -2039.484922824493, -3842.3095753561947, -20474.15321757236, -17225.058940060015, -22801.37214677002, -13340.661029894476, -7395.164060016163, -12136.30433515362, -6221.56336564581, -8913.115729464977, 0.006875, -0.0245, 0.99025, 192.0, 0.0, 0.0, 0.0, 0.0, 0.0, 0.0, 0.0, 0.0, 0.0, 1.6444976429270337E9, 0.0, 2022-02-10 23:54:02.927
74.0, -10282.070670374713, -12160.488922654262, -6980.539200370217, -14798.084175358317, -577.3902627694921, -1316.45069318422, -2032.1088471542416, -3838.1745026319627, -20476.969537373727, -17234.893707620347, -22814.626731232016, -13345.891338097017, -7394.068824537853, -12138.137178198956, -6221.988048790461, -8911.484052119738, 0.006875, -0.0245, 0.99025, 192.0, 0.0, 0.0, 0.0, 0.0, 0.0, 0.0, 0.0, 0.0, 0.0, 1.64449764292704E9, 0.0, 2022-02-10 23:54:02.927
76.0, -10274.962815637924, -12147.368448658997, -6971.754964799281, -14795.044338112395, -574.5292394792127, -1306.3030012015106, -2051.0854781967973, -3844.790618990734, -20473.77323791662, -17225.79654762704, -22795.314824022633, -13332.323829212646, -7378.534362141414, -12129.375294372476, -6214.299048697835, -8908.533621851639, 0.0064375000000000005, -0.02225, 0.9901249999999999, 192.0, 0.0, 24.0, 127.5, 48.0, 15.0, 120.0, 0.0, 0.0, 0.0, 1.6444976429270465E9, 0.0, 2022-02-10 23:54:02.927
78.0, -10287.613902999628, -12149.514216126707, -6981.008587003778, -14803.493297516501, -584.8333936731093, -1324.5420246770411, -2054.7288125430123, -3854.044241195231, -20478.847083907975, -17222.153213280824, -22808.077670106613, -13349.35585848759, -7379.8531150642775, -12126.000180959723, -6225.296106969847, -8916.982581255745, 0.0064375000000000005, -0.02225, 0.9901249999999999, 192.0, 0.0, 0.0, 0.0, 0.0, 0.0, 0.0, 0.0, 0.0, 0.0, 1.6444976429270532E9, 0.0, 2022-02-10 23:54:02.927
80.0, -10274.493429004364, -12150.162416715912, -6972.224351432843, -14801.727509704533, -561.1405445504838, -1307.8676233133822, -2001.0846258502754, -3840.208511377396, -20478.355345529955, -17227.517631950097, -22806.89302765048, -13344.63964040752, -7385.396347689194, -12123.452082091819, -6220.021095278394, -8915.060331232587, 0.0064375000000000005, -0.02225, 0.9901249999999999, 192.0, 0.0, 0.0, 0.0, 0.0, 0.0, 0.0, 0.0, 0.0, 0.0, 1.6444976429270597E9, 0.0, 2022-02-10 23:54:02.927
82.0, -10282.361243052632, -12154.20808246232, -6975.040671234211, -14806.108451617773, -564.7615271522435, -1321.323373475477, -2015.1438731126636, -3845.1258951575633, -20479.51763624163, -17225.215402271202, -22802.22151305932, -13343.454997951389, -7371.940597527099, -12129.531756583663, -6206.721807327486, -8913.316895165073, 0.0064375000000000005, -0.02225, 0.9901249999999999, 192.0, 0.0, 0.0, 0.0, 0.0, 0.0, 0.0, 0.0, 0.0, 0.0, 1.644497642927066E9, 0.0, 2022-02-10 23:54:02.927
84.0, -10286.138687865578, -12151.63763184996, -6978.214618946865, -14804.856753928276, -571.2658847887379, -1310.3486669479212, -2014.8085969458339, -3838.107447398597, -20480.881092653406, -17232.32325700799, -22819.1864871009, -13354.4520562234, -7374.712213839557, -12145.468550380296, -6212.153281230126, -8915.596773099514, 0.0064375000000000005, -0.02225, 0.9901249999999999, 192.0, 0.0, 0.0, 0.0, 0.0, 0.0, 0.0, 0.0, 0.0, 0.0, 1.6444976429270728E9, 0.0, 2022-02-10 23:54:02.927
86.0, -10277.868542417114, -12165.473361667797, -6977.566418357661, -14806.801355695887, -566.0132248417408, -1319.065847285491, -2014.7638934569234, -3843.851845723611, -20482.915101398838, -17233.776120397582, -22806.066013105636, -13348.014753820271, -7390.7160628695565, -12138.49480611024, -6208.711112584008, -8912.646342831415, 0.00621875, -0.022125, 0.9900625, 192.0, 0.0, 24.0, 127.5, 40.0, 15.0, 120.0, 0.0, 0.0, 0.0, 1.6444976429270792E9, 0.0, 2022-02-10 23:54:02.927
88.0, -10305.60705728615, -12171.21775999281, -6997.884154067535, -14812.679864487633, -587.0909198630953, -1338.5118649616081, -2037.093286167775, -3865.778907034267, -20498.941302173294, -17238.671152433297, -22828.37305407203, -13357.022506835761, -7395.029949549431, -12158.969004031302, -6215.70720859852, -8924.157491225898, 0.00621875, -0.022125, 0.9900625, 192.0, 0.0, 0.0, 0.0, 0.0, 0.0, 0.0, 0.0, 0.0, 0.0, 1.644497642927086E9, 0.0, 2022-02-10 23:54:02.927
90.0, -10293.60417051365, -12170.860132081525, -6989.792822574714, -14810.17646910864, -570.1259458215172, -1325.0784665439685, -2020.0165534039204, -3836.5428252867255, -20504.35042433148, -17238.000600099636, -22832.84340296309, -13363.616271450075, -7400.439071707616, -12144.283907924166, -6227.106598270727, -8921.922316780367, 0.00621875, -0.022125, 0.9900625, 192.0, 0.0, 0.0, 0.0, 0.0, 0.0, 0.0, 0.0, 0.0, 0.0, 1.6444976429270923E9, 0.0, 2022-02-10 23:54:02.927
92.0, -10299.683845005495, -12167.127390757489, -6995.984255788834, -14807.918942918652, -589.97429489783, -1318.7305711186614, -2038.2555768794512, -3852.747840016823, -20505.646825509888, -17238.112358821912, -22816.683091721905, -13342.002134561793, -7403.814185120366, -12140.72998055577, -6216.690685354553, -8912.802805042602, 0.00621875, -0.022125, 0.9900625, 192.0, 0.0, 0.0, 0.0, 0.0, 0.0, 0.0, 0.0, 0.0, 0.0, 1.644497642927099E9, 0.0, 2022-02-10 23:54:02.927
94.0, -10294.095908891668, -12163.998146533746, -6986.976502773346, -14809.371806308247, -586.7109402073551, -1323.0444577985356, -2038.7920187463785, -3848.880988226055, -20498.516619028644, -17239.87814663388, -22824.79677495918, -13355.949623101906, -7399.656760651679, -12133.197442674333, -6225.631383136676, -8919.62008710147, 0.00621875, -0.022125, 0.9900625, 192.0, 0.0, 0.0, 0.0, 0.0, 0.0, 0.0, 0.0, 0.0, 0.0, 1.6444976429271057E9, 0.0, 2022-02-10 23:54:02.927
96.0, -10289.558504767241, -12172.558864660128, -6986.775337073248, -14811.048187142396, -579.3795680260143, -1316.2718792285775, -2011.7464079554568, -3826.3727815595607, -20499.902427184872, -17246.181338570277, -22816.32546381062, -13346.941870086417, -7384.949312800088, -12122.423901846874, -6214.500214397934, -8908.33245615154, 0.007109375, -0.0230625, 0.9900312499999999, 192.0, 0.0, 32.0, 127.5, 32.0, 15.0, 120.0, 0.0, 0.0, 0.0, 1.644497642927112E9, 0.0, 2022-02-10 23:54:02.927
98.0, -10309.764481754837, -12194.284760270688, -6992.072700509156, -14815.429129055636, -592.0306553877182, -1328.7665043790942, -2030.9465564425657, -3855.877084240566, -20503.679871997818, -17247.433036259776, -22824.483850536806, -13358.207149291891, -7407.815147377867, -12132.169262429388, -6216.891851054651, -8911.998142242212, 0.007109375, -0.0230625, 0.9900312499999999, 192.0, 0.0, 0.0, 0.0, 0.0, 0.0, 0.0, 0.0, 0.0, 0.0, 1.6444976429271185E9, 0.0, 2022-02-10 23:54:02.927
100.0, -10291.458403045941, -12183.824143865604, -6987.065909751166, -14809.394158052703, -574.8645156460424, -1326.4642747001976, -2026.677373251602, -3838.1521508875076, -20504.752755731675, -17240.1687193118, -22828.618923261038, -13355.077905068149, -7405.825842121344, -12155.772704574192, -6221.608069134721, -8914.836813788035, 0.007109375, -0.0230625, 0.9900312499999999, 192.0, 0.0, 0.0, 0.0, 0.0, 0.0, 0.0, 0.0, 0.0, 0.0, 1.644497642927127E9, 0.0, 2022-02-10 23:54:02.927
102.0, -10283.41177504203, -12166.412134934919, -6983.869610294058, -14811.048187142396, -587.4932512632909, -1328.4982834456305, -2035.8639402227332, -3856.838209252144, -20489.799438691072, -17241.30865827902, -22816.973664399822, -13341.085713039127, -7390.783118102922, -12143.747466057237, -6215.729560342975, -8911.416996886373, 0.007109375, -0.0230625, 0.9900312499999999, 192.0, 0.0, 0.0, 0.0, 0.0, 0.0, 0.0, 0.0, 0.0, 0.0, 1.6444976429271333E9, 0.0, 2022-02-10 23:54:02.927
104.0, -10297.314560093231, -12167.485018668775, -6984.137831227521, -14821.464100058569, -577.6361319585004, -1327.4701032006865, -2008.1254253536972, -3833.100656640608, -20490.402935791368, -17243.633239702373, -22826.406100559965, -13353.468579467366, -7385.575161644836, -12128.704742038815, -6221.228089478981, -8911.394645141918, 0.007109375, -0.0230625, 0.9900312499999999, 192.0, 0.0, 0.0, 0.0, 0.0, 0.0, 0.0, 0.0, 0.0, 0.0, 1.64449764340647E9, 0.0, 2022-02-10 23:54:03.406
106.0, -10291.234885601389, -12177.006861806734, -6985.501287639295, -14823.475757059547, -575.1550883239613, -1328.6547456568178, -2022.1399691271747, -3840.1638078884853, -20496.169685860837, -17245.376675769887, -22814.47026902083, -13355.301422512703, -7390.581952402825, -12141.109960211512, -6210.231031206969, -8911.19347944182, 0.002, -0.026000000000000002, 0.988, 192.0, 0.0, 8.0, 127.5, 24.0, 15.0, 112.0, 0.0, 0.0, 0.0, 1.644497643406647E9, 0.0, 2022-02-10 23:54:03.406
108.0, -10301.069653161723, -12171.709498370827, -7001.929819813946, -14819.273629101948, -591.4495100318802, -1332.6110044254071, -2036.3333268562947, -3849.9538719599095, -20501.265883596647, -17253.669172962807, -22827.590743016095, -13352.239233522325, -7388.9502750575875, -12128.570631572084, -6218.0317900218715, -8919.396569656918, 0.002, -0.026000000000000002, 0.988, 192.0, 0.0, 0.0, 0.0, 0.0, 0.0, 0.0, 0.0, 0.0, 0.0, 1.6444976434066536E9, 0.0, 2022-02-10 23:54:03.406
110.0, -10290.407871056543, -12168.60260589154, -6990.128098741544, -14818.960704679574, -580.7877279266987, -1318.484701929653, -2017.803730702845, -3845.774095746767, -20495.81205794955, -17244.303792036033, -22825.37792031502, -13352.26158526678, -7387.497411667992, -12121.060445435101, -6221.5186621569, -8917.76489231168, 0.002, -0.026000000000000002, 0.988, 192.0, 0.0, 0.0, 0.0, 0.0, 0.0, 0.0, 0.0, 0.0, 0.0, 1.6444976434066606E9, 0.0, 2022-02-10 23:54:03.406
112.0, -10285.736356465382, -12159.281928453676, -6994.978427288345, -14828.594306539811, -586.1297948515171, -1321.099856030924, -2025.649193006658, -3851.585549305147, -20493.10749687046, -17250.115245594414, -22817.890085922492, -13359.302384770202, -7387.162135501163, -12119.205250645311, -6219.261135966914, -8917.496671378216, 0.002, -0.026000000000000002, 0.988, 192.0, 0.0, 0.0, 0.0, 0.0, 0.0, 0.0, 0.0, 0.0, 0.0, 1.6444976434066672E9, 0.0, 2022-02-10 23:54:03.406
114.0, -10301.60609502865, -12187.445126467363, -7003.561497159183, -14827.521422805958, -590.3319228091149, -1331.6051759249183, -2025.6938964955684, -3856.614691807591, -20490.738211958196, -17253.982097385182, -22834.832708219616, -13372.020527365272, -7391.632484392225, -12143.59100384605, -6222.32332495729, -8923.486938892238, 0.002, -0.026000000000000002, 0.988, 192.0, 0.0, 0.0, 0.0, 0.0, 0.0, 0.0, 0.0, 0.0, 0.0, 1.6444976434066737E9, 0.0, 2022-02-10 23:54:03.406
116.0, -10290.832554201193, -12185.03113806619, -6996.274828466753, -14825.308600104881, -570.3718150105257, -1324.229100254667, -2016.5296812688925, -3843.941252701432, -20502.003491163672, -17273.115190638924, -22823.94740866988, -13361.112876071082, -7390.112565769264, -12169.921358814403, -6214.27669695338, -8922.659924347392, 0.006, -0.026000000000000002, 0.99, 192.0, 0.0, 24.0, 127.5, 24.0, 15.0, 120.0, 0.0, 0.0, 0.0, 1.6444976434066803E9, 0.0, 2022-02-10 23:54:03.406
118.0, -10295.772289725815, -12177.856228096036, -6996.967732544867, -14823.453405315091, -582.4641087608468, -1336.611966682907, -2027.9514226855545, -3863.2755116552726, -20494.515656771142, -17273.0257836611, -22832.128147140524, -13368.399544763512, -7378.668472608147, -12162.366469188508, -6212.04152250785, -8920.827081302057, 0.006, -0.026000000000000002, 0.99, 192.0, 0.0, 0.0, 0.0, 0.0, 0.0, 0.0, 0.0, 0.0, 0.0, 1.6444976434066868E9, 0.0, 2022-02-10 23:54:03.406
120.0, -10284.931693664992, -12164.713402356316, -6990.977465030845, -14827.36496059477, -572.2046580558608, -1322.4409606982424, -2023.9504604280546, -3843.1142381565855, -20485.73142120021, -17247.74596068215, -22818.270065578232, -13353.915614356472, -7383.742318599501, -12144.97681200228, -6212.600316119232, -8921.43057840235, 0.006, -0.026000000000000002, 0.99, 192.0, 0.0, 0.0, 0.0, 0.0, 0.0, 0.0, 0.0, 0.0, 0.0, 1.6444976434066935E9, 0.0, 2022-02-10 23:54:03.406
122.0, -10295.124089136612, -12177.498600184752, -7000.43225293544, -14832.572917052856, -580.6983209488775, -1332.9239288477813, -2017.580213258292, -3843.181293389952, -20485.91023515585, -17244.482605991674, -22813.822068431626, -13351.859253866585, -7379.294321452895, -12144.686239324361, -6209.359313173212, -8917.04963648911, 0.006, -0.026000000000000002, 0.99, 192.0, 0.0, 0.0, 0.0, 0.0, 0.0, 0.0, 0.0, 0.0, 0.0, 1.6444976434067E9, 0.0, 2022-02-10 23:54:03.406
124.0, -10300.332045594698, -12170.234283236776, -7008.814157106181, -14832.639972286222, -576.9208761359306, -1330.9793270801697, -2024.1739778726076, -3843.270700367773, -20493.554531759564, -17273.316356339023, -22838.207821632364, -13381.229446080857, -7398.114490284263, -12149.0671812376, -6216.869499310195, -8921.363523168984, 0.006, -0.026000000000000002, 0.99, 192.0, 0.0, 0.0, 0.0, 0.0, 0.0, 0.0, 0.0, 0.0, 0.0, 1.6444976434067063E9, 0.0, 2022-02-10 23:54:03.406
126.0, -10302.343702595675, -12190.440260224374, -7002.667427380971, -14831.790605996921, -578.4631465033468, -1324.0726380434799, -2022.3187830828172, -3857.262892396795, -20491.85579918096, -17263.70510622324, -22826.584914515606, -13372.98165237685, -7404.350626987294, -12130.179957172866, -6209.828699806774, -8923.464587147784, 0.008, -0.024, 0.99, 192.0, 0.0, 32.0, 127.5, 32.0, 15.0, 120.0, 0.0, 0.0, 0.0, 1.644497643406713E9, 0.0, 2022-02-10 23:54:03.406
