%OpenBCI Raw EEG Data
%Number of channels = 16
%Sample Rate = 125 Hz
%Board = OpenBCI_GUI$BoardCytonSerialDaisy
Sample Index, EXG Channel 0, EXG Channel 1, EXG Channel 2, EXG Channel 3, EXG Channel 4, EXG Channel 5, EXG Channel 6, EXG Channel 7, EXG Channel 8, EXG Channel 9, EXG Channel 10, EXG Channel 11, EXG Channel 12, EXG Channel 13, EXG Channel 14, EXG Channel 15, Accel Channel 0, Accel Channel 1, Accel Channel 2, Other, Other, Other, Other, Other, Other, Other, Analog Channel 0, Analog Channel 1, Analog Channel 2, Timestamp, Other, Timestamp (Formatted)
0.0, -4334.785560939975, -7196.971141930955, -9642.475502786101, -20821.58873338565, -133.12698997580887, -918.1426069906482, -1131.7135252611072, 268.9138375417993, 0.0, 0.0, 0.0, 0.0, 0.0, 0.0, 0.0, 0.0, 0.0, 0.0, 0.0, 192.0, 0.0, 0.0, 0.0, 0.0, 0.0, 0.0, 0.0, 0.0, 0.0, 1.6444972556489491E9, 0.0, 2022-02-10 23:47:35.648
226.0, -4365.496857821567, -7218.719389285969, -9648.53282553349, -20831.35644571262, -145.77807733751266, -926.1668832501034, -1150.0196039700036, 257.827372291967, -25015.692414723926, -12432.487300930894, -21868.164464016496, -13405.101109159126, -3728.7180100343244, -8408.94978153107, -6316.066541202848, -15550.2203762794, 0.008, -0.024, 0.994, 192.0, 0.0, 32.0, 127.5, 32.0, 15.5, 8.0, 0.0, 0.0, 0.0, 1.644497255648958E9, 0.0, 2022-02-10 23:47:35.648
228.0, -4375.890418993285, -7239.886491285145, -9646.007078410039, -20824.762681098306, -149.33200470590648, -932.3806682086788, -1143.0458596999479, 254.38520364584969, -25029.86342070859, -12441.964440579944, -21888.303385770727, -13436.974696752393, -3755.8083243141564, -8452.535683218919, -6330.6175268432535, -15565.821893909204, 0.008, -0.024, 0.994, 192.0, 0.0, 0.0, 0.0, 0.0, 0.0, 0.0, 0.0, 0.0, 0.0, 1.6444972556489654E9, 0.0, 2022-02-10 23:47:35.648
230.0, -4344.799142455953, -7210.873926982156, -9644.91184293173, -20817.63247461706, -120.54295784747099, -909.4701301419891, -1120.9176326891939, 270.6125701204026, -25011.222065832862, -12419.70210310246, -21861.816568591188, -13405.36933009259, -3749.6168911000364, -8428.328743973821, -6314.703084791075, -15546.889966355558, 0.008, -0.024, 0.994, 192.0, 0.0, 0.0, 0.0, 0.0, 0.0, 0.0, 0.0, 0.0, 0.0, 1.644497255648985E9, 0.0, 2022-02-10 23:47:35.648
232.0, -4357.919616451218, -7203.9001827121, -9651.460904057134, -20818.660654862008, -141.1065627463535, -923.1270460041817, -1140.8330369988726, 255.50279086861502, -25012.42906003345, -12429.827443340713, -21865.57166165968, -13411.381949351067, -3744.565396853137, -8429.111055029756, -6318.0558464593705, -15551.337963502165, 0.008, -0.024, 0.994, 192.0, 0.0, 0.0, 0.0, 0.0, 0.0, 0.0, 0.0, 0.0, 0.0, 1.644497255648991E9, 0.0, 2022-02-10 23:47:35.648
234.0, -4322.939136378663, -7168.874999150634, -9645.381229565292, -20817.45366066142, -118.62070782431458, -899.6577143261093, -1127.6455077702412, 278.1674597462964, -25007.28815880873, -12429.089835773688, -21877.84276936564, -13420.412054111011, -3746.1300189650083, -8426.182976506112, -6323.286154661912, -15549.482768712374, 0.008, -0.024, 0.994, 192.0, 0.0, 0.0, 0.0, 0.0, 0.0, 0.0, 0.0, 0.0, 0.0, 1.644497255648998E9, 0.0, 2022-02-10 23:47:35.648
236.0, -4345.536750022978, -7206.291819368818, -9658.05466867145, -20823.734500853363, -130.6906498301804, -915.2592319559136, -1141.525941076987, 274.16649748879644, -24997.18517031493, -12405.620504095616, -21843.89046953803, -13397.076832899671, -3733.143655436475, -8400.210249449045, -6307.282305631913, -15536.764626117305, 0.006, -0.022, 0.996, 192.0, 0.0, 24.0, 127.5, 40.0, 15.5, 16.0, 0.0, 0.0, 0.0, 1.6444972556490045E9, 0.0, 2022-02-10 23:47:35.649
238.0, -4354.633910016288, -7223.9049939996, -9657.831151226897, -20823.734500853363, -127.8743300288117, -916.1533017341259, -1131.8476357278391, 273.27242771058417, -25019.20163860341, -12435.661248643548, -21894.42776375148, -13433.286658917268, -3741.5479113516703, -8422.204365993068, -6326.370695396745, -15548.164015789513, 0.006, -0.022, 0.996, 192.0, 0.0, 0.0, 0.0, 0.0, 0.0, 0.0, 0.0, 0.0, 0.0, 1.6444972556490111E9, 0.0, 2022-02-10 23:47:35.649
240.0, -4341.893415676763, -7216.774787518358, -9658.702869260655, -20833.74808236934, -113.09982694385374, -901.1999846935255, -1128.360763592811, 277.4522039237266, -25005.41061227448, -12417.93631529049, -21864.766998859286, -13410.934914461961, -3743.7830857972012, -8396.343397658276, -6311.193860911591, -15539.782111618772, 0.006, -0.022, 0.996, 192.0, 0.0, 0.0, 0.0, 0.0, 0.0, 0.0, 0.0, 0.0, 0.0, 1.6444972556490176E9, 0.0, 2022-02-10 23:47:35.649
242.0, -4361.831171730897, -7215.925421229055, -9655.19364538117, -20839.78305337227, -135.0939434878759, -931.5313019193771, -1147.0021184685372, 253.71465131219045, -25012.071432122164, -12425.401797938563, -21880.435571722457, -13435.924164762995, -3751.69560333438, -8409.933258287103, -6313.876070246229, -15553.193158291955, 0.006, -0.022, 0.996, 192.0, 0.0, 0.0, 0.0, 0.0, 0.0, 0.0, 0.0, 0.0, 0.0, 1.6444972556490245E9, 0.0, 2022-02-10 23:47:35.649
244.0, -4331.723371949598, -7194.467746551961, -9656.95943319314, -20825.589695643153, -122.4875596150827, -919.0813802577711, -1144.5657783229087, 267.63978810784675, -25010.037423376732, -12436.421207955029, -21876.56871993169, -13425.262382657813, -3750.5780161116145, -8423.634877638207, -6320.20161392708, -15555.204815292933, 0.006, -0.022, 0.996, 192.0, 0.0, 0.0, 0.0, 0.0, 0.0, 0.0, 0.0, 0.0, 0.0, 1.6444972556490307E9, 0.0, 2022-02-10 23:47:35.649
246.0, -4341.424029043202, -7206.269467624363, -9661.496837317567, -20830.93176256797, -130.22126319661893, -927.0609530283157, -1140.6318712987747, 264.19761946172946, -24995.531141225238, -12425.55826014975, -21857.70384761141, -13405.36933009259, -3737.792818283179, -8410.916735043136, -6310.29979113338, -15543.760722131816, 0.006, -0.024, 0.994, 192.0, 0.0, 24.0, 127.5, 32.0, 15.5, 8.0, 0.0, 0.0, 0.0, 1.6444972556490374E9, 0.0, 2022-02-10 23:47:35.649
248.0, -4366.413279344235, -7225.514319600382, -9663.262625129537, -20838.441948704953, -145.48750465959367, -940.8966828461508, -1156.814534284417, 249.62428207686926, -25021.347406071116, -12437.717609133437, -21889.890359627054, -13438.51696711981, -3750.332146922606, -8428.99929630748, -6328.024724486438, -15560.07749558419, 0.006, -0.024, 0.994, 192.0, 0.0, 0.0, 0.0, 0.0, 0.0, 0.0, 0.0, 0.0, 0.0, 1.644497255649044E9, 0.0, 2022-02-10 23:47:35.649
250.0, -4341.111104620827, -7207.789386247324, -9667.330642620402, -20842.197041773445, -139.98897552358812, -929.7431623629526, -1158.5356186074757, 260.64369209333563, -25014.150144356507, -12429.492167173883, -21872.56775767419, -13425.575307080187, -3755.562455125148, -8416.862299068249, -6326.951840752583, -15553.729600158884, 0.006, -0.024, 0.994, 192.0, 0.0, 0.0, 0.0, 0.0, 0.0, 0.0, 0.0, 0.0, 0.0, 1.6444972556490507E9, 0.0, 2022-02-10 23:47:35.649
252.0, -4370.078965434905, -7225.871947511667, -9673.320910134426, -20842.197041773445, -156.48456293160476, -944.3612032367234, -1151.0924877038585, 245.13158144135255, -25025.258961350795, -12450.07812381722, -21889.95741486042, -13437.689952574963, -3764.1231732515307, -8435.347191732788, -6328.7399803090075, -15560.658640940028, 0.006, -0.024, 0.994, 192.0, 0.0, 0.0, 0.0, 0.0, 0.0, 0.0, 0.0, 0.0, 0.0, 1.6444972556490576E9, 0.0, 2022-02-10 23:47:35.649
254.0, -4348.397773313257, -7214.919592728566, -9655.037183169983, -20832.474032935388, -128.2096061956413, -923.507025659922, -1136.8320747413725, 259.5708083594809, -25023.202600860906, -12446.41243772655, -21890.605615449622, -13438.271097930801, -3760.569245883137, -8427.881709084715, -6325.476625618533, -15556.858844382627, 0.006, -0.024, 0.994, 192.0, 0.0, 0.0, 0.0, 0.0, 0.0, 0.0, 0.0, 0.0, 0.0, 1.6444972556490653E9, 0.0, 2022-02-10 23:47:35.649
0.0, -4338.451247030645, -7208.5716973032595, -9660.647471028265, -20843.404035974032, -137.21735921113006, -927.0386012838604, -1150.7795632814841, 255.68160482425748, -25004.583597729637, -12428.59809739567, -21864.990516303842, -13419.406225610523, -3741.1455799514747, -8402.825403550316, -6312.244392900991, -15548.745161145349, 0.008, -0.026000000000000002, 0.99, 192.0, 0.0, 32.0, 127.5, 24.0, 15.0, 120.0, 0.0, 0.0, 0.0, 1.6444972556490746E9, 0.0, 2022-02-10 23:47:35.649
2.0, -4346.900206434751, -7192.299627339796, -9658.188779138181, -20840.051274305737, -139.40783016775015, -933.2300344979805, -1143.1129149333137, 250.71951755517932, -25018.084051380643, -12436.734132377404, -21907.145906346548, -13457.247728973358, -3750.4886091337935, -8436.844758611292, -6331.0869134768145, -15563.497312485852, 0.008, -0.026000000000000002, 0.99, 192.0, 0.0, 0.0, 0.0, 0.0, 0.0, 0.0, 0.0, 0.0, 0.0, 1.6444972556490812E9, 0.0, 2022-02-10 23:47:35.649
4.0, -4337.646584230254, -7190.332673827729, -9654.947776192163, -20839.514832438806, -126.55557710594859, -918.3437726907459, -1137.592034052853, 265.91870378478814, -25010.32799605465, -12433.291963731286, -21870.80196986222, -13428.928068748482, -3743.3136991636397, -8422.450235182076, -6318.659343559664, -15550.488597212863, 0.008, -0.026000000000000002, 0.99, 192.0, 0.0, 0.0, 0.0, 0.0, 0.0, 0.0, 0.0, 0.0, 0.0, 1.6444972556490877E9, 0.0, 2022-02-10 23:47:35.649
6.0, -4353.851598960352, -7204.391921090117, -9654.85836921434, -20839.961867327915, -143.0064610250546, -929.9219763185951, -1148.7902580249618, 254.83223853495582, -25012.205542588898, -12438.857548100657, -21882.38017349007, -13425.642362313552, -3750.689774833891, -8424.841871838793, -6321.363904638756, -15555.338925759665, 0.008, -0.026000000000000002, 0.99, 192.0, 0.0, 0.0, 0.0, 0.0, 0.0, 0.0, 0.0, 0.0, 0.0, 1.644497255649094E9, 0.0, 2022-02-10 23:47:35.649
8.0, -4329.890528904263, -7196.4794035529385, -9656.53475004849, -20839.537184183264, -130.28831842998486, -920.7354093474638, -1134.9098247182162, 264.3987851618272, -25014.99951064581, -12439.930431834511, -21888.23633053736, -13430.4703391159, -3752.6120248570473, -8424.685409627606, -6326.907137263673, -15554.98129784838, 0.008, -0.026000000000000002, 0.99, 192.0, 0.0, 0.0, 0.0, 0.0, 0.0, 0.0, 0.0, 0.0, 0.0, 1.6444972556491008E9, 0.0, 2022-02-10 23:47:35.649
10.0, -4312.0314850844725, -7174.37352828664, -9646.118837132315, -20842.375855729086, -135.51862663252672, -921.473016914489, -1130.9982694385374, 264.3317299284613, -24978.879091606035, -12417.22105946792, -21843.264620693284, -13410.80080399523, -3727.3545536225506, -8406.334627429798, -6308.019913198938, -15549.169844290001, 0.006, -0.026000000000000002, 0.99, 192.0, 0.0, 24.0, 127.5, 24.0, 15.0, 120.0, 0.0, 0.0, 0.0, 1.6444972556491075E9, 0.0, 2022-02-10 23:47:35.649
12.0, -4353.695136749165, -7200.480365810438, -9662.457962329145, -20843.828719118683, -158.36210946585055, -934.1911595095587, -1142.2188451551015, 251.3453663999279, -25019.961597914888, -12442.053847557765, -21900.52978998778, -13446.161263723525, -3753.528446379715, -8439.57167143484, -6322.794416283896, -15562.625594452096, 0.006, -0.026000000000000002, 0.99, 192.0, 0.0, 0.0, 0.0, 0.0, 0.0, 0.0, 0.0, 0.0, 0.0, 1.6444972556491144E9, 0.0, 2022-02-10 23:47:35.649
14.0, -4315.808929897419, -7181.816659190257, -9656.579453537399, -20836.60910565962, -141.39713542427248, -914.3875139221566, -1132.4734845725877, 270.0090730201093, -25018.061699636186, -12424.060693271244, -21879.5638536887, -13413.259495885313, -3743.268995674729, -8417.71166535755, -6311.752654522974, -15548.476940211885, 0.006, -0.026000000000000002, 0.99, 192.0, 0.0, 0.0, 0.0, 0.0, 0.0, 0.0, 0.0, 0.0, 0.0, 1.6444972556491208E9, 0.0, 2022-02-10 23:47:35.649
16.0, -4350.141209380771, -7201.955580944488, -9660.558064050445, -20839.738349883362, -164.95587408016613, -932.7829996088743, -1147.6279673132858, 258.1402967143413, -25029.215220119386, -12434.007219553856, -21888.52690321528, -13419.27211514379, -3749.460428888849, -8411.252011209966, -6311.953820223072, -15549.259251267822, 0.006, -0.026000000000000002, 0.99, 192.0, 0.0, 0.0, 0.0, 0.0, 0.0, 0.0, 0.0, 0.0, 0.0, 1.6444972556491275E9, 0.0, 2022-02-10 23:47:35.649
18.0, -4331.209281827126, -7178.732118455425, -9655.14894189226, -20829.568306156198, -147.4991616605713, -915.147473233637, -1128.718391504096, 274.0100352776093, -25044.05677843771, -12435.594193410183, -21904.798973178742, -13429.218641426402, -3764.1231732515307, -8412.637819366195, -6316.960610981061, -15548.007553578325, 0.006, -0.026000000000000002, 0.99, 192.0, 0.0, 0.0, 0.0, 0.0, 0.0, 0.0, 0.0, 0.0, 0.0, 1.6444972556491342E9, 0.0, 2022-02-10 23:47:35.649
20.0, -4336.864273174318, -7192.634903506626, -9662.547369306967, -20833.993951558346, -144.14639999227524, -923.8199500822963, -1133.9934031955486, 259.1908287037407, -25031.450394564916, -12417.802204823758, -21881.731972900867, -13407.202173137925, -3751.5167893787375, -8409.754444331462, -6296.709930504552, -15534.462396438408, 0.01, -0.026000000000000002, 0.988, 192.0, 0.0, 40.0, 127.5, 24.0, 15.0, 112.0, 0.0, 0.0, 0.0, 1.6444972556491408E9, 0.0, 2022-02-10 23:47:35.649
22.0, -4329.868177159808, -7180.1626301005645, -9658.76992449402, -20834.55274516973, -152.03656578499863, -936.2698717439023, -1144.9681097231044, 245.6456715638246, -25042.80508074821, -12438.07523704472, -21916.734804717875, -13443.99314451136, -3759.1610859824523, -8431.636802153207, -6311.752654522974, -15552.79082689176, 0.01, -0.026000000000000002, 0.988, 192.0, 0.0, 0.0, 0.0, 0.0, 0.0, 0.0, 0.0, 0.0, 0.0, 1.6444972556491473E9, 0.0, 2022-02-10 23:47:35.649
24.0, -4306.577659437377, -7168.897350895089, -9655.595976781366, -20827.51194566631, -131.89764403076697, -921.5400721478549, -1128.9866124375596, 264.95757877320995, -25021.682682237948, -12408.682693085992, -21879.809722877708, -13407.917428960494, -3743.939548008388, -8411.47552865452, -6305.918849220139, -15541.12321628609, 0.01, -0.026000000000000002, 0.988, 192.0, 0.0, 0.0, 0.0, 0.0, 0.0, 0.0, 0.0, 0.0, 0.0, 1.644497255649154E9, 0.0, 2022-02-10 23:47:35.649
26.0, -4345.626157000799, -7185.5046970253825, -9659.932215205696, -20832.74225386885, -151.5671791514372, -942.3271944912905, -1135.2451008850458, 247.61262507589163, -25021.95090317141, -12398.333835403186, -21883.47540896838, -13411.896039473539, -3752.8131905571454, -8421.690275870595, -6305.829442242318, -15545.951193088436, 0.01, -0.026000000000000002, 0.988, 192.0, 0.0, 0.0, 0.0, 0.0, 0.0, 0.0, 0.0, 0.0, 0.0, 1.6444972556491604E9, 0.0, 2022-02-10 23:47:35.649
28.0, -4308.835185627364, -7146.567958184238, -9647.236424355082, -20825.723806109883, -127.78492305099047, -908.441949897045, -1119.0177344104927, 273.89827655533276, -25023.53787702774, -12406.93925701848, -21894.628929451577, -13417.483975587365, -3750.9132922784443, -8409.553278631363, -6309.137500421703, -15539.804463363227, 0.011, -0.027000000000000003, 0.99, 192.0, 0.0, 48.0, 127.5, 16.0, 15.5, 0.0, 0.0, 0.0, 0.0, 1.6444972556491673E9, 0.0, 2022-02-10 23:47:35.649
30.0, -4326.113084091316, -7187.51635402636, -9649.471598800612, -20828.69658812244, -136.18917896618592, -923.3282117042794, -1127.0867141588587, 256.26275018009545, -25011.646748977513, -12412.482489643395, -21867.650373894023, -13396.719204988385, -3733.657745558947, -8409.2850576979, -6286.0034449104605, -15528.583887646662, 0.011, -0.027000000000000003, 0.99, 192.0, 0.0, 0.0, 0.0, 0.0, 0.0, 0.0, 0.0, 0.0, 0.0, 1.6444972556491735E9, 0.0, 2022-02-10 23:47:35.649
32.0, -4328.258851559026, -7182.084880123721, -9658.255834371548, -20822.907486308515, -144.0346412699987, -927.5079879174219, -1136.9661852081044, 239.76716277207885, -25037.552420801214, -12438.432864956007, -21902.988481877863, -13421.306123889224, -3746.1300189650083, -8425.870052083737, -6303.996599196983, -15546.085303555168, 0.011, -0.027000000000000003, 0.99, 192.0, 0.0, 0.0, 0.0, 0.0, 0.0, 0.0, 0.0, 0.0, 0.0, 1.6444972556491823E9, 0.0, 2022-02-10 23:47:35.649
34.0, -4303.582525680366, -7152.2229495314305, -9661.943872206673, -20820.895829307537, -118.55365259094866, -913.761665077408, -1113.6309639967637, 260.91191302679937, -25014.84304843462, -12388.49906784285, -21878.110990299105, -13400.094318401138, -3740.698545062369, -8402.847755294772, -6293.133651391703, -15530.752006858827, 0.011, -0.027000000000000003, 0.99, 192.0, 0.0, 0.0, 0.0, 0.0, 0.0, 0.0, 0.0, 0.0, 0.0, 1.6444972556491888E9, 0.0, 2022-02-10 23:47:35.649
36.0, -4345.29088083397, -7182.353101057184, -9652.802008724453, -20821.83460257466, -142.380612180306, -925.7198483609973, -1128.338411848356, 249.33370939895028, -25019.916894425976, -12407.006312251844, -21878.75919088831, -13400.362539334601, -3741.592614840581, -8402.534830872397, -6296.15113689317, -15535.579983661173, 0.011, -0.027000000000000003, 0.99, 192.0, 0.0, 0.0, 0.0, 0.0, 0.0, 0.0, 0.0, 0.0, 0.0, 1.6444972556491954E9, 0.0, 2022-02-10 23:47:35.649
38.0, -4313.104368818327, -7152.759391398357, -9652.153808135248, -20813.5644571262, -127.67316432871394, -910.8559382982181, -1119.397714066233, 256.75448855811226, -25027.024749162763, -12424.328914204707, -21891.47733348338, -13413.572420307688, -3746.9570335098547, -8402.914810528137, -6303.996599196983, -15535.22235574989, 0.0115, -0.029500000000000002, 0.991, 192.0, 0.0, 48.0, 127.5, 0.0, 15.5, 0.0, 0.0, 0.0, 0.0, 1.6444972556492023E9, 0.0, 2022-02-10 23:47:35.649
40.0, -4315.205432797126, -7168.852647406179, -9655.10423840335, -20824.427404931477, -128.34371666237314, -913.6052028662209, -1111.7757692069733, 246.00329947510954, -25011.66910072197, -12408.369768663619, -21868.097408783127, -13390.214847351892, -3740.922062506922, -8380.138382928179, -6287.5904187667875, -15528.382721946566, 0.0115, -0.029500000000000002, 0.991, 192.0, 0.0, 0.0, 0.0, 0.0, 0.0, 0.0, 0.0, 0.0, 0.0, 1.6444972556492088E9, 0.0, 2022-02-10 23:47:35.649
42.0, -4324.2355375570705, -7174.75350794238, -9653.807837224942, -20820.35938744061, -142.24650171357413, -925.5410344053548, -1121.9905164230486, 232.12286616836386, -25027.29297009623, -12418.629219368604, -21896.931159130476, -13430.827967027184, -3750.108629478053, -8399.986732004492, -6296.441709571089, -15540.40796046352, 0.0115, -0.029500000000000002, 0.991, 192.0, 0.0, 0.0, 0.0, 0.0, 0.0, 0.0, 0.0, 0.0, 0.0, 1.6444972556492157E9, 0.0, 2022-02-10 23:47:35.649
44.0, -4308.343447249347, -7164.203484559475, -9656.802970981953, -20816.559590883207, -130.24361494107424, -909.246612697436, -1113.3627430633, 246.5173895975816, -25014.574827501157, -12414.851774555656, -21880.52497870028, -13400.31783584569, -3749.728649822313, -8392.90122901216, -6289.356206578756, -15528.673294624485, 0.0115, -0.029500000000000002, 0.991, 192.0, 0.0, 0.0, 0.0, 0.0, 0.0, 0.0, 0.0, 0.0, 0.0, 1.644497255649222E9, 0.0, 2022-02-10 23:47:35.649
46.0, -4314.065493829906, -7154.74869665488, -9657.518226804523, -20818.92887579547, -146.71685060463557, -928.1561885066258, -1132.562891550409, 234.38039235834987, -25016.452374035405, -12405.553448862249, -21888.482199726368, -13405.27992311477, -3750.5556643671594, -8396.253990680456, -6292.686616502598, -15530.774358603283, 0.0115, -0.029500000000000002, 0.991, 192.0, 0.0, 0.0, 0.0, 0.0, 0.0, 0.0, 0.0, 0.0, 0.0, 1.6444972556492286E9, 0.0, 2022-02-10 23:47:35.649
48.0, -4309.28222051647, -7141.583519170705, -9642.564909763922, -20814.279712948766, -125.639155583281, -915.3933424226454, -1111.7087139736075, 238.11313368238615, -25018.866362436576, -12414.672960600015, -21889.510379971314, -13418.802728510229, -3757.864684804045, -8402.333665172298, -6298.788642738896, -15534.149472016034, 0.01175, -0.027750000000000004, 0.9924999999999999, 192.0, 0.0, 48.0, 127.5, 24.0, 15.5, 8.0, 0.0, 0.0, 0.0, 1.6444972556492352E9, 0.0, 2022-02-10 23:47:35.649
50.0, -4318.558194465422, -7156.805057144768, -9639.56977600691, -20814.145602482033, -119.00068748005481, -913.1581679771148, -1104.1538243477137, 237.15200867080793, -25002.415478517472, -12409.26383844183, -21852.85351906461, -13383.062289126194, -3726.326373377606, -8375.89155148167, -6276.459250028044, -15521.498384654331, 0.01175, -0.027750000000000004, 0.9924999999999999, 192.0, 0.0, 0.0, 0.0, 0.0, 0.0, 0.0, 0.0, 0.0, 0.0, 1.6444972556492417E9, 0.0, 2022-02-10 23:47:35.649
52.0, -4314.512528719011, -7152.111190809154, -9638.34043006187, -20817.58777112815, -126.6226323393145, -920.5789471362767, -1111.395789551233, 237.80020926001183, -25011.24441757732, -12419.500937402361, -21889.13040031557, -13407.202173137925, -3740.720896806824, -8392.007159233948, -6287.1210321332255, -15532.517794670797, 0.01175, -0.027750000000000004, 0.9924999999999999, 192.0, 0.0, 0.0, 0.0, 0.0, 0.0, 0.0, 0.0, 0.0, 0.0, 1.644497255649263E9, 0.0, 2022-02-10 23:47:35.649
54.0, -4313.752569407531, -7166.840990405201, -9645.4259330542, -20822.013416530302, -115.02207696701015, -908.5313568748662, -1106.07607437087, 256.62037809138036, -25012.8537431781, -12407.542754118771, -21885.24119678035, -13411.493708073343, -3742.4866846187933, -8386.75449928695, -6280.795488452374, -15525.231125978367, 0.01175, -0.027750000000000004, 0.9924999999999999, 192.0, 0.0, 0.0, 0.0, 0.0, 0.0, 0.0, 0.0, 0.0, 0.0, 1.6444972556492698E9, 0.0, 2022-02-10 23:47:35.649
56.0, -4349.157732624738, -7181.190810345508, -9650.902110445752, -20824.494460164842, -133.64108009828092, -918.7237523464862, -1112.8933564297386, 240.46006685019339, -25024.119022383577, -12430.02860904081, -21878.938004843953, -13415.584077308666, -3739.603309584059, -8383.737013785483, -6281.354282063757, -15528.293314968743, 0.01175, -0.027750000000000004, 0.9924999999999999, 192.0, 0.0, 0.0, 0.0, 0.0, 0.0, 0.0, 0.0, 0.0, 0.0, 1.6444972556492765E9, 0.0, 2022-02-10 23:47:35.649
58.0, -4321.016886355506, -7167.399784016584, -9641.782598707987, -20814.190305970944, -123.4263328822056, -901.6246678381763, -1106.9254406601717, 250.9430349997324, -25032.120946898576, -12436.465911443938, -21889.644490438044, -13419.316818632702, -3742.1514084519636, -8395.337569157788, -6293.111299647248, -15534.797672605238, 0.011875, -0.025875000000000002, 0.99325, 192.0, 0.0, 48.0, 127.5, 32.0, 15.5, 8.0, 0.0, 0.0, 0.0, 1.6444972556492832E9, 0.0, 2022-02-10 23:47:35.649
60.0, -4316.300668275437, -7161.9906618584, -9649.561005778432, -20818.03480601726, -125.59445209437038, -906.340885918246, -1114.301516330423, 255.32397691297257, -25014.46306877888, -12418.36099843514, -21876.389905976048, -13396.94272243294, -3723.711219276335, -8378.529057327398, -6279.655549485154, -15520.626666620574, 0.011875, -0.025875000000000002, 0.99325, 192.0, 0.0, 0.0, 0.0, 0.0, 0.0, 0.0, 0.0, 0.0, 0.0, 1.64449725564929E9, 0.0, 2022-02-10 23:47:35.649
62.0, -4338.294784819458, -7159.420211246039, -9649.382191822791, -20814.905561793516, -139.29607144547361, -916.9803162789723, -1109.0488563834258, 250.74186929963463, -25028.343502085627, -12428.285172973297, -21896.90880738602, -13427.519908847798, -3745.951205009366, -8407.742787330484, -6294.6312182702095, -15535.490576683353, 0.011875, -0.025875000000000002, 0.99325, 192.0, 0.0, 0.0, 0.0, 0.0, 0.0, 0.0, 0.0, 0.0, 0.0, 1.6444972556492965E9, 0.0, 2022-02-10 23:47:35.649
64.0, -4304.18602278066, -7145.606833172659, -9641.022639396506, -20815.15143098252, -110.41761760921689, -898.3389614032461, -1103.6397342252415, 265.02463400657587, -25016.608836246593, -12410.783757064792, -21875.965222831397, -13408.208001638413, -3735.848216515567, -8382.708833540539, -6282.695386731075, -15527.198079490434, 0.011875, -0.025875000000000002, 0.99325, 192.0, 0.0, 0.0, 0.0, 0.0, 0.0, 0.0, 0.0, 0.0, 0.0, 1.6444972556493175E9, 0.0, 2022-02-10 23:47:35.649
66.0, -4317.552365964933, -7149.630147174615, -9641.782598707987, -20815.665521104995, -131.9646992641329, -918.4778831574778, -1130.4171240826993, 244.79630527452295, -25006.818772175167, -12408.0791959857, -21876.076981553673, -13409.414995839, -3722.0348384421873, -8379.959568972537, -6282.360110564246, -15531.087283025658, 0.011875, -0.025875000000000002, 0.99325, 192.0, 0.0, 0.0, 0.0, 0.0, 0.0, 0.0, 0.0, 0.0, 0.0, 1.644497255649324E9, 0.0, 2022-02-10 23:47:35.649
68.0, -4307.538784448956, -7153.228778031919, -9638.787464950976, -20807.685948334452, -112.40692286573922, -897.3554846472126, -1101.5610219908979, 257.73796531414575, -25016.47472577986, -12411.78958556528, -21880.614385678102, -13412.3654261071, -3727.890995489478, -8388.453231865553, -6293.625389769721, -15534.17182376049, 0.0119375, -0.025937500000000002, 0.994625, 192.0, 0.0, 48.0, 127.5, 24.0, 15.5, 16.0, 0.0, 0.0, 0.0, 1.6444972556493309E9, 0.0, 2022-02-10 23:47:35.649
70.0, -4315.160729308215, -7160.761315913358, -9646.074133643406, -20813.855029804115, -112.56338507692637, -892.8627840116959, -1106.0984261153253, 261.4260031492714, -25000.42617326095, -12403.40768139454, -21855.938059799442, -13388.136135117547, -3700.577163765093, -8370.057746178836, -6270.8042586808515, -15522.057178265713, 0.0119375, -0.025937500000000002, 0.994625, 192.0, 0.0, 0.0, 0.0, 0.0, 0.0, 0.0, 0.0, 0.0, 0.0, 1.6444972556493375E9, 0.0, 2022-02-10 23:47:35.649
72.0, -4347.369593068313, -7168.696185194992, -9645.71650573212, -20815.330244938166, -129.55071086295973, -910.632420853665, -1103.9973621365264, 249.22195067667374, -25030.53397304225, -12425.200632238464, -21898.965167875907, -13422.401359367534, -3731.400219368961, -8390.487240610986, -6287.702177489064, -15537.658695895518, 0.0119375, -0.025937500000000002, 0.994625, 192.0, 0.0, 0.0, 0.0, 0.0, 0.0, 0.0, 0.0, 0.0, 0.0, 1.6444972556493442E9, 0.0, 2022-02-10 23:47:35.649
74.0, -4308.075226315883, -7146.880882606612, -9651.170331379215, -20811.485744891852, -115.98320197858835, -892.9074875006065, -1109.2947255724341, 262.56594211649207, -25024.834278206145, -12422.071388014721, -21875.920519342486, -13405.436385325955, -3726.236966399785, -8387.246237664967, -6277.710947717542, -15530.148509758534, 0.0119375, -0.025937500000000002, 0.994625, 192.0, 0.0, 0.0, 0.0, 0.0, 0.0, 0.0, 0.0, 0.0, 0.0, 1.644497255649351E9, 0.0, 2022-02-10 23:47:35.649
76.0, -4338.630060986288, -7170.774897429335, -9650.745648234564, -20821.432271174464, -134.91512953223344, -914.0075342664164, -1111.529900017965, 252.73117455615696, -25016.228856590853, -12415.276457700307, -21878.22274902138, -13413.37125460759, -3724.2029576543523, -8371.600016546252, -6274.402889538156, -15532.808367348716, 0.0119375, -0.025937500000000002, 0.994625, 192.0, 0.0, 0.0, 0.0, 0.0, 0.0, 0.0, 0.0, 0.0, 0.0, 1.6444972556493573E9, 0.0, 2022-02-10 23:47:35.649
78.0, -4306.600011181833, -7161.208350802464, -9648.689287744677, -20807.373023912078, -123.18046369319723, -908.2854876858578, -1106.880737171261, 256.9780060026653, -25026.644769507024, -12436.041228299287, -21893.131362573073, -13432.951382750438, -3730.506149590749, -8400.56787736033, -6287.344549577779, -15538.93274532947, 0.00996875, -0.02496875, 0.9933125, 192.0, 0.0, 32.0, 127.5, 32.0, 15.5, 0.0, 0.0, 0.0, 0.0, 1.6444972556493638E9, 0.0, 2022-02-10 23:47:35.649
80.0, -4310.422159483691, -7149.294871007785, -9654.634851769788, -20809.965826268894, -126.10854221684245, -906.698513829531, -1109.495891272532, 261.2695409380843, -25007.66813846447, -12407.11807097412, -21865.772827359775, -13396.406280566012, -3702.58882076607, -8383.13351668519, -6271.698328459064, -15525.342884700643, 0.00996875, -0.02496875, 0.9933125, 192.0, 0.0, 0.0, 0.0, 0.0, 0.0, 0.0, 0.0, 0.0, 0.0, 1.644497255649371E9, 0.0, 2022-02-10 23:47:35.649
82.0, -4355.595035027866, -7152.602929187171, -9656.266529115026, -20819.2641519623, -145.5992633818702, -916.0638947563046, -1124.9632984356044, 248.86432276538883, -25033.707920754903, -12427.45815842845, -21901.96030163292, -13431.140891449559, -3728.650954800958, -8399.80791804885, -6288.19391586708, -15537.50223368433, 0.00996875, -0.02496875, 0.9933125, 192.0, 0.0, 0.0, 0.0, 0.0, 0.0, 0.0, 0.0, 0.0, 0.0, 1.6444972556493917E9, 0.0, 2022-02-10 23:47:35.649
84.0, -4330.136398093271, -7163.443525247994, -9651.393848823769, -20818.571247884185, -128.67899282920277, -897.4001881361232, -1113.5639087633979, 257.5144478695927, -25027.04710090722, -12429.291001473786, -21882.536635701257, -13418.668618043497, -3730.573204824115, -8388.050900465358, -6283.611808253742, -15530.416730691997, 0.00996875, -0.02496875, 0.9933125, 192.0, 0.0, 0.0, 0.0, 0.0, 0.0, 0.0, 0.0, 0.0, 0.0, 1.6444972556493983E9, 0.0, 2022-02-10 23:47:35.649
86.0, -4343.525093022, -7169.165571828553, -9652.62319476881, -20822.236933974855, -146.60509188235903, -915.5274528893773, -1114.167405863691, 249.4231163767715, -25020.14041187053, -12434.834234098702, -21881.776676389778, -13416.925181975983, -3722.459521586838, -8390.75546154445, -6279.744956462974, -15535.244707494345, 0.00996875, -0.02496875, 0.9933125, 192.0, 0.0, 0.0, 0.0, 0.0, 0.0, 0.0, 0.0, 0.0, 0.0, 1.6444972556494055E9, 0.0, 2022-02-10 23:47:35.649
88.0, -4314.75839790802, -7140.778856370313, -9653.96429943613, -20815.464355404896, -142.1347429912976, -898.473071869978, -1110.591126750842, 261.13543047135244, -25022.397938060516, -12423.546603148772, -21898.026394608783, -13430.55974609372, -3730.461446101838, -8394.75642380195, -6295.704102004064, -15539.580945918673, 0.007984375, -0.023484375000000002, 0.99265625, 192.0, 0.0, 24.0, 127.5, 40.0, 15.5, 0.0, 0.0, 0.0, 0.0, 1.6444972556494122E9, 0.0, 2022-02-10 23:47:35.649
90.0, -4329.264680059514, -7160.247225790886, -9656.557101792945, -20819.2641519623, -142.7158883471356, -904.955077762017, -1113.5639087633979, 261.22483744917366, -25010.14918209901, -12418.271591457318, -21867.38215296056, -13403.648245769531, -3719.173815151908, -8383.513496340931, -6284.438822798589, -15526.192250989945, 0.007984375, -0.023484375000000002, 0.99265625, 192.0, 0.0, 0.0, 0.0, 0.0, 0.0, 0.0, 0.0, 0.0, 0.0, 1.6444972556494193E9, 0.0, 2022-02-10 23:47:35.649
0.0, -4230.335859100325, -5159.587283085261, -2076.611170364758, -6156.430382303046, 509.8656427700094, 130.31067017444016, 73.04550087994348, -224.50092130910414, -12517.08865369423, -6225.139644758659, -10961.40723960486, -6719.046141987579, -1866.2141998069526, -4206.6430099777, -3156.5357037229187, -7774.450811678268, 0.0089921875, -0.024742187500000002, 0.991328125, 192.0, 0.0, 40.0, 127.5, 24.0, 15.0, 120.0, 0.0, 0.0, 0.0, 1.6444972557611456E9, 0.0, 2022-02-10 23:47:35.761
2.0, -8463.130410090735, -10324.069598206235, -4157.513875664935, -12312.681950650449, 1008.6001168012759, 261.2695409380843, 144.79460058147916, -453.4274880203591, -19577.423581769894, -15289.21905627478, -20922.015121223347, -11946.113341583412, -6280.191991352081, -9689.034186486506, -2574.3845193844463, -6903.179812810399, 0.0089921875, -0.024742187500000002, 0.991328125, 192.0, 0.0, 0.0, 0.0, 0.0, 0.0, 0.0, 0.0, 0.0, 0.0, 1.644497256240882E9, 0.0, 2022-02-10 23:47:36.240
4.0, -8451.574558207341, -10316.715874280439, -4152.797657584865, -12309.887982593535, 1017.3620006277563, 273.3618346884054, 153.10944951885338, -437.6471564349123, -19573.26615730121, -15283.519361438675, -20913.23088565241, -11950.538986985564, -6283.120069875726, -9681.434593371701, -2576.9549699968065, -6900.542306964673, 0.0089921875, -0.024742187500000002, 0.991328125, 192.0, 0.0, 0.0, 0.0, 0.0, 0.0, 0.0, 0.0, 0.0, 0.0, 1.6444972562410042E9, 0.0, 2022-02-10 23:47:36.241
6.0, -8467.220779326055, -10321.454444104964, -4162.095983278273, -12318.091072808633, 1012.9140034811502, 272.2665992100953, 141.71005984664677, -446.45374375030326, -19578.16118933692, -15273.528131667154, -20907.017100693836, -11939.608983946919, -6288.126860633714, -9690.174125453726, -2571.8364205165412, -6899.983513353291, 0.0089921875, -0.024742187500000002, 0.991328125, 192.0, 0.0, 0.0, 0.0, 0.0, 0.0, 0.0, 0.0, 0.0, 0.0, 1.6444972562410111E9, 0.0, 2022-02-10 23:47:36.241
8.0, -8446.724229660538, -10292.37482456861, -4161.313672222337, -12317.062892563688, 1019.6865820511082, 281.5649249035031, 145.97924303761042, -442.22926404825023, -19579.59170098206, -15271.360012454988, -20930.95581900547, -11965.648766237351, -6287.05397689986, -9672.560950822945, -2574.585685084544, -6902.956295365846, 0.01, -0.03, 0.986, 192.0, 0.0, 40.0, 127.5, 8.0, 15.0, 104.0, 0.0, 0.0, 0.0, 1.6444972562410183E9, 0.0, 2022-02-10 23:47:36.241
10.0, -8425.534775916907, -10289.51380127833, -4154.652852374656, -12303.093052279122, 1029.655460078175, 288.0916342844527, 145.6216151263255, -436.23899653422797, -19557.10584606002, -15252.964526768272, -20898.05405116726, -11922.152271527324, -6272.726508704008, -9664.402564096757, -2568.4166036148795, -6896.608399940539, 0.01, -0.03, 0.986, 192.0, 0.0, 0.0, 0.0, 0.0, 0.0, 0.0, 0.0, 0.0, 0.0, 1.644497256241025E9, 0.0, 2022-02-10 23:47:36.241
12.0, -8475.043889885414, -10330.61865933164, -4172.82482061682, -12307.317531981174, 1009.62829704622, 270.03142476456463, 138.51376038953788, -449.80650541859933, -19573.0202881122, -15280.97126257077, -20913.23088565241, -11933.93164085527, -6280.795488452374, -9670.169314166227, -2571.232923416248, -6900.899934875958, 0.01, -0.03, 0.986, 192.0, 0.0, 0.0, 0.0, 0.0, 0.0, 0.0, 0.0, 0.0, 0.0, 1.644497256241032E9, 0.0, 2022-02-10 23:47:36.241
14.0, -8449.227625039533, -10316.782929513804, -4167.058070547351, -12309.776223871258, 1014.9256604821278, 279.32975045797235, 140.05603075695404, -441.0669733365743, -19585.134933606976, -15294.337605755045, -20919.17644967752, -11936.189167045257, -6288.171564122626, -9674.885532246297, -2575.0327199736503, -6905.057359344645, 0.01, -0.03, 0.986, 192.0, 0.0, 0.0, 0.0, 0.0, 0.0, 0.0, 0.0, 0.0, 0.0, 1.6444972562410383E9, 0.0, 2022-02-10 23:47:36.241
16.0, -8454.972023364548, -10315.62063880213, -4172.601303172267, -12310.223258760365, 1004.1968231435804, 272.8030410770227, 126.42146663921675, -452.5557699866021, -19590.856980187535, -15291.253065020212, -20915.778984520315, -11932.054094321025, -6293.6924450030865, -9678.037128214495, -2574.2727606621697, -6909.103025091055, 0.012, -0.027, 0.985, 192.0, 0.0, 56.0, 127.5, 32.0, 15.0, 96.0, 0.0, 0.0, 0.0, 1.644497256241046E9, 0.0, 2022-02-10 23:47:36.241
18.0, -8442.522101702942, -10303.550696796263, -4169.1591345261495, -12300.075566777656, 1008.6671720346418, 283.10719527091925, 131.45060914166083, -445.3361565275379, -19582.206855083332, -15279.428992203355, -20923.177411935023, -11936.233870534166, -6292.776023480418, -9668.604692054354, -2578.3407781530354, -6907.784272168193, 0.012, -0.027, 0.985, 192.0, 0.0, 0.0, 0.0, 0.0, 0.0, 0.0, 0.0, 0.0, 0.0, 1.644497256241053E9, 0.0, 2022-02-10 23:47:36.241
20.0, -8427.345267217788, -10298.99094092738, -4164.174695512616, -12303.204811001398, 1009.9635732130496, 285.0294452940757, 146.89566456027802, -433.69089766632294, -19578.809389926122, -15268.968375798271, -20907.33002511621, -11925.236812262156, -6294.094776403282, -9662.4803140736, -2575.0327199736503, -6895.26729527322, 0.012, -0.027, 0.985, 192.0, 0.0, 0.0, 0.0, 0.0, 0.0, 0.0, 0.0, 0.0, 0.0, 1.6444972562410598E9, 0.0, 2022-02-10 23:47:36.241
22.0, -8441.829197624827, -10301.092004906179, -4171.304901993859, -12313.084282050644, 988.3941398136783, 265.29285494003955, 133.8869492872893, -441.1116768254849, -19578.65292771494, -15267.202587986301, -20917.27655139882, -11937.127940312379, -6292.954837436061, -9665.38604085279, -2572.171696683371, -6901.615190698528, 0.012, -0.027, 0.985, 192.0, 0.0, 0.0, 0.0, 0.0, 0.0, 0.0, 0.0, 0.0, 0.0, 1.6444972562410667E9, 0.0, 2022-02-10 23:47:36.241
24.0, -8431.547395175385, -10293.626522258106, -4163.504143178957, -12306.088186036133, 1011.3940848581893, 266.58925611844734, 150.20372273966345, -449.56063622959095, -19582.229206827786, -15262.955756539794, -20917.231847909912, -11937.329106012477, -6299.593305539287, -9695.359730167358, -2575.256237418203, -6909.058321602145, 0.012, -0.027, 0.985, 192.0, 0.0, 0.0, 0.0, 0.0, 0.0, 0.0, 0.0, 0.0, 0.0, 1.6444972562410734E9, 0.0, 2022-02-10 23:47:36.241
26.0, -8439.99635457949, -10297.448670559963, -4164.509971679446, -12311.273790749765, 1007.4825295785106, 257.2685786805843, 141.75476333555739, -455.79677293262165, -19572.88617764547, -15275.852713090506, -20900.26687386833, -11926.220289018189, -6287.948046678072, -9682.172200938727, -2563.521571579167, -6908.141900079478, 0.01, -0.0235, 0.9855, 192.0, 0.0, 32.0, 127.5, 48.0, 15.0, 104.0, 0.0, 0.0, 0.0, 1.6444972562410803E9, 0.0, 2022-02-10 23:47:36.241
28.0, -8433.089665542802, -10298.186278126988, -4155.815143086332, -12306.62462790306, 1012.0422854473932, 268.9361892862546, 149.57787389491486, -445.42556350535915, -19571.500369489237, -15280.770096870674, -20911.599208307172, -11934.110454810912, -6286.8304594553065, -9677.567741580933, -2569.198914670815, -6906.957257623346, 0.01, -0.0235, 0.9855, 192.0, 0.0, 0.0, 0.0, 0.0, 0.0, 0.0, 0.0, 0.0, 0.0, 1.6444972562410867E9, 0.0, 2022-02-10 23:47:36.241
30.0, -8424.305429971866, -10296.621656015117, -4154.0717070188175, -12314.313627995685, 1015.9761924715273, 271.9760265321763, 145.84513257087858, -438.3400605130268, -19573.579081723583, -15270.39888744341, -20896.265911610833, -11918.64304764784, -6282.941255920084, -9672.87387524532, -2563.74508902372, -6900.587010453583, 0.01, -0.0235, 0.9855, 192.0, 0.0, 0.0, 0.0, 0.0, 0.0, 0.0, 0.0, 0.0, 0.0, 1.6444972562410936E9, 0.0, 2022-02-10 23:47:36.241
32.0, -8430.85449109727, -10304.869449719126, -4169.673224648622, -12318.605162931104, 994.4067590721559, 258.78849730354517, 119.89475725826708, -461.8093921910992, -19574.361392779516, -15265.861483318984, -20902.882027969605, -11928.790739630549, -6283.611808253742, -9682.038090471995, -2575.546810096122, -6906.398464011963, 0.01, -0.0235, 0.9855, 192.0, 0.0, 0.0, 0.0, 0.0, 0.0, 0.0, 0.0, 0.0, 0.0, 1.6444972562411003E9, 0.0, 2022-02-10 23:47:36.241
34.0, -8413.531889144408, -10292.106603635146, -4161.984224555997, -12320.281543765253, 1004.8897272216949, 271.2384189651512, 128.1649027067307, -458.590740989535, -19571.612128211516, -15264.676840862852, -20912.09094668519, -11928.209594274711, -6288.685654245098, -9675.91371249124, -2586.0297782456614, -6911.6734757034155, 0.01, -0.0235, 0.9855, 192.0, 0.0, 0.0, 0.0, 0.0, 0.0, 0.0, 0.0, 0.0, 0.0, 1.6444972562411072E9, 0.0, 2022-02-10 23:47:36.241
36.0, -8434.609584165762, -10298.812126971738, -4167.370994969725, -12320.505061209806, 994.8984974501726, 257.02270949157594, 114.41857986671685, -470.6383312509455, -19570.986279366767, -15269.571872898565, -20900.177466890513, -11919.470062192686, -6286.249314099469, -9671.041032199983, -2582.297036921625, -6914.042760615678, 0.009000000000000001, -0.02275, 0.98675, 192.0, 0.0, 32.0, 127.5, 40.0, 15.0, 112.0, 0.0, 0.0, 0.0, 1.644497256241116E9, 0.0, 2022-02-10 23:47:36.241
38.0, -8439.1916917791, -10303.550696796263, -4170.880218849208, -12313.017226817277, 991.5233840374214, 251.45712512220445, 116.87727175680062, -466.36914805998185, -19576.59656722505, -15283.206437016303, -20912.269760640833, -11925.750902384629, -6292.485450802499, -9684.116802706338, -2591.0142172591945, -6922.4693682753295, 0.009000000000000001, -0.02275, 0.98675, 192.0, 0.0, 0.0, 0.0, 0.0, 0.0, 0.0, 0.0, 0.0, 0.0, 1.6444972562411225E9, 0.0, 2022-02-10 23:47:36.241
40.0, -8425.132444516712, -10292.978321668903, -4167.5721606698235, -12315.67708440746, 1008.6001168012759, 262.0742037384753, 130.0871527298871, -458.09900261151824, -19572.21562531181, -15275.204512501303, -20895.930635444, -11918.64304764784, -6288.90917168965, -9691.96226501015, -2587.102661979516, -6918.088426362089, 0.009000000000000001, -0.02275, 0.98675, 192.0, 0.0, 0.0, 0.0, 0.0, 0.0, 0.0, 0.0, 0.0, 0.0, 1.6444972562411292E9, 0.0, 2022-02-10 23:47:36.241
42.0, -8443.28206101442, -10302.298999106766, -4184.514782966946, -12320.39330248753, 994.0044276719603, 255.21221819069603, 117.59252757937045, -460.3788805459596, -19576.30599454713, -15281.239483504234, -20910.14634491758, -11927.69550415224, -6290.563200779343, -9691.761099310053, -2586.0744817345717, -6919.340124051586, 0.009000000000000001, -0.02275, 0.98675, 192.0, 0.0, 0.0, 0.0, 0.0, 0.0, 0.0, 0.0, 0.0, 0.0, 1.644497256241136E9, 0.0, 2022-02-10 23:47:36.241
44.0, -8424.99833404998, -10292.017196657323, -4176.334044496303, -12319.990971087334, 1009.0471516903821, 266.7904218185451, 140.03367901249874, -441.24578729221673, -19578.697631203846, -15273.97516655626, -20911.643911796084, -11932.545832699041, -6295.078253159315, -9684.072099217427, -2586.0744817345717, -6913.349856537564, 0.009000000000000001, -0.02275, 0.98675, 192.0, 0.0, 0.0, 0.0, 0.0, 0.0, 0.0, 0.0, 0.0, 0.0, 1.6444972562411427E9, 0.0, 2022-02-10 23:47:36.241
46.0, -8432.173244020134, -10306.009388686347, -4179.753861397965, -12327.277639779764, 1004.9791341995161, 266.25397995161774, 131.71883007512452, -450.14178158542893, -19574.607261968526, -15268.610747886987, -20898.098754656166, -11913.636256889851, -6290.5855525237985, -9676.427802613713, -2575.099775207016, -6910.958219880846, 0.0105, -0.023375, 0.988375, 192.0, 0.0, 48.0, 127.5, 32.0, 15.0, 120.0, 0.0, 0.0, 0.0, 1.6444972562411494E9, 0.0, 2022-02-10 23:47:36.241
48.0, -8439.81754062385, -10305.405891586053, -4185.610018445256, -12329.490462480839, 1004.2191748880357, 266.7904218185451, 129.23778644058544, -458.07665086706294, -19578.96585213731, -15278.959605569793, -20914.46023159745, -11927.516690196597, -6297.581648538309, -9685.457907373657, -2588.3543596690133, -6915.383865282997, 0.0105, -0.023375, 0.988375, 192.0, 0.0, 0.0, 0.0, 0.0, 0.0, 0.0, 0.0, 0.0, 0.0, 1.6444972562411566E9, 0.0, 2022-02-10 23:47:36.241
50.0, -8427.278211984421, -10293.380653069098, -4178.300998008371, -12322.33790425514, 1015.7526750269742, 266.65631135181326, 139.2290162121077, -457.0261188776635, -19570.561596222116, -15271.941157810827, -20897.964644189437, -11913.770367356583, -6293.603038025265, -9694.666826089242, -2579.7936415426307, -6912.254621059254, 0.0105, -0.023375, 0.988375, 192.0, 0.0, 0.0, 0.0, 0.0, 0.0, 0.0, 0.0, 0.0, 0.0, 1.6444972562411633E9, 0.0, 2022-02-10 23:47:36.241
52.0, -8452.245110541, -10318.526365581318, -4185.274742278426, -12321.086206565644, 1002.6545527761642, 262.45418339421553, 130.9812225080994, -459.2389415787389, -19576.663622458414, -15284.301672494612, -20905.720699515427, -11925.88501285136, -6291.121994390726, -9698.82425055793, -2583.9287142668622, -6913.886298404491, 0.0105, -0.023375, 0.988375, 192.0, 0.0, 0.0, 0.0, 0.0, 0.0, 0.0, 0.0, 0.0, 0.0, 1.64449725624117E9, 0.0, 2022-02-10 23:47:36.241
54.0, -8434.542528932396, -10310.725606766417, -4173.2048002725605, -12319.566287942684, 1011.081160435815, 277.36279694590536, 137.3738214223172, -442.89981638190943, -19579.88227365998, -15285.396907972921, -20908.76053676135, -11924.230983761667, -6299.258029372458, -9692.3869481548, -2586.6332753459546, -6908.991266368779, 0.0105, -0.023375, 0.988375, 192.0, 0.0, 0.0, 0.0, 0.0, 0.0, 0.0, 0.0, 0.0, 0.0, 1.644497256241177E9, 0.0, 2022-02-10 23:47:36.241
56.0, -8441.270404013445, -10306.188202641988, -4179.30682650886, -12327.903488624514, 1004.5544510548654, 264.44348865073783, 129.4389521406832, -458.38957528943723, -19575.456628257827, -15274.109277022992, -20898.434030823, -11914.038588290046, -6294.497107803477, -9696.723186579131, -2585.8956677789292, -6913.662780959939, 0.009250000000000001, -0.0236875, 0.9891875, 192.0, 0.0, 32.0, 127.5, 32.0, 15.0, 120.0, 0.0, 0.0, 0.0, 1.6444972562411838E9, 0.0, 2022-02-10 23:47:36.241
58.0, -8433.804921365372, -10296.867525204127, -4182.994864343985, -12329.088131080644, 995.9266776951168, 270.2996456980283, 133.39521090927255, -452.62282521996804, -19578.049430614643, -15278.780791614152, -20914.99667346438, -11935.250393778133, -6297.447538071578, -9700.813555814453, -2597.1162434954936, -6917.0155426282345, 0.009250000000000001, -0.0236875, 0.9891875, 192.0, 0.0, 0.0, 0.0, 0.0, 0.0, 0.0, 0.0, 0.0, 0.0, 1.6444972562411904E9, 0.0, 2022-02-10 23:47:36.241
60.0, -8435.458950455064, -10305.919981708525, -4173.070689805829, -12326.405921746007, 1006.0296661889156, 275.3511399449277, 140.39130692378367, -455.34973804351546, -19570.271023544195, -15285.754535884207, -20893.918978443024, -11914.373864456877, -6301.403796840167, -9697.058462745961, -2595.7974905726305, -6910.712350691838, 0.009250000000000001, -0.0236875, 0.9891875, 192.0, 0.0, 0.0, 0.0, 0.0, 0.0, 0.0, 0.0, 0.0, 0.0, 1.6444972562411985E9, 0.0, 2022-02-10 23:47:36.241
62.0, -8443.259709269967, -10302.366054340131, -4177.943370097086, -12335.927764883967, 988.3941398136783, 261.3589479159055, 124.32040266041788, -469.11841262798464, -19581.402192282938, -15288.056765563104, -20905.452478581963, -11928.544870441541, -6298.766290994441, -9700.545334880988, -2599.4184731743903, -6920.792987441181, 0.009250000000000001, -0.0236875, 0.9891875, 192.0, 0.0, 0.0, 0.0, 0.0, 0.0, 0.0, 0.0, 0.0, 0.0, 1.644497256241208E9, 0.0, 2022-02-10 23:47:36.241
64.0, -8440.599851679784, -10308.401025343064, -4168.153306025661, -12331.05508459271, 998.6535905186643, 269.2714654530842, 124.0521817269542, -473.32054058558236, -19578.898796903944, -15283.608768416498, -20912.42622285202, -11927.941373341248, -6300.465023573044, -9709.106053007372, -2605.162871499404, -6925.308039821153, 0.009250000000000001, -0.0236875, 0.9891875, 192.0, 0.0, 0.0, 0.0, 0.0, 0.0, 0.0, 0.0, 0.0, 0.0, 1.6444972562412145E9, 0.0, 2022-02-10 23:47:36.241
66.0, -8459.487075744519, -10331.468025620941, -4178.211591030549, -12334.385494516551, 989.5564305253542, 265.29285494003955, 112.9657164771219, -474.90751444190914, -19580.284605060173, -15285.3075009951, -20892.51081854234, -11911.334027210954, -6298.810994483351, -9692.498706877079, -2606.414569188901, -6924.816301443137, 0.007625000000000001, -0.02484375, 0.98959375, 192.0, 0.0, 24.0, 127.5, 24.0, 15.0, 120.0, 0.0, 0.0, 0.0, 1.6444972562412212E9, 0.0, 2022-02-10 23:47:36.241
68.0, -8465.231474069533, -10331.222156431933, -4185.073576578328, -12342.163901586999, 986.4495380460666, 254.25109317911785, 107.15426291874206, -480.78602323365493, -19596.10964013453, -15302.98773085925, -20922.752728790372, -11927.941373341248, -6311.931468478617, -9702.512288393056, -2613.3659617145017, -6929.376057312019, 0.007625000000000001, -0.02484375, 0.98959375, 192.0, 0.0, 0.0, 0.0, 0.0, 0.0, 0.0, 0.0, 0.0, 0.0, 1.64449725624123E9, 0.0, 2022-02-10 23:47:36.241
70.0, -8448.937052361614, -10328.517595352841, -4179.552695697867, -12347.282451067264, 986.5612967683431, 261.6942240827351, 120.83353052538997, -474.66164525290077, -19595.997881412255, -15286.670957406874, -20917.52242058783, -11920.654704648818, -6318.569936581843, -9692.364596410347, -2610.9296215688732, -6930.605403257061, 0.007625000000000001, -0.02484375, 0.98959375, 192.0, 0.0, 0.0, 0.0, 0.0, 0.0, 0.0, 0.0, 0.0, 0.0, 1.6444972562412367E9, 0.0, 2022-02-10 23:47:36.241
72.0, -8470.260616571977, -10330.126920953622, -4191.443823748091, -12345.673125466481, 962.6672819456198, 238.06843019347554, 97.20773663613042, -487.0892151700515, -19593.58389301108, -15291.610692931497, -20918.260028154855, -11932.21055653221, -6324.224927929035, -9714.939858310207, -2616.89753733844, -6932.974688169324, 0.007625000000000001, -0.02484375, 0.98959375, 192.0, 0.0, 0.0, 0.0, 0.0, 0.0, 0.0, 0.0, 0.0, 0.0, 1.6444972562412434E9, 0.0, 2022-02-10 23:47:36.241
74.0, -8454.413229753165, -10319.956877226457, -4181.7208149100325, -12339.481692252362, 974.6031134847539, 253.535837356548, 118.26307991302967, -477.43326156535886, -19599.41769831392, -15302.875972136972, -20924.496164857886, -11929.014257075103, -6323.487320362011, -9725.378122970835, -2623.781874630675, -6933.5111300362505, 0.007625000000000001, -0.02484375, 0.98959375, 192.0, 0.0, 0.0, 0.0, 0.0, 0.0, 0.0, 0.0, 0.0, 0.0, 1.6444972562412503E9, 0.0, 2022-02-10 23:47:36.241
76.0, -8455.463761742563, -10317.90051673657, -4183.01721608844, -12343.326192298675, 966.5788372252986, 252.64176757833573, 119.85005376935646, -471.7559184737109, -19596.467268045817, -15296.103393567015, -20914.393176364087, -11916.49728018013, -6316.491224347499, -9702.288770948502, -2609.096778523538, -6925.1739293544215, 0.0058125, -0.024421875000000003, 0.990796875, 192.0, 0.0, 16.0, 127.5, 32.0, 15.5, 0.0, 0.0, 0.0, 0.0, 1.644497256241257E9, 0.0, 2022-02-10 23:47:36.241
78.0, -8458.123619332746, -10317.90051673657, -4183.1289748107165, -12341.515700997794, 968.3222732928126, 249.84779952142236, 127.24848118406311, -467.5537905161131, -19599.73062273629, -15300.17141105788, -20928.765348048848, -11929.863623364405, -6323.666134317653, -9705.216849472148, -2616.1152262825044, -6927.498510777773, 0.0058125, -0.024421875000000003, 0.990796875, 192.0, 0.0, 0.0, 0.0, 0.0, 0.0, 0.0, 0.0, 0.0, 0.0, 1.6444972562412636E9, 0.0, 2022-02-10 23:47:36.241
80.0, -8443.594985436795, -10325.298944151276, -4173.517724694935, -12342.655639965014, 987.1424421241811, 257.2909304250396, 133.48461788709378, -473.0299679076634, -19589.851151687046, -15285.195742272825, -20910.74984201787, -11914.910306323804, -6318.145253437192, -9707.273209962035, -2605.9675342997953, -6924.2351560872985, 0.0058125, -0.024421875000000003, 0.990796875, 192.0, 0.0, 0.0, 0.0, 0.0, 0.0, 0.0, 0.0, 0.0, 0.0, 1.6444972562412703E9, 0.0, 2022-02-10 23:47:36.241
82.0, -8460.112924589268, -10324.538984839795, -4181.027910831918, -12348.288279567752, 970.2668750604242, 252.99939548962064, 120.40884738073915, -469.7442614727332, -19587.88419817498, -15294.784640644151, -20920.18227817801, -11933.082274565968, -6316.133596436214, -9698.06429124645, -2608.9179645678955, -6930.828920701614, 0.0058125, -0.024421875000000003, 0.990796875, 192.0, 0.0, 0.0, 0.0, 0.0, 0.0, 0.0, 0.0, 0.0, 0.0, 1.6444972562412772E9, 0.0, 2022-02-10 23:47:36.241
84.0, -8444.176130792634, -10314.36894111263, -4174.9705880845295, -12343.594413232138, 980.0792908763041, 262.4318316497602, 117.19019617917493, -464.1339736144512, -19590.454648787338, -15295.03050983316, -20913.499106585874, -11932.299963510033, -6312.222041156536, -9717.465605433656, -2613.8577000925184, -6929.510167778751, 0.0058125, -0.024421875000000003, 0.990796875, 192.0, 0.0, 0.0, 0.0, 0.0, 0.0, 0.0, 0.0, 0.0, 0.0, 1.644497256241284E9, 0.0, 2022-02-10 23:47:36.241
86.0, -8464.270349057955, -10335.401932645074, -4180.558524198356, -12351.059895880211, 974.8936861626728, 256.3521571579167, 108.51771933051579, -478.12616564347337, -19595.461439545328, -15301.668977936386, -20912.158001918557, -11922.442844205243, -6318.860509259762, -9712.101186764383, -2615.8023018601302, -6935.321621337131, 9.062499999999999E-4, -0.025210937500000002, 0.9893984375, 192.0, 127.5, 112.0, 127.5, 24.0, 15.0, 112.0, 0.0, 0.0, 0.0, 1.6444972562412906E9, 0.0, 2022-02-10 23:47:36.241
88.0, -8462.571616479352, -10334.70902856696, -4181.586704443301, -12346.075456866678, 973.3961192841673, 260.2637124375954, 113.34569613286212, -474.92986618636445, -19600.57998902559, -15298.047995334626, -20929.368845149143, -11933.93164085527, -6320.5815935828205, -9715.610410643865, -2616.6293164049766, -6940.931909195413, 9.062499999999999E-4, -0.025210937500000002, 0.9893984375, 192.0, 0.0, 0.0, 0.0, 0.0, 0.0, 0.0, 0.0, 0.0, 0.0, 1.6444972562412975E9, 0.0, 2022-02-10 23:47:36.241
90.0, -8451.708668674073, -10328.897575008581, -4180.513820709446, -12347.371858045086, 977.5758954973097, 261.3812996603608, 127.06966722842066, -462.9940346472305, -19599.484753547284, -15291.208361531302, -20916.09190894269, -11927.136710540857, -6325.476625618533, -9715.141024010305, -2613.0753890365827, -6936.059228904156, 9.062499999999999E-4, -0.025210937500000002, 0.9893984375, 192.0, 0.0, 0.0, 0.0, 0.0, 0.0, 0.0, 0.0, 0.0, 0.0, 1.6444972562413042E9, 0.0, 2022-02-10 23:47:36.241
92.0, -8475.49092477452, -10331.065694220746, -4195.489489494502, -12352.535111014262, 959.6274446996981, 248.79726753202291, 112.98806822157721, -474.0804998970628, -19603.9774541828, -15305.73699542725, -20928.43007188202, -11935.585669944963, -6327.085951219315, -9718.002047300584, -2617.9257175833845, -6939.3225835946305, 9.062499999999999E-4, -0.025210937500000002, 0.9893984375, 192.0, 0.0, 0.0, 0.0, 0.0, 0.0, 0.0, 0.0, 0.0, 0.0, 1.6444972562413108E9, 0.0, 2022-02-10 23:47:36.241
94.0, -8466.214950825566, -10327.869394763637, -4189.678035936122, -12353.250366836832, 966.4894302474773, 252.9099885117994, 117.34665839036208, -471.3535870735153, -19609.319521107616, -15309.782661173662, -20933.705083573474, -11940.145425813846, -6334.529082122932, -9698.958361024663, -2624.4300752198787, -6942.049496418178, 9.062499999999999E-4, -0.025210937500000002, 0.9893984375, 192.0, 0.0, 0.0, 0.0, 0.0, 0.0, 0.0, 0.0, 0.0, 0.0, 1.6444972562413175E9, 0.0, 2022-02-10 23:47:36.241
96.0, -8472.339328806322, -10341.28044143682, -4194.014274360451, -12353.652698237027, 956.5429039648658, 245.6456715638246, 96.98421919157734, -484.7869854911549, -19616.114451422032, -15313.716568197797, -20922.976246234924, -11935.183338544768, -6337.524215879944, -9720.572497912945, -2619.646801906443, -6945.066981919645, 0.002, -0.022, 0.986, 192.0, 0.0, 8.0, 127.5, 40.0, 15.0, 104.0, 0.0, 0.0, 0.0, 1.6444972562413244E9, 0.0, 2022-02-10 23:47:36.241
98.0, -8462.571616479352, -10336.430112890019, -4191.197954559083, -12351.819855191692, 952.988976596472, 244.86336050788887, 95.01726567951032, -485.2116686358057, -19609.475983318804, -15317.494013010742, -20937.080196986222, -11952.327126541988, -6337.971250769049, -9725.758102626574, -2628.4980927107445, -6947.078638920622, 0.002, -0.022, 0.986, 192.0, 0.0, 0.0, 0.0, 0.0, 0.0, 0.0, 0.0, 0.0, 0.0, 1.644497256241331E9, 0.0, 2022-02-10 23:47:36.241
100.0, -8462.169285079157, -10334.776083800327, -4184.783003900409, -12348.86942492359, 967.8081831703405, 248.0596599649978, 124.32040266041788, -483.848212224032, -19603.753936738245, -15310.252047807224, -20922.395100879086, -11941.50888222562, -6339.267651947457, -9718.024399045038, -2623.1783775303816, -6943.23413887431, 0.002, -0.022, 0.986, 192.0, 0.0, 0.0, 0.0, 0.0, 0.0, 0.0, 0.0, 0.0, 0.0, 1.6444972562413397E9, 0.0, 2022-02-10 23:47:36.241
102.0, -8474.619206740763, -10334.597269844684, -4194.617771460745, -12340.800445175224, 959.0239475994048, 241.86822675087774, 106.6625245407253, -485.52459305818, -19606.100869906055, -15300.50668722471, -20927.75951954836, -11941.97826885918, -6334.529082122932, -9724.014666559062, -2619.2891739951583, -6947.391563342997, 0.002, -0.022, 0.986, 192.0, 0.0, 0.0, 0.0, 0.0, 0.0, 0.0, 0.0, 0.0, 0.0, 1.6444972562413464E9, 0.0, 2022-02-10 23:47:36.241
104.0, -8454.077953586335, -10325.544813340284, -4184.268913777937, -12332.507947982305, 977.1959158415694, 251.14420069983015, 115.91614674522242, -477.9026481989203, -19606.145573394966, -15303.814745404095, -20929.771176549337, -11945.129864827379, -6334.283212933924, -9721.06423629096, -2618.2833454946694, -6939.1437696389885, 0.002, -0.022, 0.986, 192.0, 0.0, 0.0, 0.0, 0.0, 0.0, 0.0, 0.0, 0.0, 0.0, 1.6444972562413533E9, 0.0, 2022-02-10 23:47:36.241
106.0, -8457.274253043444, -10328.428188375019, -4191.779099914921, -12340.0628376082, 972.0773663613041, 241.4882470951375, 107.24366989656329, -480.47309881128064, -19605.564428039128, -15303.680634937364, -20912.537981574296, -11930.221251275689, -6333.143273966703, -9701.104128492372, -2616.942240827351, -6938.160292882954, 0.002, -0.022, 0.986, 192.0, 0.0, 0.0, 127.5, 40.0, 15.0, 104.0, 0.0, 0.0, 0.0, 1.6444972562413597E9, 0.0, 2022-02-10 23:47:36.241
108.0, -8468.316014804366, -10325.924792996026, -4196.1600418281605, -12340.86750040859, 963.6507587016534, 235.4979795811152, 106.39430360726162, -467.37497656047066, -19614.88510547699, -15295.343434255534, -20934.219173695943, -11941.061847336514, -6334.439675145111, -9730.988410829117, -2625.681772909376, -6943.345897596586, 0.002, -0.022, 0.986, 192.0, 0.0, 0.0, 0.0, 0.0, 0.0, 0.0, 0.0, 0.0, 0.0, 1.6444972562413664E9, 0.0, 2022-02-10 23:47:36.241
110.0, -8460.179979822633, -10331.266859920843, -4190.594457458789, -12343.214433576399, 975.340721051779, 247.7914390315341, 114.99972522255484, -465.63154049295673, -19607.26316061773, -15296.751594156218, -20915.577818820217, -11935.3174490115, -6335.713724579064, -9722.07006479145, -2620.8984995959404, -6935.27691784822, 0.002, -0.022, 0.986, 192.0, 0.0, 0.0, 0.0, 0.0, 0.0, 0.0, 0.0, 0.0, 0.0, 1.6444972562413733E9, 0.0, 2022-02-10 23:47:36.241
112.0, -8479.58129400984, -10346.555453128274, -4204.743111698998, -12345.851939422124, 960.1415348221702, 233.95570921369904, 118.64305956876989, -477.45561330981417, -19611.1300124085, -15321.629085734974, -20922.70802530146, -11947.74501892865, -6341.8828060487285, -9714.425768187735, -2620.876147851485, -6939.99313592829, 0.002, -0.022, 0.986, 192.0, 0.0, 0.0, 0.0, 0.0, 0.0, 0.0, 0.0, 0.0, 0.0, 1.64449725624138E9, 0.0, 2022-02-10 23:47:36.241
114.0, -8456.58134896533, -10336.608926845662, -4193.187259815605, -12339.369933530084, 974.5584099958432, 249.46781986568212, 123.04635322646538, -470.75008997322203, -19612.582875798093, -15313.358940286511, -20930.419377138543, -11947.633260206374, -6341.167550226159, -9711.855317575373, -2620.13854028446, -6936.7968364711805, 0.002, -0.022, 0.986, 192.0, 0.0, 0.0, 0.0, 0.0, 0.0, 0.0, 0.0, 0.0, 0.0, 1.6444972562413867E9, 0.0, 2022-02-10 23:47:36.241
116.0, -8448.378258750232, -10328.986981986402, -4190.8179749033425, -12343.63911672105, 966.1094505917372, 244.75160178561234, 109.8364722533789, -498.26508739770503, -19606.905532706445, -15302.69715818133, -20915.130783931112, -11933.238736777155, -6333.925585022639, -9706.468547161645, -2611.264897735703, -6934.762827725748, 0.006, -0.02, 0.984, 192.0, 0.0, 24.0, 127.5, 48.0, 15.0, 96.0, 0.0, 0.0, 0.0, 1.644497256241393E9, 0.0, 2022-02-10 23:47:36.241
118.0, -8460.358793778276, -10319.286324892799, -4192.9860941155075, -12342.186253331454, 966.9141133921282, 239.67775579425762, 119.58183283589278, -470.83949695104326, -19610.370053097016, -15295.857524378005, -20929.994693993893, -11945.93452762777, -6336.518387379455, -9713.621105387343, -2620.9655548293063, -6943.32354585213, 0.006, -0.02, 0.984, 192.0, 0.0, 0.0, 0.0, 0.0, 0.0, 0.0, 0.0, 0.0, 0.0, 1.6444972562414E9, 0.0, 2022-02-10 23:47:36.241
120.0, -8454.927319875636, -10319.152214426067, -4182.547829454878, -12339.39228527454, 981.8674304327286, 249.7583925436011, 120.40884738073915, -467.66554923838964, -19605.206800127842, -15296.192800544835, -20910.638083295595, -11929.148367541835, -6333.120922222248, -9696.767890068042, -2616.5175576827, -6936.998002171279, 0.006, -0.02, 0.984, 192.0, 0.0, 0.0, 0.0, 0.0, 0.0, 0.0, 0.0, 0.0, 0.0, 1.644497256241407E9, 0.0, 2022-02-10 23:47:36.241
122.0, -8474.708613718583, -10339.961688513959, -4190.326236525326, -12334.139625327543, 970.5574477383433, 230.11120916738622, 107.6236495523035, -480.80837497811024, -19606.30203560615, -15305.491126238243, -20916.1366124316, -11932.50112921013, -6330.662230332164, -9713.285829220513, -2614.7517698707306, -6938.629679516516, 0.006, -0.02, 0.984, 192.0, 0.0, 0.0, 0.0, 0.0, 0.0, 0.0, 0.0, 0.0, 0.0, 1.6444972567205255E9, 0.0, 2022-02-10 23:47:36.720
124.0, -8453.966194864059, -10328.875223264125, -4184.3583207557585, -12326.808253146202, 981.7780234549074, 251.39006988883853, 123.06870497092069, -458.50133401171377, -19602.815163471125, -15306.45225124982, -20923.2891706573, -11940.435998491765, -6324.716666307052, -9712.54822165349, -2618.752732128231, -6940.0378394172, 0.006, -0.02, 0.984, 192.0, 0.0, 0.0, 0.0, 0.0, 0.0, 0.0, 0.0, 0.0, 0.0, 1.6444972567205353E9, 0.0, 2022-02-10 23:47:36.720
126.0, -8465.924378147647, -10326.952973240968, -4186.4146812456465, -12336.128930584066, 976.7712326969187, 244.79630527452295, 118.0172107240213, -470.12424112847344, -19605.229151872296, -15308.910943139905, -20906.972397204925, -11936.636201934363, -6327.577689597331, -9714.649285632288, -2613.254202992225, -6933.667592247438, 0.008, -0.018000000000000002, 0.988, 192.0, 0.0, 32.0, 127.5, 56.0, 15.0, 112.0, 0.0, 0.0, 0.0, 1.6444972567205427E9, 0.0, 2022-02-10 23:47:36.720
128.0, -8471.266445072466, -10341.727476325927, -4188.135765568705, -12330.786863659247, 972.1220698502148, 237.53198832654815, 104.29323962846276, -479.9813604332639, -19614.728643265804, -15311.995483874738, -20931.04522598329, -11951.880091652882, -6333.277384433435, -9710.536564652512, -2620.6079269180213, -6937.109760893555, 0.008, -0.018000000000000002, 0.988, 192.0, 0.0, 0.0, 0.0, 0.0, 0.0, 0.0, 0.0, 0.0, 0.0, 1.6444972567205503E9, 0.0, 2022-02-10 23:47:36.720
130.0, -8457.654232699184, -10331.736246554405, -4184.604189944767, -12341.78392193126, 985.0637298898375, 242.53877908453694, 116.29612640096265, -464.8715811814763, -19608.090175162575, -15293.890570865939, -20921.948065989982, -11933.55166119953, -6333.791474555907, -9701.372349425836, -2615.779950115675, -6934.94164168139, 0.008, -0.018000000000000002, 0.988, 192.0, 0.0, 0.0, 0.0, 0.0, 0.0, 0.0, 0.0, 0.0, 0.0, 1.6444972567205577E9, 0.0, 2022-02-10 23:47:36.720
132.0, -8487.046776657913, -10349.885863052114, -4193.790756915898, -12340.241651563842, 978.1793925976029, 233.73219176914594, 120.83353052538997, -469.5654475170908, -19616.606189800048, -15312.777794930673, -20930.821708538737, -11957.043344622058, -6341.033439759427, -9726.875689849341, -2613.8353483480632, -6936.886243449002, 0.008, -0.018000000000000002, 0.988, 192.0, 0.0, 0.0, 0.0, 0.0, 0.0, 0.0, 0.0, 0.0, 0.0, 1.6444972567205725E9, 0.0, 2022-02-10 23:47:36.720
134.0, -8462.258692056977, -10337.547700112784, -4188.962780113552, -12336.866538151091, 988.2376776024912, 248.97608148766537, 140.03367901249874, -464.64806373692323, -19612.69463452037, -15312.196649574835, -20930.933467261013, -11943.520539226598, -6329.9693262540495, -9724.215832259159, -2614.1482727704374, -6932.035914902201, 0.008, -0.018000000000000002, 0.988, 192.0, 0.0, 0.0, 0.0, 0.0, 0.0, 0.0, 0.0, 0.0, 0.0, 1.6444972567205796E9, 0.0, 2022-02-10 23:47:36.720
136.0, -8465.097363602801, -10334.172586700033, -4189.20864930256, -12342.007439375811, 984.5719915118208, 246.80796227550059, 133.43991439818316, -475.4216045643812, -19605.720890250315, -15304.708815182306, -20911.19687690698, -11935.250393778133, -6323.308506406368, -9711.900021064284, -2610.057903535116, -6928.794911956181, 0.01, -0.022, 0.986, 192.0, 0.0, 40.0, 127.5, 40.0, 15.0, 104.0, 0.0, 0.0, 0.0, 1.6444972567205877E9, 0.0, 2022-02-10 23:47:36.720
138.0, -8468.025442126447, -10335.804264045271, -4201.300943052882, -12342.074494609178, 972.5244012504103, 243.7457732851235, 114.15035893325317, -483.13295640146214, -19612.471117075816, -15316.13055659897, -20928.65358932657, -11948.952013129237, -6330.639878587709, -9714.001085043083, -2623.2454327637474, -6934.673420747927, 0.01, -0.022, 0.986, 192.0, 0.0, 0.0, 0.0, 0.0, 0.0, 0.0, 0.0, 0.0, 0.0, 1.644497256720595E9, 0.0, 2022-02-10 23:47:36.720
140.0, -8457.274253043444, -10319.33102838171, -4192.427300504124, -12334.385494516551, 992.9762474270162, 253.40172688981616, 125.21447243863017, -475.73452898675555, -19605.45266931685, -15301.892495380938, -20909.788717006293, -11937.798492646038, -6329.745808809496, -9722.718265380654, -2623.938336841862, -6934.584013770105, 0.01, -0.022, 0.986, 192.0, 0.0, 0.0, 0.0, 0.0, 0.0, 0.0, 0.0, 0.0, 0.0, 1.6444972567206016E9, 0.0, 2022-02-10 23:47:36.720
142.0, -8473.076936373345, -10338.732342568916, -4201.747977941987, -12334.96663987239, 979.9451804095722, 251.45712512220445, 127.2261294396078, -468.3361015720489, -19605.07268966111, -15311.146117585437, -20914.594342064185, -11936.03270483407, -6328.114131464259, -9703.182840726715, -2619.400932717435, -6926.246813088276, 0.01, -0.022, 0.986, 192.0, 0.0, 0.0, 0.0, 0.0, 0.0, 0.0, 0.0, 0.0, 0.0, 1.6444972567206087E9, 0.0, 2022-02-10 23:47:36.720
144.0, -8468.830104926838, -10337.681810579517, -4196.696483695088, -12341.627459720072, 982.7167967220303, 256.6874333247463, 131.42825739720553, -467.106755627007, -19615.198029899362, -15319.50567001172, -20936.499051630384, -11949.17553057379, -6339.982907770027, -9700.612390114355, -2623.4018949749347, -6927.029124144212, 0.01, -0.022, 0.986, 192.0, 0.0, 0.0, 0.0, 0.0, 0.0, 0.0, 0.0, 0.0, 0.0, 1.6444972567206156E9, 0.0, 2022-02-10 23:47:36.720
146.0, -8472.071107872856, -10349.192958974, -4201.770329686443, -12348.78001794577, 976.3465495522678, 243.3881453738386, 120.63236482529221, -485.70340701382247, -19615.466250832826, -15311.973132130282, -20927.62540908163, -11943.811111904515, -6341.279308948435, -9727.233317760625, -2620.8984995959404, -6932.32648758012, 0.01, -0.022, 0.996, 192.0, 0.0, 40.0, 127.5, 40.0, 15.5, 16.0, 0.0, 0.0, 0.0, 1.6444972567206223E9, 0.0, 2022-02-10 23:47:36.720
148.0, -8489.505468547997, -10350.556415385774, -4212.029780391429, -12353.406829048017, 970.8480204162622, 234.02276444706496, 129.57306260741504, -484.94344770234204, -19622.149422424965, -15315.258838565212, -20946.065598257257, -11958.384449289377, -6344.5873671278205, -9742.857187134885, -2629.906252611429, -6942.585938285106, 0.01, -0.022, 0.996, 192.0, 0.0, 0.0, 0.0, 0.0, 0.0, 0.0, 0.0, 0.0, 0.0, 1.6444972567206292E9, 0.0, 2022-02-10 23:47:36.720
150.0, -8469.031270626936, -10331.84800527668, -4205.279553565926, -12354.72558197088, 982.694444977575, 246.60679657540283, 137.41852491122782, -474.32636908607117, -19625.792756771178, -15321.114995612503, -20936.141423719102, -11956.149274843845, -6350.242358475013, -9732.798902129996, -2628.945127599851, -6941.177778384421, 0.01, -0.022, 0.996, 192.0, 0.0, 0.0, 0.0, 0.0, 0.0, 0.0, 0.0, 0.0, 0.0, 1.6444972567206368E9, 0.0, 2022-02-10 23:47:36.720
152.0, -8482.308206833388, -10346.935432784014, -4214.108492625773, -12357.854826194623, 962.823744156807, 227.36194459938343, 116.94432699016656, -493.9735524622861, -19624.474003848318, -15321.249106079234, -20934.19682195149, -11947.990888117658, -6351.471704420055, -9730.4966724511, -2634.756581158231, -6942.273013862731, 0.01, -0.022, 0.996, 192.0, 0.0, 0.0, 0.0, 0.0, 0.0, 0.0, 0.0, 0.0, 0.0, 1.6444972567206435E9, 0.0, 2022-02-10 23:47:36.720
154.0, -8473.836895684826, -10348.1424269846, -4206.352437299781, -12354.122084870587, 972.1667733391254, 238.33665112693922, 114.64209731126992, -486.26220062520514, -19624.45165210386, -15316.197611832335, -20940.90234528808, -11951.611870719418, -6353.416306187667, -9733.245937019103, -2639.025764349194, -6949.582034299617, 0.01, -0.022, 0.996, 192.0, 0.0, 0.0, 0.0, 0.0, 0.0, 0.0, 0.0, 0.0, 0.0, 1.6444972567206504E9, 0.0, 2022-02-10 23:47:36.720
156.0, -8477.189657353123, -10346.980136272925, -4203.759634942965, -12355.709058726914, 973.7537471954522, 239.6554040498023, 116.25142291205204, -476.78506097615497, -19616.673245033413, -15321.36086480151, -20932.453385883975, -11938.446693235242, -6349.124771252248, -9723.165300269759, -2629.928604355884, -6938.1379411385, 0.002, -0.02, 0.992, 192.0, 0.0, 8.0, 127.5, 48.0, 15.5, 0.0, 0.0, 0.0, 0.0, 1.6444972567206576E9, 0.0, 2022-02-10 23:47:36.720
158.0, -8496.702730262605, -10350.914043297058, -4202.619695975744, -12353.049201136733, 970.2668750604242, 239.5659970719811, 120.78882703647936, -495.24760189623856, -19622.819974758622, -15333.073178896091, -20940.231792954422, -11952.930623642282, -6351.002317786493, -9748.623937204355, -2635.4941887252558, -6941.80362722917, 0.002, -0.02, 0.992, 192.0, 0.0, 0.0, 0.0, 0.0, 0.0, 0.0, 0.0, 0.0, 0.0, 1.6444972567206643E9, 0.0, 2022-02-10 23:47:36.720
160.0, -8480.92239867716, -10350.131732241123, -4193.388425515703, -12356.290204082752, 985.1978403565694, 247.4785146091598, 130.02009749652117, -473.32054058558236, -19625.658646304448, -15321.852603179528, -20930.28526667181, -11947.007411361625, -6349.147122996703, -9736.106960309382, -2629.190996788859, -6937.176816126921, 0.002, -0.02, 0.992, 192.0, 0.0, 0.0, 0.0, 0.0, 0.0, 0.0, 0.0, 0.0, 0.0, 1.644497256720671E9, 0.0, 2022-02-10 23:47:36.720
162.0, -8494.981645939546, -10351.338726441709, -4205.771291943943, -12356.111390127111, 967.0929273477707, 238.42605810476044, 114.08330369988725, -480.6519127669231, -19629.97253298432, -15317.739882199752, -20937.1919557085, -11948.303812540033, -6351.1587799976805, -9739.683239422231, -2632.7225724127975, -6940.350763839575, 0.002, -0.02, 0.992, 192.0, 0.0, 0.0, 0.0, 0.0, 0.0, 0.0, 0.0, 0.0, 0.0, 1.644497256720678E9, 0.0, 2022-02-10 23:47:36.720
164.0, -8476.496753275009, -10335.625450089628, -4197.054111606373, -12351.238709835854, 975.9442181520723, 249.9595582436989, 121.77230379251287, -473.1193748854846, -19630.576030084616, -15330.346266072544, -20943.67396160054, -11962.698335969251, -6354.846817832807, -9735.503463209088, -2637.8634736375184, -6939.680211505915, 0.002, -0.02, 0.992, 192.0, 0.0, 0.0, 127.5, 56.0, 15.0, 112.0, 0.0, 0.0, 0.0, 1.644497256720688E9, 0.0, 2022-02-10 23:47:36.720
166.0, -8477.01084339748, -10349.081200251723, -4194.997751116485, -12355.306727326719, 985.3766543122118, 241.24237790612912, 120.54295784747099, -485.1669651468951, -19619.578971812603, -15326.010027648215, -20925.501993358375, -11946.381562516877, -6352.432829431633, -9729.535547439522, -2628.1404647994596, -6935.746304481781, 0.002, -0.02, 0.992, 192.0, 0.0, 0.0, 0.0, 0.0, 0.0, 0.0, 0.0, 0.0, 0.0, 1.6444972567206948E9, 0.0, 2022-02-10 23:47:36.720
168.0, -8477.167305608667, -10349.327069440731, -4202.373826786737, -12354.278547081774, 973.9325611510947, 234.1792266582521, 110.17174842020852, -490.8443082385431, -19626.30684689365, -15338.303487098634, -20951.161795993066, -11960.261995823623, -6355.450314933099, -9744.980602858139, -2634.9130433694177, -6942.697697007382, 0.002, -0.02, 0.992, 192.0, 0.0, 0.0, 0.0, 0.0, 0.0, 0.0, 0.0, 0.0, 0.0, 1.6444972567207017E9, 0.0, 2022-02-10 23:47:36.720
170.0, -8473.278102073444, -10333.546737855284, -4192.159079570661, -12353.965622659402, 991.2775148484129, 239.70010753871293, 132.5905481088815, -479.64608426643423, -19624.07167244812, -15325.831213692572, -20934.57680160723, -11955.232853321178, -6349.661213119175, -9744.958251113683, -2628.3416304995576, -6938.652031260972, 0.002, -0.02, 0.992, 192.0, 0.0, 0.0, 0.0, 0.0, 0.0, 0.0, 0.0, 0.0, 0.0, 1.6444972567207086E9, 0.0, 2022-02-10 23:47:36.720
172.0, -8492.142974393722, -10355.138522999112, -4200.004541874474, -12359.68766923996, 973.0608431173376, 233.50867432459287, 118.3748386353062, -488.9891134487526, -19632.49828010777, -15326.524117770687, -20941.036455754813, -11948.706143940228, -6350.354117197289, -9747.238129048124, -2628.9898310887615, -6939.1437696389885, 0.002, -0.02, 0.992, 192.0, 0.0, 0.0, 0.0, 0.0, 0.0, 0.0, 0.0, 0.0, 0.0, 1.6444972567207155E9, 0.0, 2022-02-10 23:47:36.720
174.0, -8481.168267866167, -10339.67111583604, -4190.8179749033425, -12355.150265115532, 981.7780234549074, 245.69037505273522, 129.66246958523627, -488.1844506483616, -19632.990018485787, -15330.569783517098, -20939.404778409575, -11955.41166727682, -6345.436733417122, -9740.040867333517, -2631.828502634585, -6936.528615537717, 0.002, -0.020999999999999998, 0.985, 192.0, 0.0, 8.0, 127.5, 40.0, 15.0, 72.0, 0.0, 0.0, 0.0, 1.6444972567207227E9, 0.0, 2022-02-10 23:47:36.720
176.0, -8483.694014989616, -10350.578767130228, -4191.175602814627, -12358.413619806006, 985.0637298898375, 241.86822675087774, 146.89566456027802, -477.5673720320907, -19628.586724828092, -15321.249106079234, -20923.0880049572, -11941.754751414628, -6340.273480447946, -9731.681314907231, -2624.6312409199763, -6931.343010824086, 0.002, -0.020999999999999998, 0.985, 192.0, 0.0, 0.0, 0.0, 0.0, 0.0, 0.0, 0.0, 0.0, 0.0, 1.6444972567207296E9, 0.0, 2022-02-10 23:47:36.720
178.0, -8478.754279464994, -10344.297926938287, -4194.371902271736, -12358.167750616998, 979.2522763314578, 234.04511619152026, 132.5458446199709, -487.26802912569394, -19633.057073719156, -15332.89436494045, -20944.18805172301, -11951.589518974963, -6347.046059017905, -9733.670620163753, -2626.70995315432, -6931.231252101809, 0.002, -0.020999999999999998, 0.985, 192.0, 0.0, 0.0, 0.0, 0.0, 0.0, 0.0, 0.0, 0.0, 0.0, 1.6444972567207365E9, 0.0, 2022-02-10 23:47:36.720
180.0, -8471.221741583555, -10334.731380311416, -4186.347626012281, -12357.810122705714, 983.6555699891533, 250.6748140662687, 135.98801326608816, -468.44786029432544, -19623.26700964773, -15322.523155513187, -20923.602095079674, -11943.36407701541, -6346.73313459553, -9746.5005214811, -2626.8664153655072, -6930.314830579142, 0.002, -0.020999999999999998, 0.985, 192.0, 0.0, 0.0, 0.0, 0.0, 0.0, 0.0, 0.0, 0.0, 0.0, 1.6444972567207432E9, 0.0, 2022-02-10 23:47:36.720
182.0, -8470.797058438904, -10327.623525574629, -4193.567239471346, -12358.413619806006, 967.5176104924216, 246.80796227550059, 107.6012978078482, -479.2214011217834, -19618.573143312115, -15321.897306668438, -20921.90336250107, -11941.352420014433, -6351.695221864608, -9732.553032940988, -2631.4038194899344, -6930.5159962792395, 0.002, -0.020999999999999998, 0.985, 192.0, 0.0, 0.0, 0.0, 0.0, 0.0, 0.0, 0.0, 0.0, 0.0, 1.64449725672075E9, 0.0, 2022-02-10 23:47:36.720
184.0, -8481.01180565498, -10345.639031605606, -4189.096890580284, -12356.580776760671, 977.4641367750331, 252.37354664487205, 130.26596668552955, -470.79479346213265, -19614.12514616551, -15306.496954738732, -20929.43590038251, -11940.972440358692, -6346.554320639887, -9731.144873040304, -2634.2201392913034, -6932.013563157745, 0.004, -0.0215, 0.9855, 192.0, 0.0, 24.0, 127.5, 40.0, 15.0, 104.0, 0.0, 0.0, 0.0, 1.6444972567207568E9, 0.0, 2022-02-10 23:47:36.720
186.0, -8502.692997776629, -10374.67394765305, -4194.729530183021, -12366.750820487836, 974.9383896515834, 250.09366871043073, 135.1162952323312, -459.93184565685345, -19653.911251295955, -15337.252955109234, -20942.154042977578, -11947.700315439739, -6354.466838177066, -9739.25855627758, -2622.753694385731, -6927.65497298896, 0.004, -0.0215, 0.9855, 192.0, 0.0, 0.0, 0.0, 0.0, 0.0, 0.0, 0.0, 0.0, 0.0, 1.644497256720764E9, 0.0, 2022-02-10 23:47:36.720
188.0, -8493.148802894211, -10364.325089970242, -4192.11437608175, -12361.565215774204, 969.0375291153824, 255.70395656871278, 136.61386211083678, -463.97751140326403, -19646.199899458876, -15329.541603272153, -20950.692409359504, -11954.629356220885, -6350.108248008281, -9738.275079521547, -2623.938336841862, -6931.141845123988, 0.004, -0.0215, 0.9855, 192.0, 0.0, 0.0, 0.0, 0.0, 0.0, 0.0, 0.0, 0.0, 0.0, 1.6444972567207708E9, 0.0, 2022-02-10 23:47:36.720
190.0, -8504.123509421768, -10371.857627851681, -4188.873373135731, -12364.001555919833, 974.6925204625751, 255.23456993515134, 140.7936383239792, -462.59170324703496, -19640.92488776742, -15318.611600233507, -20934.487394629406, -11948.437923006764, -6348.9906607855155, -9741.203158045193, -2619.2668222507027, -6928.593746256083, 0.004, -0.0215, 0.9855, 192.0, 0.0, 0.0, 0.0, 0.0, 0.0, 0.0, 0.0, 0.0, 0.0, 1.6444972567207778E9, 0.0, 2022-02-10 23:47:36.720
192.0, -8524.195375942632, -10385.134564058133, -4198.618733718245, -12368.87423621109, 959.8509621442512, 235.1627034142856, 119.67123981371401, -485.0999099135292, -19653.41951291794, -15332.693199240352, -20955.162758250568, -11960.954899901737, -6357.037288789426, -9751.17203607226, -2623.2454327637474, -6933.488778291796, 0.004, -0.0215, 0.9855, 192.0, 0.0, 0.0, 0.0, 0.0, 0.0, 0.0, 0.0, 0.0, 0.0, 1.644497256720785E9, 0.0, 2022-02-10 23:47:36.720
194.0, -8506.693960034128, -10372.885808096626, -4189.54392546939, -12367.890759455056, 971.7644419389298, 250.6301105773581, 123.49338811557152, -478.1485173879287, -19647.31748668164, -15340.963344688815, -20957.57674665174, -11961.670155724307, -6356.791419600418, -9745.204120302693, -2628.4310374773786, -6939.4343423169075, 0.006, -0.020749999999999998, 0.98375, 192.0, 0.0, 32.0, 127.5, 48.0, 15.0, 88.0, 0.0, 0.0, 0.0, 1.6444972567207918E9, 0.0, 2022-02-10 23:47:36.720
196.0, -8503.274143132467, -10377.66908141006, -4187.442861490591, -12363.956852430923, 974.8489826737622, 239.67775579425762, 118.39719037976151, -484.2281918797722, -19636.096910965076, -15324.020722391693, -20934.152118462578, -11938.513748468607, -6348.5212741519545, -9757.519931497567, -2618.9762495727837, -6938.249699860776, 0.006, -0.020749999999999998, 0.98375, 192.0, 0.0, 0.0, 0.0, 0.0, 0.0, 0.0, 0.0, 0.0, 0.0, 1.6444972567208245E9, 0.0, 2022-02-10 23:47:36.720
198.0, -8507.386864112243, -10379.993662833413, -4194.908344138664, -12367.957814688423, 972.792622183874, 232.50284582410407, 122.39815263726148, -486.26220062520514, -19640.07552147812, -15341.343324344556, -20949.82069132575, -11957.535083000075, -6353.952748054594, -9754.413039018278, -2625.9276420983842, -6946.497493564784, 0.006, -0.020749999999999998, 0.98375, 192.0, 0.0, 0.0, 0.0, 0.0, 0.0, 0.0, 0.0, 0.0, 0.0, 1.6444972567208326E9, 0.0, 2022-02-10 23:47:36.720
200.0, -8493.72994825005, -10374.249264508398, -4178.882143364209, -12368.181332132976, 984.951971167561, 246.2044651752073, 116.89962350125593, -490.8890117274537, -19643.18241395741, -15329.251030594234, -20935.090891729702, -11960.239644079167, -6355.807942844384, -9735.928146353739, -2623.0219153191942, -6942.965917940845, 0.006, -0.020749999999999998, 0.98375, 192.0, 0.0, 0.0, 0.0, 0.0, 0.0, 0.0, 0.0, 0.0, 0.0, 1.64449725672084E9, 0.0, 2022-02-10 23:47:36.720
202.0, -8516.68518980565, -10391.169535061066, -4189.298056280381, -12369.29891935574, 960.8120871558294, 240.46006685019339, 109.61295480882583, -476.2486191092276, -19642.80243430167, -15329.295734083145, -20940.85764179917, -11950.22606256319, -6357.037288789426, -9731.703666651687, -2625.2123862758144, -6945.692830764393, 0.006, -0.020749999999999998, 0.98375, 192.0, 0.0, 0.0, 0.0, 0.0, 0.0, 0.0, 0.0, 0.0, 0.0, 1.6444972567208471E9, 0.0, 2022-02-10 23:47:36.720
204.0, -8498.557925052397, -10379.501924455397, -4186.034701589907, -12360.134704129065, 969.1716395821143, 244.9527674857101, 121.97346949261065, -482.77532849017723, -19639.60613484456, -15341.633897022475, -20952.05586577128, -11958.026821378091, -6363.295777236913, -9750.389725016323, -2631.5379299566666, -6941.80362722917, 0.005, -0.019375, 0.988875, 192.0, 0.0, 16.0, 127.5, 56.0, 15.5, 8.0, 0.0, 0.0, 0.0, 1.6444972567208543E9, 0.0, 2022-02-10 23:47:36.720
206.0, -8489.505468547997, -10374.29396799731, -4185.028873089418, -12363.934500686468, 975.4077762851449, 242.56113082899225, 121.2135101811302, -487.200973892328, -19640.567259856136, -15335.241298108256, -20936.90138303058, -11952.12596084189, -6359.987719057527, -9750.814408160973, -2623.580708930577, -6942.250662118276, 0.005, -0.019375, 0.988875, 192.0, 0.0, 0.0, 0.0, 0.0, 0.0, 0.0, 0.0, 0.0, 0.0, 1.644497256720862E9, 0.0, 2022-02-10 23:47:36.720
208.0, -8492.098270904813, -10357.887787567113, -4189.186297558105, -12354.904395926524, 972.434994272589, 241.97998547315427, 114.39622812226155, -485.94927620283084, -19633.727626052812, -15333.721379485296, -20939.829461554225, -11953.198844575745, -6355.807942844384, -9742.477207479145, -2619.2221187617924, -6944.0388016747, 0.005, -0.019375, 0.988875, 192.0, 0.0, 0.0, 0.0, 0.0, 0.0, 0.0, 0.0, 0.0, 0.0, 1.6444972567208693E9, 0.0, 2022-02-10 23:47:36.720
210.0, -8476.720270719561, -10345.1919967165, -4180.916152109641, -12355.239672093354, 989.2882095918906, 258.38616590334965, 122.57696659290393, -482.17183138988395, -19624.988093970787, -15315.46000426531, -20930.91111551656, -11948.236757306668, -6347.716611351563, -9726.808634615974, -2617.2998687386357, -6940.171949883932, 0.005, -0.019375, 0.988875, 192.0, 0.0, 0.0, 0.0, 0.0, 0.0, 0.0, 0.0, 0.0, 0.0, 1.644497256720876E9, 0.0, 2022-02-10 23:47:36.720
212.0, -8498.87084947477, -10374.562188930773, -4191.712044681554, -12357.653660494527, 974.5807617402985, 237.4202296042716, 105.07555068439851, -476.9862266762527, -19632.140652196485, -15313.336588542055, -20927.647760826083, -11952.349478286444, -6348.320108451857, -9739.616184188866, -2616.785778616164, -6947.123342409533, 0.005, -0.019375, 0.988875, 192.0, 0.0, 0.0, 0.0, 0.0, 0.0, 0.0, 0.0, 0.0, 0.0, 1.644497256720883E9, 0.0, 2022-02-10 23:47:36.720
214.0, -8493.573486038862, -10376.909122098581, -4187.241695790493, -12353.093904625644, 977.4641367750331, 238.06843019347554, 112.09399844336492, -482.84238372354315, -19635.873393520524, -15346.774798247196, -20944.500976145384, -11960.217292334712, -6354.288024221423, -9748.243957548613, -2623.6030606750323, -6952.845388990091, 0.006500000000000001, -0.0166875, 0.9914375, 192.0, 0.0, 32.0, 127.5, 72.0, 15.5, 8.0, 0.0, 0.0, 0.0, 1.6444972567208898E9, 0.0, 2022-02-10 23:47:36.720
216.0, -8495.138108150733, -10372.86345635217, -4184.000692844474, -12350.121122613087, 982.0909478772817, 234.11217142488618, 113.77037927751294, -487.55860180361293, -19636.02985573171, -15338.638763265464, -20930.933467261013, -11948.706143940228, -6354.198617243603, -9738.342134754914, -2613.61183090351, -6950.051420933178, 0.006500000000000001, -0.0166875, 0.9914375, 192.0, 0.0, 0.0, 0.0, 0.0, 0.0, 0.0, 0.0, 0.0, 0.0, 1.6444972567208965E9, 0.0, 2022-02-10 23:47:36.720
218.0, -8491.718291249072, -10368.86249409467, -4192.159079570661, -12346.969526644889, 974.245485573469, 236.32499412596158, 105.20966115113035, -494.91232572940896, -19636.74511155428, -15336.045960908648, -20944.590383123206, -11951.209539319223, -6355.0926870218145, -9744.734733669131, -2613.6341826479656, -6952.241891889798, 0.006500000000000001, -0.0166875, 0.9914375, 192.0, 0.0, 0.0, 0.0, 0.0, 0.0, 0.0, 0.0, 0.0, 0.0, 1.6444972567209036E9, 0.0, 2022-02-10 23:47:36.720
220.0, -8481.458840544086, -10361.933453313524, -4187.465213235047, -12346.92482315598, 983.1191281222258, 246.04800296402016, 111.11052168733141, -491.7383780167554, -19628.11733819453, -15331.2179841063, -20935.984961507915, -11944.213443304712, -6355.539721910921, -9743.527739468544, -2614.0588657926164, -6948.665612776949, 0.006500000000000001, -0.0166875, 0.9914375, 192.0, 0.0, 0.0, 0.0, 0.0, 0.0, 0.0, 0.0, 0.0, 0.0, 1.6444972567209103E9, 0.0, 2022-02-10 23:47:36.720
222.0, -8501.888334976236, -10366.560264415773, -4197.814070917853, -12358.458323294917, 970.4456890160667, 234.24628189161803, 107.33307687438452, -500.38850312095923, -19634.12995745301, -15338.683466754374, -20931.04522598329, -11952.55064398654, -6352.2763672204455, -9748.93686162673, -2619.155063528426, -6953.672403534938, 0.006500000000000001, -0.0166875, 0.9914375, 192.0, 0.0, 0.0, 0.0, 0.0, 0.0, 0.0, 0.0, 0.0, 0.0, 1.6444972567209172E9, 0.0, 2022-02-10 23:47:36.720
224.0, -8493.282913360943, -10353.976232287436, -4199.423396518636, -12358.748895972836, 984.5943432562761, 245.310395396995, 116.43023686769449, -494.0182559511967, -19632.69944580787, -15324.98184740327, -20940.723531332438, -11965.984042404181, -6350.175303241647, -9739.21385278867, -2618.506862939222, -6952.532464567717, 0.00625, -0.01434375, 0.99371875, 192.0, 0.0, 24.0, 127.5, 80.0, 15.5, 16.0, 0.0, 0.0, 0.0, 1.644497256720924E9, 0.0, 2022-02-10 23:47:36.720
226.0, -8488.276122602954, -10360.10061026819, -4196.696483695088, -12359.508855284317, 991.9704189265275, 243.0975726959196, 114.5526903334487, -488.69854077083363, -19630.240753917784, -15330.390969561455, -20929.90528701607, -11957.959766144726, -6346.844893317806, -9742.387800501323, -2614.8635285930072, -6949.872606977536, 0.00625, -0.01434375, 0.99371875, 192.0, 0.0, 0.0, 0.0, 0.0, 0.0, 0.0, 0.0, 0.0, 0.0, 1.644497256720931E9, 0.0, 2022-02-10 23:47:36.720
228.0, -8501.284837875943, -10374.070450552756, -4205.950105899586, -12353.384477303563, 981.9791891550052, 239.5659970719811, 108.69653328615824, -493.750035017733, -19634.800509786666, -15332.17910911788, -20952.346438449196, -11961.916024913315, -6350.711745108574, -9754.79301867402, -2618.484511194767, -6949.157351154966, 0.00625, -0.01434375, 0.99371875, 192.0, 0.0, 0.0, 0.0, 0.0, 0.0, 0.0, 0.0, 0.0, 0.0, 1.6444972567209423E9, 0.0, 2022-02-10 23:47:36.720
230.0, -8486.10800339079, -10368.057831294278, -4197.456443006568, -12356.469018038395, 991.0539974038599, 258.5202763700815, 111.26698389851856, -491.85013673903194, -19641.08134997861, -15330.614487006009, -20941.81876681075, -11959.524388256597, -6350.845855575306, -9748.31101278198, -2615.3105634821136, -6947.525673809729, 0.00625, -0.01434375, 0.99371875, 192.0, 0.0, 0.0, 0.0, 0.0, 0.0, 0.0, 0.0, 0.0, 0.0, 1.644497256720949E9, 0.0, 2022-02-10 23:47:36.720
232.0, -8508.370340868276, -10378.496095954908, -4213.393236803203, -12359.173579117487, 970.4680407605221, 238.56016857149228, 105.47788208459403, -494.0629594401073, -19647.74216982629, -15331.888536439961, -20936.990790008404, -11954.092914353958, -6364.0110330594825, -9750.389725016323, -2616.450502449334, -6950.833731989113, 0.00625, -0.01434375, 0.99371875, 192.0, 0.0, 0.0, 0.0, 0.0, 0.0, 0.0, 0.0, 0.0, 0.0, 1.6444972567209556E9, 0.0, 2022-02-10 23:47:36.720
234.0, -8506.984532712047, -10376.663252909571, -4215.650762993188, -12361.721677985392, 978.8052414423515, 248.21612217618494, 127.11437071733127, -477.2544476097164, -19647.920983781933, -15340.762178988718, -20948.323124447244, -11966.632242993384, -6369.911893595683, -9756.379992530346, -2622.9548600858284, -6951.28076687822, 0.004, -0.014, 0.992, 192.0, 0.0, 16.0, 127.5, 72.0, 15.5, 0.0, 0.0, 0.0, 0.0, 1.6444972567209625E9, 0.0, 2022-02-10 23:47:36.720
236.0, -8500.569582053373, -10354.132694498623, -4215.829576948831, -12364.985032675868, 976.7041774635527, 249.31135765449497, 108.94240247516662, -488.74324425974424, -19652.257222206263, -15331.776777717683, -20942.221098210943, -11961.044306879558, -6371.1188877962695, -9757.586986730932, -2623.781874630675, -6951.839560489602, 0.004, -0.014, 0.992, 192.0, 0.0, 0.0, 0.0, 0.0, 0.0, 0.0, 0.0, 0.0, 0.0, 1.6444972567209692E9, 0.0, 2022-02-10 23:47:36.720
238.0, -8505.911648978192, -10369.130715028134, -4225.3290683423365, -12362.34752683014, 966.8470581587623, 242.15879942879673, 101.47691982709406, -496.07461644108497, -19651.921946039434, -15343.511443556721, -20956.95089780699, -11971.79549596256, -6369.755431384496, -9734.944669597706, -2632.431999734879, -6952.823037245636, 0.004, -0.014, 0.992, 192.0, 0.0, 0.0, 0.0, 0.0, 0.0, 0.0, 0.0, 0.0, 0.0, 1.644497256720976E9, 0.0, 2022-02-10 23:47:36.720
240.0, -8502.022445442968, -10365.95676731548, -4217.528309527434, -12357.854826194623, 977.1735640971142, 242.98581397364308, 118.9559839911442, -486.105738414018, -19654.715914096345, -15344.919603457405, -20950.021857025848, -11957.736248700172, -6372.616454674775, -9753.40721051779, -2632.074371823594, -6950.029069188723, 0.004, -0.014, 0.992, 192.0, 0.0, 0.0, 0.0, 0.0, 0.0, 0.0, 0.0, 0.0, 0.0, 1.6444972567209828E9, 0.0, 2022-02-10 23:47:36.720
242.0, -8511.007846714003, -10376.730308142938, -4222.8703764522525, -12356.267852338297, 964.4107180131339, 236.54851157051465, 104.74027451756889, -496.38754086345926, -19655.967611785843, -15336.22477486429, -20943.38338892262, -11959.479684767686, -6375.8127541318845, -9752.066105850472, -2637.5952527040545, -6951.504284322773, 0.004, -0.014, 0.992, 192.0, 0.0, 0.0, 0.0, 0.0, 0.0, 0.0, 0.0, 0.0, 0.0, 1.6444972572009373E9, 0.0, 2022-02-10 23:47:37.200
244.0, -8501.910686720692, -10367.566092916262, -4220.434036306624, -12354.502064526328, 970.0210058714159, 243.7681250295788, 98.19121339216393, -503.8306717670765, -19656.54875714168, -15327.149966615436, -20951.653534371082, -11963.145370858356, -6379.0984605668145, -9760.716230954675, -2646.5359504861776, -6950.386697100008, 0.004, -0.014, 0.986, 192.0, 0.0, 16.0, 127.5, 72.0, 15.0, 104.0, 0.0, 0.0, 0.0, 1.6444972572009468E9, 0.0, 2022-02-10 23:47:37.200
246.0, -8501.955390209603, -10367.990776060913, -4216.254260093482, -12358.368916317097, 975.0277966294046, 236.19088365922974, 113.03277171048782, -494.0853111845626, -19656.70521935287, -15320.466795023298, -20942.62342961114, -11953.444713764753, -6382.205353046103, -9763.666661222776, -2639.0481160936497, -6952.37600235653, 0.004, -0.014, 0.986, 192.0, 0.0, 0.0, 0.0, 0.0, 0.0, 0.0, 0.0, 0.0, 0.0, 1.6444972572009535E9, 0.0, 2022-02-10 23:47:37.200
248.0, -8501.575410553862, -10360.793514346304, -4217.193033360605, -12356.334907571663, 970.4456890160667, 236.30264238150627, 109.27767864199623, -482.3506453455264, -19656.392294930494, -15337.789396976163, -20952.212327982466, -11960.038478379069, -6383.457050735599, -9758.5034082536, -2634.5777672025883, -6949.85025523308, 0.004, -0.014, 0.986, 192.0, 0.0, 0.0, 0.0, 0.0, 0.0, 0.0, 0.0, 0.0, 0.0, 1.6444972572009623E9, 0.0, 2022-02-10 23:47:37.200
250.0, -8474.44039278512, -10343.537967626808, -4206.441844277602, -12349.830549935168, 992.5068607934548, 248.4619913651933, 111.0658181984208, -481.23305812276107, -19642.10953022355, -15324.579516003076, -20940.09768248769, -11954.60700447643, -6374.561056442387, -9743.907719124285, -2628.8333688775742, -6944.776409241726, 0.004, -0.014, 0.986, 192.0, 0.0, 0.0, 0.0, 0.0, 0.0, 0.0, 0.0, 0.0, 0.0, 1.6444972572009692E9, 0.0, 2022-02-10 23:47:37.200
252.0, -8503.140032665735, -10380.284235511332, -4222.132768885228, -12347.193044089443, 970.4680407605221, 227.51840681057058, 86.7247684865914, -504.63533456746757, -19640.50020462277, -15327.820518949095, -20937.57193536424, -11946.381562516877, -6372.191771530124, -9762.191446088726, -2630.0850665670714, -6948.0397639322, 0.004, -0.014, 0.986, 192.0, 0.0, 0.0, 0.0, 0.0, 0.0, 0.0, 0.0, 0.0, 0.0, 1.644497257200976E9, 0.0, 2022-02-10 23:47:37.200
254.0, -8497.820317485372, -10375.992700575913, -4216.388370560214, -12343.437951020951, 982.9179624221281, 241.86822675087774, 105.56728906241526, -485.1669651468951, -19647.384541915006, -15341.70095225584, -20944.72449358994, -11951.45540850823, -6375.365719242778, -9761.811466432986, -2636.9247003703954, -6947.972708698834, 0.008, -0.016, 0.988, 192.0, 0.0, 32.0, 127.5, 64.0, 15.0, 112.0, 0.0, 0.0, 0.0, 1.6444972572009828E9, 0.0, 2022-02-10 23:47:37.200
0.0, -8491.092442404324, -10369.108363283678, -4209.436978034613, -12345.293145810741, 990.9869421704939, 246.74090704213467, 105.94726871815547, -477.00857842070803, -19647.250431448276, -15337.945859187348, -20932.56514460625, -11947.40974276182, -6371.722384896563, -9753.988355873627, -2627.849892121541, -6941.758923740259, 0.008, -0.016, 0.988, 192.0, 0.0, 0.0, 0.0, 0.0, 0.0, 0.0, 0.0, 0.0, 0.0, 1.644497257201002E9, 0.0, 2022-02-10 23:47:37.201
2.0, -8500.72604426456, -10366.269691737854, -4212.342704813803, -12347.573023745183, 987.9918084134828, 238.9624999716878, 114.01624846652133, -488.653837281923, -19645.149367469476, -15333.922545185394, -20942.645781355593, -11950.181359074279, -6366.290910993924, -9753.921300640262, -2626.32997349858, -6945.4246098309295, 0.008, -0.016, 0.988, 192.0, 0.0, 0.0, 0.0, 0.0, 0.0, 0.0, 0.0, 0.0, 0.0, 1.6444972572010088E9, 0.0, 2022-02-10 23:47:37.201
4.0, -8485.459802801586, -10353.171569487044, -4205.145443099194, -12353.228015092376, 999.0559219188598, 243.90223549631068, 116.18436767868612, -485.7928139916437, -19631.35834114055, -15313.135422841959, -20932.051054483778, -11950.807207919028, -6366.8944080942165, -9746.277004036547, -2628.587499688566, -6945.648127275483, 0.008, -0.016, 0.988, 192.0, 0.0, 0.0, 0.0, 0.0, 0.0, 0.0, 0.0, 0.0, 0.0, 1.644497257201027E9, 0.0, 2022-02-10 23:47:37.201
6.0, -8508.392692612731, -10370.449467950997, -4212.968553658552, -12355.418486048995, 985.6225235012203, 230.60294754540297, 90.45750981062768, -490.75490126072185, -19637.728588310314, -15326.255896837223, -20933.883897529115, -11954.785818432072, -6371.163591285181, -9765.991242646127, -2632.3202410126023, -6950.498455822284, 0.008, -0.016, 0.988, 192.0, 0.0, 0.0, 0.0, 0.0, 0.0, 0.0, 0.0, 0.0, 0.0, 1.6444972572010334E9, 0.0, 2022-02-10 23:47:37.201
8.0, -8497.149765151711, -10374.450430208497, -4207.872355922742, -12353.228015092376, 993.2444683604799, 247.12088669787488, 112.85395775484535, -472.56058127410193, -19647.295134937183, -15343.04205692316, -20950.111264003666, -11961.93837665777, -6372.035309318938, -9756.514102997078, -2636.4776654812895, -6947.078638920622, 0.01, -0.016, 0.992, 192.0, 0.0, 40.0, 127.5, 64.0, 15.5, 0.0, 0.0, 0.0, 0.0, 1.64449725720104E9, 0.0, 2022-02-10 23:47:37.201
10.0, -8486.48798304653, -10359.00537478988, -4196.204745317072, -12349.294108068241, 1005.1355964107033, 243.29873839601737, 106.05902744043202, -484.5634680466018, -19638.51089936625, -15334.235469607767, -20925.256124169366, -11955.858702165926, -6364.547474926409, -9746.701687181197, -2622.731342641275, -6939.099066150077, 0.01, -0.016, 0.992, 192.0, 0.0, 0.0, 0.0, 0.0, 0.0, 0.0, 0.0, 0.0, 0.0, 1.6444972572010465E9, 0.0, 2022-02-10 23:47:37.201
12.0, -8492.545305793918, -10359.340650956708, -4205.592477988301, -12346.902471411524, 997.2677823624352, 244.37162212987212, 108.16009141923088, -483.98232269076385, -19632.69944580787, -15306.228733805268, -20936.879031286124, -11964.374716803399, -6364.458067948588, -9758.570463486965, -2629.3921624889567, -6942.697697007382, 0.01, -0.016, 0.992, 192.0, 0.0, 0.0, 0.0, 0.0, 0.0, 0.0, 0.0, 0.0, 0.0, 1.644497257201053E9, 0.0, 2022-02-10 23:47:37.201
14.0, -8477.39082305322, -10363.453371936486, -4196.025931361429, -12353.809160448214, 1006.8119772448513, 258.2297036921625, 120.16297819173077, -467.35262481601535, -19632.766501041235, -15330.636838750463, -20930.598191094185, -11948.594385217952, -6368.570788928365, -9738.789169644018, -2634.756581158231, -6934.114627136544, 0.01, -0.016, 0.992, 192.0, 0.0, 0.0, 0.0, 0.0, 0.0, 0.0, 0.0, 0.0, 0.0, 1.6444972572010596E9, 0.0, 2022-02-10 23:47:37.201
16.0, -8496.233343629045, -10379.479572710941, -4206.6653617221555, -12351.462227280406, 988.3941398136783, 236.23558714814035, 97.00657093603265, -487.5362500591576, -19638.242678432784, -15335.50951904172, -20929.122975960134, -11952.908271897826, -6369.934245340139, -9755.26240530758, -2635.069505580605, -6937.042705660189, 0.01, -0.016, 0.992, 192.0, 0.0, 0.0, 0.0, 0.0, 0.0, 0.0, 0.0, 0.0, 0.0, 1.644497257201066E9, 0.0, 2022-02-10 23:47:37.201
18.0, -8489.863096459281, -10365.375621959642, -4200.272762807937, -12339.682857952459, 999.8605847192508, 248.97608148766537, 114.12800718879787, -482.9541424458197, -19641.818957545634, -15339.219908621302, -20943.405740667076, -11954.584652731974, -6375.745698898519, -9759.822161176464, -2642.132656828482, -6938.763789983248, 0.01, -0.022, 0.988, 192.0, 0.0, 40.0, 127.5, 40.0, 15.0, 112.0, 0.0, 0.0, 0.0, 1.6444972572010727E9, 0.0, 2022-02-10 23:47:37.201
20.0, -8490.287779603932, -10357.373697444642, -4198.171698829138, -12347.997706889833, 1006.3649423557451, 255.1228112128748, 119.13479794678665, -482.50710755671355, -19635.828690031612, -15328.066388138102, -20921.61278982315, -11945.062809594014, -6365.508599937988, -9747.21577730367, -2630.643860178454, -6934.002868414267, 0.01, -0.022, 0.988, 192.0, 0.0, 0.0, 0.0, 0.0, 0.0, 0.0, 0.0, 0.0, 0.0, 1.6444972572010791E9, 0.0, 2022-02-10 23:47:37.201
22.0, -8498.177945396656, -10359.47476142344, -4211.1804141021275, -12355.865520938101, 992.305695093357, 250.76422104408994, 102.48274832758288, -493.81709025109893, -19642.154233712463, -15324.199536347334, -20943.964534278457, -11969.336804072476, -6368.056698805893, -9755.776495430053, -2639.003412604739, -6940.842502217592, 0.01, -0.022, 0.988, 192.0, 0.0, 0.0, 0.0, 0.0, 0.0, 0.0, 0.0, 0.0, 0.0, 1.6444972572010858E9, 0.0, 2022-02-10 23:47:37.201
24.0, -8482.77759346695, -10371.969386573957, -4203.580820987323, -12342.476826009373, 1008.756579012463, 260.64369209333563, 110.55172807594873, -486.1280901584733, -19641.55073661217, -15324.89244042545, -20941.550545877286, -11957.2221585777, -6367.49790519451, -9759.911568154284, -2644.18901731837, -6936.863891704547, 0.01, -0.022, 0.988, 192.0, 0.0, 0.0, 0.0, 0.0, 0.0, 0.0, 0.0, 0.0, 0.0, 1.6444972572010925E9, 0.0, 2022-02-10 23:47:37.201
26.0, -8494.221686628067, -10373.601063919195, -4206.59830648879, -12343.773227187781, 997.2230788735246, 255.9498257577212, 104.62851579529236, -496.4322443523699, -19640.008466244755, -15330.815652706106, -20931.827537039226, -11947.007411361625, -6364.6592336486865, -9744.734733669131, -2639.942185871862, -6935.522787037228, 0.01, -0.022, 0.988, 192.0, 0.0, 0.0, 0.0, 0.0, 0.0, 0.0, 0.0, 0.0, 0.0, 1.644497257201099E9, 0.0, 2022-02-10 23:47:37.201
28.0, -8487.96319818058, -10374.115154041667, -4209.526385012435, -12343.750875443326, 991.5457357818766, 246.00329947510954, 107.84716699685657, -493.4147588509034, -19640.611963345047, -15333.140234129458, -20945.216231967956, -11956.529254499586, -6366.290910993924, -9759.59864373191, -2643.250244051247, -6939.881377206013, 0.01, -0.022, 0.988, 192.0, 0.0, 0.0, 127.5, 56.0, 15.5, 0.0, 0.0, 0.0, 0.0, 1.6444972572011054E9, 0.0, 2022-02-10 23:47:37.201
30.0, -8492.791174982927, -10379.77014538886, -4209.280515823426, -12347.0142301338, 985.1754886121141, 248.35023264291678, 115.8490915118565, -481.2554098672164, -19645.261126191752, -15331.866184695506, -20934.599153351683, -11948.303812540033, -6378.964350100083, -9760.425658276756, -2643.3843545179793, -6938.652031260972, 0.01, -0.022, 0.988, 192.0, 0.0, 0.0, 0.0, 0.0, 0.0, 0.0, 0.0, 0.0, 0.0, 1.6444972572011142E9, 0.0, 2022-02-10 23:47:37.201
32.0, -8507.073939689868, -10376.663252909571, -4216.790701960409, -12355.485541282362, 973.7313954509968, 241.42119186177158, 102.14747216075328, -499.6955990428447, -19652.883071051012, -15344.092588912557, -20948.837214569714, -11970.141466872868, -6380.528972211954, -9758.034021620038, -2650.1792848323926, -6943.122380152033, 0.01, -0.022, 0.988, 192.0, 0.0, 0.0, 0.0, 0.0, 0.0, 0.0, 0.0, 0.0, 0.0, 1.6444972572011397E9, 0.0, 2022-02-10 23:47:37.201
34.0, -8499.608457041795, -10371.611758662673, -4209.682847223621, -12360.537035529262, 987.0306834019045, 255.54749435752564, 128.4554753846497, -470.5712760175796, -19655.408818174463, -15341.231565622278, -20954.447502427996, -11953.958803887226, -6381.110117567792, -9760.760934443586, -2648.324090042602, -6940.5519295396725, 0.01, -0.022, 0.988, 192.0, 0.0, 0.0, 0.0, 0.0, 0.0, 0.0, 0.0, 0.0, 0.0, 1.6444972572011464E9, 0.0, 2022-02-10 23:47:37.201
36.0, -8507.610381556795, -10377.222046520954, -4211.78391120242, -12362.436933807961, 977.3747297972119, 235.07329643646437, 115.13383568928668, -492.0513024391297, -19656.392294930494, -15330.256859094723, -20946.780854079825, -11949.153178829334, -6378.249094277513, -9764.381917045346, -2647.1841510753816, -6942.6082900295605, 0.01, -0.022, 0.988, 192.0, 0.0, 0.0, 0.0, 0.0, 0.0, 0.0, 0.0, 0.0, 0.0, 1.6444972572011569E9, 0.0, 2022-02-10 23:47:37.201
38.0, -8494.06522441688, -10371.857627851681, -4207.760597200465, -12363.845093708647, 980.503974020955, 246.5620930864922, 114.17271067770848, -484.7646337466996, -19662.360210700062, -15345.165472646413, -20959.588403652717, -11966.207559848734, -6382.965312357583, -9760.31389955448, -2661.1763431044037, -6949.716144766348, 0.004, -0.016, 0.99, 192.0, 0.0, 16.0, 127.5, 64.0, 15.0, 120.0, 0.0, 0.0, 0.0, 1.6444972572011635E9, 0.0, 2022-02-10 23:47:37.201
40.0, -8489.416061570175, -10376.797363376303, -4202.038550619906, -12356.357259316119, 989.0199886584269, 249.9372064992436, 122.10757995934249, -484.4740610687806, -19649.46325414935, -15331.106225384025, -20933.638028340105, -11955.165798087812, -6372.97408258606, -9758.5034082536, -2654.269654067714, -6943.569415041139, 0.004, -0.016, 0.99, 192.0, 0.0, 0.0, 0.0, 0.0, 0.0, 0.0, 0.0, 0.0, 0.0, 1.6444972572011704E9, 0.0, 2022-02-10 23:47:37.201
42.0, -8502.380073354254, -10369.622453406151, -4205.570126243845, -12352.512759269806, 990.6740177481196, 233.2851568800398, 128.12019921782007, -489.6820175268671, -19646.334009925606, -15330.659190494918, -20943.696313344994, -11950.449580007742, -6367.1849807721355, -9760.626823976854, -2653.4649912673226, -6942.407124329463, 0.004, -0.016, 0.99, 192.0, 0.0, 0.0, 0.0, 0.0, 0.0, 0.0, 0.0, 0.0, 0.0, 1.6444972572011774E9, 0.0, 2022-02-10 23:47:37.201
44.0, -8474.328634062844, -10353.037459020312, -4197.367036028747, -12355.507893026817, 1000.4864335639994, 243.49990409611513, 126.68968757268043, -485.23402038026103, -19642.243640690285, -15326.524117770687, -20938.0413219978, -11944.235795049168, -6365.106268537792, -9764.091344367427, -2652.056831366638, -6942.4294760739185, 0.004, -0.016, 0.99, 192.0, 0.0, 0.0, 0.0, 0.0, 0.0, 0.0, 0.0, 0.0, 0.0, 1.6444972572011845E9, 0.0, 2022-02-10 23:47:37.201
46.0, -8494.847535472814, -10376.037404064824, -4207.626486733733, -12364.381535575574, 985.5778200123096, 236.66027029279118, 112.27281239900738, -493.59357280654586, -19643.428283146415, -15318.03045487767, -20933.57097310674, -11943.140559570857, -6362.379355714244, -9762.616129233376, -2653.3755842895016, -6948.464447076852, 0.003, -0.016, 0.99, 192.0, 0.0, 8.0, 127.5, 64.0, 15.0, 120.0, 0.0, 0.0, 0.0, 1.644497257201192E9, 0.0, 2022-02-10 23:47:37.201
48.0, -8495.406329084199, -10377.49026745442, -4202.843213420298, -12365.20855012042, 989.4893752919884, 239.633052305347, 108.5400710749711, -496.5216513301911, -19644.255297691263, -15340.203385377336, -20945.171528479044, -11957.311565555521, -6364.078088292848, -9765.812428690486, -2662.1151163715263, -6954.432362846418, 0.003, -0.016, 0.99, 192.0, 0.0, 0.0, 0.0, 0.0, 0.0, 0.0, 0.0, 0.0, 0.0, 1.6444972572011995E9, 0.0, 2022-02-10 23:47:37.201
50.0, -8481.861171944282, -10360.346479457197, -4197.434091262114, -12368.181332132976, 994.853793961262, 249.02078497657598, 123.58279509339275, -480.56250578910186, -19639.159099955454, -15334.593097519053, -20925.054958469267, -11960.664327223818, -6367.207332516591, -9750.277966294047, -2655.0519651236496, -6951.839560489602, 0.003, -0.016, 0.99, 192.0, 0.0, 0.0, 0.0, 0.0, 0.0, 0.0, 0.0, 0.0, 0.0, 1.6444972572012067E9, 0.0, 2022-02-10 23:47:37.201
52.0, -8483.336387078332, -10367.38727896062, -4202.329123297825, -12360.313518084708, 989.1540991251587, 240.08008719445317, 105.29906812895157, -491.62661929447887, -19639.382617400006, -15326.658228237418, -20944.120996489644, -11975.192961119767, -6361.150009769203, -9773.009690405093, -2656.035441879683, -6955.4605430913625, 0.003, -0.016, 0.99, 192.0, 0.0, 0.0, 0.0, 0.0, 0.0, 0.0, 0.0, 0.0, 0.0, 1.6444972572012131E9, 0.0, 2022-02-10 23:47:37.201
54.0, -8488.454936558597, -10374.182209275034, -4188.739262668999, -12355.820817449192, 1004.2638783769463, 249.57957858795865, 98.19121339216393, -484.27289536868284, -19635.35930339805, -15313.873030408984, -20935.38146440762, -11936.949126356736, -6362.736983625529, -9755.038887863027, -2653.4649912673226, -6946.385734842508, 0.003, -0.016, 0.99, 192.0, 0.0, 0.0, 0.0, 0.0, 0.0, 0.0, 0.0, 0.0, 0.0, 1.64449725720122E9, 0.0, 2022-02-10 23:47:37.201
56.0, -8511.901916492214, -10391.974197861457, -4205.570126243845, -12371.645852523548, 979.9004769206616, 231.407610345794, 99.84524248185664, -496.65576179692295, -19651.251393705774, -15329.65336199443, -20943.897479045092, -11951.790684675061, -6378.07028032187, -9761.766762944075, -2662.9644826608283, -6955.058211691166, 0.0035, -0.019, 0.99, 192.0, 0.0, 16.0, 127.5, 40.0, 15.0, 120.0, 0.0, 0.0, 0.0, 1.644497257201239E9, 0.0, 2022-02-10 23:47:37.201
58.0, -8507.029236200957, -10390.968369360968, -4206.553602999878, -12375.35624210313, 979.6099042427427, 241.5105988395928, 115.06678045592076, -497.9074594864201, -19660.862643821554, -15347.512405814221, -20967.2997554898, -11974.209484363733, -6395.54934448592, -9768.02525139156, -2673.782726977197, -6961.808438516669, 0.0035, -0.019, 0.99, 192.0, 0.0, 0.0, 0.0, 0.0, 0.0, 0.0, 0.0, 0.0, 0.0, 1.6444972572012455E9, 0.0, 2022-02-10 23:47:37.201
60.0, -8501.86598323178, -10385.648654180606, -4205.324257054836, -12374.708041513926, 983.2308868445024, 241.1753226727632, 108.00362920804373, -486.99980819223026, -19657.040495519697, -15339.75635048823, -20953.1958047385, -11964.285309825578, -6395.661103208197, -9765.946539157218, -2668.7312327302975, -6953.985327957312, 0.0035, -0.019, 0.99, 192.0, 0.0, 0.0, 0.0, 0.0, 0.0, 0.0, 0.0, 0.0, 0.0, 1.644497257201252E9, 0.0, 2022-02-10 23:47:37.201
62.0, -8520.328524151864, -10394.857572896191, -4218.780007216931, -12378.35137586014, 972.3679390392232, 232.79341850202306, 93.18442263417515, -489.43614833785875, -19664.662440378957, -15344.159644145924, -20961.890633331615, -11969.694431983762, -6393.336521784845, -9765.186579845737, -2670.541724031177, -6953.605348301572, 0.0035, -0.019, 0.99, 192.0, 0.0, 0.0, 0.0, 0.0, 0.0, 0.0, 0.0, 0.0, 0.0, 1.6444972572012584E9, 0.0, 2022-02-10 23:47:37.201
64.0, -8508.213878657089, -10387.593255948217, -4208.587611745312, -12381.480620083883, 985.9130961791392, 244.17045642977436, 100.60520179333709, -484.8540407245208, -19666.696449124393, -15338.996391176748, -20963.745828121406, -11975.46118205323, -6397.762167186996, -9769.36635605888, -2672.3075118431466, -6955.684060535916, 0.0035, -0.019, 0.99, 192.0, 0.0, 0.0, 0.0, 0.0, 0.0, 0.0, 0.0, 0.0, 0.0, 1.644497257201265E9, 0.0, 2022-02-10 23:47:37.201
66.0, -8520.708503807606, -10388.017939092868, -4218.176510116638, -12381.122992172599, 978.4476135310666, 232.01110744608732, 104.82968149539012, -497.8851077419648, -19668.126960769532, -15337.878803953983, -20957.86731932966, -11967.36985056041, -6395.839917163839, -9770.059260136994, -2673.536857788188, -6958.634490804016, 0.00675, -0.0195, 0.989, 192.0, 0.0, 40.0, 127.5, 48.0, 15.0, 112.0, 0.0, 0.0, 0.0, 1.6444972572012715E9, 0.0, 2022-02-10 23:47:37.201
68.0, -8511.25371590301, -10395.617532207672, -4219.2270421060375, -12380.139515416566, 981.5992094992649, 234.55920631399232, 107.04250419646553, -502.6683810554005, -19666.40587644647, -15335.867146953005, -20969.847854357704, -11974.187132619278, -6396.197545075124, -9779.22347536367, -2681.8964102144732, -6961.003775716278, 0.00675, -0.0195, 0.989, 192.0, 0.0, 0.0, 0.0, 0.0, 0.0, 0.0, 0.0, 0.0, 0.0, 1.6444972572012813E9, 0.0, 2022-02-10 23:47:37.201
70.0, -8498.312055863387, -10376.52914244284, -4212.767387958454, -12388.02968120929, 988.3494363247677, 240.97415697266544, 100.06875992640973, -508.41277938041446, -19663.768370600745, -15336.627106264486, -20954.782778594825, -11957.132751599878, -6402.008998633504, -9775.893065439828, -2675.392052577979, -6960.109705938066, 0.00675, -0.0195, 0.989, 192.0, 0.0, 0.0, 0.0, 0.0, 0.0, 0.0, 0.0, 0.0, 0.0, 1.6444972572012877E9, 0.0, 2022-02-10 23:47:37.201
72.0, -8513.108910692801, -10389.761375160382, -4212.901498425186, -12382.464096839918, 981.7333199659968, 241.60000581741403, 89.65284701023663, -523.7013725878445, -19662.919004311443, -15331.396798061944, -20960.929508320038, -11960.977251646193, -6396.488117753043, -9767.578216502454, -2673.872133955018, -6963.015432717256, 0.00675, -0.0195, 0.989, 192.0, 0.0, 0.0, 0.0, 0.0, 0.0, 0.0, 0.0, 0.0, 0.0, 1.6444972572012944E9, 0.0, 2022-02-10 23:47:37.201
74.0, -8502.87181173227, -10390.163706560577, -4206.330085555325, -12377.502009570839, 995.144366639181, 251.79240128903407, 105.85786174033424, -492.1407094169509, -19657.80045483118, -15337.27530685369, -20954.402798939085, -11959.882016167881, -6392.26363805099, -9770.238074092636, -2674.38622407749, -6959.863836749058, 0.00675, -0.0195, 0.989, 192.0, 0.0, 0.0, 0.0, 0.0, 0.0, 0.0, 0.0, 0.0, 0.0, 1.644497257201301E9, 0.0, 2022-02-10 23:47:37.201
76.0, -8519.434454373653, -10411.464919026484, -4212.387408302714, -12380.228922394386, 981.0404158878823, 225.99848818760972, 94.36906509030642, -509.2621456697161, -19660.08033276562, -15343.220870878802, -20947.853737813683, -11952.84121666446, -6392.285989795446, -9776.74243172913, -2666.2054856068476, -6961.406107116474, 0.008375, -0.02175, 0.9864999999999999, 192.0, 0.0, 40.0, 127.5, 32.0, 15.0, 96.0, 0.0, 0.0, 0.0, 1.6444972572013075E9, 0.0, 2022-02-10 23:47:37.201
78.0, -8502.514183820986, -10394.991683362923, -4211.560393757867, -12381.54767531725, 978.1346891086923, 241.1306191838526, 108.60712630833702, -505.93173574587536, -19661.01910603274, -15337.968210931804, -20962.114150776168, -11966.900463926848, -6394.968199130082, -9790.354644102412, -2670.921703686917, -6966.681118807926, 0.008375, -0.02175, 0.9864999999999999, 192.0, 0.0, 0.0, 0.0, 0.0, 0.0, 0.0, 0.0, 0.0, 0.0, 1.6444972572013144E9, 0.0, 2022-02-10 23:47:37.201
80.0, -8491.695939504616, -10376.015052320368, -4207.671190222644, -12376.45147758144, 990.629314259209, 254.27344492357315, 103.1533006612421, -508.233965424772, -19654.157120484964, -15338.191728376358, -20947.38435118012, -11955.389315532366, -6388.061510093393, -9767.824085691464, -2660.6399012374764, -6959.349746626586, 0.008375, -0.02175, 0.9864999999999999, 192.0, 0.0, 0.0, 0.0, 0.0, 0.0, 0.0, 0.0, 0.0, 0.0, 1.644497257201321E9, 0.0, 2022-02-10 23:47:37.201
82.0, -8519.367399140287, -10394.589351962728, -4215.717818226554, -12375.959739203423, 977.7323577084968, 239.633052305347, 95.68781801316953, -514.8724335279982, -19660.37090544354, -15338.437597565366, -20954.29104021681, -11955.143446343356, -6389.112042082792, -9775.378975317357, -2665.713747228831, -6964.334185640119, 0.008375, -0.02175, 0.9864999999999999, 192.0, 0.0, 0.0, 0.0, 0.0, 0.0, 0.0, 0.0, 0.0, 0.0, 1.6444972572013273E9, 0.0, 2022-02-10 23:47:37.201
84.0, -8502.044797187424, -10392.041253094823, -4204.765463443454, -12372.226997879387, 990.8975351926726, 253.96052050119886, 116.98903047907717, -497.66159029741175, -19662.583728144615, -15336.045960908648, -20954.067522772257, -11957.400972533344, -6387.16744031518, -9775.826010206463, -2670.921703686917, -6966.077621707634, 0.008375, -0.02175, 0.9864999999999999, 192.0, 0.0, 0.0, 0.0, 0.0, 0.0, 0.0, 0.0, 0.0, 0.0, 1.644497257201334E9, 0.0, 2022-02-10 23:47:37.201
86.0, -8497.462689574086, -10376.171514531556, -4206.754768699976, -12373.813971735713, 980.6157327432314, 243.4328488627492, 94.43612032367234, -511.1173404595066, -19658.22513797583, -15332.737902729263, -20949.105435503177, -11961.2231208352, -6387.256847293002, -9761.207969332692, -2662.740965216275, -6965.47412460734, 0.0071875, -0.022875, 0.98925, 192.0, 0.0, 24.0, 127.5, 32.0, 15.5, 0.0, 0.0, 0.0, 0.0, 1.6444972572013552E9, 0.0, 2022-02-10 23:47:37.201
88.0, -8505.554021066908, -10394.119965329166, -4211.605097246778, -12366.169675131998, 986.1589653681476, 242.98581397364308, 117.34665839036208, -510.4691398703027, -19658.068675764644, -15339.085798154569, -20958.20259549649, -11963.212426091723, -6385.155783314202, -9786.17486788927, -2665.8255059511075, -6970.816191532158, 0.0071875, -0.022875, 0.98925, 192.0, 0.0, 0.0, 0.0, 0.0, 0.0, 0.0, 0.0, 0.0, 0.0, 1.644497257201362E9, 0.0, 2022-02-10 23:47:37.201
90.0, -8504.034102443946, -10391.43775599453, -4211.761559457965, -12372.49521881285, 990.4728520480219, 248.66315706529107, 121.59348983687042, -510.782064292677, -19661.868472322043, -15346.908908713927, -20947.13848199111, -11952.215367819712, -6383.345292013323, -9776.317748584479, -2656.90715991344, -6966.345842641097, 0.0071875, -0.022875, 0.98925, 192.0, 0.0, 0.0, 0.0, 0.0, 0.0, 0.0, 0.0, 0.0, 0.0, 1.6444972572013693E9, 0.0, 2022-02-10 23:47:37.201
92.0, -8517.646314817228, -10391.080128083246, -4219.919946184153, -12379.111335171621, 977.0618053748376, 237.86726449337777, 98.32532385889577, -521.9579365203306, -19662.740190355802, -15354.195577406357, -20961.935336820527, -11969.13563837238, -6388.7320624270515, -9777.301225340512, -2665.9149129289285, -6972.738441555315, 0.0071875, -0.022875, 0.98925, 192.0, 0.0, 0.0, 0.0, 0.0, 0.0, 0.0, 0.0, 0.0, 0.0, 1.644497257201376E9, 0.0, 2022-02-10 23:47:37.201
94.0, -8499.474346575063, -10385.849819880703, -4206.1959750885935, -12378.552541560239, 1000.3523230972676, 247.43381112024917, 119.67123981371401, -514.7606748057217, -19661.51084441076, -15345.053713924137, -20958.91785131906, -11976.332900086987, -6395.079957852359, -9789.617036535386, -2668.3065495856467, -6971.4867438658175, 0.0071875, -0.022875, 0.98925, 192.0, 0.0, 0.0, 0.0, 0.0, 0.0, 0.0, 0.0, 0.0, 0.0, 1.6444972572013829E9, 0.0, 2022-02-10 23:47:37.201
96.0, -8501.709521020593, -10385.425136736052, -4203.156137842672, -12376.093849670155, 992.8197852158291, 243.23168316265145, 101.83454773837897, -515.2077096948278, -19653.710085595856, -15338.41524582091, -20941.684656344016, -11952.193016075256, -6388.93322812715, -9774.149629372314, -2655.253130823747, -6971.687909565915, 0.006593750000000001, -0.0234375, 0.989625, 192.0, 0.0, 24.0, 127.5, 32.0, 15.0, 120.0, 0.0, 0.0, 0.0, 1.6444972572013896E9, 0.0, 2022-02-10 23:47:37.201
98.0, -8497.641503529729, -10376.327976742743, -4200.3845215302135, -12369.008346677821, 1005.7614452554519, 249.80309603251175, 111.11052168733141, -502.9589537333195, -19652.45838790636, -15341.3209726001, -20955.118054761657, -11968.59919650545, -6388.329731026856, -9757.83285591994, -2658.740002958775, -6967.99987173079, 0.006593750000000001, -0.0234375, 0.989625, 192.0, 0.0, 0.0, 0.0, 0.0, 0.0, 0.0, 0.0, 0.0, 0.0, 1.6444972572013967E9, 0.0, 2022-02-10 23:47:37.201
100.0, -8485.370395823766, -10371.209427262476, -4193.54488772689, -12362.503989041328, 1013.4727970925328, 254.4522588792156, 121.34762064786204, -499.4497298538363, -19645.21642270284, -15327.574649760087, -20933.81684229575, -11943.699353182239, -6380.059585578392, -9762.750239700108, -2647.4970754977558, -6957.718069281348, 0.006593750000000001, -0.0234375, 0.989625, 192.0, 0.0, 0.0, 0.0, 0.0, 0.0, 0.0, 0.0, 0.0, 0.0, 1.6444972572014067E9, 0.0, 2022-02-10 23:47:37.201
102.0, -8506.939829223136, -10394.76816591837, -4206.978286144529, -12364.314480342207, 1001.2240411310246, 240.214197661185, 113.6362688107811, -504.30005840063797, -19653.687733851402, -15337.208251620325, -20952.838176827216, -11958.675021967296, -6384.529934469454, -9771.802696204508, -2644.479589996289, -6958.1651041704545, 0.006593750000000001, -0.0234375, 0.989625, 192.0, 0.0, 0.0, 0.0, 0.0, 0.0, 0.0, 0.0, 0.0, 0.0, 1.6444972572014136E9, 0.0, 2022-02-10 23:47:37.201
104.0, -8499.407291341699, -10383.122907057155, -4203.35730354277, -12368.49425655535, 1011.1705674136363, 247.1879419312408, 115.2008909226526, -507.76457879121057, -19657.73339959781, -15349.032324437181, -20953.218156482955, -11956.998641133147, -6390.989588617038, -9763.532550756045, -2645.463066752323, -6961.249644905287, 0.006593750000000001, -0.0234375, 0.989625, 192.0, 0.0, 0.0, 0.0, 0.0, 0.0, 0.0, 0.0, 0.0, 0.0, 1.6444972572014203E9, 0.0, 2022-02-10 23:47:37.201
106.0, -8503.899991977214, -10390.566037960773, -4210.062826879362, -12373.031660679777, 999.078273663315, 228.99362194462086, 106.21548965161917, -514.4477503833474, -19654.47004490734, -15348.160606403424, -20951.117092504155, -11953.55647248703, -6390.006111861005, -9779.357585830401, -2645.194845818859, -6965.809400774169, 0.008296875, -0.02271875, 0.9888125, 192.0, 0.0, 40.0, 127.5, 40.0, 15.0, 112.0, 0.0, 0.0, 0.0, 1.6444972576802015E9, 0.0, 2022-02-10 23:47:37.680
108.0, -8499.004959941502, -10377.333805243232, -4204.161966343161, -12360.44762855144, 1004.018009187938, 240.59417731692523, 98.92882095918905, -490.15140416042857, -19653.866547807043, -15353.525025072699, -20958.71668561896, -11970.834370950983, -6391.928361884161, -9775.781306717552, -2648.681717953887, -6961.763735027759, 0.008296875, -0.02271875, 0.9888125, 192.0, 0.0, 0.0, 0.0, 0.0, 0.0, 0.0, 0.0, 0.0, 0.0, 1.6444972576803896E9, 0.0, 2022-02-10 23:47:37.680
110.0, -8497.708558763094, -10373.154029030089, -4198.0375883624065, -12363.219244863898, 1011.8858232362061, 248.55139834301454, 122.39815263726148, -498.39919786443687, -19645.350533169574, -15341.052751666637, -20938.398949909086, -11945.107513082923, -6383.568809457875, -9761.163265843781, -2643.4737614958003, -6951.99602270079, 0.008296875, -0.02271875, 0.9888125, 192.0, 0.0, 0.0, 0.0, 0.0, 0.0, 0.0, 0.0, 0.0, 0.0, 1.6444972576803975E9, 0.0, 2022-02-10 23:47:37.680
112.0, -8508.213878657089, -10387.906180370592, -4209.504033267979, -12360.939366929457, 1002.1628143981475, 247.56792158698102, 117.65958281273637, -487.9609332038085, -19656.638164119504, -15334.838966708061, -20947.630220369127, -11954.22702482069, -6382.5629809573875, -9757.475228008656, -2639.606909705032, -6953.314775623653, 0.008296875, -0.02271875, 0.9888125, 192.0, 0.0, 0.0, 0.0, 0.0, 0.0, 0.0, 0.0, 0.0, 0.0, 1.644497257680405E9, 0.0, 2022-02-10 23:47:37.680
114.0, -8493.931113950148, -10380.016014577868, -4200.8539081637755, -12360.380573318074, 1013.0257622034267, 252.41825013378266, 129.01426899603237, -491.11252917200676, -19650.625544861025, -15339.488129554766, -20944.09864474519, -11953.243548064656, -6378.517315210976, -9761.543245499523, -2639.584557960577, -6951.794857000692, 0.008296875, -0.02271875, 0.9888125, 192.0, 0.0, 0.0, 0.0, 0.0, 0.0, 0.0, 0.0, 0.0, 0.0, 1.6444972576804142E9, 0.0, 2022-02-10 23:47:37.680
116.0, -8500.01078844199, -10372.461124951975, -4205.659533221667, -12363.822741964192, 1001.4475585755777, 238.9848517161431, 128.07549572890946, -499.8744129984872, -19649.17268147143, -15340.98569643327, -20941.77406332184, -11954.048210865047, -6380.506620467499, -9763.867826922873, -2634.8236363915967, -6955.61700530255, 0.008, -0.022, 0.988, 192.0, 0.0, 32.0, 127.5, 40.0, 15.0, 112.0, 0.0, 0.0, 0.0, 1.644497257680421E9, 0.0, 2022-02-10 23:47:37.680
118.0, -8498.602628541306, -10380.48540121143, -4207.850004178286, -12354.412657548506, 993.7138549940414, 241.33178488395035, 117.68193455719168, -497.68394204186706, -19655.386466430005, -15343.55614704563, -20961.689467631517, -11957.51273125562, -6386.653350192708, -9773.434373549744, -2646.290081297169, -6958.880359993024, 0.008, -0.022, 0.988, 192.0, 0.0, 0.0, 0.0, 0.0, 0.0, 0.0, 0.0, 0.0, 0.0, 1.644497257680428E9, 0.0, 2022-02-10 23:47:37.680
120.0, -8505.576372811362, -10385.2016192915, -4200.809204674864, -12359.710020984414, 996.7536922399631, 242.80700001800062, 112.3398676323733, -499.2262124092832, -19657.196957730885, -15339.912812699416, -20941.505842388375, -11947.83442590647, -6383.233533291046, -9762.88435016684, -2644.7031074408424, -6951.928967467424, 0.008, -0.022, 0.988, 192.0, 0.0, 0.0, 0.0, 0.0, 0.0, 0.0, 0.0, 0.0, 0.0, 1.6444972576804347E9, 0.0, 2022-02-10 23:47:37.680
122.0, -8520.59674508533, -10388.599084448706, -4206.1959750885935, -12362.97337567489, 980.9063054211505, 232.16756965727447, 91.7986144779461, -519.3427824190596, -19661.376733944027, -15345.098417413046, -20951.832348326727, -11961.759562702127, -6383.591161202331, -9765.521856012567, -2648.9499388873505, -6956.734592525315, 0.008, -0.022, 0.988, 192.0, 0.0, 0.0, 0.0, 0.0, 0.0, 0.0, 0.0, 0.0, 0.0, 1.644497257680442E9, 0.0, 2022-02-10 23:47:37.680
124.0, -8509.06324494639, -10377.1996947765, -4199.02106511844, -12364.985032675868, 993.177413127114, 244.12575294086375, 106.72957977409122, -495.60522980752353, -19657.442826919894, -15342.706780756329, -20952.257031471378, -11961.111362112924, -6381.937132112638, -9760.783286188042, -2647.5641307311216, -6953.873569235036, 0.008, -0.022, 0.988, 192.0, 0.0, 0.0, 0.0, 0.0, 0.0, 0.0, 0.0, 0.0, 0.0, 1.6444972576804488E9, 0.0, 2022-02-10 23:47:37.680
126.0, -8514.695884549128, -10385.492191969419, -4205.480719266024, -12368.807180977725, 989.1540991251587, 232.9275289687549, 113.68097229969172, -496.8569274970207, -19663.611908389557, -15343.913774956916, -20951.72058960445, -11960.217292334712, -6385.714576925586, -9761.677355966254, -2646.1112673415264, -6953.001851201278, 0.01, -0.022, 0.988, 192.0, 0.0, 40.0, 127.5, 40.0, 15.0, 112.0, 0.0, 0.0, 0.0, 1.6444972576804557E9, 0.0, 2022-02-10 23:47:37.680
128.0, -8507.051587945412, -10375.545665686806, -4203.290248309404, -12358.413619806006, 993.9597241830497, 240.90710173929952, 111.35639087633979, -495.3817123629704, -19660.147387998986, -15340.382199332977, -20962.00239205389, -11970.163818617322, -6383.479402480055, -9769.187542103236, -2647.9664621313173, -6953.828865746125, 0.01, -0.022, 0.988, 192.0, 0.0, 0.0, 0.0, 0.0, 0.0, 0.0, 0.0, 0.0, 0.0, 1.6444972576804624E9, 0.0, 2022-02-10 23:47:37.680
130.0, -8498.289704118932, -10367.029651049335, -4199.848079663287, -12358.815951206203, 1001.0228754309268, 242.85170350691124, 105.88021348478955, -497.7733490196883, -19654.85002456308, -15333.251992851734, -20941.908173788568, -11943.855815393426, -6384.306417024901, -9778.798792219019, -2649.1734563319037, -6951.325470367131, 0.01, -0.022, 0.988, 192.0, 0.0, 0.0, 0.0, 0.0, 0.0, 0.0, 0.0, 0.0, 0.0, 1.6444972576804693E9, 0.0, 2022-02-10 23:47:37.680
