%OpenBCI Raw EEG Data
%Number of channels = 16
%Sample Rate = 125 Hz
%Board = OpenBCI_GUI$BoardCytonSerialDaisy
Sample Index, EXG Channel 0, EXG Channel 1, EXG Channel 2, EXG Channel 3, EXG Channel 4, EXG Channel 5, EXG Channel 6, EXG Channel 7, EXG Channel 8, EXG Channel 9, EXG Channel 10, EXG Channel 11, EXG Channel 12, EXG Channel 13, EXG Channel 14, EXG Channel 15, Accel Channel 0, Accel Channel 1, Accel Channel 2, Other, Other, Other, Other, Other, Other, Other, Analog Channel 0, Analog Channel 1, Analog Channel 2, Timestamp, Other, Timestamp (Formatted)
130.0, -9752.31197503948, -11579.455325538556, -6247.580796191788, -14045.679753503771, 239.5659970719811, -980.1016426207594, -1552.4180593988967, -3035.009269119414, -20551.73612257673, -16878.226921347014, -22368.798836326463, -12798.027729752986, -7133.536891166794, -11718.03614116146, -5231.157568831154, -8406.960476274548, 0.0, 0.0, 0.0, 192.0, 0.0, 0.0, 0.0, 0.0, 0.0, 0.0, 0.0, 0.0, 0.0, 1.6444975607750375E9, 0.0, 2022-02-10 23:52:40.775
132.0, -9761.945576899718, -11583.76921221843, -6254.353374761746, -14058.554358310028, 234.42509584726048, -995.3455323392789, -1572.9816642977792, -3045.1569611021237, -20556.318230190067, -16865.48642700749, -22350.17983319519, -12801.536953632469, -7132.978097555411, -11717.454995805621, -5235.672621211126, -8410.737921087495, 0.004, -0.018000000000000002, 0.992, 192.0, 0.0, 16.0, 127.5, 56.0, 15.5, 0.0, 0.0, 0.0, 0.0, 1.6444975607750452E9, 0.0, 2022-02-10 23:52:40.775
134.0, -9767.064126379983, -11597.269665869435, -6257.370860263212, -14054.642803030349, 234.98388945864315, -994.0714829053263, -1570.567675896606, -3047.593301247752, -20562.73318084874, -16880.19387485908, -22373.80562708445, -12810.231782225585, -7141.27059474833, -11726.574507543386, -5239.718286957537, -8421.086778770301, 0.004, -0.018000000000000002, 0.992, 192.0, 0.0, 0.0, 0.0, 0.0, 0.0, 0.0, 0.0, 0.0, 0.0, 1.6444975607750518E9, 0.0, 2022-02-10 23:52:40.775
136.0, -9743.639498190822, -11581.735203472997, -6242.082267055782, -14044.517462792095, 248.95372974321006, -975.921866407617, -1538.3588121365085, -3020.1006555677245, -20552.227860954747, -16873.153075355658, -22359.6793245887, -12795.457279140626, -7122.048094516766, -11731.268373879002, -5218.394722747174, -8406.133461729702, 0.004, -0.018000000000000002, 0.992, 192.0, 0.0, 0.0, 0.0, 0.0, 0.0, 0.0, 0.0, 0.0, 0.0, 1.6444975607750585E9, 0.0, 2022-02-10 23:52:40.775
138.0, -9751.954347128194, -11582.71868022903, -6250.441819482067, -14046.618526770893, 231.85464523490015, -991.0092939149492, -1560.0400042581564, -3040.753667444428, -20550.484424887232, -16862.647755461665, -22352.61617334082, -12786.158953447219, -7126.116112007632, -11729.524937811488, -5217.210080291043, -8401.841926794283, 0.004, -0.018000000000000002, 0.992, 192.0, 0.0, 0.0, 0.0, 0.0, 0.0, 0.0, 0.0, 0.0, 0.0, 1.6444975607750652E9, 0.0, 2022-02-10 23:52:40.775
140.0, -9746.701687181197, -11579.969415661028, -6243.445723467556, -14048.741942494147, 234.1792266582521, -982.5156310219326, -1558.184809468366, -3037.959699387515, -20550.864404542972, -16877.176389357614, -22360.886318789282, -12802.118098988307, -7134.274498733819, -11726.015713932004, -5225.189653061588, -8405.909944285148, 0.004, -0.018000000000000002, 0.992, 192.0, 0.0, 0.0, 0.0, 0.0, 0.0, 0.0, 0.0, 0.0, 0.0, 1.6444975607750719E9, 0.0, 2022-02-10 23:52:40.775
142.0, -9749.138027326826, -11570.939310901083, -6244.183331034581, -14056.386239097863, 230.3794301008499, -977.8664681752286, -1553.9379780218576, -3033.690516196551, -20554.060704000083, -16876.52818876841, -22349.844557028362, -12789.668177326701, -7132.240489988386, -11716.5162225385, -5216.606583190749, -8404.255915195456, 0.004, -0.016, 0.99, 192.0, 0.0, 16.0, 127.5, 64.0, 15.0, 120.0, 0.0, 0.0, 0.0, 1.6444975607751172E9, 0.0, 2022-02-10 23:52:40.775
144.0, -9746.925204625752, -11571.028717878904, -6256.09681082926, -14051.02182042859, 228.34542135541696, -973.2396570729801, -1559.4812106467737, -3034.1822545745677, -20556.251174956702, -16867.274566563912, -22360.796911811463, -12800.799346065443, -7128.105417264154, -11713.118757381291, -5223.110940827244, -8413.777758333415, 0.004, -0.016, 0.99, 192.0, 0.0, 0.0, 0.0, 0.0, 0.0, 0.0, 0.0, 0.0, 0.0, 1.6444975607751243E9, 0.0, 2022-02-10 23:52:40.775
146.0, -9738.476245221646, -11567.608900977242, -6241.545825188855, -14045.97032618169, 236.30264238150627, -977.1065088637482, -1552.2392454432543, -3018.8936613671376, -20551.669067343362, -16866.402848530157, -22345.66478081522, -12776.502999842525, -7136.464969690439, -11716.337408582856, -5232.208100820554, -8405.217040207033, 0.004, -0.016, 0.99, 192.0, 0.0, 0.0, 0.0, 0.0, 0.0, 0.0, 0.0, 0.0, 0.0, 1.6444975607751317E9, 0.0, 2022-02-10 23:52:40.775
148.0, -9762.258501322092, -11570.536979500888, -6243.870406612206, -14053.748733252138, 214.42028455976066, -1000.1958608860805, -1560.3529286805308, -3030.136588828157, -20558.374590679956, -16874.24831083397, -22356.66183908723, -12788.48353487057, -7137.046115046277, -11709.117795123791, -5223.245051293976, -8406.580496618808, 0.004, -0.016, 0.99, 192.0, 0.0, 0.0, 0.0, 0.0, 0.0, 0.0, 0.0, 0.0, 0.0, 1.6444975607751503E9, 0.0, 2022-02-10 23:52:40.775
150.0, -9743.907719124285, -11556.321270027312, -6235.555557674833, -14048.563128538506, 223.7856654865343, -981.5992094992649, -1560.3976321694413, -3029.6224987056853, -20553.34544817751, -16867.967470642026, -22355.790121053473, -12793.937360517664, -7135.302678978763, -11702.144050853736, -5227.0224961069225, -8408.815671064338, 0.004, -0.019, 0.991, 192.0, 0.0, 16.0, 127.5, 40.0, 15.5, 0.0, 0.0, 0.0, 0.0, 1.644497560775157E9, 0.0, 2022-02-10 23:52:40.775
152.0, -9742.857187134885, -11563.026793363904, -6234.907357085629, -14047.669058760293, 228.25601437759573, -981.6662647326309, -1549.8476087865365, -3025.912109126104, -20548.606878352988, -16848.968487855018, -22349.3751703948, -12780.593369077847, -7130.5641091542375, -11714.146937626236, -5222.306278026853, -8404.121804728724, 0.004, -0.019, 0.991, 192.0, 0.0, 0.0, 0.0, 0.0, 0.0, 0.0, 0.0, 0.0, 0.0, 1.6444975607751637E9, 0.0, 2022-02-10 23:52:40.775
154.0, -9750.680297694242, -11561.976261374506, -6239.020078065405, -14046.529119793073, 219.51648229557065, -987.2542008464577, -1554.5191233776957, -3025.3756672591767, -20546.282296929636, -16867.699249708563, -22352.772635552006, -12779.453430110625, -7135.45914118995, -11697.427832773667, -5221.926298371112, -8407.273400696922, 0.004, -0.019, 0.991, 192.0, 0.0, 0.0, 0.0, 0.0, 0.0, 0.0, 0.0, 0.0, 0.0, 1.6444975607751703E9, 0.0, 2022-02-10 23:52:40.775
156.0, -9724.305239236981, -11542.306726253835, -6228.045371537849, -14043.601041269427, 233.12869466885266, -970.7139099495304, -1545.444315128841, -3010.958792085504, -20537.475709614242, -16858.736200181986, -22335.651199299242, -12780.8168865224, -7136.532024923805, -11691.12464083727, -5221.121635570721, -8399.450290137565, 0.004, -0.019, 0.991, 192.0, 0.0, 0.0, 0.0, 0.0, 0.0, 0.0, 0.0, 0.0, 0.0, 1.6444975607751768E9, 0.0, 2022-02-10 23:52:40.775
158.0, -9743.103056323893, -11550.442761235567, -6236.80725536433, -14041.63408775736, 222.086932907931, -977.9782268975052, -1559.7270798357822, -3026.9402893710485, -20538.146261947903, -16854.3776100132, -22333.684245787175, -12768.791648005445, -7135.347382467674, -11698.232495574057, -5213.611449433738, -8400.389063404687, 0.004, -0.019, 0.991, 192.0, 0.0, 0.0, 0.0, 0.0, 0.0, 0.0, 0.0, 0.0, 0.0, 1.6444975607751834E9, 0.0, 2022-02-10 23:52:40.775
160.0, -9740.487902222623, -11550.062781579827, -6228.626516893687, -14034.526233020573, 228.8148079889784, -976.7488809524633, -1557.0001670122347, -3012.188138030546, -20540.49319511571, -16857.730371681497, -22342.915516247216, -12769.082220683364, -7133.894519078079, -11714.75043472653, -5218.551184958361, -8404.211211706544, 0.004, -0.0215, 0.9915, 192.0, 0.0, 16.0, 127.5, 32.0, 15.5, 0.0, 0.0, 0.0, 0.0, 1.64449756077519E9, 0.0, 2022-02-10 23:52:40.775
162.0, -9727.568593927455, -11543.737237898975, -6225.251403480936, -14041.187052868254, 234.4697993361711, -979.1181658647258, -1547.768896552193, -3008.008361817403, -20535.86638401346, -16851.538938467376, -22329.28095212948, -12766.534121815459, -7131.055847532255, -11711.196507358136, -5207.978809831001, -8399.60675234875, 0.004, -0.0215, 0.9915, 192.0, 0.0, 0.0, 0.0, 0.0, 0.0, 0.0, 0.0, 0.0, 0.0, 1.6444975607752006E9, 0.0, 2022-02-10 23:52:40.775
164.0, -9732.173053285249, -11536.651734906643, -6223.507967413422, -14040.337686578952, 230.13356091184153, -978.0452821308711, -1545.4890186177515, -3011.9869723304478, -20530.5466688331, -16844.922822108605, -22342.289667402467, -12781.129810944774, -7127.233699230397, -11697.450184518122, -5204.26842025142, -8401.774871560916, 0.004, -0.0215, 0.9915, 192.0, 0.0, 0.0, 0.0, 0.0, 0.0, 0.0, 0.0, 0.0, 0.0, 1.6444975607752073E9, 0.0, 2022-02-10 23:52:40.775
166.0, -9715.789224599508, -11542.820816376307, -6215.461339409511, -14034.481529531662, 232.41343884628284, -965.1483255801589, -1547.2101029408102, -3011.2940682523335, -20525.808099008573, -16844.52049070841, -22329.392710851756, -12761.415572335192, -7137.068466790733, -11685.26848378998, -5206.7718156304145, -8395.00229299096, 0.004, -0.0215, 0.9915, 192.0, 0.0, 0.0, 0.0, 0.0, 0.0, 0.0, 0.0, 0.0, 0.0, 1.6444975607752137E9, 0.0, 2022-02-10 23:52:40.775
168.0, -9727.143910782805, -11557.148284572158, -6225.161996503115, -14034.906212676313, 217.88480495033323, -970.6692064606198, -1570.4559171743294, -3016.2785072658667, -20532.73713978972, -16849.929612866596, -22320.675530514185, -12762.823732235878, -7136.3755627126175, -11674.539646451432, -5208.783472631392, -8397.550391858864, 0.004, -0.0215, 0.9915, 192.0, 0.0, 0.0, 0.0, 0.0, 0.0, 0.0, 0.0, 0.0, 0.0, 1.6444975607752204E9, 0.0, 2022-02-10 23:52:40.775
170.0, -9740.376143500345, -11548.81108389033, -6222.010400534917, -14033.162776608799, 218.86828170636676, -956.6993661760529, -1552.9097977769136, -3004.3873792156437, -20535.039369468614, -16847.58267969879, -22343.787234280975, -12781.554494089425, -7134.6097749006485, -11690.31997803688, -5216.204251790554, -8396.924543014115, 0.004, -0.02375, 0.98775, 192.0, 0.0, 16.0, 127.5, 24.0, 15.0, 96.0, 0.0, 0.0, 0.0, 1.6444975607752268E9, 0.0, 2022-02-10 23:52:40.775
172.0, -9735.995201587106, -11542.28437450938, -6218.456473166522, -14034.481529531662, 231.51936906807055, -967.2717413034131, -1537.1741696803774, -3009.9753153294705, -20530.47961359973, -16843.6264209302, -22330.823222496896, -12769.059868938908, -7129.223004486919, -11701.495850264531, -5204.760158629437, -8396.701025569562, 0.004, -0.02375, 0.98775, 192.0, 0.0, 0.0, 0.0, 0.0, 0.0, 0.0, 0.0, 0.0, 0.0, 1.6444975607752345E9, 0.0, 2022-02-10 23:52:40.775
174.0, -9732.150701540793, -11550.375706002202, -6229.0064965494275, -14035.0626748875, 223.7856654865343, -974.5584099958432, -1544.997280239735, -3014.8926991096378, -20523.505869329678, -16855.94223212507, -22339.808623767927, -12776.570055075892, -7126.674905619015, -11684.910855878694, -5204.938972585079, -8403.026569250414, 0.004, -0.02375, 0.98775, 192.0, 0.0, 0.0, 0.0, 0.0, 0.0, 0.0, 0.0, 0.0, 0.0, 1.644497560775241E9, 0.0, 2022-02-10 23:52:40.775
176.0, -9731.88248060733, -11544.787769888375, -6220.199909234037, -14035.599116754427, 239.02955520505373, -965.2377325579802, -1534.7825330236594, -2997.21246924549, -20535.3969973799, -16856.724543181008, -22341.730873791086, -12768.85870323881, -7127.211347485942, -11704.490984021544, -5205.922449341113, -8400.679636082607, 0.004, -0.02375, 0.98775, 192.0, 0.0, 0.0, 0.0, 0.0, 0.0, 0.0, 0.0, 0.0, 0.0, 1.6444975607752476E9, 0.0, 2022-02-10 23:52:40.775
178.0, -9743.550091213, -11565.23961606498, -6224.4914441694555, -14035.844985943437, 227.00431668809853, -972.4573460170444, -1557.1789809678771, -3003.917992582082, -20536.49223285821, -16855.94223212507, -22330.89027773026, -12767.517598571492, -7126.4513881744615, -11702.591085742843, -5202.748501628459, -8398.913848270637, 0.004, -0.02375, 0.98775, 192.0, 0.0, 0.0, 0.0, 0.0, 0.0, 0.0, 0.0, 0.0, 0.0, 1.644497560775254E9, 0.0, 2022-02-10 23:52:40.775
180.0, -9724.97579157064, -11537.009362817927, -6224.022057535894, -14036.537890021551, 235.87795923685545, -958.1522295656479, -1549.9817192532682, -3007.606030417208, -20536.4475293693, -16858.80325541535, -22338.445167356156, -12775.67598529768, -7129.290059720285, -11690.901123392716, -5208.716417398026, -8402.80305180586, 0.005, -0.025875000000000002, 0.9878750000000001, 192.0, 0.0, 24.0, 127.5, 16.0, 15.0, 112.0, 0.0, 0.0, 0.0, 1.6444975607752604E9, 0.0, 2022-02-10 23:52:40.775
182.0, -9718.180861256225, -11547.84995887875, -6224.4914441694555, -14045.433884314763, 239.20836916069618, -958.8898371326729, -1549.2664634306984, -3000.475823935965, -20532.4465671118, -16846.08511282028, -22326.241114883556, -12773.217293407595, -7127.971306797423, -11665.263672502479, -5209.632838920694, -8399.60675234875, 0.005, -0.025875000000000002, 0.9878750000000001, 192.0, 0.0, 0.0, 0.0, 0.0, 0.0, 0.0, 0.0, 0.0, 0.0, 1.6444975607752674E9, 0.0, 2022-02-10 23:52:40.775
184.0, -9744.64532669131, -11557.349450272257, -6229.386476205168, -14044.740980236647, 234.06746793597557, -977.1288606082036, -1551.635748342961, -3009.21535601799, -20532.290104900614, -16843.939345352574, -22340.210955168124, -12774.67015679719, -7137.046115046277, -11702.367568298288, -5216.405417490651, -8408.435691408598, 0.005, -0.025875000000000002, 0.9878750000000001, 192.0, 0.0, 0.0, 0.0, 0.0, 0.0, 0.0, 0.0, 0.0, 0.0, 1.6444975607752743E9, 0.0, 2022-02-10 23:52:40.775
186.0, -9740.778474900542, -11553.348488014757, -6218.948211544539, -14033.96743940919, 239.14131392733026, -971.8762006612064, -1549.2888151751538, -3018.178405544568, -20540.090863715515, -16861.86544440573, -22339.026312711994, -12766.936453215654, -7130.273536476319, -11705.943847411138, -5217.36654250223, -8409.352112931265, 0.005, -0.025875000000000002, 0.9878750000000001, 192.0, 0.0, 0.0, 0.0, 0.0, 0.0, 0.0, 0.0, 0.0, 0.0, 1.6444975607752807E9, 0.0, 2022-02-10 23:52:40.775
188.0, -9742.723076668153, -11548.296993767857, -6228.872386082696, -14037.610773755405, 226.44552307671586, -981.6662647326309, -1557.6483676014386, -3015.7420653989393, -20540.91787826036, -16860.949022883062, -22332.07492018639, -12765.260072381507, -7120.438768915984, -11707.262600334001, -5213.164414544633, -8411.05084550987, 0.005, -0.025875000000000002, 0.9878750000000001, 192.0, 0.0, 0.0, 0.0, 0.0, 0.0, 0.0, 0.0, 0.0, 0.0, 1.6444975607752874E9, 0.0, 2022-02-10 23:52:40.775
190.0, -9727.613297416365, -11533.723656382997, -6223.597374391244, -14035.509709776607, 238.3142993824839, -973.7537471954522, -1553.669757088394, -3009.081245551258, -20538.146261947903, -16847.225051787504, -22345.150690692746, -12776.19007542015, -7126.4513881744615, -11704.423928788177, -5217.008914590945, -8407.072234996824, 0.006500000000000001, -0.025937500000000002, 0.9899375, 192.0, 0.0, 32.0, 127.5, 24.0, 15.5, 0.0, 0.0, 0.0, 0.0, 1.644497560775294E9, 0.0, 2022-02-10 23:52:40.775
192.0, -9720.483090935122, -11547.291165267368, -6221.295144712347, -14034.660343487305, 241.5105988395928, -967.5846657257874, -1554.7873443111594, -3013.6410014201406, -20531.15016593339, -16845.682781420088, -22323.961236949115, -12759.135694400751, -7117.443635158973, -11689.872943147773, -5210.482205209995, -8400.009083748948, 0.006500000000000001, -0.025937500000000002, 0.9899375, 192.0, 0.0, 0.0, 0.0, 0.0, 0.0, 0.0, 0.0, 0.0, 0.0, 1.6444975607753232E9, 0.0, 2022-02-10 23:52:40.775
194.0, -9729.557899183977, -11554.577833959798, -6225.810197092319, -14035.040323143045, 231.56407255698116, -974.3795960402008, -1553.5356466216622, -3017.5749084442746, -20531.127814188938, -16852.23184254549, -22334.779481265483, -12760.186226390151, -7126.183167240998, -11708.22372534558, -5212.717379655526, -8405.619371607228, 0.006500000000000001, -0.025937500000000002, 0.9899375, 192.0, 0.0, 0.0, 0.0, 0.0, 0.0, 0.0, 0.0, 0.0, 0.0, 1.644497560775332E9, 0.0, 2022-02-10 23:52:40.775
196.0, -9721.06423629096, -11536.51762443991, -6212.3991504191345, -14030.63702948535, 259.1461252148301, -953.3689562522121, -1538.4929226032405, -3007.40486471711, -20525.78574726412, -16840.675990662097, -22326.218763139103, -12748.205691362107, -7123.255088717353, -11678.630015686753, -5207.084740052788, -8396.276342424911, 0.006500000000000001, -0.025937500000000002, 0.9899375, 192.0, 0.0, 0.0, 0.0, 0.0, 0.0, 0.0, 0.0, 0.0, 0.0, 1.644497560775339E9, 0.0, 2022-02-10 23:52:40.775
198.0, -9731.390742229312, -11537.009362817927, -6224.536147658366, -14030.771139952081, 261.3142444269949, -971.2727035609131, -1531.6756405443718, -3008.3212862397777, -20528.87028799895, -16838.306705749834, -22326.08465267237, -12758.398086833728, -7115.499033391361, -11684.463820989587, -5201.0274173054, -8392.990635989981, 0.006500000000000001, -0.025937500000000002, 0.9899375, 192.0, 0.0, 0.0, 0.0, 0.0, 0.0, 0.0, 0.0, 0.0, 0.0, 1.6444975607753456E9, 0.0, 2022-02-10 23:52:40.775
200.0, -9723.008838058573, -11527.353409213234, -6217.383589432668, -14029.899421918324, 263.6835293392574, -964.2542558019467, -1527.9876027092462, -3006.600201916719, -20529.4961368437, -16849.39317099967, -22338.199298167146, -12774.938377730654, -7114.426149657506, -11702.568733998387, -5200.222754505009, -8396.745729058472, 0.00725, -0.022968750000000003, 0.99296875, 192.0, 0.0, 32.0, 127.5, 48.0, 15.5, 16.0, 0.0, 0.0, 0.0, 1.6444975607753525E9, 0.0, 2022-02-10 23:52:40.775
202.0, -9723.366465969857, -11536.271755250902, -6214.8578423092185, -14030.100587618423, 261.9847967606541, -961.4155842561227, -1533.4190766118857, -3001.7722251143728, -20529.742006032706, -16844.29697326386, -22322.955408448626, -12760.76737174599, -7108.815861799224, -11699.618303730287, -5194.388949202174, -8395.449327880064, 0.00725, -0.022968750000000003, 0.99296875, 192.0, 0.0, 0.0, 0.0, 0.0, 0.0, 0.0, 0.0, 0.0, 0.0, 1.644497560775359E9, 0.0, 2022-02-10 23:52:40.775
204.0, -9738.990335344117, -11545.458322222034, -6223.686781369064, -14028.848889928924, 248.1267151983637, -963.404889512645, -1532.6591173004053, -3004.4544344490096, -20530.747834533195, -16851.404828000646, -22334.08657718737, -12765.304775870416, -7115.879013047102, -11694.298588549924, -5197.629952148193, -8394.242333679478, 0.00725, -0.022968750000000003, 0.99296875, 192.0, 0.0, 0.0, 0.0, 0.0, 0.0, 0.0, 0.0, 0.0, 0.0, 1.644497560775366E9, 0.0, 2022-02-10 23:52:40.775
206.0, -9712.72703560913, -11529.029790047383, -6213.717903341998, -14029.005352140111, 267.23745670765123, -949.9267876060949, -1524.7913032521371, -3002.8004053593168, -20525.450471097287, -16842.82175812981, -22328.252771884534, -12762.555511302413, -7114.269687446319, -11672.12565805026, -5198.255800992943, -8394.734072057494, 0.00725, -0.022968750000000003, 0.99296875, 192.0, 0.0, 0.0, 0.0, 0.0, 0.0, 0.0, 0.0, 0.0, 0.0, 1.6444975607753727E9, 0.0, 2022-02-10 23:52:40.775
208.0, -9719.544317668, -11535.444740706056, -6220.177557489581, -14033.11807311989, 258.2967589255284, -959.0239475994048, -1529.1275416764668, -3001.6157629031854, -20524.48934608571, -16842.262964518424, -22320.00497818053, -12758.979232189564, -7114.448501401962, -11681.02165234347, -5196.869992836713, -8392.633008078696, 0.00725, -0.022968750000000003, 0.99296875, 192.0, 0.0, 0.0, 0.0, 0.0, 0.0, 0.0, 0.0, 0.0, 0.0, 1.6444975607753797E9, 0.0, 2022-02-10 23:52:40.775
210.0, -9707.58613438441, -11517.675103864087, -6217.115368499204, -14026.591363738939, 271.5513433875255, -958.3533952657456, -1526.9370707198466, -3011.249364763423, -20517.33678786001, -16836.943249338063, -22332.007864953026, -12766.824694493378, -7112.034513000788, -11694.097422849825, -5205.274248751909, -8397.617447092229, 0.007625, -0.021484375, 0.993484375, 192.0, 0.0, 32.0, 127.5, 48.0, 15.5, 8.0, 0.0, 0.0, 0.0, 1.6444975607753863E9, 0.0, 2022-02-10 23:52:40.775
212.0, -9717.219736244648, -11526.794615601852, -6218.6799906110755, -14030.882898674357, 263.50471538361495, -964.8354011577846, -1539.1634749368995, -3000.431120447054, -20517.470898326745, -16825.47680443249, -22321.27902761448, -12759.04628742293, -7119.83527181569, -11705.429757288666, -5197.31702772582, -8397.840964536783, 0.007625, -0.021484375, 0.993484375, 192.0, 0.0, 0.0, 0.0, 0.0, 0.0, 0.0, 0.0, 0.0, 0.0, 1.6444975607753932E9, 0.0, 2022-02-10 23:52:40.775
214.0, -9740.487902222623, -11543.781941387886, -6231.241670994958, -14030.0111806406, 240.66123255029115, -961.6167499562205, -1553.826219299581, -3002.062797792292, -20535.329942146534, -16854.24349954647, -22343.496661603054, -12759.940357201143, -7132.329896966207, -11701.138222353247, -5208.98463833149, -8400.344359915776, 0.007625, -0.021484375, 0.993484375, 192.0, 0.0, 0.0, 0.0, 0.0, 0.0, 0.0, 0.0, 0.0, 0.0, 1.6444975607754004E9, 0.0, 2022-02-10 23:52:40.775
216.0, -9712.458814675667, -11530.415598203612, -6222.971525546494, -14029.184166095754, 254.34050015693907, -951.3572992512345, -1546.4054401404192, -3002.3086669813, -20534.68174155733, -16849.415522744122, -22334.84653649885, -12755.157083887707, -7133.60394640016, -11683.770916911473, -5212.896193611168, -8396.61161859174, 0.007625, -0.021484375, 0.993484375, 192.0, 0.0, 0.0, 0.0, 0.0, 0.0, 0.0, 0.0, 0.0, 0.0, 1.6444975607754073E9, 0.0, 2022-02-10 23:52:40.775
218.0, -9729.379085228335, -11543.4243134766, -6234.169749518604, -14041.164701123798, 250.2724826660732, -971.3397587942791, -1553.4015361549302, -3021.285298023856, -20535.62051482445, -16852.6788774346, -22335.293571387956, -12760.85677872381, -7139.303641236263, -11685.134373323248, -5217.902984369157, -8402.870107039227, 0.007625, -0.021484375, 0.993484375, 192.0, 0.0, 0.0, 0.0, 0.0, 0.0, 0.0, 0.0, 0.0, 0.0, 1.644497560775414E9, 0.0, 2022-02-10 23:52:40.775
220.0, -9728.239146261114, -11531.019095303905, -6225.251403480936, -14044.964497681201, 264.3764334173719, -961.1697150671143, -1534.1566841789108, -3011.8081583748053, -20534.145299690404, -16847.359162254234, -22342.110853446826, -12769.439848594648, -7137.671963891025, -11701.115870608792, -5221.658077437649, -8407.340455930287, 0.006, -0.026000000000000002, 0.99, 192.0, 0.0, 24.0, 127.5, 24.0, 15.0, 120.0, 0.0, 0.0, 0.0, 1.644497560775421E9, 0.0, 2022-02-10 23:52:40.775
222.0, -9726.071027048949, -11527.688685380064, -6220.602240634232, -14045.54564303704, 260.2860641820507, -962.1755435676031, -1538.4929226032405, -3015.2279752764675, -20528.602067065487, -16846.66625817612, -22326.665798028207, -12769.28338638346, -7138.051943546766, -11697.941922896138, -5208.1799755310985, -8404.881764040205, 0.006, -0.026000000000000002, 0.99, 192.0, 0.0, 0.0, 0.0, 0.0, 0.0, 0.0, 0.0, 0.0, 0.0, 1.6444975607754276E9, 0.0, 2022-02-10 23:52:40.775
224.0, -9738.699762666198, -11534.885947094674, -6226.436045937067, -14046.439712815252, 256.665081580291, -968.9704738820164, -1541.3315941490644, -3013.9092223536045, -20528.19973566529, -16843.60406918574, -22345.061283714927, -12778.805229521422, -7132.911042322045, -11700.713539208597, -5209.252859264953, -8407.228697208011, 0.006, -0.026000000000000002, 0.99, 192.0, 0.0, 0.0, 0.0, 0.0, 0.0, 0.0, 0.0, 0.0, 0.0, 1.6444975607754347E9, 0.0, 2022-02-10 23:52:40.775
226.0, -9723.63468690332, -11537.590508173766, -6214.969601031495, -14043.668096502794, 269.78555557555626, -961.5943982117651, -1535.9448237353354, -3008.1424722841352, -20535.106424701982, -16843.335848252278, -22341.3732458798, -12764.589520047846, -7130.295888220774, -11699.148917096725, -5209.074045309311, -8404.278266939911, 0.006, -0.026000000000000002, 0.99, 192.0, 0.0, 0.0, 0.0, 0.0, 0.0, 0.0, 0.0, 0.0, 0.0, 1.6444975607754436E9, 0.0, 2022-02-10 23:52:40.775
228.0, -9728.373256727846, -11539.803330874842, -6218.948211544539, -14046.618526770893, 257.6038548474139, -968.6128459707315, -1548.5512076081286, -3016.7702456438838, -20532.312456645068, -16861.77603742791, -22329.526821318486, -12760.543854301437, -7125.490263162883, -11692.085765848848, -5205.810690618836, -8403.026569250414, 0.006, -0.026000000000000002, 0.99, 192.0, 0.0, 0.0, 0.0, 0.0, 0.0, 0.0, 0.0, 0.0, 0.0, 1.6444975607754505E9, 0.0, 2022-02-10 23:52:40.775
230.0, -9735.414056231268, -11546.218281533515, -6222.122159257193, -14045.389180825852, 260.598988604425, -966.3329680362903, -1532.4579516003075, -3010.0870740517466, -20533.25122991219, -16855.629307702697, -22343.027274969492, -12773.574921318881, -7127.256050974853, -11720.852460962828, -5216.204251790554, -8405.753482073962, 0.01, -0.028, 0.994, 192.0, 0.0, 40.0, 127.5, 16.0, 15.5, 8.0, 0.0, 0.0, 0.0, 1.6444975607754571E9, 0.0, 2022-02-10 23:52:40.775
232.0, -9732.709495152176, -11550.420409491111, -6220.401074934134, -14052.251166373631, 263.43766015024903, -965.7965261693629, -1540.1693034373884, -3011.9869723304478, -20534.81585202406, -16853.90822337964, -22323.111870659814, -12762.175531646673, -7136.241452245886, -11703.060472376405, -5214.751388400959, -8400.791394804883, 0.01, -0.028, 0.994, 192.0, 0.0, 0.0, 0.0, 0.0, 0.0, 0.0, 0.0, 0.0, 0.0, 1.644497560775464E9, 0.0, 2022-02-10 23:52:40.775
234.0, -9743.863015635374, -11537.90343259614, -6229.9452698165505, -14059.940166466256, 244.81865701897826, -973.8208024288181, -1553.2897774326536, -3023.051085835825, -20543.801253295096, -16858.80325541535, -22344.70365580364, -12782.96265399011, -7146.947937839978, -11700.691187464141, -5225.927260628612, -8407.742787330484, 0.01, -0.028, 0.994, 192.0, 0.0, 0.0, 0.0, 0.0, 0.0, 0.0, 0.0, 0.0, 0.0, 1.6444975607754707E9, 0.0, 2022-02-10 23:52:40.775
236.0, -9718.627896145332, -11531.37672321519, -6220.959868545517, -14050.239509372654, 255.23456993515134, -958.2639882879243, -1543.3879546389526, -3023.0957893247355, -20540.02380848215, -16850.3766477557, -22335.338274876867, -12771.853836995822, -7155.08397282171, -11712.135280625258, -5230.218795564031, -8408.011008263948, 0.01, -0.028, 0.994, 192.0, 0.0, 0.0, 0.0, 0.0, 0.0, 0.0, 0.0, 0.0, 0.0, 1.6444975607754896E9, 0.0, 2022-02-10 23:52:40.775
238.0, -9730.943707340206, -11541.770284386908, -6229.721752371997, -14051.088875661955, 251.03244197755362, -972.3232355503126, -1558.8106583131146, -3025.442722492543, -20538.50388985919, -16853.684705935088, -22336.455862099632, -12764.008374692008, -7161.230702546919, -11711.107100380314, -5228.520062985428, -8406.289923940889, 0.01, -0.028, 0.994, 192.0, 0.0, 0.0, 0.0, 0.0, 0.0, 0.0, 0.0, 0.0, 0.0, 1.6444975607754965E9, 0.0, 2022-02-10 23:52:40.775
240.0, -9735.928146353739, -11546.508854211434, -6229.56529016081, -14048.943108194246, 245.48920935263746, -973.4184710286225, -1566.1420304944552, -3038.205568576523, -20535.21818342426, -16859.160883326636, -22349.017542483514, -12779.162857432708, -7159.040231590299, -11706.569696255887, -5232.31985954283, -8412.235487966, 0.012, -0.022, 0.99, 192.0, 0.0, 48.0, 127.5, 40.0, 15.0, 120.0, 0.0, 0.0, 0.0, 1.6444975607755032E9, 0.0, 2022-02-10 23:52:40.775
242.0, -9743.036001090528, -11552.521473469911, -6229.677048883087, -14048.183148882765, 249.82544777696705, -971.2727035609131, -1552.8203907990924, -3019.854786378716, -20541.87900327194, -16866.156979341147, -22326.151707905738, -12752.608985019802, -7160.291929279796, -11711.352969569323, -5226.486054239996, -8406.625200107717, 0.012, -0.022, 0.99, 192.0, 0.0, 0.0, 0.0, 0.0, 0.0, 0.0, 0.0, 0.0, 0.0, 1.6444975607755244E9, 0.0, 2022-02-10 23:52:40.775
244.0, -9762.102039110905, -11558.735258428485, -6244.809179879329, -14055.78274199757, 232.2346248906404, -989.6681892476308, -1581.7882516131701, -3057.2716065969003, -20553.948945277803, -16877.77988645791, -22343.56371683642, -12774.759563775011, -7154.32401351023, -11728.675571522186, -5234.420923521629, -8414.649476367173, 0.012, -0.022, 0.99, 192.0, 0.0, 0.0, 0.0, 0.0, 0.0, 0.0, 0.0, 0.0, 0.0, 1.6444975607755313E9, 0.0, 2022-02-10 23:52:40.775
246.0, -9747.796922659507, -11543.290203009868, -6238.796560620852, -14058.554358310028, 244.41632561878274, -975.7654041964298, -1559.1682862243995, -3032.103542340224, -20556.944079034816, -16866.87223516372, -22352.437359385178, -12775.966557975598, -7166.013975860355, -11711.911763180706, -5237.796036934381, -8419.678618869617, 0.012, -0.022, 0.99, 192.0, 0.0, 0.0, 0.0, 0.0, 0.0, 0.0, 0.0, 0.0, 0.0, 1.644497560775538E9, 0.0, 2022-02-10 23:52:40.775
248.0, -9749.808579660485, -11549.012249590427, -6243.199854278548, -14062.220044400698, 229.9994504451097, -982.9179624221281, -1563.9739112822904, -3040.3289842997774, -20556.251174956702, -16876.885816679696, -22343.250792414045, -12780.772183033489, -7171.221932318442, -11740.812568761417, -5233.571557232328, -8422.405531693164, 0.012, -0.022, 0.99, 192.0, 0.0, 0.0, 0.0, 0.0, 0.0, 0.0, 0.0, 0.0, 0.0, 1.644497560775545E9, 0.0, 2022-02-10 23:52:40.775
250.0, -9752.334326783935, -11560.724563685008, -6248.050182825349, -14061.929471722779, 229.03832543353147, -980.9063054211505, -1567.2596177172206, -3049.4708477819977, -20552.49608188821, -16883.85956094975, -22358.919365277216, -12787.276540669984, -7168.986757872911, -11716.60562951632, -5243.406324792662, -8426.607659650763, 0.012, -0.024, 0.994, 192.0, 0.0, 48.0, 127.5, 32.0, 15.5, 8.0, 0.0, 0.0, 0.0, 1.6444975607755637E9, 0.0, 2022-02-10 23:52:40.775
0.0, -4980.818030931715, -5899.988818167308, -3334.6567552872607, -7132.21813824393, -66.40703277671729, -531.8821110584869, -754.7066515334429, -1586.862097604525, -10276.75095519435, -8438.454084212075, -11170.373698517526, -6386.072204836871, -3584.370444341951, -5868.517561974235, -2622.0160868187054, -4212.812091447365, 0.004, -0.024, 0.992, 192.0, 0.0, 16.0, 127.5, 32.0, 15.5, 0.0, 0.0, 0.0, 0.0, 1.6444975613285654E9, 0.0, 2022-02-10 23:52:41.328
2.0, -9982.624349906964, -11799.351787489866, -6680.422327568809, -14269.39836375694, -145.2416354705853, -1078.0693385683703, -1529.4404660988412, -3196.0312361754463, -20588.70590790581, -17079.75024935606, -22470.409866620288, -12999.148726361838, -7430.256298810995, -11990.481554327198, -5467.728432146124, -8458.548302477397, 0.004, -0.024, 0.992, 192.0, 0.0, 0.0, 0.0, 0.0, 0.0, 0.0, 0.0, 0.0, 0.0, 1.6444975613286047E9, 0.0, 2022-02-10 23:52:41.328
4.0, -9972.677823624352, -11808.76187190555, -6673.582693765485, -14269.331308523573, -139.85486505685628, -1073.330768743845, -1524.9701172077796, -3187.7610907269827, -20595.322024264577, -17082.164237757235, -22468.73348578614, -13009.430528811281, -7445.9472234186205, -11989.855705482449, -5473.294016515496, -8463.53274149093, 0.004, -0.024, 0.992, 192.0, 0.0, 0.0, 0.0, 0.0, 0.0, 0.0, 0.0, 0.0, 0.0, 1.6444975613287063E9, 0.0, 2022-02-10 23:52:41.328
6.0, -9990.939198844339, -11832.63353498382, -6682.32222584751, -14271.20885505782, -152.37184195182826, -1084.9089723716943, -1532.5250068336734, -3202.267372878477, -20602.83221040156, -17090.680252394708, -22472.44387536572, -12997.76291820561, -7453.278595599962, -12009.368778391932, -5469.583626935915, -8465.745564192006, 0.004, -0.021, 0.99, 192.0, 0.0, 16.0, 127.5, 56.0, 15.0, 112.0, 0.0, 0.0, 0.0, 1.6444975613287218E9, 0.0, 2022-02-10 23:52:41.328
8.0, -9986.133573786447, -11820.071854599937, -6678.008339167636, -14264.68214567687, -139.16196097874177, -1077.3317310013451, -1523.1372741624446, -3195.181869886145, -20601.066422589593, -17100.20209553267, -22479.618785335875, -13001.182735107272, -7448.09299088633, -12007.223010924223, -5475.708004916669, -8469.277139815944, 0.004, -0.021, 0.99, 192.0, 0.0, 0.0, 0.0, 0.0, 0.0, 0.0, 0.0, 0.0, 0.0, 1.644497561328729E9, 0.0, 2022-02-10 23:52:41.328
10.0, -9976.365861459477, -11808.091319571891, -6671.883961186882, -14264.72684916578, -136.63621385529208, -1067.0499285519038, -1521.7961694951262, -3173.5006777644967, -20594.316195764088, -17081.85131333486, -22457.557613558485, -12986.162362833305, -7439.129941359752, -12000.338673631988, -5472.019967081544, -8463.085706601823, 0.004, -0.021, 0.99, 192.0, 0.0, 0.0, 0.0, 0.0, 0.0, 0.0, 0.0, 0.0, 0.0, 1.6444975613287356E9, 0.0, 2022-02-10 23:52:41.328
12.0, -9987.497030198221, -11803.755081147561, -6683.283350859088, -14268.884273634467, -155.90341757576675, -1075.275370511457, -1545.5337221066623, -3193.7960617299154, -20598.093640577037, -17078.52090341102, -22477.562424845986, -13005.027235153584, -7443.913214673187, -11990.593313049474, -5483.732281176124, -8462.81748566836, 0.004, -0.021, 0.99, 192.0, 0.0, 0.0, 0.0, 0.0, 0.0, 0.0, 0.0, 0.0, 0.0, 1.6444975613287425E9, 0.0, 2022-02-10 23:52:41.328
14.0, -9968.185122988836, -11800.491726457087, -6678.678891501295, -14272.393497513951, -150.5837023954037, -1072.5484576879094, -1533.150855678422, -3185.2576953479884, -20601.60286445652, -17078.34208945538, -22477.16009344579, -12999.595761250945, -7445.6566507407015, -12000.338673631988, -5488.224981811641, -8467.734869448528, 0.004, -0.021, 0.99, 192.0, 0.0, 0.0, 0.0, 0.0, 0.0, 0.0, 0.0, 0.0, 0.0, 1.644497561328749E9, 0.0, 2022-02-10 23:52:41.328
16.0, -9975.382384703444, -11815.825023153428, -6682.65750201434, -14269.688936434859, -158.92090307723322, -1086.6971119281188, -1550.1158297200002, -3197.7076170095943, -20603.100431335024, -17085.740516870086, -22473.673221310764, -12991.929112902775, -7459.782953236456, -12012.118042959935, -5487.152098077786, -8467.064317114868, 0.004, -0.0235, 0.987, 192.0, 0.0, 16.0, 127.5, 24.0, 15.0, 96.0, 0.0, 0.0, 0.0, 1.6444975613287559E9, 0.0, 2022-02-10 23:52:41.328
18.0, -9992.012082578192, -11809.588886450398, -6683.082185158991, -14266.671450933392, -154.62936814181427, -1070.1344692867362, -1530.7815707661596, -3184.0283494029463, -20597.579550454564, -17081.24781623457, -22483.59739584892, -13000.065147884507, -7450.708144987601, -11983.016071679125, -5489.61078996787, -8464.069183357857, 0.004, -0.0235, 0.987, 192.0, 0.0, 0.0, 0.0, 0.0, 0.0, 0.0, 0.0, 0.0, 0.0, 1.6444975613287625E9, 0.0, 2022-02-10 23:52:41.328
20.0, -9990.089832555037, -11809.81240389495, -6675.639054255374, -14270.426544001884, -146.73920234909087, -1067.0275768074487, -1521.9526317063132, -3187.8057942158935, -20608.12957383747, -17081.00194704556, -22466.36420087388, -12989.269255312593, -7450.28346184295, -11990.190981649279, -5482.190010808708, -8460.492904245008, 0.004, -0.0235, 0.987, 192.0, 0.0, 0.0, 0.0, 0.0, 0.0, 0.0, 0.0, 0.0, 0.0, 1.6444975613287692E9, 0.0, 2022-02-10 23:52:41.328
22.0, -9991.050957566615, -11812.651075440774, -6679.975292679703, -14270.024212601687, -158.13859202129746, -1078.1140420572808, -1529.1275416764668, -3192.8349367183373, -20605.849695903027, -17074.85521732035, -22478.59060509093, -13010.302246845038, -7445.9472234186205, -12001.769185277128, -5484.782813165523, -8468.897160160204, 0.004, -0.0235, 0.987, 192.0, 0.0, 0.0, 0.0, 0.0, 0.0, 0.0, 0.0, 0.0, 0.0, 1.644497561328776E9, 0.0, 2022-02-10 23:52:41.328
24.0, -9969.302710211601, -11798.591828178387, -6671.369871064409, -14271.34296552455, -142.1570947357529, -1059.6738528816525, -1515.604736281006, -3180.005035400991, -20597.154867309913, -17080.353746456356, -22473.829683521948, -12998.90285717283, -7446.28249958545, -12000.025749209613, -5482.659397442269, -8461.72225019005, 0.004, -0.0235, 0.987, 192.0, 0.0, 0.0, 0.0, 0.0, 0.0, 0.0, 0.0, 0.0, 0.0, 1.6444975613287828E9, 0.0, 2022-02-10 23:52:41.328
26.0, -9978.668091138374, -11813.343979518888, -6672.822734454005, -14264.279814276673, -149.80139133946793, -1070.9391320871273, -1534.380201623464, -3196.8582507202927, -20596.752535909716, -17071.793028329972, -22467.951174730206, -12988.308130301015, -7445.701354229612, -11992.806135750548, -5476.758536906068, -8460.269386800455, 0.005, -0.02475, 0.9855, 192.0, 0.0, 24.0, 127.5, 24.0, 15.0, 96.0, 0.0, 0.0, 0.0, 1.6444975613287897E9, 0.0, 2022-02-10 23:52:41.328
28.0, -9970.599111390009, -11807.66663642724, -6670.65461524184, -14252.053410059621, -146.15805699325287, -1068.6145506637754, -1527.898195731425, -3182.7990034579043, -20592.818628885583, -17065.60159511585, -22475.282546911545, -12988.28577855656, -7443.063848383886, -11989.073394426512, -5486.079214343931, -8460.67171820065, 0.005, -0.02475, 0.9855, 192.0, 0.0, 0.0, 0.0, 0.0, 0.0, 0.0, 0.0, 0.0, 0.0, 1.6444975613287964E9, 0.0, 2022-02-10 23:52:41.328
30.0, -9970.800277090106, -11803.911543358749, -6668.3076820740325, -14256.30024150613, -136.3903446662837, -1072.302588498901, -1525.148931163422, -3179.4685935340635, -20594.092678319535, -17069.781371328994, -22456.73059901364, -12981.312034286504, -7438.146464603718, -11984.625397279906, -5483.218191053652, -8456.447238498598, 0.005, -0.02475, 0.9855, 192.0, 0.0, 0.0, 0.0, 0.0, 0.0, 0.0, 0.0, 0.0, 0.0, 1.6444975613288033E9, 0.0, 2022-02-10 23:52:41.328
32.0, -9984.211323763291, -11810.974694606626, -6677.449545556253, -14259.138913051953, -146.18040873770818, -1075.4765362115547, -1529.0381346986455, -3187.6046285157954, -20601.17818131187, -17083.192418002178, -22475.863692267383, -12988.218723323194, -7444.13673211774, -11996.404766607853, -5487.889705644811, -8464.96325313607, 0.005, -0.02475, 0.9855, 192.0, 0.0, 0.0, 0.0, 0.0, 0.0, 0.0, 0.0, 0.0, 0.0, 1.64449756132881E9, 0.0, 2022-02-10 23:52:41.328
34.0, -9981.3055969841, -11799.731767145608, -6673.202714109745, -14260.68118341937, -135.89860628826693, -1058.466858681066, -1526.4006288529192, -3187.5375732824295, -20597.69130917684, -17066.875644549804, -22473.15913118829, -12979.47919124117, -7440.940432660632, -11988.983987448692, -5491.153060335286, -8461.141104834212, 0.005, -0.02475, 0.9855, 192.0, 0.0, 0.0, 0.0, 0.0, 0.0, 0.0, 0.0, 0.0, 0.0, 1.644497561328817E9, 0.0, 2022-02-10 23:52:41.328
36.0, -9992.280303511656, -11808.471299227633, -6682.970426436714, -14264.995070099243, -146.4933331600825, -1065.3735477177559, -1537.442390613841, -3189.5715820278624, -20602.116954578993, -17076.822170832416, -22465.69364854022, -12987.257598311615, -7442.1921303501285, -11977.405783820843, -5491.063653357465, -8463.1974653241, 0.0055, -0.022375, 0.98875, 192.0, 0.0, 24.0, 127.5, 48.0, 15.5, 0.0, 0.0, 0.0, 0.0, 1.6444975613288236E9, 0.0, 2022-02-10 23:52:41.328
38.0, -9986.044166808626, -11809.81240389495, -6675.773164722105, -14252.969831582288, -143.9899377810881, -1071.0955942983144, -1533.2626144006986, -3188.006959915991, -20604.70975693581, -17072.28476670799, -22488.604186606906, -12988.174019834283, -7448.160046119696, -11995.063661940536, -5495.757519693079, -8464.426811269142, 0.0055, -0.022375, 0.98875, 192.0, 0.0, 0.0, 0.0, 0.0, 0.0, 0.0, 0.0, 0.0, 0.0, 1.6444975613288324E9, 0.0, 2022-02-10 23:52:41.328
40.0, -9972.700175368807, -11808.76187190555, -6670.699318730751, -14251.852244359523, -140.8383418128898, -1060.1208877707586, -1529.4851695877517, -3186.375282570754, -20600.50762897821, -17064.305193937445, -22468.73348578614, -12975.679394683766, -7440.985136149542, -11983.530161801596, -5485.7662899215575, -8455.240244298011, 0.0055, -0.022375, 0.98875, 192.0, 0.0, 0.0, 0.0, 0.0, 0.0, 0.0, 0.0, 0.0, 0.0, 1.6444975613288393E9, 0.0, 2022-02-10 23:52:41.328
42.0, -9973.527189913653, -11802.61514218034, -6678.2318566121885, -14255.495578705739, -152.93063556321093, -1063.8312773503396, -1529.7086870323049, -3185.01182615898, -20598.07128883258, -17066.562720127433, -22477.852997523903, -12988.71046170121, -7442.817979194878, -11956.50690275513, -5488.359092278372, -8457.00603210998, 0.0055, -0.022375, 0.98875, 192.0, 0.0, 0.0, 0.0, 0.0, 0.0, 0.0, 0.0, 0.0, 0.0, 1.6444975613288457E9, 0.0, 2022-02-10 23:52:41.328
44.0, -9959.445590906811, -11791.081642041403, -6667.972405907203, -14244.476168689273, -137.17265572221945, -1058.3774517032448, -1520.9468032058244, -3181.301436579399, -20591.49987596272, -17070.586034129385, -22471.415695120777, -12986.05060411103, -7435.285441313439, -11962.966556902715, -5486.481545744127, -8452.379221007732, 0.0055, -0.022375, 0.98875, 192.0, 0.0, 0.0, 0.0, 0.0, 0.0, 0.0, 0.0, 0.0, 0.0, 1.6444975613288524E9, 0.0, 2022-02-10 23:52:41.328
46.0, -9981.819687106572, -11797.854220611362, -6676.555475778041, -14255.272061261185, -144.72754534811324, -1071.1626495316805, -1530.7815707661596, -3194.3772070857535, -20594.60676844201, -17063.791103814972, -22459.68102928174, -12983.100173842928, -7438.884072170744, -11990.2803886271, -5483.397005009295, -8454.145008819702, 0.00575, -0.0221875, 0.989375, 192.0, 0.0, 24.0, 127.5, 40.0, 15.0, 120.0, 0.0, 0.0, 0.0, 1.644497561328859E9, 0.0, 2022-02-10 23:52:41.328
48.0, -9977.617559148975, -11799.038863067492, -6680.467031057719, -14253.10394204902, -137.50793188904905, -1064.010091305982, -1526.0653526860897, -3187.1799453711446, -20600.731146422764, -17074.05055451996, -22479.842302780427, -12995.684205971267, -7441.7227437165675, -11987.374661847909, -5493.254124314085, -8460.984642623025, 0.00575, -0.0221875, 0.989375, 192.0, 0.0, 0.0, 0.0, 0.0, 0.0, 0.0, 0.0, 0.0, 0.0, 1.644497561328866E9, 0.0, 2022-02-10 23:52:41.328
50.0, -9982.3561289735, -11798.90475260076, -6676.421365311309, -14256.948442095334, -137.10560048885353, -1043.7147073405633, -1530.3345358770534, -3184.721253481061, -20598.004233599215, -17068.57437712841, -22465.201910162203, -12983.368394776393, -7439.8451971823215, -11967.347498815954, -5486.280380044029, -8448.288851772411, 0.00575, -0.0221875, 0.989375, 192.0, 0.0, 0.0, 0.0, 0.0, 0.0, 0.0, 0.0, 0.0, 0.0, 1.644497561328873E9, 0.0, 2022-02-10 23:52:41.328
52.0, -9995.253085524213, -11813.746310919085, -6689.094804417468, -14261.083514819566, -150.71781286213553, -1060.299701726401, -1540.1916551818438, -3200.099253666312, -20605.55912322511, -17079.482028422597, -22480.31168941399, -12989.649234968334, -7442.393296050227, -11962.586577246973, -5492.0471301134985, -8452.602738452284, 0.00575, -0.0221875, 0.989375, 192.0, 0.0, 0.0, 0.0, 0.0, 0.0, 0.0, 0.0, 0.0, 0.0, 1.6444975613288796E9, 0.0, 2022-02-10 23:52:41.328
54.0, -9948.20266344579, -11774.317833699923, -6677.60600776744, -14247.694819890836, -130.1318562187977, -1050.8002103328956, -1513.3248583465647, -3188.4763465495525, -20592.013966085193, -17064.61811835982, -22479.909358013792, -12982.943711631742, -7438.794665192922, -11977.003452420648, -5491.175412079741, -8449.540549461908, 0.00575, -0.0221875, 0.989375, 192.0, 0.0, 0.0, 0.0, 0.0, 0.0, 0.0, 0.0, 0.0, 0.0, 1.6444975613288865E9, 0.0, 2022-02-10 23:52:41.328
56.0, -9961.189026974323, -11788.75706061805, -6679.729423490695, -14258.691878162846, -142.380612180306, -1064.9935680620156, -1528.7252102762714, -3197.238230376033, -20573.93140482085, -17045.440321617167, -22459.837491492926, -12971.521970215079, -7420.667400439668, -11954.182321331778, -5479.4854497296155, -8450.591081451306, 0.003875, -0.02209375, 0.9906874999999999, 192.0, 0.0, 8.0, 127.5, 40.0, 15.5, 0.0, 0.0, 0.0, 0.0, 1.6444975613288932E9, 0.0, 2022-02-10 23:52:41.328
58.0, -9982.914922584883, -11805.252648026068, -6682.411632825331, -14255.942613594845, -138.84903655636748, -1067.2063907630911, -1531.183902166355, -3195.6289047752507, -20610.74472793874, -17072.75415334155, -22485.87727378336, -13004.356682819925, -7445.746057718523, -11980.13269664439, -5488.694368445203, -8459.598834466797, 0.003875, -0.02209375, 0.9906874999999999, 192.0, 0.0, 0.0, 0.0, 0.0, 0.0, 0.0, 0.0, 0.0, 0.0, 1.6444975613288999E9, 0.0, 2022-02-10 23:52:41.328
60.0, -9965.927596798849, -11798.10008980037, -6680.824658969004, -14251.449912959328, -138.37964992280604, -1067.631073907742, -1526.9370707198466, -3199.786329243938, -20602.742803423742, -17063.031144503493, -22466.028924707047, -12975.858208639409, -7435.374848291261, -11991.822658994515, -5485.878048643834, -8453.452104741586, 0.003875, -0.02209375, 0.9906874999999999, 192.0, 0.0, 0.0, 0.0, 0.0, 0.0, 0.0, 0.0, 0.0, 0.0, 1.6444975613289065E9, 0.0, 2022-02-10 23:52:41.328
62.0, -9977.572855660064, -11799.016511323038, -6688.580714294996, -14255.093247305544, -158.94325482168853, -1081.5785624478535, -1546.763068051704, -3213.845576506326, -20612.778736684173, -17076.88922606578, -22482.859788281894, -12989.358662290415, -7449.255281598006, -11995.264827640633, -5497.925638905244, -8459.420020511154, 0.003875, -0.02209375, 0.9906874999999999, 192.0, 0.0, 0.0, 0.0, 0.0, 0.0, 0.0, 0.0, 0.0, 0.0, 1.6444975613289132E9, 0.0, 2022-02-10 23:52:41.328
64.0, -9957.813913561573, -11784.040842537981, -6681.0481764135575, -14255.674392661382, -152.17067625173047, -1061.3278819713453, -1536.63772781345, -3196.813547231382, -20608.666015704395, -17075.45871442064, -22481.183407447745, -12987.347005289437, -7452.8092089664, -11988.089917670479, -5499.646723228303, -8457.184846065622, 0.003875, -0.02209375, 0.9906874999999999, 192.0, 0.0, 0.0, 0.0, 0.0, 0.0, 0.0, 0.0, 0.0, 0.0, 1.64449756132892E9, 0.0, 2022-02-10 23:52:41.328
66.0, -9960.11614324047, -11781.313929714433, -6686.8596299719375, -14265.017421843699, -155.83636234240083, -1065.8429343513174, -1551.9710245097906, -3215.7901782739377, -20606.252027303224, -17065.489836393575, -22474.79080853353, -12983.435450009758, -7451.132828132252, -11979.685661755284, -5495.243429570607, -8451.999241351992, 0.0029375, -0.025046875, 0.98934375, 192.0, 0.0, 8.0, 127.5, 16.0, 15.0, 112.0, 0.0, 0.0, 0.0, 1.6444975613289268E9, 0.0, 2022-02-10 23:52:41.328
68.0, -9953.455323392787, -11770.115705742324, -6684.110365403934, -14262.58108169807, -150.11431576184222, -1059.1821145036358, -1547.3665651519973, -3202.401483345209, -20602.966320868294, -17050.692981564163, -22488.201855206713, -13002.255618841127, -7449.098819386819, -11965.671117981807, -5500.943124406711, -8454.234415797522, 0.0029375, -0.025046875, 0.98934375, 192.0, 0.0, 0.0, 0.0, 0.0, 0.0, 0.0, 0.0, 0.0, 0.0, 1.6444975613289335E9, 0.0, 2022-02-10 23:52:41.328
70.0, -9952.225977447746, -11774.675461611208, -6673.8285629544935, -14256.099075806032, -135.87625454381163, -1054.4882481680213, -1515.2918118586317, -3184.9894744145245, -20603.234541801758, -17068.820246317417, -22473.516759099577, -12989.04573786804, -7438.794665192922, -11988.156972903846, -5488.917885889756, -8445.71840116005, 0.0029375, -0.025046875, 0.98934375, 192.0, 0.0, 0.0, 0.0, 0.0, 0.0, 0.0, 0.0, 0.0, 0.0, 1.644497561328942E9, 0.0, 2022-02-10 23:52:41.328
72.0, -9949.096733224003, -11773.021432521515, -6669.1346966188785, -14255.026192072177, -136.30093768846245, -1060.657329637686, -1531.4968265887294, -3207.2071084031, -20599.479448733266, -17078.275034222013, -22469.381686375345, -12996.108889115918, -7431.731513945046, -11986.301778114055, -5488.694368445203, -8450.300508773387, 0.0029375, -0.025046875, 0.98934375, 192.0, 0.0, 0.0, 0.0, 0.0, 0.0, 0.0, 0.0, 0.0, 0.0, 1.6444975613289485E9, 0.0, 2022-02-10 23:52:41.328
74.0, -9938.591413330008, -11765.354784173345, -6658.070583113502, -14248.678296646869, -126.13089396129776, -1057.9751203030492, -1521.706762517305, -3187.403462815698, -20586.40367822691, -17058.24787119006, -22466.990049718625, -12985.76003143311, -7429.116359843774, -11984.401879835354, -5485.587475965915, -8453.407401252676, 0.0029375, -0.025046875, 0.98934375, 192.0, 0.0, 0.0, 0.0, 0.0, 0.0, 0.0, 0.0, 0.0, 0.0, 1.6444975613289552E9, 0.0, 2022-02-10 23:52:41.328
76.0, -9959.356183928989, -11779.90576981375, -6666.541894262064, -14253.908604849412, -144.5710831369261, -1050.6213963772532, -1537.7106115473048, -3195.293628608421, -20595.299672520123, -17059.4772171351, -22466.72182878516, -12967.208083535204, -7423.550775474403, -11977.98692917668, -5481.653568941781, -8452.736848919016, 0.00346875, -0.024523437500000002, 0.986671875, 192.0, 0.0, 16.0, 127.5, 32.0, 15.0, 96.0, 0.0, 0.0, 0.0, 1.644497561328962E9, 0.0, 2022-02-10 23:52:41.328
78.0, -9955.846960049506, -11785.13607801629, -6670.98989140867, -14253.550976938126, -146.58274013790373, -1051.4037074331889, -1532.5697103225841, -3198.5346315544407, -20600.574684211577, -17065.959223027137, -22475.997802734113, -12992.554961747523, -7432.156197089696, -11978.635129765884, -5492.002426624587, -8454.43558149762, 0.00346875, -0.024523437500000002, 0.986671875, 192.0, 0.0, 0.0, 0.0, 0.0, 0.0, 0.0, 0.0, 0.0, 0.0, 1.6444975613289688E9, 0.0, 2022-02-10 23:52:41.328
80.0, -9935.640983061909, -11772.395583676765, -6661.512751759619, -14257.14960779543, -137.6867458446915, -1049.1014777542923, -1526.8476637420254, -3200.7698059999716, -20594.182085297358, -17064.640470104274, -22460.083360681936, -12974.785324905555, -7431.865624411777, -11963.167722602811, -5485.676882943736, -8452.446276241097, 0.00346875, -0.024523437500000002, 0.986671875, 192.0, 0.0, 0.0, 0.0, 0.0, 0.0, 0.0, 0.0, 0.0, 0.0, 1.6444975613289754E9, 0.0, 2022-02-10 23:52:41.328
82.0, -9948.046201234603, -11760.28093818199, -6668.710013474228, -14259.161264796408, -142.00063252456576, -1061.104364526792, -1526.668849786383, -3211.878622994259, -20592.84098063004, -17056.526786866998, -22466.990049718625, -12984.731851188166, -7427.5740894763585, -11961.826617935494, -5489.65549345678, -8461.744601934506, 0.00346875, -0.024523437500000002, 0.986671875, 192.0, 0.0, 0.0, 0.0, 0.0, 0.0, 0.0, 0.0, 0.0, 0.0, 1.644497561328982E9, 0.0, 2022-02-10 23:52:41.328
84.0, -9944.11229421047, -11777.312967456934, -6662.183304093279, -14244.67733438937, -139.07255400092055, -1057.5727889028537, -1519.471588071774, -3200.1216054107676, -20593.17625679687, -17056.57149035591, -22462.16207291628, -12982.183752320261, -7416.509975970981, -11984.357176346442, -5494.058787114476, -8460.135276333724, 0.00346875, -0.024523437500000002, 0.986671875, 192.0, 0.0, 0.0, 0.0, 0.0, 0.0, 0.0, 0.0, 0.0, 0.0, 1.6444975613289888E9, 0.0, 2022-02-10 23:52:41.328
86.0, -9944.782846544129, -11775.860104067338, -6665.781934950583, -14243.67150588888, -149.60022563937017, -1057.4163266916664, -1534.0672772010896, -3203.5190705679743, -20596.350204509523, -17067.501493394553, -22455.903584468793, -12963.408286977803, -7435.03957212443, -11966.833408693483, -5488.9402376342105, -8457.318956532354, 0.006, -0.018000000000000002, 0.988, 192.0, 0.0, 24.0, 127.5, 56.0, 15.0, 112.0, 0.0, 0.0, 0.0, 1.644497561328996E9, 0.0, 2022-02-10 23:52:41.328
88.0, -9928.734294025218, -11761.107952726836, -6667.458315784731, -14237.591831397038, -143.3640889363395, -1055.270559223957, -1533.1955591673327, -3199.9204397106696, -20588.147114294425, -17057.711429323128, -22472.846206765917, -12967.18573179075, -7439.152293104207, -11965.112324370424, -5491.600095224392, -8455.888444887214, 0.006, -0.018000000000000002, 0.988, 192.0, 0.0, 0.0, 0.0, 0.0, 0.0, 0.0, 0.0, 0.0, 0.0, 1.6444975613290029E9, 0.0, 2022-02-10 23:52:41.329
90.0, -9930.880061492928, -11756.011754991026, -6659.434039525276, -14247.337191979552, -138.08907724488702, -1049.1238294987477, -1531.5638818220953, -3194.9807041860468, -20584.72729739276, -17045.70854255063, -22456.842357735917, -12964.101191055917, -7435.240737824529, -11975.215312864222, -5483.687577687214, -8453.429752997132, 0.006, -0.018000000000000002, 0.988, 192.0, 0.0, 0.0, 0.0, 0.0, 0.0, 0.0, 0.0, 0.0, 0.0, 1.6444975613290093E9, 0.0, 2022-02-10 23:52:41.329
92.0, -9950.549596613599, -11749.932080499182, -6669.93935941927, -14250.77936062567, -152.8412285853897, -1070.8944285982168, -1552.2615971877096, -3208.3917508592313, -20592.50570446321, -17055.632717088785, -22462.96673571667, -12972.99718534913, -7436.626545980757, -11969.046231394557, -5486.772118422046, -8457.229549554533, 0.006, -0.018000000000000002, 0.988, 192.0, 0.0, 0.0, 0.0, 0.0, 0.0, 0.0, 0.0, 0.0, 0.0, 1.644497561329016E9, 0.0, 2022-02-10 23:52:41.329
94.0, -9934.769265028151, -11775.323662200411, -6667.3689088069095, -14245.05731404511, -136.54680687747086, -1053.7953440899068, -1526.5794428085617, -3193.4384338186305, -20591.946910851828, -17063.969917770617, -22461.335058371435, -12970.337327758949, -7439.8451971823215, -11976.869341953916, -5489.7001969456915, -8457.989508866014, 0.006, -0.018000000000000002, 0.988, 192.0, 0.0, 0.0, 0.0, 0.0, 0.0, 0.0, 0.0, 0.0, 0.0, 1.644497561329023E9, 0.0, 2022-02-10 23:52:41.329
96.0, -9952.136570469926, -11780.71043261414, -6664.530237261086, -14250.309973992107, -149.80139133946793, -1061.9090273271831, -1538.0458877141343, -3199.160480399189, -20593.64564343043, -17063.724048581607, -22458.74225601462, -12969.443257980736, -7432.849101167811, -11965.492304026164, -5481.407699752772, -8448.780590150427, 0.006, -0.02, 0.988, 192.0, 0.0, 24.0, 127.5, 48.0, 15.0, 112.0, 0.0, 0.0, 0.0, 1.6444975613290296E9, 0.0, 2022-02-10 23:52:41.329
98.0, -9950.437837891322, -11770.89801679826, -6663.524408760597, -14253.215700771298, -147.63327212730314, -1068.0334053079373, -1534.6484225569277, -3195.427739075153, -20598.160695810402, -17062.13707472528, -22467.258270652088, -12984.106002343417, -7451.848083954822, -11961.111362112924, -5488.604961467381, -8454.994375109003, 0.006, -0.02, 0.988, 192.0, 0.0, 0.0, 0.0, 0.0, 0.0, 0.0, 0.0, 0.0, 0.0, 1.6444975613290362E9, 0.0, 2022-02-10 23:52:41.329
100.0, -9922.274639877634, -11750.51322585502, -6655.500132501142, -14249.997049569733, -140.88304530180042, -1047.268634708957, -1534.4249051123745, -3185.101233136801, -20591.4104689849, -17034.532670322977, -22454.02603793455, -12961.79896137702, -7451.37869732126, -11961.536045257575, -5483.955798620677, -8451.261633784967, 0.006, -0.02, 0.988, 192.0, 0.0, 0.0, 0.0, 0.0, 0.0, 0.0, 0.0, 0.0, 0.0, 1.6444975613290431E9, 0.0, 2022-02-10 23:52:41.329
102.0, -9948.984974501727, -11760.884435282283, -6669.581731507985, -14253.036886815655, -159.27853098851813, -1061.6855098826302, -1563.6386351154608, -3197.3052856093987, -20589.01883232818, -17046.55790883993, -22466.49831134061, -12969.398554491825, -7448.13769437524, -11959.166760345312, -5490.795432424001, -8451.798075651894, 0.006, -0.02, 0.988, 192.0, 0.0, 0.0, 0.0, 0.0, 0.0, 0.0, 0.0, 0.0, 0.0, 1.644497561329052E9, 0.0, 2022-02-10 23:52:41.329
104.0, -9943.77701804364, -11764.259548695034, -6666.161914606323, -14250.712305392302, -141.8218185689233, -1063.6301116502418, -1535.0284022126677, -3193.304323351899, -20591.879855618463, -17067.814417816928, -22469.247575908612, -12972.90777837131, -7446.28249958545, -11971.683737240284, -5505.100548875398, -8457.631880954728, 0.006, -0.02, 0.988, 192.0, 0.0, 0.0, 0.0, 0.0, 0.0, 0.0, 0.0, 0.0, 0.0, 1.6444975613290586E9, 0.0, 2022-02-10 23:52:41.329
106.0, -9944.604032588486, -11766.315909184923, -6666.050155884047, -14256.188482783853, -140.63717611279205, -1075.074204811359, -1531.5191783331845, -3199.3839978437422, -20591.96926259628, -17070.00488877355, -22455.143625157314, -12974.271234783082, -7437.095932614319, -11969.51561802812, -5489.744900434602, -8454.770857664449, 0.01, -0.026000000000000002, 0.988, 192.0, 0.0, 40.0, 127.5, 24.0, 15.0, 112.0, 0.0, 0.0, 0.0, 1.644497561329065E9, 0.0, 2022-02-10 23:52:41.329
108.0, -9941.363029642467, -11761.733801571585, -6664.664347727818, -14256.479055461772, -140.39130692378367, -1075.9682745895714, -1533.3073178896093, -3198.10994840979, -20591.879855618463, -17066.830941060896, -22468.375857874857, -12978.361604018404, -7438.213519837084, -11966.900463926848, -5496.13749934882, -8453.094476830302, 0.01, -0.026000000000000002, 0.988, 192.0, 0.0, 0.0, 0.0, 0.0, 0.0, 0.0, 0.0, 0.0, 0.0, 1.644497561329072E9, 0.0, 2022-02-10 23:52:41.329
110.0, -9927.035561446615, -11744.165330429714, -6653.801399922539, -14258.066029318099, -126.73439106159104, -1069.0392338084262, -1521.4832450727517, -3196.500622809008, -20587.811838127596, -17055.029219988493, -22452.5508228005, -12968.348022502425, -7436.067752369375, -11966.296966826554, -5491.644798713302, -8454.770857664449, 0.01, -0.026000000000000002, 0.988, 192.0, 0.0, 0.0, 0.0, 0.0, 0.0, 0.0, 0.0, 0.0, 0.0, 1.644497561329079E9, 0.0, 2022-02-10 23:52:41.329
112.0, -9935.573927828542, -11755.832941035384, -6662.742097704661, -14260.97175609729, -141.08421100189818, -1073.1296030437475, -1539.409344125908, -3200.4792333220526, -20581.575701424565, -17050.67062981971, -22454.4507210792, -12969.33149925846, -7434.570185490869, -11965.201731348245, -5491.309522546473, -8456.536645476419, 0.01, -0.026000000000000002, 0.988, 192.0, 0.0, 0.0, 0.0, 0.0, 0.0, 0.0, 0.0, 0.0, 0.0, 1.6444975613290854E9, 0.0, 2022-02-10 23:52:41.329
114.0, -9935.998610973193, -11752.256661922534, -6657.757658691127, -14250.86876760349, -132.6128998533368, -1068.0557570523927, -1527.3394021200422, -3184.1848116141337, -20586.69425090483, -17039.427702358687, -22457.803482747495, -12968.325670757971, -7450.171703120674, -11962.899501669348, -5493.9246766477445, -8452.803904152383, 0.01, -0.026000000000000002, 0.988, 192.0, 0.0, 0.0, 0.0, 0.0, 0.0, 0.0, 0.0, 0.0, 0.0, 1.644497561329092E9, 0.0, 2022-02-10 23:52:41.329
116.0, -9943.754666299184, -11754.670650323707, -6658.070583113502, -14249.751180380725, -138.40200166726135, -1071.140297787225, -1537.4870941027516, -3196.4112158311864, -20587.990652083237, -17068.75319108405, -22443.25249710709, -12958.066220052984, -7443.801455950911, -11959.390277789866, -5487.956760878177, -8449.294680272898, 0.01, -0.028, 0.994, 192.0, 0.0, 40.0, 127.5, 16.0, 15.5, 8.0, 0.0, 0.0, 0.0, 1.6444975613290987E9, 0.0, 2022-02-10 23:52:41.329
118.0, -9938.97139298575, -11764.818342306417, -6662.429173282287, -14248.454779202317, -134.95983302114405, -1061.461992438077, -1527.4958643312293, -3185.01182615898, -20582.581529925053, -17062.80762705894, -22451.142662899812, -12969.912644614298, -7436.134807602741, -11949.801379418539, -5495.019912126054, -8450.76989540695, 0.01, -0.028, 0.994, 192.0, 0.0, 0.0, 0.0, 0.0, 0.0, 0.0, 0.0, 0.0, 0.0, 1.6444975613291056E9, 0.0, 2022-02-10 23:52:41.329
120.0, -9914.138604895903, -11744.545310085454, -6650.046306854047, -14241.81631109909, -126.30970791694021, -1052.633053378231, -1513.7271897467601, -3178.7086342225834, -20576.30068973311, -17050.022429230503, -22443.453662807187, -12961.307222999005, -7428.42345576566, -11950.427228263286, -5486.146269577297, -8439.012877823458, 0.01, -0.028, 0.994, 192.0, 0.0, 0.0, 0.0, 0.0, 0.0, 0.0, 0.0, 0.0, 0.0, 1.6444975618094091E9, 0.0, 2022-02-10 23:52:41.809
122.0, -9918.184270642314, -11745.08175195238, -6656.662423212818, -14236.965982552289, -141.19596972417472, -1063.8089256058843, -1530.2227771547768, -3195.3383320973317, -20572.433837942343, -17046.13322569528, -22442.023151162048, -12953.528815928557, -7419.259240538984, -11948.3708677734, -5484.045205598499, -8442.410342980666, 0.01, -0.028, 0.994, 192.0, 0.0, 0.0, 0.0, 0.0, 0.0, 0.0, 0.0, 0.0, 0.0, 1.6444975618095686E9, 0.0, 2022-02-10 23:52:41.809
124.0, -9916.396131085889, -11737.571565815399, -6659.344632547454, -14238.10592151951, -132.9258242757111, -1058.8468383368063, -1517.2364136262433, -3189.660989005684, -20574.02081179867, -17036.119644179304, -22452.95315420069, -12956.99333631913, -7431.955031389598, -11948.706143940228, -5496.1598510932745, -8442.566805191851, 0.01, -0.028, 0.994, 192.0, 0.0, 0.0, 0.0, 0.0, 0.0, 0.0, 0.0, 0.0, 0.0, 1.6444975618095765E9, 0.0, 2022-02-10 23:52:41.809
126.0, -9930.343619626, -11738.71150478262, -6660.46221977022, -14244.744389622736, -135.94330977717755, -1067.7651843744736, -1525.7077247748048, -3196.590029786829, -20579.340526979035, -17048.502510607545, -22455.3000873685, -12961.195464276727, -7440.7839704494445, -11957.713896955716, -5496.025740626543, -8441.628031924729, 0.01, -0.024, 0.992, 192.0, 0.0, 40.0, 127.5, 32.0, 15.5, 0.0, 0.0, 0.0, 0.0, 1.6444975618095837E9, 0.0, 2022-02-10 23:52:41.809
128.0, -9944.939308755316, -11757.576377102898, -6656.684774957273, -14241.52573842117, -133.61872835382562, -1064.010091305982, -1530.3345358770534, -3187.6046285157954, -20583.69911714782, -17056.638545589274, -22459.54691881501, -12971.14199055934, -7433.676115712657, -11954.785818432072, -5497.836231927423, -8443.90790985917, 0.01, -0.024, 0.992, 192.0, 0.0, 0.0, 0.0, 0.0, 0.0, 0.0, 0.0, 0.0, 0.0, 1.6444975618095908E9, 0.0, 2022-02-10 23:52:41.809
130.0, -9930.00834345917, -11747.85336826484, -6648.8840161423705, -14244.275002989174, -127.42729513970556, -1051.7836870889291, -1518.286945615643, -3184.9000674367035, -20572.724410620263, -17042.825167515894, -22434.15533711378, -12953.37235371737, -7418.432225994137, -11911.557544655509, -5491.264819057563, -8437.135331289212, 0.01, -0.024, 0.992, 192.0, 0.0, 0.0, 0.0, 0.0, 0.0, 0.0, 0.0, 0.0, 0.0, 1.644497561809598E9, 0.0, 2022-02-10 23:52:41.809
132.0, -9944.49227386621, -11751.027315977493, -6670.095821630457, -14244.67733438937, -150.67310937322492, -1067.6981291411078, -1530.8039225106147, -3196.4112158311864, -20580.70398339081, -17046.982591984583, -22449.086302409924, -12964.99526083413, -7436.939470403132, -11968.1745133608, -5496.696292960202, -8441.04688656889, 0.01, -0.024, 0.992, 192.0, 0.0, 0.0, 0.0, 0.0, 0.0, 0.0, 0.0, 0.0, 0.0, 1.6444975618096178E9, 0.0, 2022-02-10 23:52:41.809
134.0, -9920.53120381012, -11738.376228615789, -6658.942301147259, -14241.369276209984, -135.98801326608816, -1053.1694952451583, -1516.342343848031, -3181.9272854241476, -20582.290957247133, -17046.55790883993, -22455.657715279784, -12957.418019463781, -7440.269880326972, -11962.340708057965, -5500.540793006515, -8439.1916917791, 0.01, -0.024, 0.992, 192.0, 0.0, 0.0, 0.0, 0.0, 0.0, 0.0, 0.0, 0.0, 0.0, 1.6444975618096516E9, 0.0, 2022-02-10 23:52:41.809
136.0, -9920.53120381012, -11744.210033918624, -6652.639109210862, -14243.693857633336, -139.00549876755463, -1059.0033005479934, -1525.7524282637155, -3197.9981896875133, -20573.037335042638, -17048.1225309518, -22446.739369242117, -12948.164397259283, -7438.079409370353, -11952.148312586345, -5496.383368537828, -8438.76700863445, 0.018000000000000002, -0.026000000000000002, 0.988, 192.0, 0.0, 72.0, 127.5, 24.0, 15.0, 112.0, 0.0, 0.0, 0.0, 1.6444975618096588E9, 0.0, 2022-02-10 23:52:41.809
138.0, -9935.797445273096, -11748.859196765328, -6653.421420266798, -14243.358581466508, -142.84999881386744, -1062.9372075721274, -1519.248070627221, -3199.451053077108, -20573.238500742737, -17048.167234440712, -22454.271907123555, -12964.816446878487, -7430.479816255548, -11955.903405654837, -5498.70794996118, -8440.331630746321, 0.018000000000000002, -0.026000000000000002, 0.988, 192.0, 0.0, 0.0, 0.0, 0.0, 0.0, 0.0, 0.0, 0.0, 0.0, 1.644497561809666E9, 0.0, 2022-02-10 23:52:41.809
140.0, -9930.768302770652, -11751.65316482224, -6653.980213878181, -14245.638459400949, -140.12308599031996, -1054.2870824679235, -1518.1975386378217, -3172.494849264008, -20578.938195578838, -17053.41989438771, -22446.02411341955, -12951.763028116588, -7434.100798857307, -11957.780952189083, -5496.986865638121, -8437.045924311391, 0.018000000000000002, -0.026000000000000002, 0.988, 192.0, 0.0, 0.0, 0.0, 0.0, 0.0, 0.0, 0.0, 0.0, 0.0, 1.6444975618096728E9, 0.0, 2022-02-10 23:52:41.809
142.0, -9934.389285372412, -11756.436438135677, -6661.311586059522, -14246.219604756787, -162.16190602325273, -1055.337614457323, -1534.4472568568299, -3186.777613970949, -20583.229730514257, -17052.90580426524, -22458.094055425412, -12953.350001972914, -7439.196996593118, -11935.74213215615, -5501.188993595719, -8436.576537677829, 0.018000000000000002, -0.026000000000000002, 0.988, 192.0, 0.0, 0.0, 0.0, 0.0, 0.0, 0.0, 0.0, 0.0, 0.0, 1.644497561809692E9, 0.0, 2022-02-10 23:52:41.809
144.0, -9907.924819937327, -11726.79802498794, -6650.694507443251, -14246.15254952342, -147.58856863839253, -1042.6194718622532, -1513.2578031131989, -3171.0196341299575, -20569.103428018505, -17039.427702358687, -22453.35548560089, -12953.014725806086, -7437.945298903621, -11927.941373341248, -5502.932429663233, -8433.089665542802, 0.018000000000000002, -0.026000000000000002, 0.988, 192.0, 0.0, 0.0, 0.0, 0.0, 0.0, 0.0, 0.0, 0.0, 0.0, 1.6444975618096988E9, 0.0, 2022-02-10 23:52:41.809
146.0, -9925.403884101377, -11737.884490237771, -6648.168760319801, -14252.835721115556, -144.8840075593004, -1047.3356899423231, -1514.7106665027936, -3171.8019451858936, -20573.46201818729, -17021.948638194637, -22438.15629937128, -12952.701801383711, -7434.860758168788, -11936.926774612282, -5493.410586525272, -8430.161587019156, 0.012, -0.026000000000000002, 0.99, 192.0, 0.0, 48.0, 127.5, 24.0, 15.0, 120.0, 0.0, 0.0, 0.0, 1.6444975618097055E9, 0.0, 2022-02-10 23:52:41.809
148.0, -9944.089942466015, -11764.773638817507, -6648.973423120192, -14249.34884898053, -147.58856863839253, -1054.108268512281, -1510.665000756383, -3180.1167941232675, -20576.16657926638, -17045.08269370588, -22455.702418768695, -12963.47534221117, -7431.485644756037, -11946.716838683706, -5495.5116505040705, -8435.928337088626, 0.012, -0.026000000000000002, 0.99, 192.0, 0.0, 0.0, 0.0, 0.0, 0.0, 0.0, 0.0, 0.0, 0.0, 1.6444975618097253E9, 0.0, 2022-02-10 23:52:41.809
150.0, -9923.369875355946, -11755.788237546472, -6643.631356195374, -14243.179767510865, -145.6216151263255, -1039.2667101939571, -1506.9546111768022, -3166.906913150181, -20575.853654844006, -17045.194452428157, -22442.939572684714, -12946.331554213948, -7431.463293011581, -11946.046286350047, -5491.644798713302, -8431.525043430931, 0.012, -0.026000000000000002, 0.99, 192.0, 0.0, 0.0, 0.0, 0.0, 0.0, 0.0, 0.0, 0.0, 0.0, 1.644497561809733E9, 0.0, 2022-02-10 23:52:41.809
152.0, -9935.953907484283, -11757.33050791389, -6654.717821445206, -14245.459645445306, -156.43985944269414, -1058.2656929809682, -1516.6552682704055, -3184.4083290586864, -20572.992631553727, -17041.774635526497, -22451.455587322187, -12954.914624084786, -7425.271859797462, -11947.096818339447, -5493.768214436557, -8434.117845787745, 0.012, -0.026000000000000002, 0.99, 192.0, 0.0, 0.0, 0.0, 0.0, 0.0, 0.0, 0.0, 0.0, 0.0, 1.6444975618097403E9, 0.0, 2022-02-10 23:52:41.809
154.0, -9927.77316901364, -11750.401467132744, -6645.687716685262, -14251.271099003685, -152.4836006741048, -1047.5145038979656, -1513.414265324386, -3182.240209846522, -20574.423143198866, -17050.67062981971, -22455.38949434632, -12959.764952631587, -7415.32533351485, -11928.164890785802, -5501.524269762549, -8440.130465046223, 0.009000000000000001, -0.027000000000000003, 0.991, 192.0, 0.0, 24.0, 127.5, 16.0, 15.5, 0.0, 0.0, 0.0, 0.0, 1.6444975618097467E9, 0.0, 2022-02-10 23:52:41.809
156.0, -9928.711942280763, -11740.03025770548, -6642.580824205974, -14253.10394204902, -147.72267910512437, -1050.3531754437895, -1514.4647973137853, -3180.8991051792036, -20570.265718730177, -17049.217766430113, -22443.207793618178, -12956.211025263194, -7431.642106967224, -11933.372847243887, -5494.483470259127, -8437.649421411685, 0.009000000000000001, -0.027000000000000003, 0.991, 192.0, 0.0, 0.0, 0.0, 0.0, 0.0, 0.0, 0.0, 0.0, 0.0, 1.6444975618097537E9, 0.0, 2022-02-10 23:52:41.809
158.0, -9934.72456153924, -11758.716316070118, -6644.927757373782, -14251.829892615067, -145.37574593731713, -1052.8342190783285, -1514.5318525471512, -3176.0487766324018, -20570.82451234156, -17050.76003679753, -22454.428369334742, -12973.175999304773, -7419.5945167058135, -11941.732399670173, -5496.986865638121, -8438.699953401083, 0.009000000000000001, -0.027000000000000003, 0.991, 192.0, 0.0, 0.0, 0.0, 0.0, 0.0, 0.0, 0.0, 0.0, 0.0, 1.6444975618097603E9, 0.0, 2022-02-10 23:52:41.809
160.0, -9936.020962717648, -11767.768772574518, -6642.871396883893, -14256.769628139691, -143.6546616142585, -1048.6097393762755, -1495.7116837157828, -3173.7912504424157, -20576.948890322317, -17043.339257638367, -22442.15726162878, -12950.89131008283, -7417.269935282462, -11943.520539226598, -5489.0519963564875, -8435.213081266056, 0.009000000000000001, -0.027000000000000003, 0.991, 192.0, 0.0, 0.0, 0.0, 0.0, 0.0, 0.0, 0.0, 0.0, 0.0, 1.6444975618097672E9, 0.0, 2022-02-10 23:52:41.809
162.0, -9970.353242201, -11792.378043219811, -6657.8023621800385, -14268.169017811897, -165.06763280244266, -1064.3006639839011, -1521.5950037950283, -3188.096366893812, -20590.98578584025, -17064.104028237347, -22463.749046772606, -12971.298452770527, -7431.195072078118, -11943.587594459963, -5495.690464459713, -8442.723267403038, 0.009000000000000001, -0.027000000000000003, 0.991, 192.0, 0.0, 0.0, 0.0, 0.0, 0.0, 0.0, 0.0, 0.0, 0.0, 1.644497561809774E9, 0.0, 2022-02-10 23:52:41.809
164.0, -9955.757553071684, -11778.251740724058, -6639.831559637972, -14257.842511873545, -142.02298426902107, -1053.8400475788173, -1505.8817274429475, -3178.976855156047, -20592.617463185485, -17064.774580571007, -22474.611994577885, -12973.600682449423, -7430.725685444557, -11934.937469355758, -5499.557316250482, -8441.940956347104, 0.0055000000000000005, -0.026500000000000003, 0.9904999999999999, 192.0, 0.0, 8.0, 127.5, 24.0, 15.0, 120.0, 0.0, 0.0, 0.0, 1.6444975618097804E9, 0.0, 2022-02-10 23:52:41.809
166.0, -9983.36195747399, -11797.76481363354, -6646.022992852091, -14259.273023518685, -154.00351929706565, -1055.2929109684123, -1507.9157361883804, -3169.9020469071925, -20582.782695625152, -17052.794045542963, -22456.507081569085, -12960.100228798417, -7413.224269536051, -11939.273707780088, -5485.788641666012, -8432.776741120428, 0.0055000000000000005, -0.026500000000000003, 0.9904999999999999, 192.0, 0.0, 0.0, 0.0, 0.0, 0.0, 0.0, 0.0, 0.0, 0.0, 1.64449756180979E9, 0.0, 2022-02-10 23:52:41.809
168.0, -10022.276344570679, -11847.050410157492, -6646.246510296644, -14261.77641889768, -155.63519664230307, -1054.9576348015828, -1501.836061696537, -3169.656177718184, -20607.906056392916, -17076.017508032026, -22486.12314297237, -12984.798906421533, -7424.534252230436, -11955.925757399293, -5495.735167948624, -8437.76118013396, 0.0055000000000000005, -0.026500000000000003, 0.9904999999999999, 192.0, 0.0, 0.0, 0.0, 0.0, 0.0, 0.0, 0.0, 0.0, 0.0, 1.6444975618097968E9, 0.0, 2022-02-10 23:52:41.809
170.0, -10032.289926086656, -11854.135913149825, -6637.17170204779, -14261.239977030753, -140.01132726804343, -1039.2890619384125, -1498.2374308392325, -3167.555113739385, -20607.74959418173, -17076.397487687766, -22472.667392810275, -12975.210008050206, -7422.768464418467, -11935.473911222687, -5487.129746333331, -8427.926412573626, 0.0055000000000000005, -0.026500000000000003, 0.9904999999999999, 192.0, 0.0, 0.0, 0.0, 0.0, 0.0, 0.0, 0.0, 0.0, 0.0, 1.6444975618098035E9, 0.0, 2022-02-10 23:52:41.809
172.0, -10067.538627092676, -11898.481774149153, -6654.002565622636, -14267.274948033686, -144.056993014454, -1045.1899224746135, -1495.9799046492465, -3156.3121862783655, -20610.45415526082, -17086.500476181565, -22486.145494716824, -12989.604531479423, -7413.380731747238, -11937.776140901584, -5480.46892648565, -8424.037209038403, 0.0055000000000000005, -0.026500000000000003, 0.9904999999999999, 192.0, 0.0, 0.0, 0.0, 0.0, 0.0, 0.0, 0.0, 0.0, 0.0, 1.64449756180981E9, 0.0, 2022-02-10 23:52:41.809
174.0, -10103.234362987801, -11928.50016695263, -6654.539007489563, -14271.410020757918, -142.87235055832275, -1043.2676724514572, -1491.3530935469978, -3154.166418810656, -20643.042998676658, -17100.112688554847, -22517.907323587817, -12997.04766238304, -7427.194109820618, -11932.635239676863, -5490.929542890733, -8424.707761372061, 0.0037500000000000003, -0.02525, 0.98825, 192.0, 0.0, 8.0, 127.5, 32.0, 15.0, 104.0, 0.0, 0.0, 0.0, 1.6444975618098168E9, 0.0, 2022-02-10 23:52:41.809
176.0, -10142.81930241815, -11959.278519067588, -6659.389336036365, -14282.96587264131, -140.86069355734512, -1059.629149392742, -1491.0401691246236, -3162.5483229813963, -20647.51334756772, -17100.313854254946, -22509.436012439255, -12998.768746706099, -7414.8335951368335, -11933.350495499433, -5486.2356765551185, -8425.154796261168, 0.0037500000000000003, -0.02525, 0.98825, 192.0, 0.0, 0.0, 0.0, 0.0, 0.0, 0.0, 0.0, 0.0, 0.0, 1.6444975618098235E9, 0.0, 2022-02-10 23:52:41.809
178.0, -10154.86689267956, -11975.08120239749, -6658.361155791421, -14285.223398831296, -147.8344378274009, -1062.9595593165827, -1499.220907595266, -3169.745584696005, -20651.55901331413, -17112.47320323863, -22532.100681316937, -13027.557793564534, -7429.8539674108, -11957.93741440027, -5499.713778461669, -8438.588194678807, 0.0037500000000000003, -0.02525, 0.98825, 192.0, 0.0, 0.0, 0.0, 0.0, 0.0, 0.0, 0.0, 0.0, 0.0, 1.64449756180983E9, 0.0, 2022-02-10 23:52:41.809
180.0, -10159.136075870523, -11985.139487402379, -6656.640071468362, -14280.484829006771, -135.04923999896528, -1050.3755271882449, -1499.734997717738, -3159.5531892243853, -20649.234431890778, -17131.96392440366, -22515.135707275356, -13011.486889301168, -7427.596441220813, -11947.566204973007, -5490.057824856976, -8434.721342888039, 0.0037500000000000003, -0.02525, 0.98825, 192.0, 0.0, 0.0, 0.0, 0.0, 0.0, 0.0, 0.0, 0.0, 0.0, 1.6444975618098369E9, 0.0, 2022-02-10 23:52:41.809
182.0, -10158.331413070133, -11974.164780874824, -6671.369871064409, -14281.423602273895, -152.21537974064108, -1076.3259025008563, -1517.2140618817882, -3177.7922126999156, -20661.885519252482, -17135.786072705516, -22530.379596993876, -13014.683188758278, -7423.573127218858, -11961.983080146681, -5495.46694701516, -8437.291793500399, 0.0037500000000000003, -0.02525, 0.98825, 192.0, 0.0, 0.0, 0.0, 0.0, 0.0, 0.0, 0.0, 0.0, 0.0, 1.6444975618098435E9, 0.0, 2022-02-10 23:52:41.809
184.0, -10141.701715195384, -11969.649728494851, -6667.771240207106, -14283.926997652889, -145.3086907039512, -1063.7865738614291, -1507.5804600215508, -3177.166363855167, -20652.520138325708, -17121.48095625412, -22535.922829618794, -13020.919325461307, -7428.892842399221, -11961.93837665777, -5502.2618773295735, -8438.409380723164, 0.006875, -0.024625, 0.9861249999999999, 192.0, 0.0, 40.0, 127.5, 32.0, 15.0, 96.0, 0.0, 0.0, 0.0, 1.6444975618098505E9, 0.0, 2022-02-10 23:52:41.809
186.0, -10138.885395394016, -11957.89271091136, -6668.218275096211, -14289.604340744538, -150.0919640173869, -1074.2248385220573, -1509.6144687669837, -3181.435547046131, -20648.02743769019, -17118.329360285923, -22511.760593862607, -13014.459671313725, -7427.998772621009, -11950.248414307645, -5496.361016793373, -8437.00122082248, 0.006875, -0.024625, 0.9861249999999999, 192.0, 0.0, 0.0, 0.0, 0.0, 0.0, 0.0, 0.0, 0.0, 0.0, 1.644497561809857E9, 0.0, 2022-02-10 23:52:41.809
188.0, -10122.054531819169, -11933.372847243887, -6669.872304185904, -14284.77636394219, -151.2542547290629, -1076.9293996011495, -1517.7728554931707, -3180.072090634357, -20648.206251645835, -17123.917296399748, -22524.88106785787, -13015.107871902928, -7412.978400347042, -11970.02970815059, -5500.920772662255, -8446.344250004799, 0.006875, -0.024625, 0.9861249999999999, 192.0, 0.0, 0.0, 0.0, 0.0, 0.0, 0.0, 0.0, 0.0, 0.0, 1.6444975618098636E9, 0.0, 2022-02-10 23:52:41.809
190.0, -10096.66295011794, -11902.616846873385, -6660.708088959228, -14281.423602273895, -141.73241159110208, -1066.2676174959681, -1507.9827914217462, -3164.492924749008, -20636.337475340068, -17108.092261325393, -22509.659529883807, -13008.625866010889, -7413.045455580409, -11959.077353367491, -5493.298827802995, -8439.415209223653, 0.006875, -0.024625, 0.9861249999999999, 192.0, 0.0, 0.0, 0.0, 0.0, 0.0, 0.0, 0.0, 0.0, 0.0, 1.6444975618098848E9, 0.0, 2022-02-10 23:52:41.809
192.0, -10090.203295970357, -11873.090192447924, -6668.598254751952, -14280.30601505113, -150.31548146194, -1072.4814024545435, -1498.8185761950704, -3175.333520809832, -20628.335550825068, -17103.2866362675, -22509.480715928166, -13002.009749652118, -7413.827766636345, -11949.063771851514, -5493.634103969825, -8441.180997035623, 0.006875, -0.024625, 0.9861249999999999, 192.0, 0.0, 0.0, 0.0, 0.0, 0.0, 0.0, 0.0, 0.0, 0.0, 1.6444975618098917E9, 0.0, 2022-02-10 23:52:41.809
194.0, -10082.067260988624, -11897.677111348763, -6662.853856426937, -14280.194256328852, -142.06768775793168, -1065.015919806471, -1495.376407548953, -3168.069203861857, -20619.730129209773, -17079.81730458943, -22500.62942512386, -12993.583141992467, -7417.091121326819, -11938.31258276851, -5492.8964964028, -8436.19655802209, 0.0094375, -0.0253125, 0.9870625, 192.0, 0.0, 48.0, 127.5, 24.0, 15.0, 112.0, 0.0, 0.0, 0.0, 1.6444975618098996E9, 0.0, 2022-02-10 23:52:41.809
196.0, -10081.396708654966, -11903.197992229223, -6664.954920405737, -14280.59658772905, -158.78679261050138, -1069.7991931199067, -1513.3025066021094, -3172.494849264008, -20628.424957802887, -17093.317758240435, -22488.06774473998, -12983.681319198766, -7419.639220194724, -11956.104571354936, -5488.649664956291, -8432.597927164785, 0.0094375, -0.0253125, 0.9870625, 192.0, 0.0, 0.0, 0.0, 0.0, 0.0, 0.0, 0.0, 0.0, 0.0, 1.644497561809907E9, 0.0, 2022-02-10 23:52:41.809
198.0, -10073.975929495804, -11881.293282663022, -6668.195923351756, -14278.383765027973, -162.83245835691196, -1067.631073907742, -1510.44148331183, -3172.0254626304463, -20627.79910895814, -17103.91248511225, -22508.25136998312, -12998.09819437244, -7419.952144617098, -11967.593368004962, -5492.203592324686, -8437.24709001149, 0.0094375, -0.0253125, 0.9870625, 192.0, 0.0, 0.0, 0.0, 0.0, 0.0, 0.0, 0.0, 0.0, 0.0, 1.6444975618099165E9, 0.0, 2022-02-10 23:52:41.809
200.0, -10057.100362432047, -11847.855072957884, -6661.713917459717, -14278.674337705892, -148.79556283897912, -1058.2209894920575, -1493.5882679925285, -3161.587197969818, -20617.874934419982, -17087.81922910443, -22489.386497662843, -12994.81248793751, -7416.219403293062, -11949.667268951807, -5485.587475965915, -8433.313182987355, 0.0094375, -0.0253125, 0.9870625, 192.0, 0.0, 0.0, 0.0, 0.0, 0.0, 0.0, 0.0, 0.0, 0.0, 1.644497561809924E9, 0.0, 2022-02-10 23:52:41.809
202.0, -10045.812731482118, -11859.612090541374, -6670.609911752929, -14283.63642497497, -169.6944439046912, -1070.9614838315827, -1506.9546111768022, -3178.261599333477, -20622.12176586649, -17088.489781438086, -22493.856846553907, -13000.556886262524, -7413.268973024961, -11959.591443489962, -5484.671054443247, -8438.76700863445, 0.0094375, -0.0253125, 0.9870625, 192.0, 0.0, 0.0, 0.0, 0.0, 0.0, 0.0, 0.0, 0.0, 0.0, 1.6444975618099365E9, 0.0, 2022-02-10 23:52:41.809
204.0, -10022.097530615036, -11845.82106421245, -6653.890806900359, -14272.818180658602, -151.09779251787575, -1066.3570244737894, -1503.6242012529615, -3169.075032362346, -20612.532867495163, -17083.684156380197, -22498.88598905635, -12995.52774376008, -7422.254374295995, -11959.278519067588, -5491.309522546473, -8438.67760165663, 0.00671875, -0.02465625, 0.98853125, 192.0, 0.0, 16.0, 127.5, 32.0, 15.0, 120.0, 0.0, 0.0, 0.0, 1.6444975618099434E9, 0.0, 2022-02-10 23:52:41.809
206.0, -10026.858452184017, -11838.444988542198, -6648.83931265346, -14273.689898692359, -149.89079831728915, -1069.7991931199067, -1504.2053466087993, -3167.555113739385, -20605.246198802735, -17070.56368238493, -22476.936576001237, -12964.36941198938, -7413.179566047141, -11955.36696378791, -5481.810031152968, -8438.878767356726, 0.00671875, -0.02465625, 0.98853125, 192.0, 0.0, 0.0, 0.0, 0.0, 0.0, 0.0, 0.0, 0.0, 0.0, 1.6444975618099504E9, 0.0, 2022-02-10 23:52:41.809
208.0, -10020.93523990336, -11828.073779114937, -6647.252338797133, -14264.77155265469, -132.27762368650718, -1067.0499285519038, -1489.766119690671, -3168.5385904954187, -20599.345338266532, -17074.586996386886, -22485.094962727424, -12976.37229876188, -7406.60815317728, -11956.193978332756, -5481.452403241683, -8435.324839988332, 0.00671875, -0.02465625, 0.98853125, 192.0, 0.0, 0.0, 0.0, 0.0, 0.0, 0.0, 0.0, 0.0, 0.0, 1.6444975618099573E9, 0.0, 2022-02-10 23:52:41.809
210.0, -9995.029568079659, -11813.411034752255, -6636.970536347692, -14265.576215455081, -133.30580393145132, -1058.9585970590826, -1490.9507621468024, -3163.308282292877, -20586.627195671463, -17067.70265909465, -22466.945346229717, -12967.632766679855, -7397.13101352823, -11950.583690474474, -5477.630254939825, -8434.609584165762, 0.00671875, -0.02465625, 0.98853125, 192.0, 0.0, 0.0, 0.0, 0.0, 0.0, 0.0, 0.0, 0.0, 0.0, 1.644497561809964E9, 0.0, 2022-02-10 23:52:41.809
212.0, -10005.356074018011, -11804.71620615914, -6651.610928965918, -14268.928977123378, -152.863580329845, -1069.083937297337, -1509.994448422724, -3178.842744689315, -20584.97316658177, -17077.448019677166, -22467.16886367427, -12972.90777837131, -7388.614998890758, -11938.245527535144, -5481.8323828974235, -8437.582366178318, 0.00671875, -0.02465625, 0.98853125, 192.0, 0.0, 0.0, 0.0, 0.0, 0.0, 0.0, 0.0, 0.0, 0.0, 1.6444975618099706E9, 0.0, 2022-02-10 23:52:41.809
214.0, -9978.198704504814, -11797.541296188987, -6644.368963762398, -14267.587872456059, -136.83737955538984, -1052.8342190783285, -1493.3423988035202, -3167.555113739385, -20582.223902013768, -17059.454865390642, -22468.77818927505, -12973.42186849378, -7392.571257659347, -11944.191091560257, -5484.715757932157, -8437.560014433862, 0.004359375, -0.022328125, 0.9922656249999999, 192.0, 0.0, 8.0, 127.5, 48.0, 15.5, 16.0, 0.0, 0.0, 0.0, 1.6444975618099775E9, 0.0, 2022-02-10 23:52:41.809
216.0, -9983.406660962899, -11800.022339823527, -6648.861664397916, -14270.314785279606, -146.69449886018026, -1060.5455709154096, -1510.4861868007406, -3158.2791397904325, -20581.709811891298, -17049.821263530404, -22459.837491492926, -12954.311126984494, -7393.018292548453, -11953.668231209307, -5478.725490418135, -8433.469645198542, 0.004359375, -0.022328125, 0.9922656249999999, 192.0, 0.0, 0.0, 0.0, 0.0, 0.0, 0.0, 0.0, 0.0, 0.0, 1.6444975618099847E9, 0.0, 2022-02-10 23:52:41.809
218.0, -9988.681672654351, -11798.994159578582, -6648.168760319801, -14259.92122410789, -150.2707779730294, -1061.30553022689, -1499.578535506551, -3168.7397561955163, -20577.530035678155, -17060.259528191036, -22472.801503277005, -12977.534589473556, -7394.091176282308, -11958.071524867002, -5482.502935231082, -8436.844758611292, 0.004359375, -0.022328125, 0.9922656249999999, 192.0, 0.0, 0.0, 0.0, 0.0, 0.0, 0.0, 0.0, 0.0, 0.0, 1.6444975618100038E9, 0.0, 2022-02-10 23:52:41.810
220.0, -9963.960643286782, -11770.160409231235, -6637.752847403628, -14258.82598862958, -142.29120520248475, -1054.6447103792084, -1505.9711344207687, -3168.493887006508, -20575.853654844006, -17051.117664708814, -22455.277735624044, -12956.501597941113, -7400.014388562965, -11934.736303655662, -5480.647740441292, -8433.737866132005, 0.004359375, -0.022328125, 0.9922656249999999, 192.0, 0.0, 0.0, 0.0, 0.0, 0.0, 0.0, 0.0, 0.0, 0.0, 1.6444975618100247E9, 0.0, 2022-02-10 23:52:41.810
222.0, -9975.672957381363, -11784.778450105006, -6649.778085920583, -14263.497503220739, -156.6633768872472, -1071.0732425538592, -1516.0964746590228, -3185.682378492639, -20573.171445509368, -17047.429626873687, -22456.68589552473, -12954.534644429046, -7394.60526640478, -11952.237719564167, -5485.587475965915, -8437.358848733766, 0.004359375, -0.022328125, 0.9922656249999999, 192.0, 0.0, 0.0, 0.0, 0.0, 0.0, 0.0, 0.0, 0.0, 0.0, 1.6444975618100317E9, 0.0, 2022-02-10 23:52:41.810
224.0, -9982.82551560706, -11777.067098267926, -6645.151274818334, -14270.046564346143, -146.73920234909087, -1057.170457502658, -1494.3929307929195, -3173.433622531131, -20579.318175234577, -17059.007830501538, -22467.68295379674, -12961.7095543992, -7385.55280990038, -11952.014202119613, -5488.672016700747, -8438.454084212075, 0.002, -0.018000000000000002, 0.994, 192.0, 0.0, 8.0, 127.5, 56.0, 15.5, 8.0, 0.0, 0.0, 0.0, 1.6444975618100388E9, 0.0, 2022-02-10 23:52:41.810
226.0, -9971.917864312873, -11776.932987801194, -6643.631356195374, -14266.962023611311, -143.87817905881155, -1058.9362453146275, -1501.6125442519838, -3177.00990164398, -20576.54655892212, -17051.40823738673, -22450.628572777343, -12953.417057206281, -7399.209725762574, -11935.250393778133, -5488.984941123122, -8437.560014433862, 0.002, -0.018000000000000002, 0.994, 192.0, 0.0, 0.0, 0.0, 0.0, 0.0, 0.0, 0.0, 0.0, 0.0, 1.6444975618100457E9, 0.0, 2022-02-10 23:52:41.810
228.0, -9967.4028119329, -11768.28286269699, -6651.36505977691, -14266.179712555375, -151.52247566252657, -1060.7467366155072, -1503.7136082307827, -3181.2790848349437, -20572.232672242248, -17058.56079561243, -22461.78209326054, -12968.683298669255, -7395.834612349822, -11944.325202026988, -5500.965476151166, -8442.47739821403, 0.002, -0.018000000000000002, 0.994, 192.0, 0.0, 0.0, 0.0, 0.0, 0.0, 0.0, 0.0, 0.0, 0.0, 1.6444975618100536E9, 0.0, 2022-02-10 23:52:41.810
230.0, -9959.356183928989, -11758.962185259126, -6647.922891130793, -14258.289546762651, -135.51862663252672, -1063.853629094795, -1503.1324628749446, -3178.909799922681, -20570.757457108197, -17049.821263530404, -22447.499328553597, -12955.540472929535, -7391.386615203216, -11949.130827084879, -5494.662284214769, -8438.834063867816, 0.002, -0.018000000000000002, 0.994, 192.0, 0.0, 0.0, 0.0, 0.0, 0.0, 0.0, 0.0, 0.0, 0.0, 1.6444975618100636E9, 0.0, 2022-02-10 23:52:41.810
232.0, -9964.564140387076, -11781.76096460354, -6655.500132501142, -14261.329384008573, -144.45932441464956, -1066.6699488961635, -1512.922526946369, -3185.972951170558, -20570.131608263448, -17038.779501769484, -22450.4497588217, -12953.305298484005, -7400.729644385535, -11941.955917114725, -5495.444595270705, -8440.71161040206, 0.002, -0.018000000000000002, 0.994, 192.0, 0.0, 0.0, 0.0, 0.0, 0.0, 0.0, 0.0, 0.0, 0.0, 1.6444975618100705E9, 0.0, 2022-02-10 23:52:41.810
234.0, -9948.11325646797, -11768.99811851956, -6650.873321398893, -14256.501407206228, -139.00549876755463, -1049.1908847321135, -1497.4327680388415, -3170.48319226303, -20569.081076274048, -17055.476254877598, -22459.63632579283, -12957.976813075164, -7390.269027980451, -11945.97923111668, -5498.953819150188, -8437.850587111781, 0.008, -0.02, 0.992, 192.0, 0.0, 32.0, 127.5, 48.0, 15.5, 0.0, 0.0, 0.0, 0.0, 1.6444975618100772E9, 0.0, 2022-02-10 23:52:41.810
236.0, -9944.313459910567, -11749.619156076807, -6642.446713739242, -14265.620918943992, -130.19891145216363, -1046.8439515643063, -1494.6835034708386, -3179.3121313228767, -20562.509663404187, -17043.13809193827, -22446.87347970885, -12954.80286536251, -7396.214592005563, -11938.334934512966, -5485.587475965915, -8433.939031832104, 0.008, -0.02, 0.992, 192.0, 0.0, 0.0, 0.0, 0.0, 0.0, 0.0, 0.0, 0.0, 0.0, 1.6444975618100848E9, 0.0, 2022-02-10 23:52:41.810
238.0, -9970.152076500903, -11760.862083537828, -6646.64884169684, -14250.354677481018, -144.41462092573894, -1068.9051233416944, -1512.5425472906288, -3184.6318465032396, -20564.744837849717, -17034.957353467627, -22452.282601867035, -12958.915586342286, -7399.857926351778, -11970.32028082851, -5488.560257978471, -8439.236395268012, 0.008, -0.02, 0.992, 192.0, 0.0, 0.0, 0.0, 0.0, 0.0, 0.0, 0.0, 0.0, 0.0, 1.6444975618100917E9, 0.0, 2022-02-10 23:52:41.810
240.0, -9953.142398970414, -11766.584130118386, -6643.251376539633, -14248.924165835879, -132.2999754309625, -1062.4231174496554, -1498.0362651391347, -3179.8262214453484, -20569.036372785136, -17039.33829538087, -22442.425482562245, -12926.192632459717, -7394.493507682504, -11961.17841734629, -5487.576781222437, -8434.1401975322, 0.008, -0.02, 0.992, 192.0, 0.0, 0.0, 0.0, 0.0, 0.0, 0.0, 0.0, 0.0, 0.0, 1.6444975622882068E9, 0.0, 2022-02-10 23:52:42.288
242.0, -9957.88096879494, -11780.71043261414, -6654.963690634214, -14254.825026372078, -145.64396687078082, -1068.9051233416944, -1497.7456924612156, -3178.0827853778346, -20570.377477452457, -17043.4733681051, -22444.280677352035, -12938.03905702103, -7393.934714071121, -11944.928699127282, -5482.882914886823, -8431.927374831126, 0.008, -0.02, 0.992, 192.0, 0.0, 0.0, 0.0, 0.0, 0.0, 0.0, 0.0, 0.0, 0.0, 1.644497562288394E9, 0.0, 2022-02-10 23:52:42.288
244.0, -9941.787712787118, -11761.130304471291, -6655.36602203441, -14258.20013978483, -139.81016156794567, -1061.8643238382726, -1500.897288429414, -3171.779593441438, -20567.337640206533, -17043.13809193827, -22456.529433313543, -12959.362621231392, -7394.962894316065, -11944.504015982631, -5487.733243433624, -8436.643592911196, 0.006, -0.022, 0.988, 192.0, 0.0, 24.0, 127.5, 40.0, 15.0, 112.0, 0.0, 0.0, 0.0, 1.6444975622884016E9, 0.0, 2022-02-10 23:52:42.288
246.0, -9947.44270413431, -11767.165275474224, -6657.087106357469, -14264.324517765584, -142.93940579168867, -1065.5523616733983, -1482.2112300647773, -3160.067279346857, -20569.192834996324, -17047.049647217947, -22443.58777327392, -12954.489940940135, -7401.199031019096, -11941.374771758887, -5484.089909087409, -8431.435636453109, 0.006, -0.022, 0.988, 192.0, 0.0, 0.0, 0.0, 0.0, 0.0, 0.0, 0.0, 0.0, 0.0, 1.64449756228841E9, 0.0, 2022-02-10 23:52:42.288
248.0, -9949.789637302118, -11760.28093818199, -6657.511789502119, -14260.480017719272, -149.84609482837854, -1074.1577832886915, -1489.6320092239391, -3169.455012018086, -20572.299727475613, -17043.585126827376, -22457.06587518047, -12954.288775240038, -7407.32340899985, -11944.191091560257, -5483.732281176124, -8431.81561610885, 0.006, -0.022, 0.988, 192.0, 0.0, 0.0, 0.0, 0.0, 0.0, 0.0, 0.0, 0.0, 0.0, 1.644497562288417E9, 0.0, 2022-02-10 23:52:42.288
250.0, -9928.06374169156, -11750.647336321752, -6646.157103318823, -14262.782247398169, -147.34269944938416, -1062.7807453609403, -1486.3239510445537, -3167.3762997837425, -20566.778846595153, -17040.1206064368, -22449.48863381012, -12948.097342025918, -7402.316618241861, -11948.437923006764, -5479.776022407535, -8430.161587019156, 0.006, -0.022, 0.988, 192.0, 0.0, 0.0, 0.0, 0.0, 0.0, 0.0, 0.0, 0.0, 0.0, 1.6444975622884243E9, 0.0, 2022-02-10 23:52:42.288
252.0, -9951.711887325275, -11763.790162061474, -6658.070583113502, -14266.58204395557, -163.2794932460181, -1073.5095826994875, -1515.6941432588271, -3180.3850150567314, -20565.68361111684, -17038.399522113745, -22445.375912830343, -12953.46176069519, -7410.117377056763, -11961.357231301932, -5479.79837415199, -8432.62027890924, 0.006, -0.022, 0.988, 192.0, 0.0, 0.0, 0.0, 0.0, 0.0, 0.0, 0.0, 0.0, 0.0, 1.6444975622884312E9, 0.0, 2022-02-10 23:52:42.288
254.0, -9950.01315474667, -11776.731822101096, -6646.961766119214, -14257.976622340277, -149.15319075026403, -1051.7166318555633, -1493.2082883367884, -3159.776706668938, -20569.438704185333, -17052.168196698214, -22459.301049626, -12947.583251903445, -7403.188336275618, -11946.873300894893, -5484.536943976515, -8429.33457247431, 0.008, -0.024, 0.99, 192.0, 0.0, 32.0, 127.5, 32.0, 15.0, 120.0, 0.0, 0.0, 0.0, 1.6444975622884383E9, 0.0, 2022-02-10 23:52:42.288
0.0, -9943.888776765916, -11762.918444027717, -6639.876263126882, -14256.926090350878, -140.7712865795239, -1053.6388818787195, -1498.5280035171513, -3158.726174679539, -20565.5047971612, -17029.70469352063, -22436.882249937327, -12924.918583025765, -7398.293304239906, -11938.111417068412, -5468.376632735328, -8419.499804913976, 0.008, -0.024, 0.99, 192.0, 0.0, 0.0, 0.0, 0.0, 0.0, 0.0, 0.0, 0.0, 0.0, 1.6444975622884452E9, 0.0, 2022-02-10 23:52:42.288
2.0, -9950.326079169045, -11748.65803106523, -6644.994812607148, -14251.181692025864, -145.48750465959367, -1061.2831784824346, -1500.8078814515927, -3162.0565846033796, -20562.621422126464, -17044.210975672126, -22448.572212287454, -12942.241184978628, -7399.522650184947, -11934.021047833092, -5474.679824671724, -8422.80786309336, 0.008, -0.024, 0.99, 192.0, 0.0, 0.0, 0.0, 0.0, 0.0, 0.0, 0.0, 0.0, 0.0, 1.6444975622884524E9, 0.0, 2022-02-10 23:52:42.288
4.0, -9935.909203995372, -11749.306231654435, -6635.048286324535, -14246.800750112625, -143.3417371918842, -1054.0412132789152, -1490.5037272576963, -3149.874883875237, -20563.58254713804, -17034.04093194496, -22433.64124699131, -12935.401551175304, -7397.712158884068, -11949.93548988527, -5472.019967081544, -8417.130520001712, 0.008, -0.024, 0.99, 192.0, 0.0, 0.0, 0.0, 0.0, 0.0, 0.0, 0.0, 0.0, 0.0, 1.64449756228846E9, 0.0, 2022-02-10 23:52:42.288
6.0, -9942.659430820875, -11756.212920691123, -6642.804341650527, -14251.315802492596, -154.11527801934218, -1066.3570244737894, -1489.0061603791905, -3151.90889262067, -20563.73900934923, -17031.17990865468, -22433.998874902594, -12950.153702515807, -7396.952199572587, -11946.515672983609, -5472.802278137479, -8418.471624669031, 0.008, -0.024, 0.99, 192.0, 0.0, 0.0, 0.0, 0.0, 0.0, 0.0, 0.0, 0.0, 0.0, 1.644497562288473E9, 0.0, 2022-02-10 23:52:42.288
8.0, -9935.328058639534, -11748.166292687214, -6638.512806715108, -14243.872671588979, -129.30484167395136, -1053.1918469896134, -1480.6019044639952, -3142.05177331588, -20565.728314605753, -17034.55502206743, -22452.52847105604, -12947.873824581364, -7398.427414706638, -11954.852873665437, -5474.121031060342, -8417.37638919072, 0.002, -0.026000000000000002, 0.992, 192.0, 0.0, 8.0, 127.5, 24.0, 15.5, 0.0, 0.0, 0.0, 0.0, 1.6444975622884796E9, 0.0, 2022-02-10 23:52:42.288
10.0, -9917.848994475484, -11722.79706273044, -6632.388428734354, -14249.77353212518, -126.64498408376981, -1046.2181027195577, -1480.3336835305315, -3141.113000048757, -20556.228823212245, -17030.26348713201, -22437.619857504353, -12924.359789414382, -7391.699539625591, -11922.375788971876, -5466.968472834644, -8409.329761186811, 0.002, -0.026000000000000002, 0.992, 192.0, 0.0, 0.0, 0.0, 0.0, 0.0, 0.0, 0.0, 0.0, 0.0, 1.6444975622884865E9, 0.0, 2022-02-10 23:52:42.288
12.0, -9934.076360950037, -11736.006943703527, -6638.289289270555, -14243.29152623314, -136.94913827766638, -1048.9450155431052, -1489.5873057350286, -3146.9021018626813, -20550.01503825367, -17025.033178929472, -22442.15726162878, -12947.493844925624, -7384.882257566722, -11926.332047740467, -5471.081193814421, -8412.593115877286, 0.002, -0.026000000000000002, 0.992, 192.0, 0.0, 0.0, 0.0, 0.0, 0.0, 0.0, 0.0, 0.0, 0.0, 1.6444975622884932E9, 0.0, 2022-02-10 23:52:42.288
14.0, -9919.771244498641, -11745.46173160812, -6628.968611832692, -14238.709418619803, -132.21056845314126, -1045.1675707301583, -1492.895363914414, -3149.651366430684, -20548.182195208337, -17018.864097459806, -22428.72386321114, -12923.152795213795, -7394.806432104878, -11935.764483900606, -5467.571969934937, -8409.083891997801, 0.002, -0.026000000000000002, 0.992, 192.0, 0.0, 0.0, 0.0, 0.0, 0.0, 0.0, 0.0, 0.0, 0.0, 1.6444975622885E9, 0.0, 2022-02-10 23:52:42.288
16.0, -9939.06079996357, -11745.864063008317, -6644.41366725131, -14246.465473945795, -145.37574593731713, -1056.4775534245437, -1488.8496981680034, -3161.631901458729, -20554.239517955724, -17025.100234162837, -22427.695682966198, -12928.22664120515, -7389.397309946694, -11926.466158207199, -5465.090926300398, -8416.079988012312, 0.002, -0.026000000000000002, 0.992, 192.0, 0.0, 0.0, 0.0, 0.0, 0.0, 0.0, 0.0, 0.0, 0.0, 1.6444975622885067E9, 0.0, 2022-02-10 23:52:42.288
18.0, -9911.344636838989, -11726.261583121013, -6636.009411336114, -14234.172014495376, -133.14934172026418, -1044.9887567745159, -1483.127651587445, -3143.52698844993, -20552.898413288407, -17020.115795149304, -22444.01245641857, -12942.487054167636, -7386.536286656415, -11922.956934327714, -5466.9237693457335, -8414.582421133808, 0.002, -0.024, 0.988, 192.0, 0.0, 8.0, 127.5, 32.0, 15.0, 112.0, 0.0, 0.0, 0.0, 1.6444975622885137E9, 0.0, 2022-02-10 23:52:42.288
20.0, -9907.589543770498, -11733.905879724727, -6635.607079935919, -14236.138968007443, -131.80823705294574, -1038.3949921602002, -1491.733073202738, -3120.974078294525, -20541.119043960458, -17002.726137963073, -22422.554781741477, -12910.188783429718, -7384.122298255241, -11919.470062192686, -5457.200760507674, -8405.418205907132, 0.002, -0.024, 0.988, 192.0, 0.0, 0.0, 0.0, 0.0, 0.0, 0.0, 0.0, 0.0, 0.0, 1.64449756228852E9, 0.0, 2022-02-10 23:52:42.288
22.0, -9934.232823161225, -11734.196452402646, -6641.1279608163795, -14242.53156692166, -148.23676922759643, -1050.040251021415, -1467.1014508129897, -3131.971136566536, -20541.96841024976, -17028.78827199796, -22433.82006094695, -12931.51234764008, -7383.362338943761, -11930.60123093143, -5462.520475688038, -8410.290886198389, 0.002, -0.024, 0.988, 192.0, 0.0, 0.0, 0.0, 0.0, 0.0, 0.0, 0.0, 0.0, 0.0, 1.6444975622885268E9, 0.0, 2022-02-10 23:52:42.288
24.0, -9923.973372456237, -11733.257679135524, -6630.555585689019, -14243.67150588888, -137.46322840013843, -1041.1666084726583, -1475.0810235835343, -3143.437581472109, -20547.556346363588, -17022.015693428006, -22428.209773088667, -12925.209155703684, -7386.692748867602, -11917.436053447254, -5462.296958243484, -8408.94978153107, 0.002, -0.024, 0.988, 192.0, 0.0, 0.0, 0.0, 0.0, 0.0, 0.0, 0.0, 0.0, 0.0, 1.6444975622885337E9, 0.0, 2022-02-10 23:52:42.288
26.0, -9927.594355057998, -11735.89518498125, -6636.791722392049, -14244.967907067288, -144.66049011474732, -1057.662195880675, -1483.6864451988274, -3139.52602619243, -20551.02086675416, -17021.21103062761, -22430.221430089645, -12928.427806905247, -7395.029949549431, -11940.860681636415, -5460.978205320622, -8412.19078447709, 0.002, -0.024, 0.988, 192.0, 0.0, 0.0, 0.0, 0.0, 0.0, 0.0, 0.0, 0.0, 0.0, 1.6444975622885404E9, 0.0, 2022-02-10 23:52:42.288
28.0, -9905.86845944744, -11726.976838943583, -6623.648896652329, -14237.10009301902, -112.56338507692637, -1044.6758323521415, -1466.8555816239814, -3122.270479472933, -20541.230802682734, -17007.6658734877, -22430.735520212118, -12932.071141251463, -7378.802583074878, -11934.445730977743, -5457.692498885692, -8408.368636175232, 0.002, -0.024, 0.988, 192.0, 0.0, 0.0, 127.5, 40.0, 15.0, 88.0, 0.0, 0.0, 0.0, 1.6444975622885473E9, 0.0, 2022-02-10 23:52:42.288
30.0, -9909.57884902702, -11735.783426258973, -6625.571146675486, -14237.524776163671, -114.08330369988725, -1042.1500852286918, -1468.6884246693164, -3120.012953282947, -20529.87611649944, -17013.27616134598, -22414.15052582628, -12911.619295074857, -7373.684033594613, -11912.093986522435, -5447.388344691795, -8398.936200015092, 0.002, -0.024, 0.988, 192.0, 0.0, 0.0, 0.0, 0.0, 0.0, 0.0, 0.0, 0.0, 0.0, 1.644497562288554E9, 0.0, 2022-02-10 23:52:42.288
32.0, -9926.879099235428, -11738.599746060341, -6635.696486913739, -14240.475206431773, -131.60707135284798, -1036.629204348231, -1484.3569975324867, -3130.5182731769414, -20539.576773593042, -17012.60560901232, -22433.507136524575, -12931.020609262063, -7380.434260420116, -11916.609038902407, -5459.8829698423115, -8405.172336718124, 0.002, -0.024, 0.988, 192.0, 0.0, 0.0, 0.0, 0.0, 0.0, 0.0, 0.0, 0.0, 0.0, 1.6444975622885609E9, 0.0, 2022-02-10 23:52:42.288
34.0, -9910.852898460973, -11732.967106457605, -6623.559489674508, -14241.793959354634, -135.1162952323312, -1038.0597159933707, -1479.2384480522214, -3129.5347964209077, -20544.292991673112, -17030.107024920824, -22426.28752306551, -12940.251879722106, -7383.854077321777, -11900.135803238845, -5462.431068710216, -8403.115976228235, 0.002, -0.024, 0.988, 192.0, 0.0, 0.0, 0.0, 0.0, 0.0, 0.0, 0.0, 0.0, 0.0, 1.6444975622885673E9, 0.0, 2022-02-10 23:52:42.288
36.0, -9946.861558778472, -11748.65803106523, -6640.166835804801, -14246.24195650124, -159.32323447742874, -1059.2938732259124, -1498.4833000282408, -3152.3112240208657, -20549.63505859793, -17032.856289488827, -22424.454680020175, -12933.568708129967, -7392.928885570632, -11937.150292056835, -5469.98595833611, -8406.535793129897, 0.003, -0.023, 0.987, 192.0, 0.0, 16.0, 127.5, 40.0, 15.0, 104.0, 0.0, 0.0, 0.0, 1.6444975622885745E9, 0.0, 2022-02-10 23:52:42.288
38.0, -9933.472863849744, -11755.542368357465, -6638.177530548279, -14244.051485544622, -151.09779251787575, -1056.1869807466246, -1491.7554249471934, -3152.0430030874018, -20557.01113426818, -17036.70078953514, -22445.666485508264, -12937.100283753907, -7406.205821777085, -11932.143501298846, -5477.496144473093, -8410.268534453933, 0.003, -0.023, 0.987, 192.0, 0.0, 0.0, 0.0, 0.0, 0.0, 0.0, 0.0, 0.0, 0.0, 1.6444975622885835E9, 0.0, 2022-02-10 23:52:42.288
40.0, -9915.01032292966, -11739.538519327465, -6637.015239836603, -14245.616107656493, -147.65562387175845, -1051.2695969664571, -1491.8224801805593, -3146.075087317835, -20549.21037545328, -17028.542402808955, -22432.21073534617, -12925.611487103879, -7399.992036818509, -11929.617754175397, -5468.823667624434, -8409.240354208989, 0.003, -0.023, 0.987, 192.0, 0.0, 0.0, 0.0, 0.0, 0.0, 0.0, 0.0, 0.0, 0.0, 1.6444975622885902E9, 0.0, 2022-02-10 23:52:42.288
42.0, -9919.525375309631, -11728.362647099812, -6643.586652706463, -14245.929032078868, -151.2319029846076, -1055.2035039905911, -1494.8176139375705, -3153.3617560102653, -20541.92370676085, -17024.541440551453, -22441.665523250762, -12932.249955207106, -7394.247638493495, -11922.196975016233, -5473.070499070943, -8413.19661297758, 0.003, -0.023, 0.987, 192.0, 0.0, 0.0, 0.0, 0.0, 0.0, 0.0, 0.0, 0.0, 0.0, 1.6444975622885969E9, 0.0, 2022-02-10 23:52:42.288
44.0, -9924.174538156336, -11752.211958433623, -6637.149350303334, -14251.539319937148, -137.55263537795966, -1055.337614457323, -1478.76906141866, -3142.2752907604327, -20544.11417771747, -17029.883507476272, -22427.06983412145, -12932.94285928522, -7395.566391416359, -11915.804376102016, -5467.773135635035, -8412.14608098818, 0.003, -0.023, 0.987, 192.0, 0.0, 0.0, 0.0, 0.0, 0.0, 0.0, 0.0, 0.0, 0.0, 1.6444975622886035E9, 0.0, 2022-02-10 23:52:42.288
46.0, -9941.340677898012, -11756.145865457758, -6651.163894076812, -14259.675354918882, -152.08126927390924, -1059.3832802037336, -1496.605753493995, -3155.9322066226255, -20555.98295402324, -17040.522937837, -22440.25736335008, -12937.569670387467, -7395.767557116456, -11915.916134824292, -5468.644853668792, -8419.008066535958, 0.0035, -0.0215, 0.9895, 192.0, 0.0, 16.0, 127.5, 48.0, 15.5, 0.0, 0.0, 0.0, 0.0, 1.644497562288623E9, 0.0, 2022-02-10 23:52:42.288
48.0, -9941.765361042662, -11744.590013574365, -6643.564300962008, -14252.411037970905, -142.51472264703784, -1063.1830767611357, -1490.1684510908665, -3156.6698141896504, -20555.6029743675, -17039.450054103145, -22452.3496571004, -12943.403475690304, -7411.816109635367, -11925.147405284335, -5475.506839216571, -8420.57268864783, 0.0035, -0.0215, 0.9895, 192.0, 0.0, 0.0, 0.0, 0.0, 0.0, 0.0, 0.0, 0.0, 0.0, 1.64449756228863E9, 0.0, 2022-02-10 23:52:42.288
50.0, -9939.820759275051, -11760.727973071096, -6641.93262361677, -14253.886253104956, -135.22805395460773, -1075.3647774892781, -1476.5562387175846, -3161.6095497142733, -20554.127759233448, -17022.954466695126, -22438.268058093556, -12931.780568573544, -7401.288437996917, -11956.663364966318, -5470.120068802842, -8418.359865946753, 0.0035, -0.0215, 0.9895, 192.0, 0.0, 0.0, 0.0, 0.0, 0.0, 0.0, 0.0, 0.0, 0.0, 1.6444975622886376E9, 0.0, 2022-02-10 23:52:42.288
52.0, -9959.512646140176, -11769.33339468639, -6652.2814812995775, -14256.657869417415, -147.36505119383946, -1064.8594575952839, -1478.7914131631153, -3144.778686139427, -20563.627250626952, -17048.524862352, -22453.042561178514, -12951.986545561142, -7403.389501975716, -11947.454446250731, -5477.630254939825, -8419.745674102984, 0.0035, -0.0215, 0.9895, 192.0, 0.0, 0.0, 0.0, 0.0, 0.0, 0.0, 0.0, 0.0, 0.0, 1.6444975622886443E9, 0.0, 2022-02-10 23:52:42.288
54.0, -9927.236727146714, -11740.521996083498, -6643.318431772999, -14257.261366517707, -130.9588707636441, -1053.147143500703, -1464.5310002006293, -3142.364697738254, -20565.124817505457, -17047.76490304052, -22447.87930820934, -12950.868958338377, -7407.122243299752, -11931.36119024291, -5474.255141527074, -8415.454139167565, 0.0035, -0.0215, 0.9895, 192.0, 0.0, 0.0, 0.0, 0.0, 0.0, 0.0, 0.0, 0.0, 0.0, 1.6444975622886517E9, 0.0, 2022-02-10 23:52:42.288
56.0, -9937.719695296251, -11746.445208364155, -6658.025879624592, -14259.451837474327, -148.81791458343443, -1061.7078616270855, -1490.4590237687855, -3158.525008979441, -20557.726390090753, -17031.33637086587, -22440.68204649473, -12941.347115200415, -7401.400196719193, -11925.482681451163, -5475.46213572766, -8418.203403735568, 0.00275, -0.02375, 0.99175, 192.0, 0.0, 8.0, 127.5, 24.0, 15.5, 8.0, 0.0, 0.0, 0.0, 1.6444975622886586E9, 0.0, 2022-02-10 23:52:42.288
58.0, -9942.570023843053, -11755.542368357465, -6659.36698429191, -14269.48777073476, -144.5710831369261, -1057.5951406473089, -1484.4017010213972, -3145.1586657951675, -20564.946003549816, -17042.13226343778, -22460.64215429332, -12944.99044954663, -7412.509013713481, -11905.097890507925, -5488.962589378666, -8420.349171203277, 0.00275, -0.02375, 0.99175, 192.0, 0.0, 0.0, 0.0, 0.0, 0.0, 0.0, 0.0, 0.0, 0.0, 1.6444975622886653E9, 0.0, 2022-02-10 23:52:42.288
60.0, -9951.197797202802, -11767.94758653016, -6664.0832023719795, -14267.565520711605, -144.32521394791772, -1074.3589489887893, -1479.6854829413276, -3154.591101955307, -20569.997497796714, -17038.153652924735, -22455.45654957969, -12952.433580450248, -7426.99294412052, -11943.609946204419, -5486.392138766306, -8418.51632815794, 0.00275, -0.02375, 0.99175, 192.0, 0.0, 0.0, 0.0, 0.0, 0.0, 0.0, 0.0, 0.0, 0.0, 1.644497562288672E9, 0.0, 2022-02-10 23:52:42.288
62.0, -9983.607826662997, -11784.510229171543, -6668.397089051854, -14266.20206429983, -152.41654544073887, -1080.6397891807305, -1500.6514192404056, -3166.616340472262, -20579.765210123685, -17065.71335383813, -22466.36420087388, -12966.04579282353, -7425.428322008649, -11954.584652731974, -5490.28134230153, -8432.061485297858, 0.00275, -0.02375, 0.99175, 192.0, 0.0, 0.0, 0.0, 0.0, 0.0, 0.0, 0.0, 0.0, 0.0, 1.6444975622886791E9, 0.0, 2022-02-10 23:52:42.288
64.0, -9953.790599559617, -11770.85331330935, -6655.813056923516, -14264.615090443504, -138.960795278644, -1064.8371058508285, -1486.547468489107, -3154.725212422039, -20579.049954301114, -17046.870833262306, -22456.39532284681, -12947.538548414535, -7414.118339314264, -11933.529309455074, -5492.717682447157, -8429.42397945213, 0.00275, -0.02375, 0.99175, 192.0, 0.0, 0.0, 0.0, 0.0, 0.0, 0.0, 0.0, 0.0, 0.0, 1.644497562288686E9, 0.0, 2022-02-10 23:52:42.288
66.0, -9968.743916600219, -11774.831923822394, -6665.98310065068, -14268.034907345165, -155.59049315339246, -1078.3152077573786, -1490.5484307466068, -3166.906913150181, -20577.530035678155, -17047.720199551608, -22452.930802456238, -12943.6046413904, -7416.062941081875, -11944.504015982631, -5489.208458567675, -8431.167415519645, 0.0063750000000000005, -0.025875000000000002, 0.9918750000000001, 192.0, 0.0, 40.0, 127.5, 16.0, 15.5, 0.0, 0.0, 0.0, 0.0, 1.6444975622886927E9, 0.0, 2022-02-10 23:52:42.288
68.0, -9952.404791403389, -11761.867912038317, -6669.60408325244, -14271.790000413657, -145.08517325939815, -1065.7088238845854, -1484.2005353212996, -3159.7320031800277, -20570.913919319384, -17063.99226951507, -22464.374895617355, -12959.787304376043, -7404.127109542741, -11944.101684582434, -5490.70602544618, -8432.061485297858, 0.0063750000000000005, -0.025875000000000002, 0.9918750000000001, 192.0, 0.0, 0.0, 0.0, 0.0, 0.0, 0.0, 0.0, 0.0, 0.0, 1.6444975622887E9, 0.0, 2022-02-10 23:52:42.288
70.0, -9948.180311701335, -11749.060362465425, -6669.089993129968, -14275.075706848587, -144.83930407038977, -1083.0314258374485, -1492.895363914414, -3169.119735851257, -20568.209358240292, -17044.680362305684, -22454.40601759029, -12955.741638629634, -7401.8025281193895, -11923.582783172464, -5488.560257978471, -8428.261688740455, 0.0063750000000000005, -0.025875000000000002, 0.9918750000000001, 192.0, 0.0, 0.0, 0.0, 0.0, 0.0, 0.0, 0.0, 0.0, 0.0, 1.64449756228871E9, 0.0, 2022-02-10 23:52:42.288
72.0, -9966.128762498947, -11763.454885894644, -6677.963635678725, -14265.084477077065, -158.69738563268015, -1081.0197688364708, -1505.7476169762156, -3170.684357963128, -20573.46201818729, -17045.932059995182, -22468.040581708025, -12968.90681611381, -7420.5332899729365, -11971.527275029097, -5493.231772569629, -8432.508520186964, 0.0063750000000000005, -0.025875000000000002, 0.9918750000000001, 192.0, 0.0, 0.0, 0.0, 0.0, 0.0, 0.0, 0.0, 0.0, 0.0, 1.6444975622887168E9, 0.0, 2022-02-10 23:52:42.288
74.0, -9964.83236132054, -11773.982557533092, -6672.666272242817, -14269.308956779118, -150.11431576184222, -1066.0664517958703, -1490.123747601956, -3172.740718453016, -20576.74772462222, -17055.833882788884, -22465.268965395568, -12954.80286536251, -7417.51580447147, -11949.756675929628, -5498.931467405733, -8426.160624761656, 0.0063750000000000005, -0.025875000000000002, 0.9918750000000001, 192.0, 0.0, 0.0, 0.0, 0.0, 0.0, 0.0, 0.0, 0.0, 0.0, 1.6444975622887237E9, 0.0, 2022-02-10 23:52:42.288
76.0, -9965.25704446519, -11772.172066232213, -6686.099670660457, -14271.790000413657, -164.0171008130432, -1075.4094809781886, -1499.9138116733805, -3167.778631183938, -20576.144227521923, -17058.47138863461, -22459.859843237384, -12960.323746242972, -7418.4769294830485, -11946.98505961717, -5504.787624453023, -8433.33553473181, 0.0081875, -0.025937500000000002, 0.9929375, 192.0, 0.0, 40.0, 127.5, 24.0, 15.5, 8.0, 0.0, 0.0, 0.0, 1.6444975622887304E9, 0.0, 2022-02-10 23:52:42.288
78.0, -9957.053954250092, -11765.824170806905, -6681.092879902468, -14271.745296924746, -152.14832450727516, -1062.266655238468, -1485.3628260329756, -3153.205293799078, -20574.557253665596, -17050.4247606307, -22462.765570016574, -12966.023441079074, -7414.99005734802, -11947.633260206374, -5508.341551821417, -8431.122712030734, 0.0081875, -0.025937500000000002, 0.9929375, 192.0, 0.0, 0.0, 0.0, 0.0, 0.0, 0.0, 0.0, 0.0, 0.0, 1.6444975622887373E9, 0.0, 2022-02-10 23:52:42.288
80.0, -9941.407733131378, -11748.255699665035, -6677.5836560229845, -14277.668509205403, -150.6284058843143, -1061.0373092934262, -1484.088776599023, -3161.363680525265, -20562.30849770409, -17038.444225602656, -22442.87251745135, -12954.780513618054, -7400.1037955407855, -11916.139652268846, -5500.8537174288895, -8430.653325397174, 0.0081875, -0.025937500000000002, 0.9929375, 192.0, 0.0, 0.0, 0.0, 0.0, 0.0, 0.0, 0.0, 0.0, 0.0, 1.644497562288744E9, 0.0, 2022-02-10 23:52:42.288
82.0, -9957.366878672467, -11761.778505060496, -6682.881019458892, -14265.77738115518, -164.0171008130432, -1071.1850012761356, -1502.4619105412855, -3163.7106136930724, -20567.4046954399, -17046.624964073297, -22461.603279304898, -12961.754257888111, -7413.648952680702, -11941.285364781066, -5504.050016885998, -8433.179072520623, 0.0081875, -0.025937500000000002, 0.9929375, 192.0, 0.0, 0.0, 0.0, 0.0, 0.0, 0.0, 0.0, 0.0, 0.0, 1.644497562288751E9, 0.0, 2022-02-10 23:52:42.288
84.0, -9941.899471509394, -11742.08661819537, -6676.13079263339, -14263.184578798364, -147.07447851592048, -1057.0810505248369, -1486.994503378213, -3152.110058320768, -20559.670991858362, -17039.450054103145, -22447.946363442705, -12948.387914703837, -7409.335066000827, -11911.803413844516, -5501.054883128987, -8427.613488151252, 0.0081875, -0.025937500000000002, 0.9929375, 192.0, 0.0, 0.0, 0.0, 0.0, 0.0, 0.0, 0.0, 0.0, 0.0, 1.6444975622887592E9, 0.0, 2022-02-10 23:52:42.288
86.0, -9945.900433766894, -11749.954432243638, -6689.407728839842, -14266.693802677848, -150.24842622857406, -1061.7972686049068, -1479.9090003858805, -3155.9322066226255, -20560.945041292318, -17031.85046098834, -22446.91818319776, -12947.270327481072, -7400.595533918802, -11929.863623364405, -5496.13749934882, -8424.931278816615, 0.009093750000000001, -0.02496875, 0.99346875, 192.0, 0.0, 40.0, 127.5, 32.0, 15.5, 8.0, 0.0, 0.0, 0.0, 1.644497562288766E9, 0.0, 2022-02-10 23:52:42.288
88.0, -9946.43687563382, -11744.366496129811, -6677.918932189815, -14260.547072952639, -140.68187960170266, -1053.5271231564432, -1473.7846224051266, -3151.461857731564, -20561.481483159245, -17044.3227343944, -22464.888985739828, -12959.18380727575, -7404.7976618764005, -11940.659515936317, -5501.188993595719, -8427.702895129072, 0.009093750000000001, -0.02496875, 0.99346875, 192.0, 0.0, 0.0, 0.0, 0.0, 0.0, 0.0, 0.0, 0.0, 0.0, 1.6444975622887733E9, 0.0, 2022-02-10 23:52:42.288
90.0, -9949.499064624199, -11756.883473024784, -6673.806211210038, -14267.230244544775, -145.42044942622775, -1048.6767946096415, -1474.5222299721515, -3151.305395520377, -20551.981991765737, -17034.309152878424, -22436.189345859213, -12937.122635498363, -7388.436184935115, -11919.917097081792, -5489.186106823219, -8422.785511348906, 0.009093750000000001, -0.02496875, 0.99346875, 192.0, 0.0, 0.0, 0.0, 0.0, 0.0, 0.0, 0.0, 0.0, 0.0, 1.64449756228878E9, 0.0, 2022-02-10 23:52:42.288
92.0, -9960.853750807495, -11762.583167860887, -6680.623493268907, -14258.893043862945, -154.83053384191203, -1071.207353020591, -1485.7428056887159, -3165.275235804944, -20563.2025674823, -17037.617211057808, -22454.227203634644, -12943.202309990205, -7401.5119554414705, -11957.915062655815, -5497.366845293862, -8429.803959107872, 0.009093750000000001, -0.02496875, 0.99346875, 192.0, 0.0, 0.0, 0.0, 0.0, 0.0, 0.0, 0.0, 0.0, 0.0, 1.644497562288787E9, 0.0, 2022-02-10 23:52:42.288
94.0, -9940.178387186335, -11749.306231654435, -6675.013205410624, -14262.804599142624, -139.02785051200993, -1057.8633615807726, -1472.4658694822633, -3152.62414844324, -20560.78857908113, -17049.79891178595, -22445.755892486086, -12945.236318735639, -7403.478908953537, -11944.45931249372, -5496.584534237925, -8427.1888050066, 0.009093750000000001, -0.02496875, 0.99346875, 192.0, 0.0, 0.0, 0.0, 0.0, 0.0, 0.0, 0.0, 0.0, 0.0, 1.6444975622887936E9, 0.0, 2022-02-10 23:52:42.288
96.0, -9941.787712787118, -11729.815510489407, -6680.1764583798, -14265.509160221716, -147.5215134050266, -1065.2617889954793, -1475.4162997503638, -3162.7718404259494, -20540.20262243779, -17029.391769098256, -22431.786052201518, -12943.001144290107, -7394.068824537853, -11926.443806462743, -5492.13653709132, -8425.646534639185, 0.008546875, -0.025484375000000004, 0.992734375, 192.0, 0.0, 32.0, 127.5, 24.0, 15.5, 0.0, 0.0, 0.0, 0.0, 1.6444975622888033E9, 0.0, 2022-02-10 23:52:42.288
98.0, -9966.754611343697, -11775.167199989224, -6675.951978677747, -14262.469322975794, -146.2698157155294, -1058.1986377476023, -1478.992578863213, -3169.9243986516476, -20567.985840795736, -17028.944734209148, -22463.39141886132, -12941.145949500316, -7405.803490376889, -11929.483643708665, -5498.283266816529, -8430.809787608361, 0.008546875, -0.025484375000000004, 0.992734375, 192.0, 0.0, 0.0, 0.0, 0.0, 0.0, 0.0, 0.0, 0.0, 0.0, 1.6444975622888114E9, 0.0, 2022-02-10 23:52:42.288
100.0, -9948.448532634799, -11755.967051502115, -6666.497190773152, -14256.948442095334, -135.27275744351834, -1047.4921521535102, -1473.8069741495817, -3141.5376831934077, -20561.190910481324, -17042.355780882335, -22445.53237504153, -12929.008952261085, -7397.913324584166, -11919.000675559126, -5488.046167855999, -8421.466758426042, 0.008546875, -0.025484375000000004, 0.992734375, 192.0, 0.0, 0.0, 0.0, 0.0, 0.0, 0.0, 0.0, 0.0, 0.0, 1.644497562288818E9, 0.0, 2022-02-10 23:52:42.288
102.0, -9966.531093899142, -11755.765885802019, -6671.280464086588, -14256.34494499504, -140.95010053516634, -1048.6991463540967, -1480.4901457417186, -3149.6066629417737, -20561.481483159245, -17039.673571547697, -22455.411846090778, -12942.554109401002, -7402.361321730772, -11906.953085297715, -5492.963551636166, -8420.885613070204, 0.008546875, -0.025484375000000004, 0.992734375, 192.0, 0.0, 0.0, 0.0, 0.0, 0.0, 0.0, 0.0, 0.0, 0.0, 1.644497562288828E9, 0.0, 2022-02-10 23:52:42.288
104.0, -9951.555425114087, -11735.51520532551, -6658.875245913893, -14248.879462346968, -137.19500746667475, -1045.7487160859962, -1474.5892852055176, -3124.6397643851956, -20558.46399765778, -17026.262524874513, -22442.023151162048, -12933.635763363334, -7410.184432290129, -11914.127995267869, -5496.18220283773, -8418.04694152438, 0.008546875, -0.025484375000000004, 0.992734375, 192.0, 0.0, 0.0, 0.0, 0.0, 0.0, 0.0, 0.0, 0.0, 0.0, 1.6444975627681E9, 0.0, 2022-02-10 23:52:42.768
106.0, -9959.222073462257, -11756.458789880133, -6668.195923351756, -14249.885290847456, -151.09779251787575, -1050.2637684659683, -1474.7457474167047, -3138.81077036986, -20561.637945370432, -17032.36455111081, -22437.329284826432, -12935.937993042231, -7412.9560486025875, -11932.769350143595, -5490.460156257172, -8416.035284523403, 0.01, -0.024, 0.988, 192.0, 0.0, 40.0, 127.5, 32.0, 15.0, 112.0, 0.0, 0.0, 0.0, 1.6444975627682748E9, 0.0, 2022-02-10 23:52:42.768
108.0, -9946.101599466992, -11750.982612488582, -6665.781934950583, -14249.862939103, -144.056993014454, -1039.0655444938595, -1491.733073202738, -3137.134389535712, -20551.579660365544, -17029.23530688707, -22446.62761051984, -12949.013763548586, -7412.553717202391, -11912.339855711443, -5496.316313304462, -8418.09164501329, 0.01, -0.024, 0.988, 192.0, 0.0, 0.0, 0.0, 0.0, 0.0, 0.0, 0.0, 0.0, 0.0, 1.6444975627682824E9, 0.0, 2022-02-10 23:52:42.768
110.0, -9948.292070423613, -11751.161426444225, -6667.435964040275, -14253.729790893769, -131.20473995265246, -1055.0693935238594, -1468.2413897802103, -3143.8622646167596, -20555.78178832314, -17024.519088807, -22436.502270281588, -12931.445292406714, -7395.253466993984, -11890.993939756625, -5493.008255125076, -8414.783586833904, 0.01, -0.024, 0.988, 192.0, 0.0, 0.0, 0.0, 0.0, 0.0, 0.0, 0.0, 0.0, 0.0, 1.6444975627682896E9, 0.0, 2022-02-10 23:52:42.768
112.0, -9955.511683882676, -11749.70856305463, -6678.075394401002, -14259.116561307499, -142.55942613594846, -1067.564018674376, -1471.3706340039532, -3156.982738612025, -20563.82841632705, -17029.347065609345, -22451.522642555552, -12951.56186241649, -7406.831670621833, -11921.302905238023, -5496.785699938024, -8424.685409627606, 0.01, -0.024, 0.988, 192.0, 0.0, 0.0, 0.0, 0.0, 0.0, 0.0, 0.0, 0.0, 0.0, 1.6444975627682967E9, 0.0, 2022-02-10 23:52:42.768
114.0, -9958.640928106419, -11757.41991489171, -6667.055984384535, -14254.556805438615, -117.79369327946821, -1055.3599662017782, -1463.703985655783, -3148.4443722300975, -20567.650564628908, -17036.85725174633, -22454.137796656825, -12949.863129837888, -7413.268973024961, -11927.561393685508, -5499.333798805928, -8423.411360193653, 0.01, -0.024, 0.988, 192.0, 0.0, 0.0, 0.0, 0.0, 0.0, 0.0, 0.0, 0.0, 0.0, 1.644497562768304E9, 0.0, 2022-02-10 23:52:42.768
116.0, -9971.06849802357, -11769.936891786683, -6666.676004728795, -14259.340078752051, -133.9093010317446, -1058.8691900812614, -1475.7068724282828, -3156.200427556089, -20563.873119815962, -17040.3217721369, -22434.468261536153, -12927.17610921575, -7407.524574699948, -11915.35734121291, -5496.293961560007, -8422.450235182076, 0.012, -0.02, 0.99, 192.0, 0.0, 48.0, 127.5, 48.0, 15.0, 120.0, 0.0, 0.0, 0.0, 1.6444975627683108E9, 0.0, 2022-02-10 23:52:42.768
118.0, -9963.960643286782, -11748.300403153946, -6663.591463993963, -14255.92026185039, -135.63038535480325, -1059.4056319481888, -1476.5338869731293, -3156.8933316342036, -20557.279355201645, -17026.866021974805, -22445.15239538579, -12944.163435001783, -7401.713121141568, -11919.380655214865, -5497.925638905244, -8422.718456115539, 0.012, -0.02, 0.99, 192.0, 0.0, 0.0, 0.0, 0.0, 0.0, 0.0, 0.0, 0.0, 0.0, 1.6444975627683177E9, 0.0, 2022-02-10 23:52:42.768
120.0, -9954.014117004172, -11757.889301525272, -6664.12790586089, -14257.462532217805, -128.34371666237314, -1063.3618907167781, -1466.6320641794282, -3153.0488315878906, -20564.320154705067, -17026.12841440778, -22438.40216856029, -12935.669772108768, -7408.150423544696, -11912.921001067281, -5493.075310358442, -8422.00320029297, 0.012, -0.02, 0.99, 192.0, 0.0, 0.0, 0.0, 0.0, 0.0, 0.0, 0.0, 0.0, 0.0, 1.6444975627683249E9, 0.0, 2022-02-10 23:52:42.768
122.0, -9966.173465987858, -11757.41991489171, -6672.398051309354, -14257.171959539886, -146.67214711572495, -1072.2131815210798, -1484.9381428883248, -3166.0128433719688, -20570.466884430276, -17035.024408700992, -22454.048389679003, -12939.89425181082, -7410.765577645967, -11920.453538948721, -5495.08696735942, -8428.373447462733, 0.012, -0.02, 0.99, 192.0, 0.0, 0.0, 0.0, 0.0, 0.0, 0.0, 0.0, 0.0, 0.0, 1.6444975627683332E9, 0.0, 2022-02-10 23:52:42.768
124.0, -9940.960698242272, -11730.955449456627, -6665.826638439494, -14249.371200724985, -147.29799596047354, -1061.1490680157028, -1496.471643027263, -3157.9885671125135, -20559.179253480346, -17026.217821385602, -22440.994970917105, -12934.552184886, -7407.5022229554925, -11922.085216293957, -5502.597153496404, -8426.026514294925, 0.012, -0.02, 0.99, 192.0, 0.0, 0.0, 0.0, 0.0, 0.0, 0.0, 0.0, 0.0, 0.0, 1.6444975627683403E9, 0.0, 2022-02-10 23:52:42.768
126.0, -9945.92278551135, -11748.032182220482, -6667.145391362356, -14254.132122293964, -156.81983909843436, -1070.7826698759402, -1499.6232389954614, -3173.7688986979606, -20558.01696276867, -17022.64154227275, -22436.859898192874, -12929.41128366128, -7408.9103828561765, -11908.07067252048, -5503.223002341152, -8427.099398028779, 0.006, -0.02, 0.99, 192.0, 0.0, 24.0, 127.5, 48.0, 15.0, 120.0, 0.0, 0.0, 0.0, 1.6444975627683475E9, 0.0, 2022-02-10 23:52:42.768
