%OpenBCI Raw EEG Data
%Number of channels = 16
%Sample Rate = 125 Hz
%Board = OpenBCI_GUI$BoardCytonSerialDaisy
Sample Index, EXG Channel 0, EXG Channel 1, EXG Channel 2, EXG Channel 3, EXG Channel 4, EXG Channel 5, EXG Channel 6, EXG Channel 7, EXG Channel 8, EXG Channel 9, EXG Channel 10, EXG Channel 11, EXG Channel 12, EXG Channel 13, EXG Channel 14, EXG Channel 15, Accel Channel 0, Accel Channel 1, Accel Channel 2, Other, Other, Other, Other, Other, Other, Other, Analog Channel 0, Analog Channel 1, Analog Channel 2, Timestamp, Other, Timestamp (Formatted)
0.0, -10630.601421666315, -12420.88674555859, -7772.3720994439245, -15354.66496403992, -936.2475199994469, -1725.465264971884, -2550.3787458394463, -4464.850361925407, 0.0, 0.0, 0.0, 0.0, 0.0, 0.0, 0.0, 0.0, 0.0, 0.0, 0.0, 192.0, 0.0, 0.0, 0.0, 0.0, 0.0, 0.0, 0.0, 0.0, 0.0, 1.6444977554217296E9, 0.0, 2022-02-10 23:55:55.421
38.0, -10636.815206624891, -12426.228812483409, -7776.082489023506, -15357.302469885644, -940.8072758683296, -1729.4215237404733, -2553.4856383187343, -4471.26531258408, -20235.056607133938, -17805.466688330973, -23211.124326124707, -13556.422419121554, -7906.281400475669, -12436.55531842176, -6760.687441907817, -9184.667072852502, 0.0, 0.0, 0.0, 192.0, 0.0, 0.0, 0.0, 0.0, 0.0, 0.0, 0.0, 0.0, 0.0, 1.644497755421752E9, 0.0, 2022-02-10 23:55:55.421
40.0, -10647.231119541064, -12423.233678726398, -7784.531448427612, -15357.257766396735, -944.3835549811787, -1733.7354104203475, -2547.6741847603544, -4474.573370763465, -20239.81752870292, -17813.088633190233, -23221.517887296428, -13561.54096860182, -7920.474758204789, -12446.41243772655, -6763.749630898194, -9190.25500896633, 0.0, 0.0, 0.0, 192.0, 0.0, 0.0, 0.0, 0.0, 0.0, 0.0, 0.0, 0.0, 0.0, 1.644497755421759E9, 0.0, 2022-02-10 23:55:55.421
42.0, -10633.596555423326, -12411.878992543101, -7777.401241946369, -15356.497807085254, -938.9297293340837, -1721.9336893479456, -2547.0483359156055, -4466.929074159751, -20238.722293224608, -17802.76212725188, -23208.799744701355, -13564.737268058929, -7917.323162236591, -12446.434789471006, -6762.0508983195905, -9188.265703709807, 0.0, 0.0, 0.0, 192.0, 0.0, 0.0, 0.0, 0.0, 0.0, 0.0, 0.0, 0.0, 0.0, 1.644497755421784E9, 0.0, 2022-02-10 23:55:55.421
44.0, -10663.190265082154, -12433.515481175838, -7795.282637510614, -15360.632879809486, -957.4146219986227, -1737.6022622111157, -2566.673167547365, -4475.355681819401, -20245.517223539024, -17804.57261855276, -23216.01935816042, -13561.473913368454, -7923.626354172988, -12441.249184757375, -6767.147096055401, -9187.662206609513, 0.005, -0.01, 0.495, 192.0, 0.0, 40.0, 127.5, 48.0, 15.0, 120.0, 0.0, 0.0, 0.0, 1.6444977554217925E9, 0.0, 2022-02-10 23:55:55.421
46.0, -10646.672325929681, -12414.784719322291, -7782.2292187487155, -15357.078952441092, -944.6741276590977, -1729.6673929294818, -2553.5526935521, -4463.576312491455, -20249.67464800771, -17817.08959544773, -23229.340997855783, -13567.285366926833, -7931.583575199077, -12446.814769126746, -6773.606750202984, -9188.332758943172, 0.005, -0.01, 0.495, 192.0, 0.0, 0.0, 0.0, 0.0, 0.0, 0.0, 0.0, 0.0, 0.0, 1.6444977554218E9, 0.0, 2022-02-10 23:55:55.421
48.0, -10647.566395707894, -12438.142292278088, -7782.273922237626, -15355.491978584765, -945.9258253485949, -1726.6275556835599, -2548.0541644160944, -4459.173018833759, -20247.998267173563, -17811.635769800636, -23219.863858206732, -13564.200826192002, -7924.945107095851, -12457.141275065098, -6763.727279153738, -9181.113145484107, 0.005, -0.01, 0.495, 192.0, 0.0, 0.0, 0.0, 0.0, 0.0, 0.0, 0.0, 0.0, 0.0, 1.644497755421807E9, 0.0, 2022-02-10 23:55:55.421
50.0, -10643.96776485059, -12424.708893860448, -7784.039710049595, -15354.84377799556, -941.5448834353547, -1720.5702329361718, -2544.45553355879, -4464.313920058479, -20247.61828751782, -17816.53080183635, -23232.492593823983, -13576.650747853608, -7912.115205778505, -12440.042190556787, -6765.9848053437245, -9183.236561207363, 0.005, -0.01, 0.495, 192.0, 0.0, 0.0, 0.0, 0.0, 0.0, 0.0, 0.0, 0.0, 0.0, 1.644497755421814E9, 0.0, 2022-02-10 23:55:55.421
52.0, -10629.0591512989, -12414.181222221998, -7770.293387209581, -15356.162530918424, -935.5322641768771, -1713.0823985436439, -2548.814123727575, -4450.232321051636, -20235.660104234234, -17800.728118506446, -23209.894980179666, -13560.87041626816, -7914.417435457402, -12426.98877179489, -6763.392002986909, -9177.089831482153, 0.005, -0.01, 0.495, 192.0, 0.0, 0.0, 0.0, 0.0, 0.0, 0.0, 0.0, 0.0, 0.0, 1.6444977554218209E9, 0.0, 2022-02-10 23:55:55.421
54.0, -10651.924985876678, -12430.319181718729, -7782.184515259804, -15362.622185066008, -953.726584163497, -1722.917166103979, -2540.4098678123796, -4461.050565368005, -20244.220822360614, -17802.695072018512, -23217.382814572196, -13569.319375672267, -7917.256107003225, -12459.532911721815, -6766.81181988857, -9184.28709319676, 0.0075, -0.015, 0.7404999999999999, 192.0, 0.0, 40.0, 127.5, 48.0, 15.0, 104.0, 0.0, 0.0, 0.0, 1.6444977554218276E9, 0.0, 2022-02-10 23:55:55.421
56.0, -10641.844349127336, -12424.88770781609, -7777.580055902012, -15358.531815830687, -940.2708340014022, -1715.4293317114511, -2534.7325247207314, -4457.78721067753, -20244.556098527446, -17811.032272700344, -23226.994064687977, -13565.430172137043, -7910.3717697109905, -12449.65344067257, -6769.874008878948, -9188.28805545426, 0.0075, -0.015, 0.7404999999999999, 192.0, 0.0, 0.0, 0.0, 0.0, 0.0, 0.0, 0.0, 0.0, 0.0, 1.6444977554218345E9, 0.0, 2022-02-10 23:55:55.421
58.0, -10640.011506081999, -12426.31821946123, -7772.528561655112, -15364.432676366887, -947.2892817603686, -1721.1960817809204, -2552.613920284977, -4467.890199171329, -20241.24804034806, -17812.038101200833, -23208.017433645422, -13558.344669144712, -7910.774101111187, -12433.850757342669, -6765.358956498976, -9183.102450740631, 0.0075, -0.015, 0.7404999999999999, 192.0, 0.0, 0.0, 0.0, 0.0, 0.0, 0.0, 0.0, 0.0, 0.0, 1.6444977554218411E9, 0.0, 2022-02-10 23:55:55.421
60.0, -10648.102837574821, -12431.347361963673, -7783.480916438212, -15363.583310077585, -948.0715928163044, -1733.1989685534202, -2556.324309864558, -4470.1030218724045, -20243.90789793824, -17810.09349943322, -23225.563553042837, -13575.399050164111, -7906.504917920222, -12446.79241738229, -6771.997424602202, -9188.10924149862, 0.0075, -0.015, 0.7404999999999999, 192.0, 0.0, 0.0, 0.0, 0.0, 0.0, 0.0, 0.0, 0.0, 0.0, 1.644497755421848E9, 0.0, 2022-02-10 23:55:55.421
62.0, -10635.831729868858, -12429.894498574078, -7775.6578058788555, -15360.431714109387, -932.7159443755085, -1718.8715003575685, -2536.095981132505, -4464.716251458675, -20243.3267525824, -17811.054624444798, -23221.45083206306, -13571.3533844177, -7903.554487652122, -12450.167530795043, -6764.286072765121, -9183.191857718452, 0.0075, -0.015, 0.7404999999999999, 192.0, 0.0, 0.0, 0.0, 0.0, 0.0, 0.0, 0.0, 0.0, 0.0, 1.6444977554218552E9, 0.0, 2022-02-10 23:55:55.421
64.0, -10657.043535356945, -12428.151062506566, -7787.906561840363, -15365.527911845198, -951.0667265733155, -1729.4885789738394, -2553.999728441206, -4459.016556622571, -20249.361723585334, -17816.597857069715, -23229.810384489345, -13576.986024020438, -7909.053016788128, -12446.948879593478, -6767.683537922328, -9185.874067053088, 0.00675, -0.0205, 0.86625, 192.0, 0.0, 24.0, 127.5, 24.0, 15.5, 0.0, 0.0, 0.0, 0.0, 1.6444977554218643E9, 0.0, 2022-02-10 23:55:55.421
66.0, -10643.140750305743, -12427.346399706174, -7781.156335014861, -15358.576519319597, -942.6401189136648, -1715.0046485668004, -2541.236882357226, -4445.381992504835, -20249.38407532979, -17815.23440065794, -23239.667503794135, -13570.392259406122, -7912.338723223058, -12450.994545339889, -6770.186933301322, -9183.214209462907, 0.00675, -0.0205, 0.86625, 192.0, 0.0, 0.0, 0.0, 0.0, 0.0, 0.0, 0.0, 0.0, 0.0, 1.6444977554218712E9, 0.0, 2022-02-10 23:55:55.421
68.0, -10635.228232768564, -12430.140367763088, -7783.145640271383, -15359.738810031273, -944.6517759146424, -1720.369067236074, -2549.819952228064, -4457.474286255156, -20245.226650861103, -17806.24899938691, -23216.7793174719, -13555.528349343342, -7915.177394768882, -12437.449388199973, -6762.833209375526, -9180.107316983618, 0.00675, -0.0205, 0.86625, 192.0, 0.0, 0.0, 0.0, 0.0, 0.0, 0.0, 0.0, 0.0, 0.0, 1.6444977554218838E9, 0.0, 2022-02-10 23:55:55.421
70.0, -10645.82295964038, -12431.123844519121, -7780.105803025461, -15362.622185066008, -948.6750899165977, -1732.1931400529315, -2551.295167362114, -4469.946559661217, -20241.49390953707, -17806.226647642452, -23220.86968670722, -13571.956881517994, -7901.073444017583, -12442.724399891425, -6772.869142635959, -9187.461040909415, 0.00675, -0.0205, 0.86625, 192.0, 0.0, 0.0, 0.0, 0.0, 0.0, 0.0, 0.0, 0.0, 0.0, 1.6444977554218905E9, 0.0, 2022-02-10 23:55:55.421
72.0, -10633.663610656693, -12422.518422903828, -7772.573265144023, -15355.156702417935, -936.4039822106341, -1717.105712545599, -2541.88508294643, -4442.699783170197, -20239.303438580446, -17805.533743564338, -23207.369233056215, -13567.866512282671, -7896.17841198187, -12422.674885115015, -6769.829305390037, -9180.330834428172, 0.00675, -0.0205, 0.86625, 192.0, 0.0, 0.0, 0.0, 0.0, 0.0, 0.0, 0.0, 0.0, 0.0, 1.644497755421898E9, 0.0, 2022-02-10 23:55:55.421
74.0, -10647.633450941259, -12432.979039308912, -7784.442041449791, -15356.207234407335, -947.4233922271005, -1724.1912155379316, -2577.647874074921, -4463.084574113438, -20246.925383439706, -17814.720310535467, -23222.434308819094, -13559.417552878565, -7904.068577774594, -12444.043152814289, -6772.600921702496, -9180.688462339456, 0.009375, -0.02325, 0.929125, 192.0, 0.0, 48.0, 127.5, 24.0, 15.5, 0.0, 0.0, 0.0, 0.0, 1.6444977554219048E9, 0.0, 2022-02-10 23:55:55.421
76.0, -10633.976535079068, -12424.59713513817, -7781.022224548129, -15358.576519319597, -937.7897903668631, -1713.5517851772054, -2552.5245133071558, -4448.824161150952, -20240.331618825392, -17806.450165087004, -23229.49746006697, -13561.2503959239, -7897.385406182458, -12438.455216700462, -6776.557180471084, -9184.957645530421, 0.009375, -0.02325, 0.929125, 192.0, 0.0, 0.0, 0.0, 0.0, 0.0, 0.0, 0.0, 0.0, 0.0, 1.6444977554219117E9, 0.0, 2022-02-10 23:55:55.421
78.0, -10646.493511974038, -12442.456178957962, -7789.940570585796, -15362.46572285482, -954.8218196418071, -1732.8413406421353, -2551.6304435289435, -4461.318786301468, -20247.61828751782, -17819.615342571182, -23223.395433830672, -13565.16195120358, -7903.42037718539, -12443.260841758352, -6769.985767601224, -9182.186029217963, 0.009375, -0.02325, 0.929125, 192.0, 0.0, 0.0, 0.0, 0.0, 0.0, 0.0, 0.0, 0.0, 0.0, 1.6444977554219182E9, 0.0, 2022-02-10 23:55:55.421
80.0, -10661.804456925924, -12448.55820519426, -7798.009550334162, -15360.923452487405, -954.888874875173, -1731.3214220191744, -2555.1173156639716, -4464.582140991944, -20256.782502744496, -17831.66293283259, -23240.628628805713, -13584.205637479501, -7910.125900521983, -12442.344420235684, -6782.078061351545, -9190.702043855434, 0.009375, -0.02325, 0.929125, 192.0, 0.0, 0.0, 0.0, 0.0, 0.0, 0.0, 0.0, 0.0, 0.0, 1.6444977554219255E9, 0.0, 2022-02-10 23:55:55.421
82.0, -10639.34095374834, -12434.051923042765, -7773.1320587554055, -15361.504597843243, -928.7820373513744, -1726.0687620721774, -2552.703327262798, -4461.07291711246, -20253.094464909373, -17810.33936862223, -23218.0310151614, -13571.26397743988, -7904.940295808351, -12427.07817877271, -6774.903151381392, -9186.946950786943, 0.009375, -0.02325, 0.929125, 192.0, 0.0, 0.0, 0.0, 0.0, 0.0, 0.0, 0.0, 0.0, 0.0, 1.6444977554219325E9, 0.0, 2022-02-10 23:55:55.421
84.0, -10641.218500282586, -12430.98973405239, -7783.860896093953, -15367.89719675746, -934.9958223099497, -1738.1163523335879, -2566.8743332474633, -4468.046661382516, -20247.01479041753, -17803.924417963557, -23217.11459363873, -13573.141523974124, -7886.32129267708, -12441.517405690838, -6770.790430401616, -9191.953741544932, 0.0116875, -0.022625, 0.9595625, 192.0, 0.0, 56.0, 127.5, 40.0, 15.0, 120.0, 0.0, 0.0, 0.0, 1.6444977554219394E9, 0.0, 2022-02-10 23:55:55.421
86.0, -10637.753979892013, -12434.543661420783, -7778.451773935769, -15365.28204265619, -931.5760054082878, -1727.8792533730573, -2553.016251685173, -4467.577274748955, -20241.382150814792, -17818.56481058178, -23224.82594547581, -13581.746945589417, -7885.0695949875835, -12434.968344565434, -6780.289921795121, -9190.634988622069, 0.0116875, -0.022625, 0.9595625, 192.0, 0.0, 0.0, 0.0, 0.0, 0.0, 0.0, 0.0, 0.0, 0.0, 1.6444977554219472E9, 0.0, 2022-02-10 23:55:55.421
88.0, -10660.686869703159, -12452.201539540476, -7788.8676868519415, -15368.165417690923, -946.0152323264161, -1739.0104221118002, -2559.1853331548373, -4460.5364752455325, -20250.747531741566, -17821.24701991642, -23208.73268946799, -13556.556529588286, -7899.754691094719, -12456.671888431536, -6779.9546456282915, -9189.986788032864, 0.0116875, -0.022625, 0.9595625, 192.0, 0.0, 0.0, 0.0, 0.0, 0.0, 0.0, 0.0, 0.0, 0.0, 1.644497755421954E9, 0.0, 2022-02-10 23:55:55.421
90.0, -10670.096954118842, -12452.000373840378, -7796.959018344763, -15368.992432235771, -958.018119098916, -1733.4895412313392, -2569.93652223784, -4463.665719469276, -20265.477331337614, -17840.044837003334, -23240.69568403908, -13593.459259684, -7910.595287155544, -12457.9906413544, -6792.3375120565315, -9190.836154322167, 0.0116875, -0.022625, 0.9595625, 192.0, 0.0, 0.0, 0.0, 0.0, 0.0, 0.0, 0.0, 0.0, 0.0, 1.6444977554219613E9, 0.0, 2022-02-10 23:55:55.421
92.0, -10646.940546863145, -12444.087856303198, -7788.06302405155, -15366.489036856776, -944.4953137034553, -1727.0075353393001, -2561.0181762001725, -4464.112754358382, -20262.370438858325, -17825.851479274213, -23229.899791467167, -13584.809134579795, -7907.533098165167, -12444.534891192305, -6784.939084641825, -9188.019834520797, 0.0116875, -0.022625, 0.9595625, 192.0, 0.0, 0.0, 0.0, 0.0, 0.0, 0.0, 0.0, 0.0, 0.0, 1.6444977554219685E9, 0.0, 2022-02-10 23:55:55.421
94.0, -10660.44100051415, -12460.829312900223, -7791.8628206089525, -15375.675603827907, -961.0132528559271, -1740.0833058456549, -2557.5536558096, -4471.242960839625, -20261.185796402195, -17827.281990919353, -23234.325436869316, -13585.256169468901, -7902.66041787391, -12445.294850503786, -6784.313235797076, -9193.183087489973, 0.012, -0.02, 0.988, 192.0, 0.0, 48.0, 127.5, 48.0, 15.0, 112.0, 0.0, 0.0, 0.0, 1.644497755421975E9, 0.0, 2022-02-10 23:55:55.421
96.0, -10653.802532410924, -12440.198652767975, -7783.30210248257, -15369.797095036161, -947.1775230380921, -1734.562424965194, -2561.420507600368, -4460.044736867516, -20262.146921413772, -17830.031255487356, -23242.372064873227, -13606.199754023524, -7904.716778363798, -12450.145179050587, -6788.157735843389, -9198.368692203605, 0.012, -0.02, 0.988, 192.0, 0.0, 0.0, 0.0, 0.0, 0.0, 0.0, 0.0, 0.0, 0.0, 1.6444977554219818E9, 0.0, 2022-02-10 23:55:55.421
98.0, -10662.318547048397, -12457.968289609944, -7788.264189751648, -15373.172208448912, -944.115334047715, -1739.3233465341743, -2558.3806703544465, -4472.293492829024, -20260.068209179426, -17826.34321765223, -23216.198172116063, -13578.3047769433, -7905.253220230726, -12462.32687977873, -6776.154849070889, -9196.222924735896, 0.012, -0.02, 0.988, 192.0, 0.0, 0.0, 0.0, 0.0, 0.0, 0.0, 0.0, 0.0, 0.0, 1.6444977554219887E9, 0.0, 2022-02-10 23:55:55.421
100.0, -10673.740288465058, -12467.333670536718, -7801.272905024637, -15376.346156161566, -953.6595289301312, -1738.943366878434, -2577.133783952449, -4466.660853226287, -20270.30530813996, -17826.94671475252, -23243.869631751735, -13592.229913738956, -7907.711912120809, -12471.155818838575, -6784.536753241629, -9204.783642862278, 0.012, -0.02, 0.988, 192.0, 0.0, 0.0, 0.0, 0.0, 0.0, 0.0, 0.0, 0.0, 0.0, 1.6444977554219985E9, 0.0, 2022-02-10 23:55:55.421
102.0, -10652.997869610534, -12437.628202155614, -7787.638340906899, -15376.189693950379, -940.114371790215, -1725.1299888050544, -2563.074536690061, -4456.870789154862, -20266.684325538197, -17840.737741081448, -23231.486765323494, -13587.40193693661, -7907.354284209524, -12457.253033787374, -6781.251046806699, -9197.496974169848, 0.012, -0.02, 0.988, 192.0, 0.0, 0.0, 0.0, 0.0, 0.0, 0.0, 0.0, 0.0, 0.0, 1.6444977554220052E9, 0.0, 2022-02-10 23:55:55.422
104.0, -10667.548855250938, -12461.544568722793, -7799.596524190489, -15374.222740438312, -953.7489359079524, -1742.854922158113, -2570.584722827044, -4468.001957893605, -20271.266433151537, -17842.548232382327, -23239.39928286067, -13597.54962891932, -7903.6215428854875, -12460.248167544385, -6784.156773585889, -9200.53681141577, 0.014, -0.018000000000000002, 0.988, 192.0, 0.0, 56.0, 127.5, 56.0, 15.0, 112.0, 0.0, 0.0, 0.0, 1.644497755422012E9, 0.0, 2022-02-10 23:55:55.422
106.0, -10659.122247591287, -12449.161702294554, -7792.73453864271, -15371.294661914668, -944.8082381258296, -1723.945346348923, -2561.3311006225467, -4455.283815298536, -20265.54438657098, -17834.94863926752, -23245.32249514133, -13593.146335261625, -7902.571010896088, -12459.085876832709, -6788.694177710317, -9198.502802670337, 0.014, -0.018000000000000002, 0.988, 192.0, 0.0, 0.0, 0.0, 0.0, 0.0, 0.0, 0.0, 0.0, 0.0, 1.644497755422019E9, 0.0, 2022-02-10 23:55:55.422
108.0, -10656.350631278829, -12448.066466816243, -7797.517811956145, -15373.932167760393, -951.178485295592, -1725.9570033499008, -2582.1182229659826, -4477.635559753842, -20267.95837497215, -17824.71154030699, -23230.257419378453, -13589.748870104417, -7900.402891683923, -12449.519330205838, -6785.430823019841, -9200.246238737851, 0.014, -0.018000000000000002, 0.988, 192.0, 0.0, 0.0, 0.0, 0.0, 0.0, 0.0, 0.0, 0.0, 0.0, 1.644497755422026E9, 0.0, 2022-02-10 23:55:55.422
110.0, -10675.170800110198, -12459.935243122012, -7801.429367235824, -15376.636728839485, -960.4544592445445, -1736.663488943993, -2589.494298636234, -4462.391670035323, -20276.63085182081, -17830.031255487356, -23246.484785853005, -13597.571980663775, -7904.940295808351, -12461.857493145168, -6794.706796968794, -9206.638837652068, 0.014, -0.018000000000000002, 0.988, 192.0, 0.0, 0.0, 0.0, 0.0, 0.0, 0.0, 0.0, 0.0, 0.0, 1.6444977554220335E9, 0.0, 2022-02-10 23:55:55.422
112.0, -10652.439075999151, -12446.814769126746, -7787.370119973436, -15370.869978770017, -935.8675403437068, -1723.632421926549, -2553.9326732078403, -4444.711440171175, -20266.080828437905, -17827.639618830635, -23238.058178193354, -13589.503000915409, -7900.827574828574, -12449.385219739106, -6786.593113731517, -9197.385215447572, 0.014, -0.018000000000000002, 0.988, 192.0, 0.0, 0.0, 0.0, 0.0, 0.0, 0.0, 0.0, 0.0, 0.0, 1.6444977554220405E9, 0.0, 2022-02-10 23:55:55.422
114.0, -10676.10957337732, -12456.22485354243, -7794.388567732402, -15375.51914161672, -940.181427023581, -1748.6216722275822, -2574.4068711289015, -4469.477173027655, -20272.741648285588, -17831.037083987845, -23238.92989622711, -13586.887846814137, -7911.891688333952, -12459.175283810531, -6782.1227648404565, -9203.464889939414, 0.01, -0.02, 0.99, 192.0, 0.0, 40.0, 127.5, 48.0, 15.0, 120.0, 0.0, 0.0, 0.0, 1.6444977554220471E9, 0.0, 2022-02-10 23:55:55.422
116.0, -10661.849160414835, -12447.440617971495, -7792.980407831718, -15372.054621226147, -931.017211796905, -1737.2893377887415, -2564.5944553130216, -4468.381937549346, -20274.373325630826, -17829.785386298347, -23242.975561973522, -13592.83341083925, -7905.141461508449, -12456.090743075698, -6792.896305667914, -9206.884706841076, 0.01, -0.02, 0.99, 192.0, 0.0, 0.0, 0.0, 0.0, 0.0, 0.0, 0.0, 0.0, 0.0, 1.6444977554220543E9, 0.0, 2022-02-10 23:55:55.422
118.0, -10659.479875502573, -12451.016897084344, -7792.242800264693, -15380.682394585896, -934.8170083543073, -1741.2903000462413, -2559.6323680439436, -4460.69293745672, -20272.5851860744, -17827.483156619448, -23229.095128666777, -13584.183285735046, -7904.5156126637, -12428.12871076211, -6786.906038153892, -9210.081006298185, 0.01, -0.02, 0.99, 192.0, 0.0, 0.0, 0.0, 0.0, 0.0, 0.0, 0.0, 0.0, 0.0, 1.6444977554220612E9, 0.0, 2022-02-10 23:55:55.422
120.0, -10664.844294171846, -12449.407571483562, -7802.323437014036, -15379.18482770739, -943.8918166031619, -1741.20089306842, -2581.3135601655913, -4466.0573561259935, -20273.14397968578, -17832.959334011, -23245.881288752713, -13606.959713335003, -7907.175470253882, -12476.721403207946, -6792.5163260121735, -9215.758349389835, 0.01, -0.02, 0.99, 192.0, 0.0, 0.0, 0.0, 0.0, 0.0, 0.0, 0.0, 0.0, 0.0, 1.644497755422068E9, 0.0, 2022-02-10 23:55:55.422
122.0, -10657.49057024605, -12452.492112218395, -7801.563477702556, -15375.273272427712, -925.1834064940699, -1732.4166574974845, -2543.0250219136506, -4459.105963600393, -20272.5851860744, -17832.66876133308, -23239.287524138395, -13595.202695751512, -7896.692502104343, -12473.838028173212, -6786.704872453794, -9212.182070276986, 0.01, -0.02, 0.99, 192.0, 0.0, 0.0, 0.0, 0.0, 0.0, 0.0, 0.0, 0.0, 0.0, 1.6444977554220753E9, 0.0, 2022-02-10 23:55:55.422
124.0, -10678.165933867209, -12462.595100712193, -7802.770471903143, -15381.911740530937, -944.2941480033575, -1746.207683826409, -2571.814068772086, -4466.370280548368, -20277.591976832387, -17838.346104424727, -23246.50713759746, -13600.45535569851, -7905.94612430884, -12469.94882463799, -6789.744709699716, -9216.719474401412, 0.008, -0.026000000000000002, 0.99, 192.0, 0.0, 32.0, 127.5, 24.0, 15.0, 120.0, 0.0, 0.0, 0.0, 1.644497755422082E9, 0.0, 2022-02-10 23:55:55.422
126.0, -10664.888997660757, -12459.0411733438, -7802.412843991858, -15381.531760875198, -938.1027147892374, -1733.7130586758924, -2571.0988129495163, -4462.346966546413, -20278.083715210407, -17841.00596201491, -23256.006628990966, -13607.496155201932, -7906.482566175768, -12466.193731569498, -6796.338474314031, -9219.11111105813, 0.008, -0.026000000000000002, 0.99, 192.0, 0.0, 0.0, 0.0, 0.0, 0.0, 0.0, 0.0, 0.0, 0.0, 1.6444977554220889E9, 0.0, 2022-02-10 23:55:55.422
128.0, -10670.454582030128, -12453.9896790969, -7808.850146394986, -15380.99531900827, -941.8801596021843, -1735.8141226546911, -2581.715891565787, -4473.411080051789, -20286.555026358965, -17834.993342756432, -23247.468262609036, -13597.706091130507, -7907.1978219983375, -12464.763219924358, -6792.829250434548, -9220.519270958814, 0.008, -0.026000000000000002, 0.99, 192.0, 0.0, 0.0, 0.0, 0.0, 0.0, 0.0, 0.0, 0.0, 0.0, 1.6444977554220958E9, 0.0, 2022-02-10 23:55:55.422
130.0, -10680.177590868187, -12462.729211178925, -7817.053236610083, -15381.799981808661, -950.1726567951032, -1742.3184802911856, -2584.1298799669603, -4465.07387936996, -20291.092430483393, -17846.48213940646, -23262.443931394093, -13611.11713780369, -7911.265839489203, -12474.106249106677, -6803.289866839632, -9226.867166384121, 0.008, -0.026000000000000002, 0.99, 192.0, 0.0, 0.0, 0.0, 0.0, 0.0, 0.0, 0.0, 0.0, 0.0, 1.6444977554221036E9, 0.0, 2022-02-10 23:55:55.422
132.0, -10658.406991768717, -12451.262766273352, -7806.234992293716, -15385.935054532893, -934.5487874208436, -1731.3884772525403, -2572.104641450005, -4470.751222461608, -20284.29750016898, -17834.18867995604, -23250.418692877138, -13606.959713335003, -7908.717740621298, -12463.600929212682, -6802.44050055033, -9223.715570415923, 0.008, -0.026000000000000002, 0.99, 192.0, 0.0, 0.0, 0.0, 0.0, 0.0, 0.0, 0.0, 0.0, 0.0, 1.6444977554221134E9, 0.0, 2022-02-10 23:55:55.422
134.0, -10673.516771020506, -12464.56205422426, -7817.209698821271, -15395.412194181943, -954.5088952194328, -1747.72760244937, -2588.868449791485, -4476.69678648672, -20283.895168768784, -17844.090502749743, -23255.380780146217, -13604.903352845116, -7911.444653444845, -12451.0392488288, -6800.4958987827185, -9226.44248323947, 0.006, -0.022, 0.994, 192.0, 0.0, 24.0, 127.5, 40.0, 15.5, 8.0, 0.0, 0.0, 0.0, 1.64449775542212E9, 0.0, 2022-02-10 23:55:55.422
136.0, -10666.990061639555, -12457.9906413544, -7809.140719072905, -15388.170228978424, -946.66343291562, -1735.9929366103336, -2586.8344410460522, -4466.9961293931165, -20279.15659894426, -17846.258621961908, -23255.42548363513, -13609.641922669642, -7906.281400475669, -12475.17913284053, -6804.072177895568, -9228.297678029261, 0.006, -0.022, 0.994, 192.0, 0.0, 0.0, 0.0, 0.0, 0.0, 0.0, 0.0, 0.0, 0.0, 1.6444977554221268E9, 0.0, 2022-02-10 23:55:55.422
138.0, -10671.929797164179, -12463.08683909021, -7812.761701674664, -15393.735813347796, -945.9258253485949, -1739.882140145557, -2578.743109553231, -4464.336271802935, -20282.82228503493, -17847.979706284965, -23239.041654949386, -13605.55155343432, -7909.544755166145, -12472.385164783618, -6800.294733082621, -9226.218965794917, 0.006, -0.022, 0.994, 192.0, 0.0, 0.0, 0.0, 0.0, 0.0, 0.0, 0.0, 0.0, 0.0, 1.6444977554221337E9, 0.0, 2022-02-10 23:55:55.422
140.0, -10672.332128564374, -12460.829312900223, -7808.716035928254, -15394.13814474799, -947.244578271458, -1744.620709970082, -2580.1959729428263, -4473.701652729708, -20286.10799146986, -17848.58320338526, -23256.297201668884, -13615.252210527922, -7904.806185341619, -12477.257845074875, -6798.305427826099, -9223.670866927012, 0.006, -0.022, 0.994, 192.0, 0.0, 0.0, 0.0, 0.0, 0.0, 0.0, 0.0, 0.0, 0.0, 1.6444977554221404E9, 0.0, 2022-02-10 23:55:55.422
142.0, -10653.333145777362, -12452.603870940671, -7796.310817755559, -15393.199371480869, -938.0133078114162, -1724.8394161271353, -2568.550714081611, -4468.583103249443, -20283.15756120176, -17834.52395612287, -23246.618896319735, -13611.251248270422, -7903.867412074496, -12454.481417474917, -6793.969189401769, -9220.8768988701, 0.006, -0.022, 0.994, 192.0, 0.0, 0.0, 0.0, 0.0, 0.0, 0.0, 0.0, 0.0, 0.0, 1.6444977554221475E9, 0.0, 2022-02-10 23:55:55.422
144.0, -10667.839427928857, -12455.50959771986, -7806.682027182821, -15392.014729024737, -957.4816772319887, -1738.2504628003196, -2583.5710863555773, -4482.664702256287, -20280.676517567223, -17844.559889383305, -23249.45756786556, -13612.79351863784, -7898.9276765498735, -12468.764182181858, -6793.4550992792965, -9220.675733170001, 0.012, -0.024, 0.992, 192.0, 0.0, 48.0, 127.5, 32.0, 15.5, 0.0, 0.0, 0.0, 0.0, 1.6444977554221542E9, 0.0, 2022-02-10 23:55:55.422
146.0, -10665.82777092788, -12463.08683909021, -7804.022169592639, -15388.95254003436, -949.9044358616395, -1735.6800121879594, -2562.9627779677844, -4467.689033471231, -20280.989441989594, -17853.120607509685, -23254.620820834738, -13615.609838439208, -7894.546734636633, -12472.631033972626, -6799.043035393123, -9222.933259359987, 0.012, -0.024, 0.992, 192.0, 0.0, 0.0, 0.0, 0.0, 0.0, 0.0, 0.0, 0.0, 0.0, 1.6444977554221609E9, 0.0, 2022-02-10 23:55:55.422
148.0, -10664.240797071552, -12466.953690880979, -7801.11644281345, -15390.450106912866, -947.6692614161088, -1745.760648937303, -2563.812144257086, -4462.570483990966, -20281.503532112067, -17849.63373537466, -23236.962942715043, -13596.54380041883, -7895.820784070585, -12472.675737461537, -6787.934218398836, -9219.736959902879, 0.012, -0.024, 0.992, 192.0, 0.0, 0.0, 0.0, 0.0, 0.0, 0.0, 0.0, 0.0, 0.0, 1.6444977554221678E9, 0.0, 2022-02-10 23:55:55.422
150.0, -10669.53816050746, -12468.585368226215, -7802.770471903143, -15392.819391825127, -953.7042324190418, -1750.0298321282664, -2573.490449606234, -4475.936827175239, -20286.35386065887, -17857.412142445104, -23258.21945169204, -13614.335789005256, -7901.453423673323, -12471.714612449958, -6790.951703900302, -9223.78262564929, 0.012, -0.024, 0.992, 192.0, 0.0, 0.0, 0.0, 0.0, 0.0, 0.0, 0.0, 0.0, 0.0, 1.6444977554221756E9, 0.0, 2022-02-10 23:55:55.422
152.0, -10652.461427743607, -12451.978022095922, -7798.613047434455, -15392.104136002557, -943.5118369474218, -1729.2427097848308, -2561.0181762001725, -4467.197295093214, -20283.44813387968, -17842.972915526978, -23246.55184108637, -13615.74394890594, -7895.552563137122, -12457.498902976384, -6787.129555598445, -9220.698084914457, 0.012, -0.024, 0.992, 192.0, 0.0, 0.0, 0.0, 0.0, 0.0, 0.0, 0.0, 0.0, 0.0, 1.6444977554221828E9, 0.0, 2022-02-10 23:55:55.422
154.0, -10666.386564539262, -12462.617452456649, -7805.229163793227, -15391.187714479891, -949.7032701615418, -1739.0998290896214, -2569.1542111819044, -4463.688071213731, -20286.018584492038, -17834.054569489308, -23249.368160887738, -13617.465033228998, -7894.524382892178, -12477.66017647507, -6785.073195108556, -9219.468738969415, 0.01, -0.026000000000000002, 0.988, 192.0, 0.0, 40.0, 127.5, 24.0, 15.0, 112.0, 0.0, 0.0, 0.0, 1.6444977554221897E9, 0.0, 2022-02-10 23:55:55.422
156.0, -10658.608157468816, -12459.734077421914, -7803.6421899369, -15388.103173745058, -935.956947321528, -1729.2874132737415, -2565.265007646681, -4450.299376285002, -20284.141037957794, -17838.279049191362, -23262.108655227265, -13613.93345760506, -7888.981150267262, -12468.540664737304, -6788.090680610023, -9214.752520889346, 0.01, -0.026000000000000002, 0.988, 192.0, 0.0, 0.0, 0.0, 0.0, 0.0, 0.0, 0.0, 0.0, 0.0, 1.6444977554221964E9, 0.0, 2022-02-10 23:55:55.422
158.0, -10664.598424982838, -12467.423077514539, -7799.73063465722, -15389.578388879108, -935.3534502212347, -1731.947270863923, -2562.6051500564995, -4453.875655397851, -20287.046764736984, -17837.697903835524, -23245.12132944123, -13600.075376042769, -7888.198839211326, -12463.288004790307, -6780.736956684227, -9206.907058585532, 0.01, -0.026000000000000002, 0.988, 192.0, 0.0, 0.0, 0.0, 0.0, 0.0, 0.0, 0.0, 0.0, 0.0, 1.6444977554222033E9, 0.0, 2022-02-10 23:55:55.422
0.0, -5390.212582375119, -6280.996654152472, -3940.0984573481633, -7728.093293677962, -460.7141567127892, -886.1349089306485, -1475.3939480059087, -2270.4902017700915, -10142.215805317855, -8923.464587147784, -11628.986791251516, -6807.179070374856, -3943.004184127353, -6230.749932616942, -3394.9394100832237, -4605.95692467176, 0.016, -0.03, 0.988, 192.0, 0.0, 64.0, 127.5, 8.0, 15.0, 112.0, 0.0, 0.0, 0.0, 1.644497755998793E9, 0.0, 2022-02-10 23:55:55.998
2.0, -10796.294903313506, -12567.603596163226, -7891.663359601898, -15460.34401182461, -932.8277030977849, -1785.4126436010176, -2966.3223584082557, -4547.685926876775, -20460.362191243436, -18025.743129938022, -23282.94048105961, -13824.129262462768, -7782.139811770894, -12544.871872052177, -6864.868922814003, -9278.522047820336, 0.016, -0.03, 0.988, 192.0, 0.0, 0.0, 0.0, 0.0, 0.0, 0.0, 0.0, 0.0, 0.0, 1.6444977559989207E9, 0.0, 2022-02-10 23:55:55.998
4.0, -10797.904228914289, -12584.121535315697, -7881.247446685726, -15457.952375167892, -927.9326710620727, -1782.3504546106406, -2935.946337693493, -4542.6567843743305, -20459.781045887597, -18029.364112539784, -23280.83941708081, -13839.59666962584, -7786.252532750671, -12550.348049443728, -6871.105059517034, -9281.36071936616, 0.016, -0.03, 0.988, 192.0, 0.0, 0.0, 0.0, 0.0, 0.0, 0.0, 0.0, 0.0, 0.0, 1.6444977559989479E9, 0.0, 2022-02-10 23:55:55.998
6.0, -10795.289074813018, -12582.825134137289, -7882.27562693067, -15455.49368327781, -924.825778582785, -1781.0093499433221, -2936.4604278159654, -4545.562511153521, -20462.41855173332, -18049.74890348302, -23273.016306521455, -13813.936866991147, -7777.155372757361, -12547.10704649771, -6862.83491406857, -9277.382108853115, 0.014, -0.027, 0.987, 192.0, 0.0, 48.0, 127.5, 32.0, 15.0, 104.0, 0.0, 0.0, 0.0, 1.6444977559989545E9, 0.0, 2022-02-10 23:55:55.998
8.0, -10800.09469987091, -12581.908712614622, -7888.422356655879, -15459.561700768674, -937.1862932665698, -1783.4903935778611, -2952.307814634778, -4543.908482063828, -20464.51961571212, -18040.42822604516, -23291.18827476362, -13824.0622072294, -7788.577114174022, -12536.914651026089, -6868.624015882495, -9283.685300789512, 0.014, -0.027, 0.987, 192.0, 0.0, 0.0, 0.0, 0.0, 0.0, 0.0, 0.0, 0.0, 0.0, 1.6444977559989617E9, 0.0, 2022-02-10 23:55:55.998
10.0, -10779.933426372221, -12571.895131098645, -7881.582722852555, -15450.173968097446, -917.6508686126315, -1773.8120882287133, -2934.113494648158, -4539.751057595141, -20455.556566185543, -18036.404912043206, -23279.364201946762, -13820.888259516749, -7783.413861204846, -12540.513281883394, -6862.119658246, -9276.59979779718, 0.014, -0.027, 0.987, 192.0, 0.0, 0.0, 0.0, 0.0, 0.0, 0.0, 0.0, 0.0, 0.0, 1.644497755998969E9, 0.0, 2022-02-10 23:55:55.998
12.0, -10792.18218233373, -12586.44611673905, -7891.104565990516, -15457.684154234428, -940.4049444681341, -1787.6701697910037, -2953.6936227910073, -4551.038688545071, -20459.110493553937, -18039.71297022259, -23282.582853148324, -13813.020445468479, -7779.614064647444, -12548.224633720474, -6863.1925419798545, -9280.779574010323, 0.014, -0.027, 0.987, 192.0, 0.0, 0.0, 0.0, 0.0, 0.0, 0.0, 0.0, 0.0, 0.0, 1.6444977559989772E9, 0.0, 2022-02-10 23:55:55.998
14.0, -10782.749746173591, -12575.9184451006, -7887.930618277863, -15461.081619391636, -930.1901972520587, -1776.3825388410735, -2968.6469398316076, -4539.035801772571, -20455.511862696632, -18044.6080022583, -23297.33500448883, -13833.49464338954, -7787.168954273338, -12549.409276176606, -6874.9272078188915, -9289.183829925518, 0.014, -0.027, 0.987, 192.0, 0.0, 0.0, 0.0, 0.0, 0.0, 0.0, 0.0, 0.0, 0.0, 1.644497755998984E9, 0.0, 2022-02-10 23:55:55.998
16.0, -10803.112185372376, -12574.82320962229, -7879.973397251773, -15457.572395512152, -923.0376390263605, -1775.8460969741461, -2936.1251516491357, -4531.570319124498, -20455.131883040893, -18026.592496227324, -23273.105713499273, -13822.095253717334, -7774.808439589553, -12552.806741333812, -6861.1361814899665, -9278.343233864694, 0.011, -0.0275, 0.9884999999999999, 192.0, 0.0, 32.0, 127.5, 16.0, 15.0, 120.0, 0.0, 0.0, 0.0, 1.6444977559989908E9, 0.0, 2022-02-10 23:55:55.998
18.0, -10815.852679711901, -12591.072927841298, -7887.3047694331135, -15456.834787945127, -936.0910577882598, -1789.59241981416, -2941.6907360185073, -4544.467275675211, -20466.77714190211, -18036.360208554295, -23290.22714975204, -13830.83478579936, -7770.606311631956, -12558.394677447639, -6860.59973962304, -9284.177039167529, 0.011, -0.0275, 0.9884999999999999, 192.0, 0.0, 0.0, 0.0, 0.0, 0.0, 0.0, 0.0, 0.0, 0.0, 1.6444977559989977E9, 0.0, 2022-02-10 23:55:55.998
20.0, -10792.606865478381, -12579.785296891368, -7880.331025163058, -15459.628756002041, -927.6197466396984, -1771.2192858718975, -2933.5547010367754, -4518.382789895867, -20465.659554679343, -18049.32422033837, -23288.170789262153, -13825.895050274738, -7771.723898854721, -12533.494834124427, -6857.291681443654, -9282.098326933185, 0.011, -0.0275, 0.9884999999999999, 192.0, 0.0, 0.0, 0.0, 0.0, 0.0, 0.0, 0.0, 0.0, 0.0, 1.6444977559990044E9, 0.0, 2022-02-10 23:55:55.999
22.0, -10796.18314459123, -12582.8698376262, -7883.952007764818, -15468.189474128423, -942.729525891486, -1789.9053442365343, -2946.5187128208536, -4538.298194205546, -20464.005525589648, -18035.734359709546, -23284.482751427026, -13826.610306097307, -7780.418727447835, -12537.227575448464, -6856.822294810092, -9282.992396711397, 0.011, -0.0275, 0.9884999999999999, 192.0, 0.0, 0.0, 0.0, 0.0, 0.0, 0.0, 0.0, 0.0, 0.0, 1.6444977559990115E9, 0.0, 2022-02-10 23:55:55.999
24.0, -10802.173412105252, -12586.401413250138, -7890.5904758680435, -15462.601538014596, -938.437990956067, -1794.5992105721486, -2934.471122559443, -4530.475083646189, -20465.123112812416, -18036.159042854197, -23298.98903357852, -13833.807567811915, -7788.331244985015, -12567.737706629958, -6867.797001337648, -9293.274199160838, 0.011, -0.0275, 0.9884999999999999, 192.0, 0.0, 0.0, 0.0, 0.0, 0.0, 0.0, 0.0, 0.0, 0.0, 1.6444977559990304E9, 0.0, 2022-02-10 23:55:55.999
26.0, -10805.32500807345, -12593.755137175935, -7882.879124030963, -15467.496570050309, -937.0745345442933, -1786.172602912498, -2939.947299950993, -4539.99692678415, -20466.911252368838, -18052.833444217857, -23283.387515948718, -13830.901841032726, -7782.765660615642, -12556.785351846856, -6862.007899523724, -9294.592952083702, 0.0095, -0.026750000000000003, 0.99025, 192.0, 0.0, 32.0, 127.5, 24.0, 15.5, 0.0, 0.0, 0.0, 0.0, 1.6444977559990373E9, 0.0, 2022-02-10 23:55:55.999
28.0, -10811.851717454401, -12598.806631422834, -7896.200763726326, -15464.926119437949, -951.178485295592, -1796.364998384118, -2958.8792275046385, -4552.491551934666, -20473.795589661073, -18062.53410131146, -23305.56044644838, -13834.656934101216, -7787.392471717892, -12561.546273415837, -6871.4626874283185, -9300.382053897627, 0.0095, -0.026750000000000003, 0.99025, 192.0, 0.0, 0.0, 0.0, 0.0, 0.0, 0.0, 0.0, 0.0, 0.0, 1.6444977559990437E9, 0.0, 2022-02-10 23:55:55.999
30.0, -10793.61269397887, -12566.597767662737, -7887.08125198856, -15462.758000225784, -938.437990956067, -1789.3241988806963, -2954.1630094245684, -4541.85212157394, -20465.301926768057, -18042.439883046136, -23288.304899728882, -13825.962105508102, -7784.352634471969, -12560.24987223743, -6875.150725263444, -9297.051643973786, 0.0095, -0.026750000000000003, 0.99025, 192.0, 0.0, 0.0, 0.0, 0.0, 0.0, 0.0, 0.0, 0.0, 0.0, 1.6444977559990501E9, 0.0, 2022-02-10 23:55:55.999
32.0, -10804.408586550784, -12604.081643114287, -7896.647798615432, -15471.609291030085, -956.9452353650613, -1802.7128938094252, -2970.502134621398, -4556.291348492068, -20468.4311709918, -18065.19395890164, -23286.315594472362, -13829.940716021147, -7791.192268275294, -12560.138113515153, -6877.251789242243, -9298.54921085229, 0.0095, -0.026750000000000003, 0.99025, 192.0, 0.0, 0.0, 0.0, 0.0, 0.0, 0.0, 0.0, 0.0, 0.0, 1.6444977559990568E9, 0.0, 2022-02-10 23:55:55.999
34.0, -10802.151060360797, -12595.520924987904, -7896.17841198187, -15466.468389805364, -957.5710842098099, -1800.5224228528052, -2971.3515009106995, -4560.04644156056, -20469.213482047737, -18064.076371678875, -23310.99192035102, -13840.781312081972, -7794.455622965768, -12565.793104862345, -6888.271199258709, -9306.662894089568, 0.0095, -0.026750000000000003, 0.99025, 192.0, 0.0, 0.0, 0.0, 0.0, 0.0, 0.0, 0.0, 0.0, 0.0, 1.6444977559990633E9, 0.0, 2022-02-10 23:55:55.999
36.0, -10807.38136856334, -12595.811497665823, -7897.474813160278, -15468.703564250894, -949.6362149281758, -1792.811071015724, -2969.92098926556, -4556.917197336817, -20475.42726700631, -18060.343630354837, -23289.735411374022, -13831.55004162193, -7786.945436828785, -12560.495741426437, -6881.610379411028, -9304.159498710573, 0.00875, -0.022375000000000003, 0.9901249999999999, 192.0, 0.0, 32.0, 127.5, 56.0, 15.0, 120.0, 0.0, 0.0, 0.0, 1.644497755999072E9, 0.0, 2022-02-10 23:55:55.999
38.0, -10819.741883247123, -12603.053462869342, -7909.790624355152, -15468.502398550798, -968.6799012040975, -1798.6448763185592, -2990.7751668423616, -4565.768488141119, -20481.32812754251, -18059.29309836544, -23306.298054015406, -13839.775483581483, -7797.406053233869, -12553.521997156382, -6889.925228348402, -9307.735777823422, 0.00875, -0.022375000000000003, 0.9901249999999999, 192.0, 0.0, 0.0, 0.0, 0.0, 0.0, 0.0, 0.0, 0.0, 0.0, 1.6444977559990785E9, 0.0, 2022-02-10 23:55:55.999
40.0, -10800.497031271105, -12590.357672018728, -7892.89270554694, -15465.976651427347, -957.5263807208993, -1778.327140608685, -2968.6916433205183, -4554.637319402375, -20477.03659260709, -18050.933545939155, -23302.61001618028, -13837.920288791693, -7804.178631803827, -12543.351953429217, -6889.433489970385, -9304.494774877403, 0.00875, -0.022375000000000003, 0.9901249999999999, 192.0, 0.0, 0.0, 0.0, 0.0, 0.0, 0.0, 0.0, 0.0, 0.0, 1.6444977559990852E9, 0.0, 2022-02-10 23:55:55.999
42.0, -10809.817708708968, -12583.450982982038, -7901.811051584608, -15471.944567196915, -956.1852760535809, -1797.8402135181682, -2968.624588087152, -4562.99687182866, -20474.19792106127, -18046.887880192742, -23298.720812645057, -13830.275992187977, -7802.144623058394, -12550.81743607729, -6881.655082899939, -9305.388844655616, 0.00875, -0.022375000000000003, 0.9901249999999999, 192.0, 0.0, 0.0, 0.0, 0.0, 0.0, 0.0, 0.0, 0.0, 0.0, 1.6444977559990916E9, 0.0, 2022-02-10 23:55:55.999
44.0, -10815.18212737824, -12593.844544153757, -7907.264877231703, -15476.660785276985, -957.5040289764439, -1798.331951896185, -2963.9083700070823, -4555.2184647582135, -20476.18722631779, -18063.986964701053, -23312.824763396355, -13845.206957484123, -7800.065910824051, -12576.052555567332, -6896.384882495986, -9313.167251726061, 0.00875, -0.022375000000000003, 0.9901249999999999, 192.0, 0.0, 0.0, 0.0, 0.0, 0.0, 0.0, 0.0, 0.0, 0.0, 1.644497755999098E9, 0.0, 2022-02-10 23:55:55.999
46.0, -10820.680656514247, -12606.138003604176, -7905.834365586564, -15473.598596286607, -944.0482788143491, -1795.7391495393695, -2942.808323241273, -4553.117400779414, -20484.032688621606, -18051.939374439644, -23295.90449284369, -13838.926117292182, -7803.0163410921505, -12575.96314858951, -6888.293551003165, -9308.853365046187, 0.0073750000000000005, -0.020187500000000004, 0.9900625, 192.0, 0.0, 24.0, 127.5, 56.0, 15.0, 120.0, 0.0, 0.0, 0.0, 1.6444977559991045E9, 0.0, 2022-02-10 23:55:55.999
48.0, -10837.176243922264, -12615.928067675599, -7919.334819237569, -15471.162256140979, -961.5943982117651, -1802.779949042791, -2975.1289457236467, -4568.070717820015, -20490.492342769187, -18076.168665429195, -23313.785888407932, -13845.02814352848, -7801.764643402654, -12566.597767662737, -6895.513164462229, -9312.876679048142, 0.0073750000000000005, -0.020187500000000004, 0.9900625, 192.0, 0.0, 0.0, 0.0, 0.0, 0.0, 0.0, 0.0, 0.0, 0.0, 1.6444977559991117E9, 0.0, 2022-02-10 23:55:55.999
50.0, -10814.623333766858, -12598.739576189468, -7904.873240574985, -15469.06119216218, -941.0531450573379, -1795.2921146502633, -2979.5098876368866, -4562.818057873018, -20485.552607244565, -18074.67109855069, -23309.29318777242, -13843.329410949877, -7796.109652055461, -12559.422857692583, -6895.3567022510415, -9310.328580180238, 0.0073750000000000005, -0.020187500000000004, 0.9900625, 192.0, 0.0, 0.0, 0.0, 0.0, 0.0, 0.0, 0.0, 0.0, 0.0, 1.644497755999118E9, 0.0, 2022-02-10 23:55:55.999
52.0, -10820.077159413953, -12610.161317606131, -7911.422301700391, -15479.320642867166, -944.7858863813742, -1806.9373735114782, -2961.8073060282836, -4560.962863083228, -20479.584691475, -18065.685697279656, -23301.380670235238, -13835.930983535169, -7781.625721648422, -12553.76786634539, -6883.175001522899, -9310.529745880336, 0.0073750000000000005, -0.020187500000000004, 0.9900625, 192.0, 0.0, 0.0, 0.0, 0.0, 0.0, 0.0, 0.0, 0.0, 0.0, 1.6444977559991248E9, 0.0, 2022-02-10 23:55:55.999
54.0, -10821.775891992556, -12609.40135829465, -7908.337760965558, -15480.751154512305, -947.1775230380921, -1803.137576954076, -2968.5798845982417, -4570.752927154652, -20481.797514176073, -18073.8664357503, -23318.09977508781, -13857.098085534346, -7792.555724687068, -12572.498628198939, -6890.059338815134, -9314.709522093479, 0.0073750000000000005, -0.020187500000000004, 0.9900625, 192.0, 0.0, 0.0, 0.0, 0.0, 0.0, 0.0, 0.0, 0.0, 0.0, 1.6444977559992237E9, 0.0, 2022-02-10 23:55:55.999
56.0, -10823.228755382152, -12599.521887245404, -7900.916981806396, -15477.331337610643, -943.7130026475195, -1793.459271604928, -2960.153276938591, -4545.2942902200575, -20482.468066509733, -18075.34165088435, -23298.340832989317, -13847.486835418564, -7803.7763004036315, -12570.419915964594, -6890.9534085933465, -9311.51322263637, 0.006687500000000001, -0.019093750000000003, 0.98903125, 192.0, 0.0, 24.0, 127.5, 56.0, 15.0, 112.0, 0.0, 0.0, 0.0, 1.6444977559992304E9, 0.0, 2022-02-10 23:55:55.999
58.0, -10836.23747065514, -12602.449965769049, -7914.909173835418, -15475.431439331942, -952.0725550738043, -1791.9617047264226, -2967.4846491199314, -4554.547912424554, -20487.16193284535, -18077.95680498562, -23309.8519813838, -13849.83376858637, -7793.807422376564, -12555.645412879636, -6892.450975471852, -9310.976780769442, 0.006687500000000001, -0.019093750000000003, 0.98903125, 192.0, 0.0, 0.0, 0.0, 0.0, 0.0, 0.0, 0.0, 0.0, 0.0, 1.6444977559992373E9, 0.0, 2022-02-10 23:55:55.999
60.0, -10818.75840649109, -12603.992236136466, -7902.6827696183655, -15473.3527270976, -935.4652089435112, -1777.2989603637411, -2954.855913502683, -4542.455618674233, -20483.496246754676, -18079.454371864125, -23310.27666452845, -13848.000925541035, -7796.288466011103, -12563.513226927904, -6891.467498715819, -9301.41023414257, 0.006687500000000001, -0.019093750000000003, 0.98903125, 192.0, 0.0, 0.0, 0.0, 0.0, 0.0, 0.0, 0.0, 0.0, 0.0, 1.6444977559992435E9, 0.0, 2022-02-10 23:55:55.999
62.0, -10821.127691403353, -12597.845506411257, -7913.545717423644, -15475.811418987683, -946.886950360173, -1789.4583093474282, -2971.4856113774317, -4552.759772868129, -20481.551644987067, -18068.30085138093, -23306.119240059765, -13839.149634736734, -7794.254457265671, -12565.256662995418, -6889.344082992564, -9298.191582941006, 0.006687500000000001, -0.019093750000000003, 0.98903125, 192.0, 0.0, 0.0, 0.0, 0.0, 0.0, 0.0, 0.0, 0.0, 0.0, 1.64449775599925E9, 0.0, 2022-02-10 23:55:55.999
64.0, -10817.216136123674, -12606.629741982191, -7911.064673789106, -15471.072849163158, -945.0317555703826, -1791.0676349482103, -2963.72955605144, -4552.446848445756, -20479.875264152917, -18065.015144946, -23316.579856464847, -13849.945527308648, -7796.064948566551, -12573.996195077443, -6898.910629619436, -9300.985550997919, 0.006687500000000001, -0.019093750000000003, 0.98903125, 192.0, 0.0, 0.0, 0.0, 0.0, 0.0, 0.0, 0.0, 0.0, 0.0, 1.6444977559992568E9, 0.0, 2022-02-10 23:55:55.999
66.0, -10827.341476361928, -12604.931009403588, -7905.90142081993, -15477.331337610643, -937.9462525780502, -1781.0540534322326, -2952.084297190225, -4550.94928156725, -20479.651746708365, -18055.873281463777, -23301.26891151296, -13840.69190510415, -7795.103823554972, -12561.72508737148, -6886.818335869114, -9297.811603285267, 0.00534375, -0.020546875, 0.987515625, 192.0, 0.0, 16.0, 127.5, 40.0, 15.0, 104.0, 0.0, 0.0, 0.0, 1.6444977559992633E9, 0.0, 2022-02-10 23:55:55.999
68.0, -10841.892462002334, -12608.619047238713, -7911.511708678211, -15481.645224290518, -950.7314504064859, -1801.170623442009, -2975.4865736349316, -4565.589674185476, -20484.39031653289, -18079.20850267512, -23316.311635531383, -13852.717143621105, -7792.488669453701, -12567.424782207583, -6890.46167021533, -9305.634713844624, 0.00534375, -0.020546875, 0.987515625, 192.0, 0.0, 0.0, 0.0, 0.0, 0.0, 0.0, 0.0, 0.0, 0.0, 1.6444977559992723E9, 0.0, 2022-02-10 23:55:55.999
70.0, -10820.9041739588, -12605.422747781606, -7905.789662097653, -15473.755058497794, -941.9025113466396, -1787.111376179621, -2976.335939924233, -4549.474066433199, -20485.53025550011, -18080.504903853525, -23314.747013419514, -13849.990230797557, -7793.15922178736, -12573.862084610711, -6894.060301072634, -9301.633751587124, 0.00534375, -0.020546875, 0.987515625, 192.0, 0.0, 0.0, 0.0, 0.0, 0.0, 0.0, 0.0, 0.0, 0.0, 1.644497755999279E9, 0.0, 2022-02-10 23:55:55.999
72.0, -10838.494996845127, -12611.949457162555, -7913.255144745725, -15486.070869692669, -949.9938428394607, -1798.399007129551, -2967.0823177197362, -4559.979386327193, -20491.87815092542, -18080.8178282759, -23314.121164574764, -13842.390637682753, -7798.881268367919, -12571.090468298253, -6889.724062648304, -9301.03025448683, 0.00534375, -0.020546875, 0.987515625, 192.0, 0.0, 0.0, 0.0, 0.0, 0.0, 0.0, 0.0, 0.0, 0.0, 1.6444977559992857E9, 0.0, 2022-02-10 23:55:55.999
74.0, -10827.185014150742, -12609.669579228113, -7913.5680691681, -15488.037823204735, -943.5788921807876, -1791.7158355374143, -2976.693567835518, -4562.572188684009, -20493.73334571521, -18085.10936321132, -23331.309656060894, -13865.681155405184, -7797.093128811494, -12569.01175606391, -6896.004902840245, -9303.980684754932, 0.00534375, -0.020546875, 0.987515625, 192.0, 0.0, 0.0, 0.0, 0.0, 0.0, 0.0, 0.0, 0.0, 0.0, 1.644497755999292E9, 0.0, 2022-02-10 23:55:55.999
76.0, -10827.0062001951, -12608.283771071885, -7907.04135978715, -15482.449887090908, -941.0754968017933, -1794.5321553387828, -2966.3670618971664, -4563.466258462222, -20487.00547063416, -18076.928624740678, -23303.839362125324, -13843.843501072348, -7790.968750830741, -12583.58509344877, -6891.847478371558, -9300.94084750901, 0.006671875000000001, -0.0212734375, 0.9867578125, 192.0, 0.0, 32.0, 127.5, 40.0, 15.0, 104.0, 0.0, 0.0, 0.0, 1.6444977559992983E9, 0.0, 2022-02-10 23:55:55.999
78.0, -10850.073200472976, -12620.823099711311, -7925.369790240502, -15488.641320305029, -957.0793458317931, -1807.8761467786012, -2970.2562654323897, -4566.349633496957, -20498.337805073003, -18084.125886455284, -23319.172658821662, -13848.559719152418, -7800.177669546327, -12579.315910257807, -6896.004902840245, -9308.473385390447, 0.006671875000000001, -0.0212734375, 0.9867578125, 192.0, 0.0, 0.0, 0.0, 0.0, 0.0, 0.0, 0.0, 0.0, 0.0, 1.6444977559993052E9, 0.0, 2022-02-10 23:55:55.999
80.0, -10828.52611881806, -12598.471355256004, -7902.436900429357, -15486.339090626132, -945.2329212704803, -1791.3582076261293, -2967.1046694641914, -4552.022165301105, -20491.788743947596, -18073.91113923921, -23312.645949440714, -13847.531538907473, -7797.786032889609, -12569.190570019553, -6892.585085938584, -9305.299437677793, 0.006671875000000001, -0.0212734375, 0.9867578125, 192.0, 0.0, 0.0, 0.0, 0.0, 0.0, 0.0, 0.0, 0.0, 0.0, 1.6444977559993117E9, 0.0, 2022-02-10 23:55:55.999
82.0, -10831.387142108339, -12602.986407635977, -7908.114243521005, -15487.099049937613, -947.6692614161088, -1790.3523791256405, -2963.148410695602, -4558.727688637697, -20482.82569442102, -18071.34068862685, -23299.592530678812, -13836.378018424275, -7791.728710142221, -12556.539482657849, -6881.297454988654, -9297.342216651705, 0.006671875000000001, -0.0212734375, 0.9867578125, 192.0, 0.0, 0.0, 0.0, 0.0, 0.0, 0.0, 0.0, 0.0, 0.0, 1.644497755999318E9, 0.0, 2022-02-10 23:55:55.999
84.0, -10834.024647954066, -12597.621988966703, -7911.511708678211, -15488.216637160378, -944.7188311480083, -1801.59530658666, -2962.2319891729344, -4559.755868882641, -20487.407802034355, -18072.301813638427, -23321.676054200656, -13854.237062244067, -7793.0921665539945, -12585.239122538464, -6885.968969579812, -9304.561830110768, 0.006671875000000001, -0.0212734375, 0.9867578125, 192.0, 0.0, 0.0, 0.0, 0.0, 0.0, 0.0, 0.0, 0.0, 0.0, 1.6444977559993246E9, 0.0, 2022-02-10 23:55:55.999
86.0, -10828.883746729345, -12596.459698255027, -7899.307656205614, -15483.813343502683, -936.8510170997403, -1793.7945477717576, -2959.2592071603785, -4547.440057687767, -20490.782915447107, -18077.15214218523, -23299.838399867822, -13839.060227758913, -7785.716090883743, -12576.38783173416, -6879.710481132327, -9299.197411441495, 0.008, -0.02, 0.988, 192.0, 0.0, 32.0, 127.5, 48.0, 15.0, 112.0, 0.0, 0.0, 0.0, 1.6444977559993312E9, 0.0, 2022-02-10 23:55:55.999
88.0, -10842.875938758367, -12594.537448231871, -7909.1424237659485, -15488.238988904834, -955.9617586090278, -1801.461196119928, -2983.6673121055737, -4568.964787598227, -20491.29700556958, -18075.81103751791, -23311.215437795574, -13840.893070804248, -7777.870628579931, -12575.739631144957, -6880.895123588458, -9301.253771931384, 0.008, -0.02, 0.988, 192.0, 0.0, 0.0, 0.0, 0.0, 0.0, 0.0, 0.0, 0.0, 0.0, 1.6444977559993377E9, 0.0, 2022-02-10 23:55:55.999
90.0, -10822.021761181566, -12594.671558698603, -7897.117185248993, -15485.06504119218, -942.5283601913882, -1790.754710525836, -2977.4982306359093, -4565.097935807459, -20489.754735202165, -18073.06177294991, -23313.741184919025, -13843.999963283535, -7789.672349652333, -12569.838770608756, -6887.466536458318, -9303.466594632459, 0.008, -0.02, 0.988, 192.0, 0.0, 0.0, 0.0, 0.0, 0.0, 0.0, 0.0, 0.0, 0.0, 1.644497755999344E9, 0.0, 2022-02-10 23:55:55.999
92.0, -10841.311316646495, -12619.660808999635, -7914.462138946312, -15488.954244727403, -961.4155842561227, -1807.5855741006822, -2985.6789691065514, -4563.935645095783, -20490.268825324634, -18080.99664223154, -23303.45938246958, -13833.986381767558, -7792.9133525983525, -12583.048651581843, -6881.2080480108325, -9304.472423132947, 0.008, -0.02, 0.988, 192.0, 0.0, 0.0, 0.0, 0.0, 0.0, 0.0, 0.0, 0.0, 0.0, 1.6444977559993508E9, 0.0, 2022-02-10 23:55:55.999
94.0, -10833.488206087137, -12607.434404782583, -7909.857679588518, -15484.908578980992, -956.051165586849, -1796.946143739956, -2979.8675155481715, -4556.246645003158, -20496.326148072025, -18087.165723701208, -23328.940371148634, -13855.756980867027, -7801.317608513547, -12572.409221221116, -6890.260504515231, -9306.729949322933, 0.008, -0.02, 0.988, 192.0, 0.0, 0.0, 0.0, 0.0, 0.0, 0.0, 0.0, 0.0, 0.0, 1.6444977559993572E9, 0.0, 2022-02-10 23:55:55.999
96.0, -10826.112130416886, -12590.312968529817, -7899.553525394622, -15485.221503403367, -937.052182799838, -1789.9947512143556, -2969.898637521105, -4551.4633716897215, -20495.186209104802, -18058.153159398218, -23305.13576330373, -13838.54613763644, -7793.7403671431985, -12571.068116553799, -6879.0399287986675, -9298.616266085657, 0.004, -0.022, 0.99, 192.0, 0.0, 16.0, 127.5, 40.0, 15.0, 120.0, 0.0, 0.0, 0.0, 1.644497755999364E9, 0.0, 2022-02-10 23:55:55.999
98.0, -10835.410456110294, -12606.965018149021, -7902.369845195991, -15479.499456822808, -944.115334047715, -1799.851870519146, -2977.967617269471, -4557.475990948199, -20491.967557903237, -18081.287214909462, -23311.260141284485, -13844.446998172642, -7786.565457173045, -12567.87181709669, -6877.140030519967, -9297.789251540811, 0.004, -0.022, 0.99, 192.0, 0.0, 0.0, 0.0, 0.0, 0.0, 0.0, 0.0, 0.0, 0.0, 1.6444977559993703E9, 0.0, 2022-02-10 23:55:55.999
100.0, -10813.57280177746, -12606.20505883754, -7887.170658966382, -15476.236102132334, -930.503121674433, -1787.759576768825, -2967.4622973754763, -4543.32733670799, -20484.412668277346, -18071.854778749323, -23306.208647037583, -13837.808530069415, -7783.30210248257, -12565.323718228785, -6878.79405960966, -9294.011806727864, 0.004, -0.022, 0.99, 192.0, 0.0, 0.0, 0.0, 0.0, 0.0, 0.0, 0.0, 0.0, 0.0, 1.6444977559993784E9, 0.0, 2022-02-10 23:55:55.999
102.0, -10820.94887744771, -12597.510230244427, -7890.501068890223, -15481.533465568242, -933.8782350871844, -1789.0559779472326, -2972.6255503446523, -4551.820999601006, -20482.848046165473, -18061.10358966632, -23294.94336783211, -13829.940716021147, -7778.608236146955, -12560.026354792877, -6874.055489785134, -9294.682359061522, 0.004, -0.022, 0.99, 192.0, 0.0, 0.0, 0.0, 0.0, 0.0, 0.0, 0.0, 0.0, 0.0, 1.644497755999385E9, 0.0, 2022-02-10 23:55:55.999
104.0, -10827.676752528758, -12596.504401743938, -7891.685711346354, -15473.911520708982, -927.664450128609, -1784.2950563782522, -2971.239742188423, -4546.23306348718, -20485.2843863111, -18070.53602582646, -23314.81406865288, -13840.40133242623, -7762.5820353725, -12558.975822803477, -6877.117678775511, -9294.347082894694, 0.004, -0.022, 0.99, 192.0, 0.0, 0.0, 0.0, 0.0, 0.0, 0.0, 0.0, 0.0, 0.0, 1.6444977559993916E9, 0.0, 2022-02-10 23:55:55.999
106.0, -10811.292923843017, -12587.474296983994, -7885.449574643323, -15465.037878160225, -921.4506651700336, -1774.9296754514785, -2959.5944833272083, -4533.5596243810205, -20478.15417982986, -18060.589499543847, -23297.267949255463, -13821.581163594863, -7770.561608143045, -12536.735837070446, -6870.680376372383, -9287.999187469386, 0.006, -0.022, 0.992, 192.0, 0.0, 24.0, 127.5, 40.0, 15.5, 0.0, 0.0, 0.0, 0.0, 1.644497755999398E9, 0.0, 2022-02-10 23:55:55.999
108.0, -10821.23945012563, -12603.791070436368, -7889.316426434091, -15468.815322973172, -930.9278048190838, -1795.6944460504587, -2955.235893158423, -4558.258302004136, -20474.712011183743, -18059.04722917643, -23302.811181880377, -13826.520899119485, -7773.288520966593, -12564.742572872947, -6869.473382171796, -9293.296550905294, 0.006, -0.022, 0.992, 192.0, 0.0, 0.0, 0.0, 0.0, 0.0, 0.0, 0.0, 0.0, 0.0, 1.644497755999405E9, 0.0, 2022-02-10 23:55:55.999
110.0, -10810.063577897976, -12598.806631422834, -7882.543847864134, -15466.736610738828, -919.5731186357879, -1774.1920678844533, -2941.4225150850434, -4528.2175574562025, -20477.86360715194, -18055.09097040784, -23302.386498735726, -13822.586992095352, -7768.795820331075, -12556.919462313588, -6871.485039172774, -9298.057472474275, 0.006, -0.022, 0.992, 192.0, 0.0, 0.0, 0.0, 0.0, 0.0, 0.0, 0.0, 0.0, 0.0, 1.644497755999411E9, 0.0, 2022-02-10 23:55:55.999
112.0, -10805.839098195924, -12588.793049906857, -7891.104565990516, -15467.653032261496, -931.3077844748241, -1777.6342365305707, -2952.8442565017053, -4530.18451096827, -20476.76837167363, -18058.890766965244, -23297.46911495556, -13821.648218828228, -7771.500381410168, -12549.00694477641, -6862.901969301935, -9289.005015969875, 0.006, -0.022, 0.992, 192.0, 0.0, 0.0, 0.0, 0.0, 0.0, 0.0, 0.0, 0.0, 0.0, 1.6444977559994175E9, 0.0, 2022-02-10 23:55:55.999
114.0, -10822.155871648298, -12583.607445193225, -7890.99280726824, -15461.685116491928, -928.7373338624637, -1770.5710852826937, -2948.44096284401, -4525.423589399289, -20474.95788037275, -18059.337801854348, -23310.008443594987, -13829.694846832139, -7774.54021865609, -12548.15757848711, -6872.35675720653, -9291.441356115503, 0.006, -0.022, 0.992, 192.0, 0.0, 0.0, 0.0, 0.0, 0.0, 0.0, 0.0, 0.0, 0.0, 1.6444977559994245E9, 0.0, 2022-02-10 23:55:55.999
116.0, -10819.0042756801, -12590.737651674468, -7883.79554555363, -15467.720087494861, -928.5808716512767, -1773.141535895054, -2953.87243674665, -4533.537272636566, -20477.72949668521, -18038.595382999825, -23290.51772242996, -13821.759977550504, -7769.309910453548, -12549.476331409971, -6870.747431605749, -9290.949617737488, 0.008, -0.028, 0.996, 192.0, 0.0, 32.0, 127.5, 16.0, 15.5, 16.0, 0.0, 0.0, 0.0, 1.644497755999431E9, 0.0, 2022-02-10 23:55:55.999
118.0, -10828.19084265123, -12596.169125577107, -7895.485507903756, -15473.755058497794, -943.4000782251452, -1782.7304342663806, -2967.663463075574, -4546.993022798661, -20476.500150740165, -18055.828577974866, -23306.208647037583, -13825.515070618996, -7773.713204111244, -12535.864119036689, -6876.2236089972985, -9299.97972249743, 0.008, -0.028, 0.996, 192.0, 0.0, 0.0, 0.0, 0.0, 0.0, 0.0, 0.0, 0.0, 0.0, 1.644497755999437E9, 0.0, 2022-02-10 23:55:55.999
120.0, -10808.454252297193, -12590.961169119022, -7888.757632822709, -15464.836712460126, -922.0318105258716, -1768.0900416481545, -2947.01045119887, -4528.664592345309, -20468.4311709918, -18056.119150652787, -23304.487562714527, -13820.150651949723, -7767.991157530685, -12550.236290721452, -6871.395632194953, -9296.179925940029, 0.008, -0.028, 0.996, 192.0, 0.0, 0.0, 0.0, 0.0, 0.0, 0.0, 0.0, 0.0, 0.0, 1.6444977564781988E9, 0.0, 2022-02-10 23:55:56.478
122.0, -10816.567935534471, -12593.173991820096, -7887.79650781113, -15468.144770639512, -931.0619152858156, -1780.137631909565, -2967.0599659752806, -4540.242795973158, -20478.757676930152, -18058.600194287326, -23294.786905620924, -13812.01461696799, -7777.200076246271, -12544.62600286317, -6867.1264490039885, -9295.308207906271, 0.008, -0.028, 0.996, 192.0, 0.0, 0.0, 0.0, 0.0, 0.0, 0.0, 0.0, 0.0, 0.0, 1.6444977564783716E9, 0.0, 2022-02-10 23:55:56.478
124.0, -10821.261801870085, -12597.085547099776, -7891.484545646256, -15470.06702066267, -927.2397669839581, -1783.6692075335036, -2957.6051780706857, -4537.6052901274315, -20482.110438598447, -18064.99279320154, -23315.752841920003, -13834.299306189932, -7776.417765190336, -12554.259604723407, -6874.480172929785, -9302.416062643058, 0.008, -0.028, 0.996, 192.0, 0.0, 0.0, 0.0, 0.0, 0.0, 0.0, 0.0, 0.0, 0.0, 1.6444977564783804E9, 0.0, 2022-02-10 23:55:56.478
126.0, -10819.674828013758, -12603.58990473627, -7885.270760687681, -15473.889168964526, -926.5468629058437, -1781.3893295990622, -2962.9695967399593, -4542.3662116964115, -20485.373793288923, -18060.745961755034, -23305.783963892933, -13822.788157795449, -7779.167029758339, -12544.67070635208, -6870.88154207248, -9299.309170163771, 0.008, -0.024, 0.992, 192.0, 0.0, 32.0, 127.5, 32.0, 15.5, 0.0, 0.0, 0.0, 0.0, 1.644497756478387E9, 0.0, 2022-02-10 23:55:56.478
128.0, -10832.795302009023, -12606.406224537639, -7897.5642201381, -15475.900825965504, -946.5740259377988, -1791.8946494930567, -2974.368986412166, -4548.4682379327105, -20487.944243901282, -18063.495226323037, -23316.266932042472, -13836.73564633556, -7782.564494915545, -12566.10602928472, -6878.972873565302, -9302.907801021076, 0.008, -0.024, 0.992, 192.0, 0.0, 0.0, 0.0, 0.0, 0.0, 0.0, 0.0, 0.0, 0.0, 1.6444977564783945E9, 0.0, 2022-02-10 23:55:56.478
130.0, -10811.605848265392, -12599.276018056396, -7886.500106632723, -15467.20599737239, -930.8160460968073, -1777.9695126974002, -2974.6819108345403, -4543.819075086007, -20481.931624642806, -18060.567147799393, -23311.483658729037, -13830.141881721245, -7782.92212282683, -12553.119665756187, -6878.257617742732, -9298.616266085657, 0.008, -0.024, 0.992, 192.0, 0.0, 0.0, 0.0, 0.0, 0.0, 0.0, 0.0, 0.0, 0.0, 1.6444977564784012E9, 0.0, 2022-02-10 23:55:56.478
132.0, -10820.121862902864, -12609.356654805739, -7889.9422752788405, -15475.878474221048, -933.8335315982738, -1789.4583093474282, -2958.499247848898, -4550.412839700322, -20479.070601352527, -18062.891729222745, -23297.13383878873, -13820.932963005658, -7780.038747792095, -12552.873796567179, -6866.858228070525, -9301.03025448683, 0.008, -0.024, 0.992, 192.0, 0.0, 0.0, 0.0, 0.0, 0.0, 0.0, 0.0, 0.0, 0.0, 1.644497756478417E9, 0.0, 2022-02-10 23:55:56.478
134.0, -10822.245278626118, -12599.343073289761, -7894.434975914357, -15475.20792188739, -940.7849241238742, -1788.944219224956, -2959.952111238493, -4543.573205896999, -20484.770296188628, -18056.208557630605, -23319.7538041775, -13841.78714058246, -7777.378890201913, -12559.892244326145, -6872.1108880175225, -9307.713426078966, 0.008, -0.024, 0.992, 192.0, 0.0, 0.0, 0.0, 0.0, 0.0, 0.0, 0.0, 0.0, 0.0, 1.6444977564784243E9, 0.0, 2022-02-10 23:55:56.478
136.0, -10819.943048947222, -12598.91839014511, -7880.532190863156, -15472.749229997306, -932.8277030977849, -1786.977265712889, -2970.278617176845, -4553.676194390797, -20479.696450197276, -18052.25229886202, -23302.61001618028, -13825.716236319095, -7773.82496283352, -12555.354840201717, -6872.937902562368, -9303.310132421271, 0.006, -0.022, 0.992, 192.0, 0.0, 24.0, 127.5, 40.0, 15.5, 0.0, 0.0, 0.0, 0.0, 1.6444977564784312E9, 0.0, 2022-02-10 23:55:56.478
138.0, -10828.414360095783, -12611.524774017904, -7890.970455523784, -15473.218616630867, -946.886950360173, -1795.5156320948163, -2979.1075562366914, -4554.3914502133675, -20485.038517122095, -18067.04915369143, -23307.03566158243, -13831.88531778876, -7774.383756444902, -12558.595843147737, -6876.380071208486, -9308.607495857179, 0.006, -0.022, 0.992, 192.0, 0.0, 0.0, 0.0, 0.0, 0.0, 0.0, 0.0, 0.0, 0.0, 1.6444977564784384E9, 0.0, 2022-02-10 23:55:56.478
140.0, -10810.108281386887, -12595.431518010082, -7882.4320891418565, -15472.168084641467, -922.8811768151733, -1781.366977854607, -2958.432192615532, -4546.903615820839, -20482.468066509733, -18068.27849963647, -23305.918074359666, -13826.87852703077, -7778.541180913589, -12557.210034991507, -6878.3917282094635, -9306.774652811844, 0.006, -0.022, 0.992, 192.0, 0.0, 0.0, 0.0, 0.0, 0.0, 0.0, 0.0, 0.0, 0.0, 1.6444977564784453E9, 0.0, 2022-02-10 23:55:56.478
142.0, -10824.23458388264, -12603.947532647555, -7890.054034001117, -15477.06311667718, -937.4321624555782, -1789.078329691688, -2970.1668584545682, -4545.808380342529, -20481.305775798057, -18063.29406062294, -23293.89283584271, -13825.582125852363, -7777.669462879832, -12548.492854653938, -6870.747431605749, -9302.818394043255, 0.006, -0.022, 0.992, 192.0, 0.0, 0.0, 0.0, 0.0, 0.0, 0.0, 0.0, 0.0, 0.0, 1.6444977564784522E9, 0.0, 2022-02-10 23:55:56.478
144.0, -10833.890537487334, -12617.693855487569, -7898.793566083142, -15470.223482873856, -940.3825927236787, -1791.693483792959, -2968.624588087152, -4540.4216099288005, -20490.090011368993, -18069.53019732597, -23326.079347858355, -13844.983440039568, -7788.197134518282, -12584.926198116089, -6883.398518967452, -9309.233344701928, 0.006, -0.022, 0.992, 192.0, 0.0, 0.0, 0.0, 0.0, 0.0, 0.0, 0.0, 0.0, 0.0, 1.6444977564784591E9, 0.0, 2022-02-10 23:55:56.478
146.0, -10817.909040201788, -12606.138003604176, -7887.170658966382, -15473.106857908591, -935.2640432434134, -1783.4233383444953, -2969.54100960982, -4542.902653563339, -20488.279520068114, -18075.520464839992, -23306.275702270952, -13829.40427415422, -7778.071794280028, -12548.403447676117, -6878.525838676195, -9300.359702153171, 0.008, -0.016, 0.988, 192.0, 0.0, 32.0, 127.5, 64.0, 15.0, 112.0, 0.0, 0.0, 0.0, 1.644497756478466E9, 0.0, 2022-02-10 23:55:56.478
148.0, -10830.627182796858, -12606.562686748826, -7903.174507996382, -15472.3021951082, -953.4807149744887, -1794.8003762722465, -2983.2873324498337, -4550.61400540042, -20488.972424146228, -18068.47966533657, -23308.868504627768, -13832.332352677866, -7783.480916438212, -12555.332488457261, -6886.058376557634, -9309.479213890936, 0.008, -0.016, 0.988, 192.0, 0.0, 0.0, 0.0, 0.0, 0.0, 0.0, 0.0, 0.0, 0.0, 1.6444977564784727E9, 0.0, 2022-02-10 23:55:56.478
150.0, -10821.440615825728, -12602.472317513504, -7890.523420634678, -15472.771581741761, -939.1532467786368, -1790.8664692481125, -2969.8762857766496, -4543.729668108185, -20489.19594159078, -18061.6623832777, -23310.99192035102, -13831.706503833117, -7789.44883220778, -12555.9136338131, -6882.303283489142, -9309.859193546676, 0.008, -0.016, 0.988, 192.0, 0.0, 0.0, 0.0, 0.0, 0.0, 0.0, 0.0, 0.0, 0.0, 1.6444977564784791E9, 0.0, 2022-02-10 23:55:56.478
152.0, -10827.028551939555, -12615.011646152932, -7895.2843422036585, -15480.43823008993, -944.5847206812765, -1797.0579024622325, -2974.436041645532, -4553.005642057138, -20495.074450382526, -18073.44175260565, -23302.587664435825, -13833.941678278647, -7788.577114174022, -12551.689154111047, -6872.4014606954415, -9310.239173202417, 0.008, -0.016, 0.988, 192.0, 0.0, 0.0, 0.0, 0.0, 0.0, 0.0, 0.0, 0.0, 0.0, 1.644497756478486E9, 0.0, 2022-02-10 23:55:56.478
154.0, -10824.435749582739, -12611.413015295628, -7902.280438218169, -15484.416840602977, -947.8704271162067, -1804.1210537101097, -2976.5147538798756, -4549.027031544093, -20493.174552103825, -18072.033592704964, -23325.386443780237, -13856.31577447841, -7781.558666415056, -12559.57931990377, -6877.385899708975, -9317.525841894847, 0.008, -0.014, 0.988, 192.0, 0.0, 32.0, 127.5, 80.0, 15.0, 112.0, 0.0, 0.0, 0.0, 1.6444977564784932E9, 0.0, 2022-02-10 23:55:56.478
156.0, -10812.835194210435, -12614.564611263826, -7894.0549962586165, -15475.096163165113, -933.8782350871844, -1799.851870519146, -2971.1950386995127, -4542.455618674233, -20488.95007240177, -18075.274595650983, -23311.57306570686, -13840.960126037613, -7799.261248023659, -12569.63760490866, -6874.256655485232, -9312.65316160359, 0.008, -0.014, 0.988, 192.0, 0.0, 0.0, 0.0, 0.0, 0.0, 0.0, 0.0, 0.0, 0.0, 1.6444977564785004E9, 0.0, 2022-02-10 23:55:56.478
158.0, -10843.211214925197, -12625.651076513657, -7902.906287062918, -15472.950395697404, -947.4680957160111, -1809.8878037795787, -2983.7790708278503, -4549.764639111118, -20489.508866013155, -18082.00247073203, -23311.394251751215, -13837.003867269024, -7785.49257343919, -12570.576378175781, -6876.782402608682, -9311.915554036565, 0.008, -0.014, 0.988, 192.0, 0.0, 0.0, 0.0, 0.0, 0.0, 0.0, 0.0, 0.0, 0.0, 1.6444977564785073E9, 0.0, 2022-02-10 23:55:56.478
160.0, -10825.28511587204, -12608.68610247208, -7892.065691002094, -15468.033011917236, -941.5895869242653, -1788.3854256135735, -2982.862649305183, -4547.104781520937, -20491.81109569205, -18073.44175260565, -23308.265007527472, -13834.969858523591, -7782.631550148911, -12566.173084518086, -6879.777536365693, -9310.41798715806, 0.008, -0.014, 0.988, 192.0, 0.0, 0.0, 0.0, 0.0, 0.0, 0.0, 0.0, 0.0, 0.0, 1.644497756478514E9, 0.0, 2022-02-10 23:55:56.478
162.0, -10831.565956063982, -12609.535468761382, -7900.179374239371, -15476.459619576886, -948.0268893273937, -1789.59241981416, -2976.045367246314, -4537.51588314961, -20492.503999770164, -18063.070543178386, -23300.7995248794, -13825.135090963257, -7779.077622780517, -12562.0156600494, -6875.865981086014, -9307.311094678771, 0.008, -0.014, 0.988, 192.0, 0.0, 0.0, 0.0, 0.0, 0.0, 0.0, 0.0, 0.0, 0.0, 1.644497756478521E9, 0.0, 2022-02-10 23:55:56.478
164.0, -10828.615525795882, -12600.505364001438, -7900.8052230841195, -15475.386735843033, -952.5419417073658, -1785.0773674341879, -2972.2902741778225, -4539.415781428312, -20495.029746893615, -18071.921833982688, -23320.022025110964, -13845.36341969531, -7783.011529804651, -12538.747494071424, -6880.761013121726, -9307.400501656593, 0.007, -0.014, 0.988, 192.0, 0.0, 24.0, 127.5, 72.0, 15.0, 112.0, 0.0, 0.0, 0.0, 1.64449775647853E9, 0.0, 2022-02-10 23:55:56.478
166.0, -10815.204479122696, -12590.82705865229, -7891.171621223882, -15474.403259087, -943.8694648587067, -1782.6633790330147, -2973.1619922115797, -4539.259319217124, -20492.77222070363, -18053.23577561805, -23310.47783022855, -13841.228346971076, -7794.947361343785, -12540.692095839036, -6879.241094498765, -9303.444242888003, 0.007, -0.014, 0.988, 192.0, 0.0, 0.0, 0.0, 0.0, 0.0, 0.0, 0.0, 0.0, 0.0, 1.6444977564785368E9, 0.0, 2022-02-10 23:55:56.478
168.0, -10837.511520089092, -12627.103939903252, -7898.838269572052, -15470.447000318409, -957.2358080429802, -1797.3261233956962, -2982.527373138353, -4552.782124612585, -20495.253264338167, -18070.96070897111, -23313.316501774374, -13831.192413710645, -7789.895867096886, -12565.055497295321, -6881.096289288555, -9309.188641213017, 0.007, -0.014, 0.988, 192.0, 0.0, 0.0, 0.0, 0.0, 0.0, 0.0, 0.0, 0.0, 0.0, 1.6444977564785435E9, 0.0, 2022-02-10 23:55:56.478
170.0, -10824.391046093828, -12609.02137863891, -7884.801374054119, -15467.474218305853, -936.7169066330084, -1785.3455883676515, -2965.8082682857835, -4544.04259253056, -20494.24743583768, -18076.68275555167, -23312.37772850725, -13832.824091055882, -7779.792878603087, -12565.703697884524, -6883.510277689729, -9308.763958068366, 0.007, -0.014, 0.988, 192.0, 0.0, 0.0, 0.0, 0.0, 0.0, 0.0, 0.0, 0.0, 0.0, 1.6444977564785507E9, 0.0, 2022-02-10 23:55:56.478
172.0, -10822.558203048493, -12613.514079274426, -7884.3096356761025, -15468.63650901753, -939.3320607342793, -1785.3902918565623, -2960.399146127599, -4543.3049849635345, -20487.921892156828, -18071.877130493776, -23295.122181787752, -13822.363474650798, -7780.150506514372, -12552.203244233518, -6873.9884345517685, -9303.578353354735, 0.007, -0.014, 0.988, 192.0, 0.0, 0.0, 0.0, 0.0, 0.0, 0.0, 0.0, 0.0, 0.0, 1.6444977564785573E9, 0.0, 2022-02-10 23:55:56.478
174.0, -10820.211269880685, -12596.30323604384, -7884.063766487095, -15464.859064204582, -938.9520810785391, -1775.913152207512, -2947.569244810253, -4535.683040104275, -20485.30673805556, -18073.262938650005, -23310.23196103954, -13833.1146637338, -7778.272959980126, -12546.704715097514, -6879.017577054212, -9300.918495764554, 0.006500000000000001, -0.017, 0.988, 192.0, 0.0, 24.0, 127.5, 48.0, 15.0, 112.0, 0.0, 0.0, 0.0, 1.6444977564785645E9, 0.0, 2022-02-10 23:55:56.478
176.0, -10803.425109794749, -12589.73182317398, -7877.112373961494, -15462.847407203604, -914.8792523001733, -1765.8325154581685, -2936.7510004938845, -4535.995964526649, -20477.19305481828, -18049.592441271834, -23291.054164296886, -13818.518974604485, -7770.718070354233, -12530.47734862296, -6873.966082807313, -9292.60364682718, 0.006500000000000001, -0.017, 0.988, 192.0, 0.0, 0.0, 0.0, 0.0, 0.0, 0.0, 0.0, 0.0, 0.0, 1.6444977564785714E9, 0.0, 2022-02-10 23:55:56.478
178.0, -10821.775891992556, -12592.279922041884, -7879.928693762862, -15468.256529361788, -927.6420983841538, -1776.4048905855288, -2956.3311286367334, -4530.519787135099, -20477.81890366303, -18043.512766779993, -23300.37484173475, -13828.286686931455, -7762.492628394679, -12542.569642373282, -6876.424774697397, -9294.36943463915, 0.006500000000000001, -0.017, 0.988, 192.0, 0.0, 0.0, 0.0, 0.0, 0.0, 0.0, 0.0, 0.0, 0.0, 1.644497756478578E9, 0.0, 2022-02-10 23:55:56.478
180.0, -10810.868240698366, -12593.77748892039, -7871.837362270041, -15466.110761894079, -922.4788454149777, -1761.6303875005708, -2947.2339686434234, -4519.343914907446, -20478.265938552137, -18055.113322152298, -23302.61001618028, -13832.0641317444, -7765.1524859848605, -12542.882566795655, -6878.16821076491, -9296.537553851313, 0.006500000000000001, -0.017, 0.988, 192.0, 0.0, 0.0, 0.0, 0.0, 0.0, 0.0, 0.0, 0.0, 0.0, 1.644497756478585E9, 0.0, 2022-02-10 23:55:56.478
182.0, -10815.71856924517, -12596.079718599287, -7872.46321111479, -15464.903767693493, -926.3009937168353, -1761.3845183115625, -2946.1610849095687, -4523.791912054052, -20477.2824617961, -18048.47485404907, -23291.769420119457, -13820.798852538926, -7765.778334829609, -12542.927270284566, -6865.695937358849, -9290.88256250412, 0.006500000000000001, -0.017, 0.988, 192.0, 0.0, 0.0, 0.0, 0.0, 0.0, 0.0, 0.0, 0.0, 0.0, 1.6444977564785917E9, 0.0, 2022-02-10 23:55:56.478
184.0, -10817.28319135704, -12583.629796937681, -7882.32033041958, -15461.551006025196, -937.3651072222123, -1766.6818817474702, -2958.409840871077, -4527.077618488982, -20477.6847931963, -18052.274650606472, -23301.358318490784, -13837.048570757936, -7767.722936597221, -12542.05555225081, -6872.043832784157, -9295.576428839735, 0.00825, -0.0205, 0.987, 192.0, 0.0, 40.0, 127.5, 32.0, 15.0, 104.0, 0.0, 0.0, 0.0, 1.6444977564785984E9, 0.0, 2022-02-10 23:55:56.478
186.0, -10798.306560314484, -12590.961169119022, -7878.006443739706, -15464.322622337655, -925.0716477717934, -1757.5176665207944, -2941.3331081072224, -4523.724856820686, -20473.929700127806, -18053.593403529336, -23291.99293756401, -13832.511166633507, -7759.676308593311, -12544.648354607625, -6872.066184528611, -9294.905876506076, 0.00825, -0.0205, 0.987, 192.0, 0.0, 0.0, 0.0, 0.0, 0.0, 0.0, 0.0, 0.0, 0.0, 1.644497756478608E9, 0.0, 2022-02-10 23:55:56.478
188.0, -10833.845833998423, -12606.629741982191, -7886.902438032918, -15469.731744495839, -942.2601392579245, -1775.4214138294954, -2950.899654734094, -4535.236005215169, -20475.986060617695, -18067.920871725186, -23301.961815591076, -13833.06996024489, -7770.047518020573, -12554.505473912415, -6870.032175783179, -9298.102175963186, 0.00825, -0.0205, 0.987, 192.0, 0.0, 0.0, 0.0, 0.0, 0.0, 0.0, 0.0, 0.0, 0.0, 1.6444977564786148E9, 0.0, 2022-02-10 23:55:56.478
190.0, -10820.501842558604, -12607.613218738225, -7877.2688361726805, -15466.267224105266, -933.4535519425335, -1766.592474769649, -2956.755811781384, -4536.1971302267475, -20484.278557810612, -18067.22796764707, -23302.677071413647, -13832.377056166775, -7769.913407553841, -12552.24794772243, -6878.548190420651, -9297.632789329624, 0.00825, -0.0205, 0.987, 192.0, 0.0, 0.0, 0.0, 0.0, 0.0, 0.0, 0.0, 0.0, 0.0, 1.6444977564786215E9, 0.0, 2022-02-10 23:55:56.478
192.0, -10827.587345550937, -12612.59765775176, -7885.673092087876, -15472.391602086022, -941.7907526243631, -1779.5788382981825, -2958.1639716820687, -4537.3147174495125, -20486.424325278324, -18071.899482238234, -23293.579911420336, -13828.957239265113, -7766.471238907724, -12553.946680301033, -6877.542361920162, -9297.342216651705, 0.00825, -0.0205, 0.987, 192.0, 0.0, 0.0, 0.0, 0.0, 0.0, 0.0, 0.0, 0.0, 0.0, 1.6444977564786286E9, 0.0, 2022-02-10 23:55:56.478
194.0, -10823.51932806007, -12595.364462776717, -7890.031682256661, -15468.569453784163, -938.9297293340837, -1768.1794486259757, -2958.8121722712726, -4532.576147624987, -20483.585653732498, -18074.022897961488, -23304.979301092542, -13843.418817927697, -7759.363384170936, -12553.544348900838, -6883.420870711908, -9297.543382351801, 0.006125, -0.019250000000000003, 0.9864999999999999, 192.0, 0.0, 16.0, 127.5, 56.0, 15.0, 104.0, 0.0, 0.0, 0.0, 1.6444977564786355E9, 0.0, 2022-02-10 23:55:56.478
196.0, -10806.33083657394, -12590.11180282972, -7871.502086103212, -15464.210863615379, -924.3340402047683, -1754.880160675068, -2947.01045119887, -4518.0028102401275, -20478.020069363127, -18049.458330805104, -23290.294204985406, -13823.704579318117, -7758.8716457929195, -12547.86700580919, -6873.720213618304, -9288.088594447207, 0.006125, -0.019250000000000003, 0.9864999999999999, 192.0, 0.0, 0.0, 0.0, 0.0, 0.0, 0.0, 0.0, 0.0, 0.0, 1.6444977564786444E9, 0.0, 2022-02-10 23:55:56.478
198.0, -10822.37938909285, -12584.479163226983, -7886.030719999161, -15467.876549706049, -947.1998747825473, -1770.9734166828891, -2958.700413548996, -4533.358458680923, -20476.366040273435, -18043.870394691276, -23295.300995743393, -13835.372189923786, -7753.9989655016625, -12546.168273230585, -6870.479210672285, -9289.40734737007, 0.006125, -0.019250000000000003, 0.9864999999999999, 192.0, 0.0, 0.0, 0.0, 0.0, 0.0, 0.0, 0.0, 0.0, 0.0, 1.6444977564786513E9, 0.0, 2022-02-10 23:55:56.478
200.0, -10805.772042962557, -12587.720166173001, -7873.670205315377, -15455.761904211273, -931.7771711083856, -1763.1056026346212, -2944.7082215199734, -4534.610156370421, -20473.169740816324, -18054.28630760745, -23301.26891151296, -13834.768692823494, -7751.495570122668, -12553.901976812122, -6871.797963595148, -9290.279065403827, 0.006125, -0.019250000000000003, 0.9864999999999999, 192.0, 0.0, 0.0, 0.0, 0.0, 0.0, 0.0, 0.0, 0.0, 0.0, 1.644497756478658E9, 0.0, 2022-02-10 23:55:56.478
202.0, -10805.168545862263, -12590.49178248546, -7873.9831297377505, -15452.990287898814, -932.4924269309554, -1768.5147247928055, -2946.2951953763004, -4523.0543044870265, -20469.258185536648, -18044.965630169587, -23279.47596066904, -13812.64046581274, -7751.964956756229, -12539.641563849636, -6865.137143747466, -9285.652254301578, 0.006125, -0.019250000000000003, 0.9864999999999999, 192.0, 0.0, 0.0, 0.0, 0.0, 0.0, 0.0, 0.0, 0.0, 0.0, 1.6444977564786644E9, 0.0, 2022-02-10 23:55:56.478
204.0, -10810.935295931733, -12585.417936494105, -7879.615769340488, -15450.397485541998, -938.6391566561648, -1767.0171579142998, -2957.0240327148476, -4517.4663683732, -20472.52154022712, -18053.414589573695, -23298.676109156146, -13826.722064819583, -7750.735610811188, -12547.934061042555, -6877.251789242243, -9288.155649680573, 0.0050625, -0.020625, 0.98725, 192.0, 0.0, 16.0, 127.5, 40.0, 15.0, 112.0, 0.0, 0.0, 0.0, 1.6444977564786713E9, 0.0, 2022-02-10 23:55:56.478
206.0, -10795.624350979848, -12569.414087464105, -7873.826667526564, -15452.431494287432, -926.2562902279246, -1760.0657653886994, -2950.0949919337027, -4517.555775351021, -20466.888900624384, -18046.7090662371, -23278.738353102013, -13815.613247825295, -7744.320660152514, -12533.226613190964, -6872.513219417718, -9286.188696168507, 0.0050625, -0.020625, 0.98725, 192.0, 0.0, 0.0, 0.0, 0.0, 0.0, 0.0, 0.0, 0.0, 0.0, 1.644497756478678E9, 0.0, 2022-02-10 23:55:56.478
208.0, -10816.880859956844, -12589.195381307052, -7883.437917642345, -15450.844520431105, -947.825723627296, -1778.327140608685, -2957.5828263262306, -4533.984307525672, -20462.06092382204, -18047.267859848485, -23282.672260126146, -13820.731797305561, -7744.611232830433, -12536.199395203519, -6876.648292141949, -9290.36847238165, 0.0050625, -0.020625, 0.98725, 192.0, 0.0, 0.0, 0.0, 0.0, 0.0, 0.0, 0.0, 0.0, 0.0, 1.644497756478685E9, 0.0, 2022-02-10 23:55:56.478
210.0, -10804.587400506425, -12579.315910257807, -7875.36893789398, -15451.58212799813, -926.9938977949498, -1765.4525358024284, -2950.1620471670685, -4515.1864904387585, -20465.614851190432, -18050.464159305593, -23296.999728322, -13824.866870029793, -7751.808494545043, -12543.687229596047, -6878.324672976098, -9288.088594447207, 0.0050625, -0.020625, 0.98725, 192.0, 0.0, 0.0, 0.0, 0.0, 0.0, 0.0, 0.0, 0.0, 0.0, 1.644497756478692E9, 0.0, 2022-02-10 23:55:56.478
212.0, -10804.855621439889, -12586.021433594398, -7875.346586149524, -15447.2458895738, -929.5643484073101, -1776.7625184968138, -2940.796666240295, -4524.663630087809, -20466.39716224637, -18038.32716206636, -23279.543015902404, -13804.929113975659, -7737.0339914600845, -12548.67166860958, -6868.936940304869, -9287.55215258028, 0.0050625, -0.020625, 0.98725, 192.0, 0.0, 0.0, 0.0, 0.0, 0.0, 0.0, 0.0, 0.0, 0.0, 1.6444977564786987E9, 0.0, 2022-02-10 23:55:56.478
214.0, -10804.721510973157, -12576.656052667626, -7874.497219860223, -15446.15065409549, -932.6935926310531, -1776.0249109297886, -2940.886073218116, -4523.3448771649455, -20464.89959536786, -18047.312563337393, -23289.690707885115, -13825.649181085728, -7738.933889738785, -12555.488950668449, -6875.933036319379, -9291.88839100461, 0.0050625, -0.020625, 0.98725, 192.0, 0.0, 0.0, 127.5, 56.0, 15.5, 8.0, 0.0, 0.0, 0.0, 1.6444977564787054E9, 0.0, 2022-02-10 23:55:56.478
216.0, -10783.688519440713, -12560.67455538208, -7866.741164534232, -15442.932002893926, -929.4749414294889, -1764.9384456799562, -2927.407971311566, -4519.679191074275, -20456.27182200811, -18037.120167865774, -23276.704344356578, -13816.954352492614, -7737.190453671272, -12535.685305081048, -6865.74064084776, -9283.819411256243, 0.0050625, -0.020625, 0.98725, 192.0, 0.0, 0.0, 0.0, 0.0, 0.0, 0.0, 0.0, 0.0, 0.0, 1.644497756478712E9, 0.0, 2022-02-10 23:55:56.478
218.0, -10806.554354018494, -12589.485953984971, -7880.018100740684, -15445.323639550645, -941.5225316908994, -1773.297998106241, -2952.933663479527, -4527.547005122543, -20461.18920578828, -18049.413627316193, -23282.582853148324, -13812.707521046106, -7745.885282264386, -12541.76497957289, -6869.361623449519, -9287.88742874711, 0.0050625, -0.020625, 0.98725, 192.0, 0.0, 0.0, 0.0, 0.0, 0.0, 0.0, 0.0, 0.0, 0.0, 1.6444977564787188E9, 0.0, 2022-02-10 23:55:56.478
220.0, -10799.04416788151, -12585.082660327276, -7872.46321111479, -15444.496625005797, -930.436066441067, -1763.4855822903614, -2930.023125412837, -4520.461502130211, -20461.18920578828, -18053.682810507158, -23288.70723112908, -13812.595762323828, -7747.002869487152, -12542.837863306746, -6875.59776015255, -9286.725138035434, 0.0050625, -0.020625, 0.98725, 192.0, 0.0, 0.0, 0.0, 0.0, 0.0, 0.0, 0.0, 0.0, 0.0, 1.6444977564787257E9, 0.0, 2022-02-10 23:55:56.478
222.0, -10806.084967384932, -12584.970901604998, -7878.766403051187, -15448.028200629737, -939.8014473678408, -1771.0851754051657, -2945.177608153535, -4520.595612596942, -20464.407856989845, -18046.03851390344, -23280.95117580309, -13806.203163409611, -7745.10297120845, -12548.202281976019, -6873.630806640484, -9285.048757201286, 0.0050625, -0.020625, 0.98725, 192.0, 0.0, 0.0, 0.0, 0.0, 0.0, 0.0, 0.0, 0.0, 0.0, 1.644497756478732E9, 0.0, 2022-02-10 23:55:56.478
224.0, -10800.362920804373, -12574.599692177737, -7876.866504772485, -15446.262412817767, -944.696479403553, -1768.1570968815206, -2943.568282552753, -4516.795816039541, -20467.470045980222, -18055.828577974866, -23297.290300999917, -13815.680303058662, -7747.516959609624, -12535.752360314413, -6883.845553856559, -9287.55215258028, 0.002, -0.018000000000000002, 0.996, 192.0, 0.0, 8.0, 127.5, 56.0, 15.5, 16.0, 0.0, 0.0, 0.0, 1.644497756478739E9, 0.0, 2022-02-10 23:55:56.478
226.0, -10787.667129953757, -12565.882511840167, -7870.3397953915355, -15444.362514539065, -937.4545142000335, -1762.211532856409, -2943.9482622084934, -4521.1767579527805, -20459.356362742947, -18037.14251961023, -23280.615899636257, -13811.366416378787, -7745.10297120845, -12540.736799327946, -6879.755184621237, -9282.45595484447, 0.002, -0.018000000000000002, 0.996, 192.0, 0.0, 0.0, 0.0, 0.0, 0.0, 0.0, 0.0, 0.0, 0.0, 1.644497756478746E9, 0.0, 2022-02-10 23:55:56.478
228.0, -10807.269609841063, -12571.67161365409, -7879.928693762862, -15448.92227040795, -952.2513690294468, -1771.0181201717999, -2958.5439513378087, -4538.409952927823, -20461.81505463303, -18035.443787031625, -23287.254367739486, -13813.668646057684, -7747.002869487152, -12523.503604352905, -6884.583161423584, -9289.005015969875, 0.002, -0.018000000000000002, 0.996, 192.0, 0.0, 0.0, 0.0, 0.0, 0.0, 0.0, 0.0, 0.0, 0.0, 1.6444977564787548E9, 0.0, 2022-02-10 23:55:56.478
230.0, -10801.212287093675, -12579.025337579887, -7875.726565805265, -15441.747360437796, -942.2601392579245, -1763.2173613568975, -2947.8821692326273, -4522.339048664457, -20463.91611861183, -18020.37871126875, -23293.959891076076, -13816.507317603508, -7752.657860834344, -12545.631831363658, -6888.002978325246, -9286.188696168507, 0.002, -0.018000000000000002, 0.996, 192.0, 0.0, 0.0, 0.0, 0.0, 0.0, 0.0, 0.0, 0.0, 0.0, 1.6444977564787617E9, 0.0, 2022-02-10 23:55:56.478
232.0, -10808.677769741747, -12589.597712707247, -7880.3757286519685, -15446.44122677341, -956.408793498134, -1768.9841114263668, -2982.527373138353, -4529.290441190057, -20467.80532214705, -18048.251336604517, -23281.733486859022, -13798.961198206092, -7752.277881178604, -12540.9603167725, -6885.276065501698, -9284.065280445253, 0.002, -0.018000000000000002, 0.996, 192.0, 0.0, 0.0, 0.0, 0.0, 0.0, 0.0, 0.0, 0.0, 0.0, 1.644497756478768E9, 0.0, 2022-02-10 23:55:56.478
234.0, -10815.450348311704, -12580.165276547108, -7883.013234497695, -15448.92227040795, -962.6896336900752, -1777.947160952945, -2977.4758788914537, -4533.4702174032, -20471.04632509307, -18053.794569229434, -23302.6994231581, -13819.100119960323, -7749.908596266341, -12543.262546451397, -6902.799833154659, -9292.93892299401, 0.006, -0.018000000000000002, 0.99, 192.0, 0.0, 24.0, 127.5, 56.0, 15.0, 120.0, 0.0, 0.0, 0.0, 1.6444977564787748E9, 0.0, 2022-02-10 23:55:56.478
236.0, -10794.596170734903, -12574.10795379972, -7870.473905858267, -15449.369305297054, -927.9103193176174, -1772.2251143723863, -2924.345782321189, -4526.250603944136, -20465.637202934886, -18043.84804294682, -23287.008498550476, -13814.763881535993, -7764.817209818031, -12538.434569649049, -6889.522896948207, -9294.03415847232, 0.006, -0.018000000000000002, 0.99, 192.0, 0.0, 0.0, 0.0, 0.0, 0.0, 0.0, 0.0, 0.0, 0.0, 1.6444977564787817E9, 0.0, 2022-02-10 23:55:56.478
238.0, -10811.158813376285, -12585.239122538464, -7879.883990273952, -15452.140921609513, -929.8102175963185, -1778.8635824756125, -2941.958956951971, -4531.793836569052, -20460.742170899175, -18047.826653459866, -23284.572158404848, -13820.97766649457, -7746.645241575867, -12533.807758546802, -6877.698824131349, -9296.6940160625, 0.006, -0.018000000000000002, 0.99, 192.0, 0.0, 0.0, 0.0, 0.0, 0.0, 0.0, 0.0, 0.0, 0.0, 1.6444977564787884E9, 0.0, 2022-02-10 23:55:56.478
240.0, -10799.334740559429, -12576.164314289608, -7861.644966798422, -15447.044723873703, -924.1105227602152, -1770.5487335382384, -2942.920081963549, -4520.2379846856575, -20457.232947019693, -18035.42143528717, -23284.639213638213, -13821.938791506147, -7731.6248693019, -12539.19452896053, -6878.8611148430255, -9290.189658426007, 0.006, -0.018000000000000002, 0.99, 192.0, 0.0, 0.0, 0.0, 0.0, 0.0, 0.0, 0.0, 0.0, 0.0, 1.6444977569575732E9, 0.0, 2022-02-10 23:55:56.957
242.0, -10806.464947040671, -12571.939834587554, -7873.111411703994, -15456.745380967306, -943.4000782251452, -1781.4563848324283, -2958.63335831563, -4530.340973179456, -20464.96665060123, -18052.162891884196, -23280.90647231418, -13823.16813745119, -7742.107837451439, -12536.33350567025, -6877.74352762026, -9290.323768892738, 0.006, -0.018000000000000002, 0.99, 192.0, 0.0, 0.0, 0.0, 0.0, 0.0, 0.0, 0.0, 0.0, 0.0, 1.6444977569577584E9, 0.0, 2022-02-10 23:55:56.957
244.0, -10809.460080797682, -12586.535523716871, -7878.922865262373, -15445.189529083913, -947.8927788606619, -1784.2727046337968, -2967.931684009038, -4532.665554602809, -20467.470045980222, -18041.61286850129, -23293.08817304232, -13829.02429449848, -7744.097142707961, -12564.764924617402, -6887.757109136237, -9296.023463728841, 0.002, -0.02, 0.988, 192.0, 0.0, 8.0, 127.5, 48.0, 15.0, 112.0, 0.0, 0.0, 0.0, 1.644497756957766E9, 0.0, 2022-02-10 23:55:56.957
246.0, -10799.021816137054, -12578.511247457416, -7870.9879959807395, -15447.380000040532, -937.7227351334972, -1766.3913090695512, -2959.5274280938424, -4524.618926598898, -20461.591537188477, -18043.42335980217, -23279.565367646857, -13811.500526845519, -7735.379962370392, -12552.113837255698, -6882.750318378248, -9292.715405549456, 0.002, -0.02, 0.988, 192.0, 0.0, 0.0, 0.0, 0.0, 0.0, 0.0, 0.0, 0.0, 0.0, 1.6444977569577727E9, 0.0, 2022-02-10 23:55:56.957
248.0, -10813.751615733101, -12590.000044107443, -7876.888856516941, -15449.861043675071, -949.2562352724357, -1783.6468557890482, -2967.3505386531997, -4535.951261037739, -20466.330107013, -18055.00156343002, -23291.590606163812, -13824.375131651776, -7735.268203648116, -12534.679476580559, -6884.247885256754, -9295.487021861914, 0.002, -0.02, 0.988, 192.0, 0.0, 0.0, 0.0, 0.0, 0.0, 0.0, 0.0, 0.0, 0.0, 1.6444977569577796E9, 0.0, 2022-02-10 23:55:56.957
250.0, -10802.911019672278, -12572.163352032108, -7869.8704087579745, -15446.53063375123, -942.3942497246563, -1766.6818817474702, -2966.6129310861747, -4532.79966506954, -20461.725647655207, -18051.559394783904, -23290.51772242996, -13828.532556120463, -7740.610270572934, -12535.305325425306, -6892.942713849869, -9296.783423040322, 0.002, -0.02, 0.988, 192.0, 0.0, 0.0, 0.0, 0.0, 0.0, 0.0, 0.0, 0.0, 0.0, 1.6444977569577863E9, 0.0, 2022-02-10 23:55:56.957
252.0, -10808.700121486203, -12577.080735812277, -7871.770307036675, -15450.330430308633, -938.9297293340837, -1766.1901433694534, -2953.1571809240795, -4528.239909200658, -20463.223214533715, -18046.23967960354, -23275.407943178172, -13818.966009493592, -7739.649145561355, -12535.081807980754, -6889.098213803556, -9294.481193361426, 0.002, -0.02, 0.988, 192.0, 0.0, 0.0, 0.0, 0.0, 0.0, 0.0, 0.0, 0.0, 0.0, 1.6444977569577935E9, 0.0, 2022-02-10 23:55:56.957
254.0, -10814.355112833395, -12583.406279493127, -7884.667263587387, -15451.045686131203, -945.5905491817653, -1777.6789400194814, -2959.818000771761, -4535.4371709152665, -20465.681906423797, -18042.909269679698, -23296.46328645507, -13829.560736365407, -7733.010677458129, -12550.325697699272, -6894.46263247283, -9296.6940160625, 0.008, -0.022, 0.99, 192.0, 0.0, 32.0, 127.5, 40.0, 15.0, 120.0, 0.0, 0.0, 0.0, 1.6444977569578001E9, 0.0, 2022-02-10 23:55:56.957
0.0, -10806.017912151565, -12590.40237550764, -7871.9267692478625, -15455.024296644247, -938.9520810785391, -1768.4253178149843, -2957.2922536483115, -4534.721915092697, -20468.967612858727, -18050.844138961333, -23293.155228275686, -13830.633620099261, -7742.599575829456, -12543.642526107136, -6896.608399940539, -9296.984588740419, 0.008, -0.022, 0.99, 192.0, 0.0, 0.0, 0.0, 0.0, 0.0, 0.0, 0.0, 0.0, 0.0, 1.6444977569578073E9, 0.0, 2022-02-10 23:55:56.957
2.0, -10828.436711840239, -12608.328474560794, -7894.770252081186, -15466.803665972195, -960.6556249446422, -1785.0326639452774, -2978.5264108808533, -4550.546950167054, -20474.846121650473, -18067.317374624894, -23298.56435043387, -13837.003867269024, -7750.512093366635, -12551.264470966396, -6900.430548242396, -9305.590010355712, 0.008, -0.022, 0.99, 192.0, 0.0, 0.0, 0.0, 0.0, 0.0, 0.0, 0.0, 0.0, 0.0, 1.644497756957814E9, 0.0, 2022-02-10 23:55:56.957
4.0, -10818.71370300218, -12594.045709853854, -7885.784850810153, -15461.752171725295, -948.7197934055083, -1782.0598819327215, -2959.706242049485, -4537.359420938423, -20483.518598499133, -18062.936432711653, -23311.930693618142, -13849.766713353005, -7758.357555670447, -12570.643433409148, -6904.789138411181, -9308.607495857179, 0.008, -0.022, 0.99, 192.0, 0.0, 0.0, 0.0, 0.0, 0.0, 0.0, 0.0, 0.0, 0.0, 1.6444977569578304E9, 0.0, 2022-02-10 23:55:56.957
6.0, -10822.535851304037, -12607.859087927234, -7881.9627025082955, -15462.042744403214, -956.4758487314998, -1782.9986551998443, -2966.4341171305323, -4538.588766883465, -20476.544854229076, -18068.72553452558, -23294.13870503172, -13833.40523641172, -7753.730744568199, -12557.522959413882, -6897.681283674394, -9301.969027753954, 0.008, -0.022, 0.99, 192.0, 0.0, 0.0, 0.0, 0.0, 0.0, 0.0, 0.0, 0.0, 0.0, 1.644497756957837E9, 0.0, 2022-02-10 23:55:56.957
8.0, -10824.994543194121, -12599.477183756493, -7878.408775139902, -15456.700677478395, -953.8159911413182, -1781.746957510347, -2968.82575378725, -4539.616947128409, -20474.264976294635, -18070.938357226652, -23300.46424871257, -13844.581108639373, -7750.7132590667325, -12561.367459460194, -6903.626847699506, -9305.254734188884, 0.006, -0.026000000000000002, 0.992, 192.0, 0.0, 24.0, 127.5, 24.0, 15.5, 0.0, 0.0, 0.0, 0.0, 1.644497756957844E9, 0.0, 2022-02-10 23:55:56.957
10.0, -10808.566011019471, -12592.592846464258, -7864.79656276662, -15453.549081510197, -939.1308950341815, -1763.7090997349144, -2961.5390850948197, -4528.239909200658, -20466.017182590625, -18037.05311263241, -23282.94048105961, -13835.215727712599, -7747.293442165071, -12547.978764531466, -6898.105966819045, -9298.213934685462, 0.006, -0.026000000000000002, 0.992, 192.0, 0.0, 0.0, 0.0, 0.0, 0.0, 0.0, 0.0, 0.0, 0.0, 1.6444977569578507E9, 0.0, 2022-02-10 23:55:56.957
12.0, -10826.670924028269, -12606.853259426745, -7878.788754795642, -15456.767732711762, -954.598302197254, -1778.0365679307663, -2988.919972052571, -4547.440057687767, -20466.419513990822, -18056.789702986443, -23286.85203633929, -13833.628753856274, -7743.180721185294, -12549.185758732052, -6899.089443575078, -9299.577391097235, 0.006, -0.026000000000000002, 0.992, 192.0, 0.0, 0.0, 0.0, 0.0, 0.0, 0.0, 0.0, 0.0, 0.0, 1.6444977569578578E9, 0.0, 2022-02-10 23:55:56.957
14.0, -10815.830327967446, -12597.39847152215, -7868.551655835111, -15451.895052420505, -945.6576044151312, -1763.7090997349144, -2965.2941781633112, -4527.368191166901, -20464.67607792331, -18067.652650791722, -23297.871446355755, -13835.59570736834, -7740.051476961551, -12542.48023539546, -6902.777481410204, -9303.533649865825, 0.006, -0.026000000000000002, 0.992, 192.0, 0.0, 0.0, 0.0, 0.0, 0.0, 0.0, 0.0, 0.0, 0.0, 1.6444977569578643E9, 0.0, 2022-02-10 23:55:56.957
16.0, -10818.847813468912, -12605.713320459525, -7874.228998926759, -15452.073866376146, -953.4807149744887, -1772.918018450501, -2967.1717246975572, -4543.707316363731, -20466.844197135473, -18061.6623832777, -23285.935614816623, -13822.788157795449, -7742.53252059609, -12545.587127874747, -6892.115699305022, -9298.638617830113, 0.006, -0.026000000000000002, 0.992, 192.0, 0.0, 0.0, 0.0, 0.0, 0.0, 0.0, 0.0, 0.0, 0.0, 1.6444977569578712E9, 0.0, 2022-02-10 23:55:56.957
18.0, -10816.120900645365, -12599.54423898986, -7877.045318728128, -15444.58603198362, -958.5545609658434, -1779.042396431255, -2971.172686955057, -4536.465351160211, -20467.3806390024, -18071.117171182297, -23299.838399867822, -13834.813396312404, -7743.918328752319, -12564.474351939483, -6898.396539496964, -9302.997207998897, 0.008, -0.024, 0.988, 192.0, 0.0, 32.0, 127.5, 32.0, 15.0, 112.0, 0.0, 0.0, 0.0, 1.6444977569578784E9, 0.0, 2022-02-10 23:55:56.957
20.0, -10802.084005127432, -12585.77556440539, -7866.025908711662, -15441.47913950433, -946.9093021046284, -1760.557503766716, -2947.5468930657976, -4520.439150385756, -20458.551699942553, -18049.8606622053, -23284.862731082765, -13822.184660695155, -7744.991212486174, -12566.418953707094, -6887.153612035944, -9295.710539306467, 0.008, -0.024, 0.988, 192.0, 0.0, 0.0, 0.0, 0.0, 0.0, 0.0, 0.0, 0.0, 0.0, 1.644497756957885E9, 0.0, 2022-02-10 23:55:56.957
22.0, -10820.390083836328, -12602.718186702514, -7874.7430890492315, -15445.39069478401, -970.5797994827985, -1767.8441724591462, -2964.1095357071804, -4537.046496516049, -20468.76644715863, -18059.87424372128, -23286.963795061565, -13822.788157795449, -7744.946508997263, -12547.285860453352, -6891.959237093835, -9295.218800928451, 0.008, -0.024, 0.988, 192.0, 0.0, 0.0, 0.0, 0.0, 0.0, 0.0, 0.0, 0.0, 0.0, 1.6444977569578917E9, 0.0, 2022-02-10 23:55:56.957
24.0, -10798.217153336664, -12579.025337579887, -7865.824743011563, -15442.216747071356, -956.4982004759552, -1754.433125785962, -2961.472029861454, -4530.89976679084, -20465.14546455687, -18046.9102319372, -23292.484675942025, -13830.946544521636, -7744.030087474595, -12530.298534667318, -6899.5811819530945, -9293.855344516676, 0.008, -0.024, 0.988, 192.0, 0.0, 0.0, 0.0, 0.0, 0.0, 0.0, 0.0, 0.0, 0.0, 1.6444977569578986E9, 0.0, 2022-02-10 23:55:56.957
26.0, -10806.777871463046, -12591.788183663868, -7872.552618092611, -15445.748322695295, -954.9112266196283, -1758.7470124658362, -2975.2407044459233, -4536.867682560406, -20463.33497325599, -18045.52442378097, -23278.40307693518, -13816.015579225492, -7740.789084528576, -12540.110950483198, -6891.914533604924, -9289.764975281356, 0.008, -0.024, 0.988, 192.0, 0.0, 0.0, 0.0, 0.0, 0.0, 0.0, 0.0, 0.0, 0.0, 1.6444977569579053E9, 0.0, 2022-02-10 23:55:56.957
28.0, -10817.082025656942, -12592.324625530795, -7876.1512489499155, -15442.596726727097, -948.339813749768, -1772.336873094663, -2959.9744629829484, -4538.208787227725, -20465.413685490334, -18056.275612863974, -23298.31848124486, -13835.349838179332, -7732.228366402193, -12548.984593031955, -6892.540382449673, -9295.308207906271, 0.008, -0.016, 0.996, 192.0, 0.0, 32.0, 127.5, 64.0, 15.5, 16.0, 0.0, 0.0, 0.0, 1.644497756957912E9, 0.0, 2022-02-10 23:55:56.957
30.0, -10804.81091795098, -12590.201209807541, -7862.494333087723, -15447.067075618157, -938.5497496783436, -1767.7994689702357, -2936.303965604778, -4526.094141732949, -20463.379676744902, -18048.76542672699, -23290.56242591887, -13816.529669347963, -7738.308040894037, -12557.411200691606, -6879.375204965497, -9292.447184615992, 0.008, -0.016, 0.996, 192.0, 0.0, 0.0, 0.0, 0.0, 0.0, 0.0, 0.0, 0.0, 0.0, 1.644497756957919E9, 0.0, 2022-02-10 23:55:56.957
32.0, -10825.128653660853, -12598.516058744915, -7871.725603547765, -15447.2458895738, -957.1687528096144, -1781.4563848324283, -2952.017241956859, -4535.079543003982, -20473.035630349594, -18054.375714585272, -23290.629481152235, -13823.123433962279, -7746.689945064777, -12556.897110569134, -6879.308149732131, -9297.297513162794, 0.008, -0.016, 0.996, 192.0, 0.0, 0.0, 0.0, 0.0, 0.0, 0.0, 0.0, 0.0, 0.0, 1.6444977569579253E9, 0.0, 2022-02-10 23:55:56.957
34.0, -10809.102452886398, -12602.964055891522, -7867.03173721215, -15439.62394471454, -946.3952119821563, -1762.524457278783, -2949.53619832232, -4534.811322070518, -20469.749923914664, -18061.885900722256, -23292.864655597765, -13826.766768308493, -7741.169064184316, -12524.91176425359, -6889.120565548011, -9294.570600339246, 0.008, -0.016, 0.996, 192.0, 0.0, 0.0, 0.0, 0.0, 0.0, 0.0, 0.0, 0.0, 0.0, 1.6444977569579325E9, 0.0, 2022-02-10 23:55:56.957
36.0, -10813.908077944288, -12607.322646060305, -7871.233865169748, -15448.542290752208, -949.6585666726312, -1770.7946027272467, -2957.761640281873, -4532.084409246971, -20470.509883226143, -18059.963650699097, -23277.62076587925, -13813.35572163531, -7740.699677550755, -12540.200357461019, -6887.108908547033, -9295.26350441736, 0.009000000000000001, -0.02, 0.993, 192.0, 0.0, 40.0, 127.5, 32.0, 15.0, 120.0, 0.0, 0.0, 0.0, 1.6444977569579413E9, 0.0, 2022-02-10 23:55:56.957
38.0, -10815.539755289527, -12602.53937274687, -7876.732394305754, -15458.77938971274, -948.8539038722402, -1770.8393062161574, -2963.1037072066915, -4537.247662216147, -20472.320374527022, -18060.52244431048, -23299.905455101187, -13834.902803290226, -7740.073828706006, -12545.251851707919, -6894.842612128569, -9302.617228343157, 0.009000000000000001, -0.02, 0.993, 192.0, 0.0, 0.0, 0.0, 0.0, 0.0, 0.0, 0.0, 0.0, 0.0, 1.644497756957948E9, 0.0, 2022-02-10 23:55:56.957
40.0, -10806.107319129387, -12598.784279678379, -7873.5584465931, -15452.342087309611, -935.7110781325196, -1771.2192858718975, -2954.7441547804065, -4532.79966506954, -20468.453522736254, -18062.53410131146, -23290.070687540854, -13829.605439854318, -7737.592785071467, -12548.984593031955, -6888.874696359003, -9301.499641120392, 0.009000000000000001, -0.02, 0.993, 192.0, 0.0, 0.0, 0.0, 0.0, 0.0, 0.0, 0.0, 0.0, 0.0, 1.6444977569579546E9, 0.0, 2022-02-10 23:55:56.957
42.0, -10819.89834545831, -12604.841602425768, -7877.246484428226, -15459.092314135112, -953.9501016080501, -1786.5749343126936, -2966.1211927081577, -4543.3049849635345, -20472.81211290504, -18062.869377478288, -23296.1503620327, -13837.02621901348, -7737.458674604735, -12558.238215236452, -6893.277990016698, -9309.188641213017, 0.009000000000000001, -0.02, 0.993, 192.0, 0.0, 0.0, 0.0, 0.0, 0.0, 0.0, 0.0, 0.0, 0.0, 1.644497756957962E9, 0.0, 2022-02-10 23:55:56.957
44.0, -10804.632103995336, -12594.179820320585, -7867.9928622237285, -15448.810511685671, -941.3660694797122, -1773.6332742730708, -2952.5536838237863, -4531.5032638911325, -20466.665383179832, -18060.18716814365, -23300.911283601676, -13838.367323680797, -7736.206976915238, -12554.304308212319, -6894.753205150749, -9308.473385390447, 0.009000000000000001, -0.02, 0.993, 192.0, 0.0, 0.0, 0.0, 0.0, 0.0, 0.0, 0.0, 0.0, 0.0, 1.6444977569579687E9, 0.0, 2022-02-10 23:55:56.957
46.0, -10813.081063399442, -12590.983520863478, -7868.216379668282, -15456.499511778298, -946.4399154710669, -1770.6157887716042, -2967.4622973754763, -4537.6052901274315, -20463.603194189454, -18042.37282781277, -23281.26410022546, -13824.084558973856, -7726.10398842144, -12545.475369152471, -6885.767803879715, -9300.426757386536, 0.0105, -0.024, 0.9904999999999999, 192.0, 0.0, 48.0, 127.5, 16.0, 15.0, 112.0, 0.0, 0.0, 0.0, 1.6444977569579754E9, 0.0, 2022-02-10 23:55:56.957
48.0, -10819.831290224945, -12613.871707185712, -7876.419469883379, -15457.259471089777, -949.4350492280781, -1771.5545620387272, -2954.922968736049, -4544.467275675211, -20471.11338032644, -18051.71585699509, -23301.71594640207, -13837.808530069415, -7736.475197848702, -12543.128435984665, -6894.864963873025, -9304.137146966117, 0.0105, -0.024, 0.9904999999999999, 192.0, 0.0, 0.0, 0.0, 0.0, 0.0, 0.0, 0.0, 0.0, 0.0, 1.6444977569579828E9, 0.0, 2022-02-10 23:55:56.957
50.0, -10810.75648197609, -12603.276980313896, -7866.1153156894825, -15457.214767600868, -937.9909560669608, -1762.4350503009618, -2945.5575878092754, -4536.599461626943, -20468.967612858727, -18073.82173226139, -23289.400135207194, -13833.047608500436, -7730.14965416785, -12531.304363167807, -6889.925228348402, -9299.756205052878, 0.0105, -0.024, 0.9904999999999999, 192.0, 0.0, 0.0, 0.0, 0.0, 0.0, 0.0, 0.0, 0.0, 0.0, 1.6444977569579897E9, 0.0, 2022-02-10 23:55:56.957
52.0, -10819.607772780391, -12607.501460015948, -7875.570103594077, -15463.182683370434, -944.5176654479105, -1779.1988586424422, -2966.992910741915, -4550.681060633786, -20469.414647747835, -18066.535063568957, -23291.076516041343, -13840.267221959499, -7732.1613111688275, -12534.902994025111, -6892.450975471852, -9303.93598126602, 0.0105, -0.024, 0.9904999999999999, 192.0, 0.0, 0.0, 0.0, 0.0, 0.0, 0.0, 0.0, 0.0, 0.0, 1.6444977569579961E9, 0.0, 2022-02-10 23:55:56.957
54.0, -10801.413452793771, -12593.978654620489, -7873.312577404092, -15450.911575664471, -933.6770693870866, -1768.7829457262692, -2943.3224133637445, -4527.614060355909, -20467.20182504676, -18054.800397729923, -23298.094963800308, -13849.140864508256, -7737.726895538199, -12546.302383697317, -6891.60160918255, -9300.180888197528, 0.0105, -0.024, 0.9904999999999999, 192.0, 0.0, 0.0, 0.0, 0.0, 0.0, 0.0, 0.0, 0.0, 0.0, 1.6444977569580028E9, 0.0, 2022-02-10 23:55:56.958
56.0, -10805.056787139987, -12597.577285477792, -7864.483638344245, -15454.890186177516, -936.4039822106341, -1767.9782829258781, -2962.6119688286744, -4532.285574947068, -20461.85975812194, -18055.649764019225, -23286.60616715028, -13831.773559066482, -7731.423703601802, -12541.362648172695, -6881.856248600036, -9296.40344338458, 0.01025, -0.023, 0.98825, 192.0, 0.0, 40.0, 127.5, 40.0, 15.0, 104.0, 0.0, 0.0, 0.0, 1.6444977569580095E9, 0.0, 2022-02-10 23:55:56.958
58.0, -10805.436766795727, -12598.8736866562, -7871.7479552922205, -15454.823130944149, -941.5448834353547, -1763.5973410126378, -2951.1231721786467, -4532.062057502515, -20463.603194189454, -18055.47095006358, -23296.418582966162, -13842.97178303859, -7732.384828613381, -12532.466653879483, -6886.393652724463, -9298.035120729819, 0.01025, -0.023, 0.98825, 192.0, 0.0, 0.0, 0.0, 0.0, 0.0, 0.0, 0.0, 0.0, 0.0, 1.6444977569580164E9, 0.0, 2022-02-10 23:55:56.958
60.0, -10792.98684513412, -12577.550122445837, -7863.075478443561, -15455.001944899792, -928.7596856069191, -1761.4739252893837, -2953.0901256907136, -4530.877415046384, -20456.96472608623, -18047.983115671053, -23282.73931535951, -13837.763826580505, -7732.429532102291, -12530.678514323059, -6880.850420099548, -9295.621132328646, 0.01025, -0.023, 0.98825, 192.0, 0.0, 0.0, 0.0, 0.0, 0.0, 0.0, 0.0, 0.0, 0.0, 1.6444977569580233E9, 0.0, 2022-02-10 23:55:56.958
62.0, -10812.18699362123, -12601.77941343539, -7868.328138390558, -15455.069000133159, -941.4554764575335, -1777.947160952945, -2970.0103962433814, -4549.049383288549, -20458.14936854236, -18044.362133069295, -23283.253405481984, -13836.534480635462, -7724.6734767763, -12541.206185961508, -6874.9272078188915, -9299.443280630503, 0.01025, -0.023, 0.98825, 192.0, 0.0, 0.0, 0.0, 0.0, 0.0, 0.0, 0.0, 0.0, 0.0, 1.64449775695803E9, 0.0, 2022-02-10 23:55:56.958
64.0, -10807.873106941355, -12613.670541485613, -7867.948158734818, -15453.593784999108, -937.5215694333995, -1772.0239486722887, -2977.565285869275, -4534.788970326063, -20464.09493256747, -18067.987926958554, -23294.02694630944, -13846.97274529609, -7742.130189195895, -12554.326659956772, -6879.509315432229, -9303.131318465628, 0.01025, -0.023, 0.98825, 192.0, 0.0, 0.0, 0.0, 0.0, 0.0, 0.0, 0.0, 0.0, 0.0, 1.644497756958037E9, 0.0, 2022-02-10 23:55:56.958
66.0, -10810.152984875796, -12610.854221684245, -7878.4981821177225, -15460.63458450253, -939.1085432897262, -1777.6789400194814, -2966.501172363898, -4543.237929730169, -20467.96178435824, -18069.396086859237, -23280.794713591902, -13838.277916702977, -7744.566529341523, -12550.90684305511, -6878.235265998276, -9301.253771931384, 0.012125, -0.0225, 0.9861249999999999, 192.0, 0.0, 56.0, 127.5, 40.0, 15.0, 96.0, 0.0, 0.0, 0.0, 1.6444977569580436E9, 0.0, 2022-02-10 23:55:56.958
68.0, -10818.37842683535, -12604.998064636955, -7886.231885699259, -15464.412029315476, -948.4739242164999, -1785.814975001213, -2973.92195152306, -4547.32829896549, -20471.47100823772, -18070.67013629319, -23300.106620801285, -13856.673402389695, -7743.67245956331, -12546.794122075335, -6887.22066726931, -9310.976780769442, 0.012125, -0.0225, 0.9861249999999999, 192.0, 0.0, 0.0, 0.0, 0.0, 0.0, 0.0, 0.0, 0.0, 0.0, 1.6444977569580524E9, 0.0, 2022-02-10 23:55:56.958
70.0, -10794.909095157278, -12596.68321569958, -7874.564275093589, -15462.221558358857, -934.8617118432179, -1778.751823753336, -2983.1308702386464, -4544.221406486203, -20466.732438413197, -18061.61767978879, -23292.75289687549, -13852.02423954299, -7746.824055531509, -12536.087636481243, -6885.946617835358, -9309.054530746285, 0.012125, -0.0225, 0.9861249999999999, 192.0, 0.0, 0.0, 0.0, 0.0, 0.0, 0.0, 0.0, 0.0, 0.0, 1.6444977569580593E9, 0.0, 2022-02-10 23:55:56.958
72.0, -10815.249182611607, -12615.481032786493, -7887.3047694331135, -15465.194340371412, -955.6935376755641, -1794.5992105721486, -2989.2328964749454, -4553.989118813171, -20464.273746523115, -18063.7634472565, -23289.824818351844, -13848.135036007767, -7737.726895538199, -12548.381095931662, -6883.689091645371, -9308.786309812822, 0.012125, -0.0225, 0.9861249999999999, 192.0, 0.0, 0.0, 0.0, 0.0, 0.0, 0.0, 0.0, 0.0, 0.0, 1.6444977569580657E9, 0.0, 2022-02-10 23:55:56.958
74.0, -10807.113147629876, -12614.184631608085, -7881.694481574832, -15461.998040914303, -943.1989125250474, -1789.0336262027772, -2957.135791437124, -4544.646089630854, -20471.180435559803, -18076.839217762856, -23301.47007721306, -13854.862911088814, -7743.359535140937, -12550.929194799566, -6886.281894002187, -9313.167251726061, 0.012125, -0.0225, 0.9861249999999999, 192.0, 0.0, 0.0, 0.0, 0.0, 0.0, 0.0, 0.0, 0.0, 0.0, 1.6444977569580724E9, 0.0, 2022-02-10 23:55:56.958
76.0, -10802.106356871887, -12602.762890191423, -7880.532190863156, -15460.478122291343, -935.2863949878687, -1784.362111611618, -2964.2659979183672, -4539.728705850685, -20468.162950058337, -18066.82563624688, -23285.980318305534, -13841.585974882362, -7735.782293770587, -12543.128435984665, -6873.5190479182065, -9308.518088879358, 0.0120625, -0.02325, 0.9860625, 192.0, 0.0, 48.0, 127.5, 32.0, 15.0, 104.0, 0.0, 0.0, 0.0, 1.644497756958079E9, 0.0, 2022-02-10 23:55:56.958
78.0, -10810.063577897976, -12594.783317420879, -7889.361129923002, -15463.450904303898, -942.9753950804943, -1786.105547679132, -2967.8422770312163, -4539.125208750393, -20466.82184539102, -18053.90632795171, -23298.452591711593, -13850.325506964387, -7734.15061642535, -12548.045819764831, -6876.178905508388, -9309.501565635392, 0.0120625, -0.02325, 0.9860625, 192.0, 0.0, 0.0, 0.0, 0.0, 0.0, 0.0, 0.0, 0.0, 0.0, 1.6444977569580865E9, 0.0, 2022-02-10 23:55:56.958
80.0, -10788.829420665434, -12599.432480267584, -7865.489466844734, -15458.44411354591, -926.3456972057459, -1775.8013934852356, -2952.017241956859, -4524.685981832264, -20465.056057579048, -18057.14733089773, -23285.443876438603, -13845.78810283996, -7741.996078729163, -12534.299496924818, -6868.914588560413, -9303.89127777711, 0.0120625, -0.02325, 0.9860625, 192.0, 0.0, 0.0, 0.0, 0.0, 0.0, 0.0, 0.0, 0.0, 0.0, 1.644497756958093E9, 0.0, 2022-02-10 23:55:56.958
82.0, -10801.27934232704, -12601.958227391033, -7873.737260548743, -15459.539349024219, -943.534188691877, -1785.7702715123025, -2969.1610299540794, -4538.61111862792, -20458.730513898197, -18068.412610103205, -23284.393344449207, -13845.206957484123, -7738.330392638492, -12544.447188907527, -6862.432582668374, -9306.014693500363, 0.0120625, -0.02325, 0.9860625, 192.0, 0.0, 0.0, 0.0, 0.0, 0.0, 0.0, 0.0, 0.0, 0.0, 1.6444977569580996E9, 0.0, 2022-02-10 23:55:56.958
84.0, -10794.439708523716, -12590.469430741005, -7865.757687778198, -15457.01360190077, -931.8442263417514, -1768.0676899036994, -2959.0356897158254, -4532.03970575806, -20459.021086576115, -18054.308659351904, -23292.350565475295, -13850.414913942208, -7737.190453671272, -12520.441415362528, -6867.260559470721, -9305.500603377892, 0.0120625, -0.02325, 0.9860625, 192.0, 0.0, 0.0, 0.0, 0.0, 0.0, 0.0, 0.0, 0.0, 0.0, 1.6444977569581065E9, 0.0, 2022-02-10 23:55:56.958
86.0, -10797.792470192013, -12596.705567444036, -7863.857789499497, -15452.498549520798, -923.6858396155644, -1777.0977946636433, -2953.961843724471, -4532.084409246971, -20458.305830753547, -18055.314487852393, -23272.591623376804, -13835.103968990323, -7730.775503012598, -12535.372380658673, -6855.168265720399, -9296.738719551411, 0.01003125, -0.022625, 0.9880312499999999, 192.0, 0.0, 32.0, 127.5, 40.0, 15.0, 120.0, 0.0, 0.0, 0.0, 1.6444977569581132E9, 0.0, 2022-02-10 23:55:56.958
88.0, -10810.443557553715, -12608.574343749804, -7874.519571604678, -15456.030125144736, -930.8160460968073, -1784.5409255672605, -2961.337919394722, -4537.3147174495125, -20465.547795957067, -18069.70901128161, -23294.585739920825, -13847.240966229554, -7733.904747236342, -12547.129398242165, -6862.633748368472, -9302.416062643058, 0.01003125, -0.022625, 0.9880312499999999, 192.0, 0.0, 0.0, 0.0, 0.0, 0.0, 0.0, 0.0, 0.0, 0.0, 1.64449775695812E9, 0.0, 2022-02-10 23:55:56.958
90.0, -10790.103470099386, -12603.63460822518, -7866.919978489874, -15456.655973989486, -921.5400721478549, -1774.9073237070231, -2945.378773853633, -4518.449845129233, -20457.94820284226, -18059.85189197682, -23284.728620616035, -13840.93777429316, -7725.455787832236, -12534.523014369372, -6859.705669844827, -9300.046777730797, 0.01003125, -0.022625, 0.9880312499999999, 192.0, 0.0, 0.0, 0.0, 0.0, 0.0, 0.0, 0.0, 0.0, 0.0, 1.6444977569581268E9, 0.0, 2022-02-10 23:55:56.958
92.0, -10801.212287093675, -12607.233239082485, -7885.427222898868, -15464.34497408211, -934.8393600987625, -1789.078329691688, -2960.2650356608674, -4540.354554695435, -20458.90932785384, -18051.894670950733, -23286.583815405826, -13842.524748149484, -7722.058322675029, -12538.8592527937, -6858.588082622062, -9301.03025448683, 0.01003125, -0.022625, 0.9880312499999999, 192.0, 0.0, 0.0, 0.0, 0.0, 0.0, 0.0, 0.0, 0.0, 0.0, 1.6444977569581337E9, 0.0, 2022-02-10 23:55:56.958
94.0, -10798.798298692502, -12596.951436633044, -7879.839286785042, -15462.310965336677, -936.8286653552849, -1783.4456900889506, -2961.2932159058114, -4531.167987724303, -20460.585708687988, -18063.80815074541, -23295.52451318795, -13852.515977921008, -7739.805607772542, -12541.00502026141, -6870.948597305846, -9306.573487111746, 0.01003125, -0.022625, 0.9880312499999999, 192.0, 0.0, 0.0, 0.0, 0.0, 0.0, 0.0, 0.0, 0.0, 0.0, 1.6444977569581409E9, 0.0, 2022-02-10 23:55:56.958
96.0, -10799.312388814973, -12613.983465907988, -7876.46417337229, -15460.276956591244, -929.7431623629526, -1775.8013934852356, -2969.3621956541774, -4533.51492089211, -20464.989002345683, -18068.90434848122, -23287.209664250575, -13838.032047513969, -7744.275956663604, -12550.39275293264, -6869.629844382983, -9304.718292321955, 0.009015625, -0.021312499999999998, 0.991015625, 192.0, 0.0, 32.0, 127.5, 48.0, 15.5, 8.0, 0.0, 0.0, 0.0, 1.6444977569581475E9, 0.0, 2022-02-10 23:55:56.958
98.0, -10801.838135938422, -12612.150622862653, -7881.806240297108, -15456.588918756119, -933.2747379868911, -1776.2931318632523, -2965.964730496971, -4532.866720302906, -20462.351496499956, -18070.267804892996, -23296.32917598834, -13850.012582542013, -7734.999982714651, -12540.9603167725, -6871.507390917229, -9307.55696386778, 0.009015625, -0.021312499999999998, 0.991015625, 192.0, 0.0, 0.0, 0.0, 0.0, 0.0, 0.0, 0.0, 0.0, 0.0, 1.6444977569581544E9, 0.0, 2022-02-10 23:55:56.958
100.0, -10788.47179275415, -12597.331416288784, -7868.596359324022, -15451.515072764763, -918.7908075798521, -1764.8937421910457, -2953.2912913908117, -4523.814263798507, -20462.396199988867, -18061.014182688497, -23287.45553343958, -13839.797835325937, -7736.586956570978, -12536.601726603714, -6866.388841436964, -9301.074957975741, 0.009015625, -0.021312499999999998, 0.991015625, 192.0, 0.0, 0.0, 0.0, 0.0, 0.0, 0.0, 0.0, 0.0, 0.0, 1.6444977569581633E9, 0.0, 2022-02-10 23:55:56.958
102.0, -10802.821612694457, -12606.674445471102, -7879.1463827069265, -15459.114665879568, -936.2028165105363, -1782.1269371660874, -2972.044404988814, -4535.191301726259, -20460.04926682106, -18049.77125522748, -23279.40890543567, -13830.723027077083, -7733.703581536243, -12521.581354329748, -6866.053565270134, -9302.930152765532, 0.009015625, -0.021312499999999998, 0.991015625, 192.0, 0.0, 0.0, 0.0, 0.0, 0.0, 0.0, 0.0, 0.0, 0.0, 1.64449775695817E9, 0.0, 2022-02-10 23:55:56.958
104.0, -10802.463984783171, -12612.977637407499, -7879.459307129301, -15460.835750202627, -924.6693163715979, -1778.5059545643276, -2966.0094339858815, -4533.067886003004, -20469.928737870305, -18072.726496783078, -23296.999728322, -13853.812379099416, -7729.8143780010205, -12539.149825471619, -6874.904856074436, -9307.154632467584, 0.009015625, -0.021312499999999998, 0.991015625, 192.0, 0.0, 0.0, 0.0, 0.0, 0.0, 0.0, 0.0, 0.0, 0.0, 1.6444977574376495E9, 0.0, 2022-02-10 23:55:57.437
106.0, -10795.08790911292, -12602.673483213603, -7873.8043157821085, -15456.946546667403, -919.5954703802432, -1783.1774691554867, -2962.7460792954066, -4536.4206476713, -20461.6809441663, -18074.179360172675, -23275.407943178172, -13836.065094001902, -7738.48685484968, -12541.139130728143, -6868.132277504477, -9307.065225489763, 0.006, -0.016, 0.988, 192.0, 0.0, 24.0, 127.5, 64.0, 15.0, 112.0, 0.0, 0.0, 0.0, 1.6444977574378457E9, 0.0, 2022-02-10 23:55:57.437
108.0, -10810.823537209457, -12604.372215792206, -7877.447650128323, -15456.611270500574, -928.6702786290979, -1791.492318092861, -2963.9083700070823, -4536.711220349219, -20462.932641855794, -18071.452447349126, -23289.266024740464, -13848.202091241134, -7732.183662913283, -12552.15854074461, -6869.831010083081, -9308.696902835001, 0.006, -0.016, 0.988, 192.0, 0.0, 0.0, 0.0, 0.0, 0.0, 0.0, 0.0, 0.0, 0.0, 1.6444977574378533E9, 0.0, 2022-02-10 23:55:57.437
110.0, -10798.127746358841, -12604.953361148044, -7865.869446500475, -15455.985421655825, -918.3214209462907, -1777.6118847861153, -2956.4205356145544, -4530.497435390644, -20471.91804312683, -18070.15604617072, -23289.489542185016, -13849.163216252711, -7734.709410036732, -12553.142017500642, -6873.317882218109, -9306.305266178282, 0.006, -0.016, 0.988, 192.0, 0.0, 0.0, 0.0, 0.0, 0.0, 0.0, 0.0, 0.0, 0.0, 1.6444977574378607E9, 0.0, 2022-02-10 23:55:57.437
112.0, -10806.710816229679, -12608.015550138422, -7869.177504679859, -15455.471331533354, -925.7422001054526, -1781.7693092548025, -2974.5478003678086, -4537.649993616342, -20468.162950058337, -18059.561319298904, -23283.923957815645, -13843.463521416608, -7735.514072837123, -12554.281956467863, -6865.02538502519, -9303.243077187906, 0.006, -0.016, 0.988, 192.0, 0.0, 0.0, 0.0, 0.0, 0.0, 0.0, 0.0, 0.0, 0.0, 1.6444977574378676E9, 0.0, 2022-02-10 23:55:57.437
114.0, -10789.857600910378, -12608.797861194356, -7863.857789499497, -15447.134130851524, -910.7665313203969, -1770.1240503935876, -2951.056116945281, -4521.780255053074, -20464.96665060123, -18060.85772047731, -23289.266024740464, -13834.142843978745, -7735.089389692473, -12538.56868011578, -6869.428678682885, -9304.181850455028, 0.006, -0.016, 0.988, 192.0, 0.0, 0.0, 0.0, 0.0, 0.0, 0.0, 0.0, 0.0, 0.0, 1.6444977574378748E9, 0.0, 2022-02-10 23:55:57.437
116.0, -10795.020853879554, -12606.853259426745, -7865.578873822556, -15444.161348838968, -911.4370836540561, -1765.9889776693558, -2953.335994879722, -4527.859929544918, -20463.49143546718, -18063.405819345215, -23270.289393697905, -13825.760939808004, -7728.786197756076, -12538.367514415684, -6858.744544833249, -9299.487984119414, 0.008, -0.018000000000000002, 0.99, 192.0, 0.0, 32.0, 127.5, 56.0, 15.0, 120.0, 0.0, 0.0, 0.0, 1.6444977574378817E9, 0.0, 2022-02-10 23:55:57.437
118.0, -10807.269609841063, -12587.9213318731, -7875.503048360712, -15444.183700583424, -922.6129558817096, -1775.0861376626656, -2962.656672317585, -4547.730630365686, -20468.2300052917, -18067.47383683608, -23289.578949162835, -13845.609288884318, -7729.322639623004, -12536.601726603714, -6867.998167037746, -9304.405367899582, 0.008, -0.018000000000000002, 0.99, 192.0, 0.0, 0.0, 0.0, 0.0, 0.0, 0.0, 0.0, 0.0, 0.0, 1.6444977574378889E9, 0.0, 2022-02-10 23:55:57.437
120.0, -10786.482487497628, -12602.137041346676, -7867.076440701061, -15443.446093016399, -899.1659759480925, -1765.1843148689647, -2937.220387127446, -4513.711275304709, -20455.198938274258, -18051.738208739545, -23275.60910887827, -13833.204070711623, -7719.554927296034, -12541.541462128338, -6864.846571069547, -9302.036082987319, 0.008, -0.018000000000000002, 0.99, 192.0, 0.0, 0.0, 0.0, 0.0, 0.0, 0.0, 0.0, 0.0, 0.0, 1.6444977574378955E9, 0.0, 2022-02-10 23:55:57.437
122.0, -10806.42024355176, -12611.681236229091, -7865.109487188994, -15451.67153497595, -907.5255283743774, -1782.909248222023, -2945.8705122316496, -4515.030028227571, -20456.76356038613, -18074.022897961488, -23270.334097186817, -13826.275029930477, -7725.165215154317, -12535.28297368085, -6859.97389077829, -9298.504507363381, 0.008, -0.018000000000000002, 0.99, 192.0, 0.0, 0.0, 0.0, 0.0, 0.0, 0.0, 0.0, 0.0, 0.0, 1.6444977574379036E9, 0.0, 2022-02-10 23:55:57.437
124.0, -10809.348322075406, -12605.221582081507, -7869.713946546787, -15456.924194922949, -900.2835631708579, -1781.8140127437132, -2944.9093872200715, -4516.1252637058815, -20464.586670945486, -18071.452447349126, -23291.210626508073, -13842.725913849583, -7727.020409944107, -12538.14399697113, -6866.791172837159, -9304.986513255419, 0.008, -0.018000000000000002, 0.99, 192.0, 0.0, 0.0, 0.0, 0.0, 0.0, 0.0, 0.0, 0.0, 0.0, 1.6444977574379103E9, 0.0, 2022-02-10 23:55:57.437
126.0, -10809.594191264414, -12618.364407821227, -7873.960777993296, -15455.560738511174, -896.9308015025618, -1773.1638876395093, -2955.72763153644, -4526.94350802225, -20468.60998494744, -18074.715802039602, -23280.481789169527, -13836.646239357739, -7724.472311076202, -12542.90491854011, -6861.270291956698, -9302.728987065433, 0.004, -0.018000000000000002, 0.988, 192.0, 0.0, 16.0, 127.5, 56.0, 15.0, 112.0, 0.0, 0.0, 0.0, 1.6444977574379177E9, 0.0, 2022-02-10 23:55:57.437
