%OpenBCI Raw EEG Data
%Number of channels = 16
%Sample Rate = 125 Hz
%Board = OpenBCI_GUI$BoardCytonSerialDaisy
Sample Index, EXG Channel 0, EXG Channel 1, EXG Channel 2, EXG Channel 3, EXG Channel 4, EXG Channel 5, EXG Channel 6, EXG Channel 7, EXG Channel 8, EXG Channel 9, EXG Channel 10, EXG Channel 11, EXG Channel 12, EXG Channel 13, EXG Channel 14, EXG Channel 15, Accel Channel 0, Accel Channel 1, Accel Channel 2, Other, Other, Other, Other, Other, Other, Other, Analog Channel 0, Analog Channel 1, Analog Channel 2, Timestamp, Other, Timestamp (Formatted)
0.0, -9620.168461819705, -11541.367952986713, -6007.098377597139, -13793.708538259094, 112.3622193768286, -1011.3493813692787, -1716.3234014896634, -2891.28755227179, 0.0, 0.0, 0.0, 0.0, 0.0, 0.0, 0.0, 0.0, 0.0, 0.0, 0.0, 192.0, 0.0, 0.0, 0.0, 0.0, 0.0, 0.0, 0.0, 0.0, 0.0, 1.6444975164015942E9, 0.0, 2022-02-10 23:51:56.401
84.0, -9636.082903871884, -11543.826644876795, -6017.737807957865, -13796.100174915813, 103.13094891678679, -1011.9081749806613, -1719.8773288580574, -2894.014465095337, -20613.091661106548, -16707.012558819362, -22305.878675684773, -12614.430500797094, -7058.055050141222, -11655.78653285343, -4907.079625973657, -8472.316977061866, 0.004, -0.028, 0.99, 192.0, 0.0, 16.0, 127.5, 16.0, 15.0, 120.0, 0.0, 0.0, 0.0, 1.644497516401602E9, 0.0, 2022-02-10 23:51:56.401
86.0, -9618.536784474467, -11521.407845188123, -6009.691179953955, -13794.021462681469, 116.00555372304366, -1003.8615469767508, -1714.401151466507, -2889.6111714376416, -20615.058614618614, -16701.424622705534, -22295.216893579593, -12610.138965861675, -7056.512779773806, -11651.092666517814, -4903.860974772093, -8468.606587482285, 0.004, -0.028, 0.99, 192.0, 0.0, 0.0, 0.0, 0.0, 0.0, 0.0, 0.0, 0.0, 0.0, 1.6444975164016087E9, 0.0, 2022-02-10 23:51:56.401
88.0, -9632.126645103293, -11533.790711616364, -6018.47541552489, -13796.122526660267, 104.1144256728203, -1012.7798930144183, -1714.8034828667026, -2893.4333197394994, -20613.65045471793, -16696.50723892537, -22305.096364628836, -12611.815346695823, -7053.472942527884, -11658.02170729896, -4901.692855559928, -8471.132334605734, 0.004, -0.028, 0.99, 192.0, 0.0, 0.0, 0.0, 0.0, 0.0, 0.0, 0.0, 0.0, 0.0, 1.6444975164016156E9, 0.0, 2022-02-10 23:51:56.401
90.0, -9619.184985063672, -11515.216411974003, -6015.994371890351, -13797.888314472237, 107.57894606339289, -1014.1657011706474, -1710.1990235089092, -2892.2933807722784, -20610.543562238643, -16701.15640177207, -22304.22464659508, -12617.582096765293, -7065.073497900188, -11650.712686862074, -4907.794881796227, -8472.29462531741, 0.004, -0.028, 0.99, 192.0, 0.0, 0.0, 0.0, 0.0, 0.0, 0.0, 0.0, 0.0, 0.0, 1.644497516401622E9, 0.0, 2022-02-10 23:51:56.401
92.0, -9628.863290412819, -11540.630345419688, -6012.976886388885, -13806.06905294288, 116.31847814541796, -1007.9072127231614, -1725.7334859053476, -2890.95227610496, -20612.711681450808, -16702.430451206023, -22291.998242378027, -12612.865878685223, -7061.139590876054, -11653.551358407898, -4903.3021811607105, -8470.484134016531, 0.004, -0.028, 0.99, 192.0, 0.0, 0.0, 0.0, 0.0, 0.0, 0.0, 0.0, 0.0, 0.0, 1.6444975164016287E9, 0.0, 2022-02-10 23:51:56.401
94.0, -9636.61934573881, -11540.630345419688, -6021.4481975374465, -13796.457802827097, 116.54199558997102, -1018.8819192507171, -1716.43516021194, -2890.1699650490245, -20619.640722231954, -16709.538305942813, -22312.94182693265, -12623.505309045948, -7061.5866257651605, -11665.598948669309, -4907.347846907121, -8473.3004538179, 0.002, -0.02, 0.984, 192.0, 0.0, 8.0, 127.5, 48.0, 15.0, 96.0, 0.0, 0.0, 0.0, 1.6444975164016352E9, 0.0, 2022-02-10 23:51:56.401
96.0, -9622.984781621073, -11538.864557607718, -6015.8155579347085, -13800.21289589559, 131.13768471928654, -1003.1239394097257, -1707.181538007443, -2882.3021510007566, -20617.137326852957, -16692.506276667867, -22301.363623304802, -12616.576268264804, -7070.124992147088, -11683.346233766822, -4899.167108436479, -8467.421945026153, 0.002, -0.02, 0.984, 192.0, 0.0, 0.0, 0.0, 0.0, 0.0, 0.0, 0.0, 0.0, 0.0, 1.6444975164016418E9, 0.0, 2022-02-10 23:51:56.401
98.0, -9637.669877728209, -11532.740179626964, -6026.85731969563, -13808.550096577419, 109.07651294189847, -1020.9606314850607, -1728.9744888513671, -2900.0717878427254, -20620.780661199173, -16704.531515184823, -22307.286835585455, -12625.896945702667, -7062.435992054462, -11672.483285961544, -4902.676332315962, -8472.67460497315, 0.002, -0.02, 0.984, 192.0, 0.0, 0.0, 0.0, 0.0, 0.0, 0.0, 0.0, 0.0, 0.0, 1.6444975164016483E9, 0.0, 2022-02-10 23:51:56.401
100.0, -9620.414331008713, -11525.56526965681, -6016.799034690743, -13811.366416378787, 121.30291715895143, -1010.5894220577982, -1735.657660443504, -2897.344875019178, -20615.12566985198, -16707.146669286092, -22318.32859734638, -12636.31285861884, -7062.771268221291, -11673.26559701748, -4908.241916685333, -8476.876732930748, 0.002, -0.02, 0.984, 192.0, 0.0, 0.0, 0.0, 0.0, 0.0, 0.0, 0.0, 0.0, 0.0, 1.6444975164016547E9, 0.0, 2022-02-10 23:51:56.401
102.0, -9626.784578178474, -11543.580775687788, -6020.3976655480465, -13811.500526845519, 115.29029790047383, -1026.2356431765131, -1723.9900498378338, -2907.6490292130748, -20620.33362631007, -16705.4926401964, -22304.761088462008, -12629.205003882053, -7073.813029982213, -11678.630015686753, -4907.906640518504, -8476.452049786098, 0.002, -0.02, 0.984, 192.0, 0.0, 0.0, 0.0, 0.0, 0.0, 0.0, 0.0, 0.0, 0.0, 1.6444975164016614E9, 0.0, 2022-02-10 23:51:56.401
104.0, -9646.43176155469, -11544.653659421643, -6026.85731969563, -13811.858154756805, 115.8714432563118, -1032.114151968259, -1727.0522388282109, -2902.664590199541, -20623.79814670064, -16710.58883793221, -22320.831992725372, -12641.8337394993, -7073.969492193401, -11684.620283200775, -4915.215660955389, -8484.073994645358, 0.006, -0.02, 0.982, 192.0, 0.0, 24.0, 127.5, 48.0, 15.0, 88.0, 0.0, 0.0, 0.0, 1.644497516401668E9, 0.0, 2022-02-10 23:51:56.401
106.0, -9630.584374735878, -11538.529281440888, -6009.087682853661, -13813.467480357585, 126.35441140585083, -1016.8926139941948, -1723.7441806488255, -2896.2943430297787, -20617.89728616444, -16707.616055919654, -22301.52008551599, -12627.908602703645, -7067.085154901166, -11670.650442916209, -4907.325495162666, -8476.340291063821, 0.006, -0.02, 0.982, 192.0, 0.0, 0.0, 0.0, 0.0, 0.0, 0.0, 0.0, 0.0, 0.0, 1.6444975164016745E9, 0.0, 2022-02-10 23:51:56.401
108.0, -9634.026543381995, -11524.537089411866, -6018.877746925086, -13818.54132634894, 116.76551303452409, -1024.3580966422674, -1733.109561575599, -2905.056226856259, -20617.40554778642, -16703.45863145097, -22307.89033268575, -12634.725884762513, -7065.118201389098, -11656.188864253625, -4907.861937029593, -8475.446221285609, 0.006, -0.02, 0.982, 192.0, 0.0, 0.0, 0.0, 0.0, 0.0, 0.0, 0.0, 0.0, 0.0, 1.644497516401681E9, 0.0, 2022-02-10 23:51:56.401
110.0, -9625.823453166897, -11516.557516641322, -6017.089607368661, -13813.132204190757, 127.13672246178658, -1010.3882563577005, -1731.0532010857107, -2892.628656939108, -20610.767079683195, -16699.16709651555, -22314.2158763666, -12642.057256943854, -7053.562349505705, -11654.534835163931, -4910.253573686311, -8474.999186396502, 0.006, -0.02, 0.982, 192.0, 0.0, 0.0, 0.0, 0.0, 0.0, 0.0, 0.0, 0.0, 0.0, 1.6444975164016876E9, 0.0, 2022-02-10 23:51:56.401
112.0, -9631.724313703098, -11550.28629902438, -6016.687275968466, -13814.585067580352, 120.31944040291792, -1021.3406111408009, -1740.396230268029, -2903.603363466664, -20621.585323999563, -16700.262331993858, -22310.304321086922, -12627.796843981367, -7076.361128850118, -11681.379280254756, -4909.4042073970095, -8473.702785218095, 0.006, -0.02, 0.982, 192.0, 0.0, 0.0, 0.0, 0.0, 0.0, 0.0, 0.0, 0.0, 0.0, 1.644497516401694E9, 0.0, 2022-02-10 23:51:56.401
114.0, -9636.28406957198, -11549.794560646364, -6015.703799212432, -13810.517050089486, 116.49729210106041, -1023.6428408196975, -1747.7946576827358, -2903.469252999932, -20628.08968163606, -16706.342006485702, -22323.447146826646, -12640.64909704317, -7074.416527082507, -11685.3578907678, -4918.993105768336, -8479.715404476572, 0.006, -0.02, 0.99, 192.0, 0.0, 24.0, 127.5, 48.0, 15.0, 120.0, 0.0, 0.0, 0.0, 1.6444975164017043E9, 0.0, 2022-02-10 23:51:56.401
116.0, -9623.811796165919, -11528.403941202634, -6007.701874697433, -13812.506355346008, 137.44087665568313, -1006.0520179333708, -1721.1290265475545, -2889.2758952708123, -20617.114975108503, -16701.871657594642, -22303.956425661618, -12634.859995229244, -7065.900512445035, -11658.379335210246, -4908.979524252359, -8468.472477015554, 0.006, -0.02, 0.99, 192.0, 0.0, 0.0, 0.0, 0.0, 0.0, 0.0, 0.0, 0.0, 0.0, 1.6444975164017107E9, 0.0, 2022-02-10 23:51:56.401
118.0, -9624.817624666408, -11526.504042923933, -6017.491938768857, -13814.741529791538, 115.8714432563118, -1017.2949453943903, -1739.2115878118977, -2901.3011337877674, -20618.299617564633, -16701.58108491672, -22307.353890818824, -12634.211794640041, -7054.2552535838195, -11646.532910648932, -4906.386721895543, -8469.72417470505, 0.006, -0.02, 0.99, 192.0, 0.0, 0.0, 0.0, 0.0, 0.0, 0.0, 0.0, 0.0, 0.0, 1.6444975164017172E9, 0.0, 2022-02-10 23:51:56.401
120.0, -9615.85457513983, -11516.043426518849, -6006.316066541203, -13808.460689599597, 135.4739231436161, -1009.2259656460245, -1725.7111341608925, -2892.7404156613848, -20617.137326852957, -16694.674395880033, -22315.579332778376, -12640.470283087527, -7072.11429740361, -11658.871073588261, -4913.181652209956, -8470.618244483263, 0.006, -0.02, 0.99, 192.0, 0.0, 0.0, 0.0, 0.0, 0.0, 0.0, 0.0, 0.0, 0.0, 1.6444975164017243E9, 0.0, 2022-02-10 23:51:56.401
122.0, -9639.726238218098, -11529.208604003026, -6010.384084032069, -13808.214820410589, 129.7518765630575, -1024.6039658312757, -1722.6042416816047, -2906.665552457041, -20617.94198965335, -16698.07186103724, -22300.000166893027, -12624.578192779803, -7058.904416430523, -11658.893425332717, -4901.737559048839, -8470.841761927815, 0.006, -0.022, 0.99, 192.0, 0.0, 24.0, 127.5, 32.0, 15.0, 120.0, 0.0, 0.0, 0.0, 1.644497516401731E9, 0.0, 2022-02-10 23:51:56.401
124.0, -9645.537691776479, -11539.870386108207, -6011.836947421664, -13806.516087831986, 123.04635322646538, -1022.8158262748511, -1715.8316631116468, -2891.7122354164408, -20623.97696065628, -16701.469326194445, -22315.02053916699, -12642.996030210976, -7063.441820554951, -11687.056623346403, -4905.224431183867, -8473.680433473639, 0.006, -0.022, 0.99, 192.0, 0.0, 0.0, 0.0, 0.0, 0.0, 0.0, 0.0, 0.0, 0.0, 1.6444975164017377E9, 0.0, 2022-02-10 23:51:56.401
126.0, -9633.266584070514, -11538.015191318416, -6000.303447282726, -13804.102099430813, 141.53124589100432, -1013.3163348813457, -1707.561517663183, -2888.247715025868, -20618.769004198195, -16691.008709789363, -22307.89033268575, -12628.512099803937, -7057.049221640733, -11673.064431317382, -4900.508213103797, -8465.946729892103, 0.006, -0.022, 0.99, 192.0, 0.0, 0.0, 0.0, 0.0, 0.0, 0.0, 0.0, 0.0, 0.0, 1.6444975164017444E9, 0.0, 2022-02-10 23:51:56.401
128.0, -9640.28503182948, -11546.66531642262, -6014.943839900951, -13808.2595238995, 118.44189386867212, -1020.2006721735803, -1727.3875149950404, -2897.2331162969012, -20620.80301294363, -16704.620922162645, -22304.98460590656, -12637.11752141923, -7054.702288472926, -11656.25591948699, -4896.6637130574845, -8472.652253228694, 0.006, -0.022, 0.99, 192.0, 0.0, 0.0, 0.0, 0.0, 0.0, 0.0, 0.0, 0.0, 0.0, 1.6444975164017513E9, 0.0, 2022-02-10 23:51:56.401
130.0, -9632.707790459132, -11531.242612748458, -6010.6523049655325, -13803.409195352699, 124.00747823804359, -1016.4455791050887, -1731.5449394637276, -2897.836613397195, -20620.37832979898, -16699.12239302664, -22318.12743164628, -12644.851225000766, -7064.335890333163, -11667.565902181375, -4906.274963173266, -8473.211046840077, 0.006, -0.022, 0.99, 192.0, 0.0, 0.0, 0.0, 0.0, 0.0, 0.0, 0.0, 0.0, 0.0, 1.6444975164017577E9, 0.0, 2022-02-10 23:51:56.401
132.0, -9644.800084209453, -11544.452493721545, -6013.71449395591, -13806.270218642978, 117.61487932382576, -1023.5310820974211, -1715.7422561338255, -2900.2282500539127, -20625.563934512607, -16705.380881474124, -22303.688204728154, -12627.327457347807, -7066.593416523149, -11689.3588530253, -4904.196250938922, -8472.58519799533, 0.006, -0.022, 0.986, 192.0, 0.0, 24.0, 127.5, 40.0, 15.0, 88.0, 0.0, 0.0, 0.0, 1.6444975164017644E9, 0.0, 2022-02-10 23:51:56.401
134.0, -9646.699982488153, -11542.887871609673, -6018.251898080337, -13810.986436723048, 106.30489662944039, -1020.0889134513037, -1724.3923812380292, -2908.1631193355465, -20629.542545025655, -16709.15832628707, -22319.535591546966, -12641.610222054747, -7068.985053179867, -11678.138277308737, -4908.487785874341, -8474.887427674226, 0.006, -0.022, 0.986, 192.0, 0.0, 0.0, 0.0, 0.0, 0.0, 0.0, 0.0, 0.0, 0.0, 1.6444975164017713E9, 0.0, 2022-02-10 23:51:56.401
136.0, -9618.290915285459, -11518.211545731014, -6006.80780491922, -13807.387805865743, 124.83449278288994, -1008.8012825013736, -1712.7918258657248, -2891.1981452939685, -20619.238390831757, -16704.755032629375, -22305.677509984675, -12632.960096950543, -7060.290224586753, -11658.491093932522, -4903.257477671799, -8472.160514850679, 0.006, -0.022, 0.986, 192.0, 0.0, 0.0, 0.0, 0.0, 0.0, 0.0, 0.0, 0.0, 0.0, 1.6444975164017777E9, 0.0, 2022-02-10 23:51:56.401
138.0, -9642.609613252833, -11541.18913903107, -6017.111959113116, -13808.818317510882, 109.5235478310046, -1024.3133931533569, -1731.5225877192722, -2903.4916047443876, -20619.730129209773, -16701.78225061682, -22299.64253898174, -12635.59760279627, -7070.415564825006, -11678.227684286558, -4907.9960474963245, -8470.43943052762, 0.006, -0.022, 0.986, 192.0, 0.0, 0.0, 0.0, 0.0, 0.0, 0.0, 0.0, 0.0, 0.0, 1.6444975164017844E9, 0.0, 2022-02-10 23:51:56.401
140.0, -9629.690304957665, -11517.116310252704, -6007.634819464067, -13802.44807034112, 118.62070782431458, -992.082177648804, -1720.6372881695377, -2892.8521743836613, -20622.635855988963, -16695.5908174027, -22304.291701828446, -12648.718076791534, -7075.779983494281, -11673.377355739756, -4913.82985279916, -8471.892293917215, 0.006, -0.022, 0.986, 192.0, 0.0, 0.0, 0.0, 0.0, 0.0, 0.0, 0.0, 0.0, 0.0, 1.644497516401791E9, 0.0, 2022-02-10 23:51:56.401
142.0, -9632.95365964814, -11524.872365578696, -6007.299543297237, -13804.146802919722, 112.25046065455207, -1002.3416283537899, -1719.9220323469679, -2888.5829911926976, -20614.812745429605, -16677.240035204894, -22297.832047680862, -12620.979561922499, -7056.244558840342, -11647.963422294071, -4906.342018406632, -8461.05169785639, 0.005, -0.023, 0.984, 192.0, 0.0, 16.0, 127.5, 32.0, 15.0, 88.0, 0.0, 0.0, 0.0, 1.6444975164017985E9, 0.0, 2022-02-10 23:51:56.401
144.0, -9647.638755755277, -11548.632269934687, -6010.629953221078, -13805.39850060922, 104.94144021766665, -1017.049076205382, -1721.7101719033924, -2903.737473933396, -20624.08871937856, -16702.676320395032, -22319.826164224884, -12634.837643484789, -7067.375727579085, -11672.058602816893, -4917.920222034481, -8471.311148561377, 0.005, -0.023, 0.984, 192.0, 0.0, 0.0, 0.0, 0.0, 0.0, 0.0, 0.0, 0.0, 0.0, 1.6444975164018052E9, 0.0, 2022-02-10 23:51:56.401
146.0, -9636.217014338616, -11530.348542970247, -6007.947743886441, -13809.578276822362, 117.32430664590677, -1010.9246982246278, -1703.6499623835043, -2894.886183129094, -20628.80493745863, -16704.73268088492, -22307.80092570793, -12627.707437003546, -7067.532189790272, -11654.4007246972, -4910.655905086506, -8471.646424728206, 0.005, -0.023, 0.984, 192.0, 0.0, 0.0, 0.0, 0.0, 0.0, 0.0, 0.0, 0.0, 0.0, 1.6444975164018135E9, 0.0, 2022-02-10 23:51:56.401
148.0, -9647.683459244188, -11536.987011073472, -6022.386970804569, -13812.97574197957, 96.40307383573936, -1025.140407698203, -1725.4876167163393, -2903.446901255477, -20632.358864827023, -16703.3915762176, -22310.661948998208, -12635.21762314053, -7073.723623004392, -11682.4074604997, -4913.963963265892, -8477.34611956431, 0.005, -0.023, 0.984, 192.0, 0.0, 0.0, 0.0, 0.0, 0.0, 0.0, 0.0, 0.0, 0.0, 1.644497516401821E9, 0.0, 2022-02-10 23:51:56.401
150.0, -9638.563947506422, -11525.162938256615, -6018.721284713899, -13809.712387289095, 106.90839372973367, -1012.9587069700608, -1719.6091079245937, -2893.1874505504907, -20629.631952003474, -16702.25163725038, -22318.79798397994, -12642.54899532187, -7062.570102521194, -11686.69899543512, -4919.551899379719, -8479.022500398458, 0.005, -0.023, 0.984, 192.0, 0.0, 0.0, 0.0, 0.0, 0.0, 0.0, 0.0, 0.0, 0.0, 1.6444975164018276E9, 0.0, 2022-02-10 23:51:56.401
152.0, -9635.680572471687, -11529.722694125498, -6016.128482357083, -13810.472346600574, 108.36125711932864, -1007.2590121339575, -1719.854977113602, -2884.5820289351977, -20628.871992691995, -16701.938712828007, -22308.046794896938, -12623.326495090307, -7074.818858482702, -11662.469704445566, -4910.097111475124, -8471.48996251702, 0.0035, -0.0225, 0.987, 192.0, 0.0, 8.0, 127.5, 40.0, 15.0, 120.0, 0.0, 0.0, 0.0, 1.644497516401834E9, 0.0, 2022-02-10 23:51:56.401
154.0, -9640.441494040668, -11535.288278494869, -6013.803900933731, -13813.154555935213, 108.29420188596272, -1003.2580498764576, -1724.593546938127, -2895.3555697626557, -20626.010969401716, -16703.749204128886, -22320.250847369534, -12641.78903601039, -7066.369899078596, -11669.5552074379, -4911.192346953434, -8473.479267773542, 0.0035, -0.0225, 0.987, 192.0, 0.0, 0.0, 0.0, 0.0, 0.0, 0.0, 0.0, 0.0, 0.0, 1.6444975164018407E9, 0.0, 2022-02-10 23:51:56.401
156.0, -9618.447377496646, -11521.296086465847, -6006.606639219122, -13812.126375690268, 119.13479794678665, -1004.5544510548654, -1700.2972007152082, -2881.989226578382, -20620.065405376605, -16691.88042782312, -22306.303358829424, -12634.100035917763, -7069.6332537690705, -11657.529968920942, -4909.963001008392, -8472.29462531741, 0.0035, -0.0225, 0.987, 192.0, 0.0, 0.0, 0.0, 0.0, 0.0, 0.0, 0.0, 0.0, 0.0, 1.6444975164018471E9, 0.0, 2022-02-10 23:51:56.401
158.0, -9647.057610399439, -11533.56719417181, -6012.373389288591, -13810.248829156022, 109.32238213090685, -1016.3785238717228, -1713.8423578551244, -2878.323540487712, -20623.88755367846, -16701.044643049794, -22308.02444315248, -12632.781282994902, -7060.223169353387, -11665.30837599139, -4907.97369575187, -8471.400555539198, 0.0035, -0.0225, 0.987, 192.0, 0.0, 0.0, 0.0, 0.0, 0.0, 0.0, 0.0, 0.0, 0.0, 1.6444975164018543E9, 0.0, 2022-02-10 23:51:56.401
160.0, -9627.119854345305, -11515.03759801836, -5998.403549004024, -13803.878581986259, 124.54392010497095, -996.7536922399631, -1712.2330322543423, -2881.408081222544, -20619.730129209773, -16697.133087770115, -22312.85241995483, -12635.97758245201, -7061.653680998526, -11663.631995157242, -4911.34880916462, -8470.171209594157, 0.0035, -0.0225, 0.987, 192.0, 0.0, 0.0, 0.0, 0.0, 0.0, 0.0, 0.0, 0.0, 0.0, 1.6444975164018607E9, 0.0, 2022-02-10 23:51:56.401
162.0, -9630.629078224789, -11519.329132953779, -6008.774758431287, -13811.813451267893, 116.43023686769449, -1000.1958608860805, -1714.848186355613, -2881.7433573893736, -20617.47260301979, -16688.482962665912, -22298.390841292246, -12623.393550323672, -7055.4845995288615, -11651.629108384743, -4907.861937029593, -8465.834971169827, 0.00475, -0.02025, 0.9864999999999999, 192.0, 0.0, 24.0, 127.5, 56.0, 15.0, 104.0, 0.0, 0.0, 0.0, 1.6444975164018672E9, 0.0, 2022-02-10 23:51:56.401
164.0, -9641.492026030068, -11517.85391781973, -6005.757272929821, -13814.674474558173, 113.14453043276436, -1000.7993579863737, -1732.6848784309482, -2889.074729570714, -20622.03235888867, -16696.82016334774, -22315.333463589366, -12636.983410952498, -7065.92286418949, -11649.081009516836, -4920.378913924565, -8471.311148561377, 0.00475, -0.02025, 0.9864999999999999, 192.0, 0.0, 0.0, 0.0, 0.0, 0.0, 0.0, 0.0, 0.0, 0.0, 1.644497516401874E9, 0.0, 2022-02-10 23:51:56.401
166.0, -9626.71752294511, -11523.732426611476, -6006.80780491922, -13813.489832102041, 125.08036197189833, -1007.1696051561363, -1698.5537646476944, -2883.6432556680747, -20619.394853042944, -16691.34398595619, -22304.917550673195, -12642.97367846652, -7065.58758802266, -11676.819524385874, -4921.630611614062, -8471.691128217117, 0.00475, -0.02025, 0.9864999999999999, 192.0, 0.0, 0.0, 0.0, 0.0, 0.0, 0.0, 0.0, 0.0, 0.0, 1.6444975164018812E9, 0.0, 2022-02-10 23:51:56.401
168.0, -9639.703886473642, -11523.464205678012, -6013.736845700365, -13812.081672201357, 122.93459450418885, -1015.4173988601445, -1705.214584495376, -2884.023235323815, -20617.69612046434, -16698.049509292785, -22305.74456521804, -12624.600544524259, -7062.123067632087, -11661.620338156265, -4910.968829508881, -8470.10415436079, 0.00475, -0.02025, 0.9864999999999999, 192.0, 0.0, 0.0, 0.0, 0.0, 0.0, 0.0, 0.0, 0.0, 0.0, 1.644497516401888E9, 0.0, 2022-02-10 23:51:56.401
170.0, -9626.941040389662, -11521.13962425466, -6001.309275783215, -13803.990340708535, 123.89571951576706, -1000.1064539082593, -1706.9580205628897, -2864.2642932253234, -20613.404585528922, -16697.513067425858, -22308.158553619214, -12632.200137639064, -7062.346585076641, -11668.59408242632, -4914.478053388364, -8467.645462470706, 0.00475, -0.02025, 0.9864999999999999, 192.0, 0.0, 0.0, 0.0, 0.0, 0.0, 0.0, 0.0, 0.0, 0.0, 1.6444975164018943E9, 0.0, 2022-02-10 23:51:56.401
172.0, -9626.739874689565, -11512.71301659501, -6003.455043250924, -13808.2595238995, 115.69262930066935, -1012.981058714516, -1712.1212735320657, -2885.5208022023207, -20609.98476862726, -16683.409116674557, -22297.11679185829, -12623.237088112484, -7050.4331052819625, -11666.35890798079, -4908.599544596618, -8464.650328713695, 0.007375, -0.019125000000000003, 0.98725, 192.0, 0.0, 40.0, 127.5, 56.0, 15.0, 112.0, 0.0, 0.0, 0.0, 1.644497516401902E9, 0.0, 2022-02-10 23:51:56.401
174.0, -9641.044991140961, -11531.935516826572, -6015.681447467977, -13812.64046581274, 112.92101298821127, -1012.824596503329, -1728.5721574511717, -2893.7685959063288, -20615.662111718906, -16694.339119713204, -22312.18186762117, -12644.381838367206, -7048.913186659001, -11645.616489126265, -4913.852204543616, -8471.646424728206, 0.007375, -0.019125000000000003, 0.98725, 192.0, 0.0, 0.0, 0.0, 0.0, 0.0, 0.0, 0.0, 0.0, 0.0, 1.6444975164019084E9, 0.0, 2022-02-10 23:51:56.401
176.0, -9631.85842416983, -11523.195984744547, -5998.269438537292, -13813.489832102041, 117.61487932382576, -1005.0461894328821, -1699.5148896592725, -2876.7142148869298, -20620.400681543433, -16705.4926401964, -22307.80092570793, -12637.519852819427, -7066.995747923344, -11672.729155150551, -4909.515966119286, -8467.265482814966, 0.007375, -0.019125000000000003, 0.98725, 192.0, 0.0, 0.0, 0.0, 0.0, 0.0, 0.0, 0.0, 0.0, 0.0, 1.644497516401915E9, 0.0, 2022-02-10 23:51:56.401
178.0, -9640.665011485222, -11532.114330782215, -6011.568726488201, -13820.955314750114, 98.92882095918905, -1022.9052332526724, -1721.3525439921075, -2889.9464476044714, -20617.98669314226, -16708.376015231137, -22305.833972195862, -12631.954268450054, -7058.63619549706, -11659.653384644198, -4907.459605629398, -8469.478305516042, 0.007375, -0.019125000000000003, 0.98725, 192.0, 0.0, 0.0, 0.0, 0.0, 0.0, 0.0, 0.0, 0.0, 0.0, 1.6444975164019237E9, 0.0, 2022-02-10 23:51:56.401
180.0, -9635.635868982778, -11518.703284109031, -6006.383121774569, -13819.994189738536, 110.32821063139566, -1022.7487710414853, -1724.8170643826802, -2897.635447697097, -20619.528963509674, -16707.97368383094, -22316.13812638976, -12636.69283827458, -7059.038526897255, -11674.539646451432, -4917.07085574518, -8474.686261974128, 0.007375, -0.019125000000000003, 0.98725, 192.0, 0.0, 0.0, 0.0, 0.0, 0.0, 0.0, 0.0, 0.0, 0.0, 1.64449751640193E9, 0.0, 2022-02-10 23:51:56.401
182.0, -9638.474540528601, -11527.688685380064, -6010.04880786524, -13826.610306097307, 109.03180945298786, -1022.1676256856473, -1733.243672042331, -2892.248677283368, -20620.199515843335, -16702.341044228204, -22307.555056518922, -12631.082550416299, -7062.123067632087, -11668.638785915231, -4913.963963265892, -8479.335424820832, 0.0076875, -0.018562500000000003, 0.988625, 192.0, 0.0, 32.0, 127.5, 56.0, 15.0, 120.0, 0.0, 0.0, 0.0, 1.6444975164019368E9, 0.0, 2022-02-10 23:51:56.401
184.0, -9641.29086032997, -11529.879156336685, -6015.279116067782, -13822.721102562084, 107.17661466319737, -1019.0607332063596, -1716.5692706786717, -2899.177718064513, -20624.2675333342, -16712.131108299625, -22326.08465267237, -12651.60145182627, -7060.089058886655, -11666.962405081083, -4916.869690045081, -8477.279064330944, 0.0076875, -0.018562500000000003, 0.988625, 192.0, 0.0, 0.0, 0.0, 0.0, 0.0, 0.0, 0.0, 0.0, 0.0, 1.6444975164019432E9, 0.0, 2022-02-10 23:51:56.401
186.0, -9627.209261323127, -11525.47586267899, -6004.594982218145, -13814.294494902433, 119.6488880692587, -1003.4145120876447, -1719.72086664687, -2878.94938933246, -20612.242294817246, -16696.842515092198, -22306.03513789596, -12634.59177429578, -7061.519570531795, -11640.185015223626, -4913.5169283767855, -8468.561883993374, 0.0076875, -0.018562500000000003, 0.988625, 192.0, 0.0, 0.0, 0.0, 0.0, 0.0, 0.0, 0.0, 0.0, 0.0, 1.6444975164019496E9, 0.0, 2022-02-10 23:51:56.401
188.0, -9657.96526169363, -11541.211490775526, -6009.177089831483, -13818.161346693201, 103.801501250446, -1028.3590588997674, -1735.1212185765767, -2892.8074708947506, -20624.692216478852, -16705.045605307296, -22307.264483841, -12630.97079169402, -7052.78003844977, -11672.393878983723, -4912.354637665109, -8473.255750328988, 0.0076875, -0.018562500000000003, 0.988625, 192.0, 0.0, 0.0, 0.0, 0.0, 0.0, 0.0, 0.0, 0.0, 0.0, 1.6444975164019563E9, 0.0, 2022-02-10 23:51:56.401
190.0, -9638.094560872862, -11529.85680459223, -6006.897211897041, -13813.40042512422, 104.27088788400745, -1022.435846619111, -1719.0056108243002, -2893.2098022949463, -20628.000274658236, -16711.907590855073, -22323.42479508219, -12651.109713448253, -7073.142477648554, -11670.046945815915, -4921.429445913965, -8476.474401530553, 0.0076875, -0.018562500000000003, 0.988625, 192.0, 0.0, 0.0, 0.0, 0.0, 0.0, 0.0, 0.0, 0.0, 0.0, 1.6444975164019628E9, 0.0, 2022-02-10 23:51:56.401
192.0, -9642.989592908572, -11527.174595257593, -6007.299543297237, -13811.992265223536, 99.3535041038399, -1019.1724919286362, -1724.5041399603058, -2885.789023135784, -20627.32972232458, -16705.06795705175, -22312.092460643347, -12636.603431296759, -7073.8577334711235, -11686.050794845914, -4918.858995301604, -8471.087631116823, 0.002, -0.022, 0.99, 192.0, 0.0, 8.0, 127.5, 40.0, 15.0, 120.0, 0.0, 0.0, 0.0, 1.6444975164019692E9, 0.0, 2022-02-10 23:51:56.401
194.0, -9656.668860515221, -11531.71199938202, -6018.274249824793, -13813.914515246692, 103.8238529949013, -1027.6885065661081, -1724.1018085601104, -2889.9017441155606, -20631.55420202663, -16712.555791444276, -22324.3188648604, -12640.246765642974, -7063.665337999504, -11675.970158096572, -4918.702533090417, -8477.055546886391, 0.002, -0.022, 0.99, 192.0, 0.0, 0.0, 0.0, 0.0, 0.0, 0.0, 0.0, 0.0, 0.0, 1.644497516401976E9, 0.0, 2022-02-10 23:51:56.401
196.0, -9630.360857291325, -11539.445702963556, -6004.863203151608, -13811.567582078886, 123.26987067101845, -1013.338686625801, -1723.6100701820935, -2885.0290638243036, -20627.37442581349, -16704.755032629375, -22309.410251308713, -12630.814329482833, -7058.099753630132, -11671.07512606086, -4913.472224887875, -8473.032232884436, 0.002, -0.022, 0.99, 192.0, 0.0, 0.0, 0.0, 0.0, 0.0, 0.0, 0.0, 0.0, 0.0, 1.6444975164019823E9, 0.0, 2022-02-10 23:51:56.401
198.0, -9644.755380720542, -11540.004496574938, -6013.222755577893, -13811.835803012349, 108.13773967477557, -1020.0889134513037, -1727.7674946507807, -2892.04751158327, -20628.246143847246, -16706.945503585997, -22298.524951758976, -12625.606373024748, -7060.178465864476, -11667.051812058904, -4909.851242286115, -8474.10511661829, 0.002, -0.022, 0.99, 192.0, 0.0, 0.0, 0.0, 0.0, 0.0, 0.0, 0.0, 0.0, 0.0, 1.644497516401989E9, 0.0, 2022-02-10 23:51:56.401
200.0, -9641.29086032997, -11532.896641838151, -6013.9380114004625, -13812.394596623732, 114.03860021097664, -1011.4164366026446, -1724.951174849412, -2883.196220778969, -20632.671789249398, -16713.203992033483, -22329.28095212948, -12638.682143531101, -7063.419468810495, -11649.013954283471, -4917.339076678643, -8478.553113764896, 0.002, -0.022, 0.99, 192.0, 0.0, 0.0, 0.0, 0.0, 0.0, 0.0, 0.0, 0.0, 0.0, 1.6444975164019957E9, 0.0, 2022-02-10 23:51:56.401
202.0, -9639.458017284634, -11525.56526965681, -6009.400607276036, -13814.11568094679, 116.49729210106041, -1013.2939831368903, -1719.5867561801383, -2889.410005737544, -20630.19074561486, -16707.101965797185, -22312.3159780879, -12631.708399261046, -7061.318404831696, -11645.795303081906, -4911.058236486702, -8476.407346297186, 0.01, -0.02, 0.99, 192.0, 0.0, 40.0, 127.5, 48.0, 15.0, 120.0, 0.0, 0.0, 0.0, 1.644497516402002E9, 0.0, 2022-02-10 23:51:56.402
0.0, -4846.10406709958, -5838.342706959571, -3073.5660283048187, -7007.875383839058, 94.32436160139581, -491.60426755002356, -832.960108871473, -1456.283206496621, -10316.447653346975, -8350.589376758264, -11162.327070513615, -6322.570898839343, -3531.933251849801, -5843.662422139933, -2459.0942214839724, -4238.985984204529, 0.006, -0.02, 0.986, 192.0, 0.0, 24.0, 127.5, 48.0, 15.0, 104.0, 0.0, 0.0, 0.0, 1.6444975169967115E9, 0.0, 2022-02-10 23:51:56.996
2.0, -9679.221770670625, -11669.5552074379, -6140.35947803968, -14009.604037952906, 195.6001157283921, -982.4262240441113, -1665.115554942555, -2906.57614547922, -20526.791575764608, -16794.541990106343, -22357.3770949098, -12674.400231170683, -7130.497053920872, -11744.008868218527, -5157.061535961811, -8395.47167962452, 0.006, -0.02, 0.986, 192.0, 0.0, 0.0, 0.0, 0.0, 0.0, 0.0, 0.0, 0.0, 0.0, 1.6444975169968405E9, 0.0, 2022-02-10 23:51:56.996
4.0, -9662.972052451618, -11662.693221890118, -6126.568451710756, -14007.480622229652, 213.45915954818244, -980.3028083208571, -1654.9678629598454, -2896.3613982631446, -20506.764412732653, -16783.544931834334, -22333.95246672064, -12657.16703619564, -7114.02381825731, -11730.195490145146, -5147.785562012859, -8384.921656241615, 0.006, -0.02, 0.986, 192.0, 0.0, 0.0, 0.0, 0.0, 0.0, 0.0, 0.0, 0.0, 0.0, 1.644497516996848E9, 0.0, 2022-02-10 23:51:56.996
6.0, -9673.76794502353, -11678.205332542102, -6133.273975047347, -14010.900439131314, 199.3552087968837, -985.24254384548, -1678.4148428934627, -2912.834633926706, -20503.188133619802, -16780.348632377223, -22339.383940623276, -12661.637385086702, -7124.484434662394, -11744.902937996738, -5147.450285846029, -8390.978978989004, 0.006, -0.02, 0.986, 192.0, 0.0, 0.0, 0.0, 0.0, 0.0, 0.0, 0.0, 0.0, 0.0, 1.6444975169968677E9, 0.0, 2022-02-10 23:51:56.996
8.0, -9663.82141874092, -11675.903102863205, -6127.194300555504, -14008.285285030042, 203.69144722121325, -980.5933809987762, -1666.8589910100688, -2902.8434041551836, -20506.160915632358, -16786.71887954699, -22342.401426124743, -12669.08051599032, -7134.833292345202, -11735.55990881442, -5155.340451638753, -8392.923580756615, 0.006, -0.02, 0.986, 192.0, 0.0, 0.0, 127.5, 48.0, 15.5, 8.0, 0.0, 0.0, 0.0, 1.6444975169968743E9, 0.0, 2022-02-10 23:51:56.996
10.0, -9681.00991022705, -11683.21212330009, -6125.204995298982, -14007.368863507374, 192.94025813821057, -984.9072676786504, -1670.6811393119265, -2906.1738140790244, -20508.172572633335, -16784.818981268287, -22335.695902788153, -12661.8385507868, -7123.992696284377, -11720.003094673526, -5145.282166633865, -8388.810859776839, 0.006, -0.02, 0.986, 192.0, 0.0, 0.0, 0.0, 0.0, 0.0, 0.0, 0.0, 0.0, 0.0, 1.6444975169968815E9, 0.0, 2022-02-10 23:51:56.996
12.0, -9687.06723297444, -11696.086728106347, -6135.084466348228, -14006.988883851634, 177.69636841969114, -990.9422386815833, -1679.5547818606833, -2913.572241493731, -20516.219200637246, -16794.541990106343, -22353.063208229927, -12679.138800995208, -7134.453312689461, -11742.51130134002, -5152.725297537482, -8395.538734857886, 0.006, -0.02, 0.986, 192.0, 0.0, 0.0, 0.0, 0.0, 0.0, 0.0, 0.0, 0.0, 0.0, 1.6444975169968884E9, 0.0, 2022-02-10 23:51:56.996
14.0, -9674.259683401548, -11683.480344233554, -6129.608288956677, -14010.095776330922, 180.6467986877917, -991.1434043816811, -1684.2709999407532, -2918.6237357406303, -20511.502982557176, -16790.65278657112, -22341.99909472455, -12670.019289257443, -7138.342516224685, -11731.89422272375, -5152.21120741501, -8393.638836579184, 0.006, -0.02, 0.986, 192.0, 0.0, 0.0, 0.0, 0.0, 0.0, 0.0, 0.0, 0.0, 0.0, 1.6444975169968956E9, 0.0, 2022-02-10 23:51:56.996
16.0, -9686.910770763252, -11685.492001234532, -6138.236062316426, -14006.184221051244, 165.8275921139231, -1005.917907466639, -1699.7831105927362, -2925.508073032865, -20513.559343047065, -16795.74898430693, -22344.010751725527, -12673.8414375593, -7133.805112100257, -11740.343182127855, -5156.189817928054, -8402.244258194478, 0.004, -0.022, 0.987, 192.0, 0.0, 8.0, 127.5, 32.0, 15.0, 112.0, 0.0, 0.0, 0.0, 1.6444975169969022E9, 0.0, 2022-02-10 23:51:56.996
18.0, -9676.696023547176, -11689.582370469854, -6135.017411114862, -14002.518534960573, 170.94614159418842, -1008.7342272680078, -1702.0406367827222, -2916.6567822285633, -20507.971406933237, -16790.093992959737, -22348.27993491649, -12670.64513810219, -7148.780780885313, -11748.769789787506, -5165.398736643641, -8403.09362448378, 0.004, -0.022, 0.987, 192.0, 0.0, 0.0, 0.0, 0.0, 0.0, 0.0, 0.0, 0.0, 0.0, 1.644497516996909E9, 0.0, 2022-02-10 23:51:56.996
20.0, -9685.256741673558, -11711.4647282916, -6136.73849543792, -14004.86546812838, 164.8664671023449, -1008.2871923789016, -1689.7471773323034, -2918.109645618158, -20510.899485456885, -16790.965710993496, -22335.18181266568, -12664.610167099258, -7141.002373814867, -11749.507397354531, -5152.322966137286, -8402.75834831695, 0.004, -0.022, 0.987, 192.0, 0.0, 0.0, 0.0, 0.0, 0.0, 0.0, 0.0, 0.0, 0.0, 1.644497516996915E9, 0.0, 2022-02-10 23:51:56.996
22.0, -9686.284921918503, -11707.776690456474, -6136.939661138018, -14003.569066949973, 151.41071694025004, -1008.3542476122675, -1701.3924361935183, -2934.404067326077, -20517.2920843711, -16799.638187842153, -22354.069036730416, -12675.406059671172, -7157.319147267241, -11749.507397354531, -5159.45317261853, -8407.720435586029, 0.004, -0.022, 0.987, 192.0, 0.0, 0.0, 0.0, 0.0, 0.0, 0.0, 0.0, 0.0, 0.0, 1.6444975169969218E9, 0.0, 2022-02-10 23:51:56.996
24.0, -9656.981784937596, -11688.956521625105, -6125.629678443633, -14000.417470981774, 164.28532174650692, -998.7653492409407, -1694.172822734454, -2912.3875990375996, -20503.81398246455, -16777.867588742683, -22339.18277492318, -12662.889082776199, -7149.876016363623, -11743.762999029517, -5154.736954538459, -8402.37836866121, 0.004, -0.022, 0.987, 192.0, 0.0, 0.0, 0.0, 0.0, 0.0, 0.0, 0.0, 0.0, 0.0, 1.6444975169969285E9, 0.0, 2022-02-10 23:51:56.996
26.0, -9687.06723297444, -11706.346178811335, -6136.179701826537, -14010.051072842012, 152.05891752945394, -1011.7070092805636, -1698.017322780767, -2913.52753800482, -20507.90435169987, -16771.74321076193, -22342.267315658013, -12669.862827046256, -7162.527103725327, -11763.834865550383, -5156.458038861518, -8404.591191362286, 0.003, -0.024, 0.9884999999999999, 192.0, 0.0, 8.0, 127.5, 24.0, 15.0, 120.0, 0.0, 0.0, 0.0, 1.644497516996935E9, 0.0, 2022-02-10 23:51:56.996
28.0, -9697.237276701604, -11724.182870886669, -6133.586899469722, -14012.308599031998, 161.7819263675125, -1008.7789307569184, -1687.5790581201386, -2914.8462909276836, -20518.83435473852, -16797.98415875246, -22357.24298444307, -12685.46434467606, -7168.092688094698, -11749.261528165523, -5163.364727898208, -8407.452214652565, 0.003, -0.024, 0.9884999999999999, 192.0, 0.0, 0.0, 0.0, 0.0, 0.0, 0.0, 0.0, 0.0, 0.0, 1.644497516996941E9, 0.0, 2022-02-10 23:51:56.996
30.0, -9693.81745979994, -11733.168272157702, -6130.904690135085, -14007.614732696384, 155.59049315339246, -1016.7138000385523, -1701.2806774712417, -2911.471177514932, -20520.801308250586, -16798.095917474737, -22344.122510447804, -12667.828818300823, -7154.189903043498, -11754.983574746082, -5154.893416749646, -8400.836098293794, 0.003, -0.024, 0.9884999999999999, 192.0, 0.0, 0.0, 0.0, 0.0, 0.0, 0.0, 0.0, 0.0, 0.0, 1.644497516996948E9, 0.0, 2022-02-10 23:51:56.996
32.0, -9696.410262156756, -11726.12747265428, -6136.090294848716, -14010.766328664582, 140.92774879071104, -1019.8430442622954, -1699.4254826814513, -2919.8083781967616, -20523.818793752052, -16806.746042578943, -22364.529653135498, -12694.069766291354, -7175.401708531584, -11755.363554401822, -5163.051803475833, -8404.61354310674, 0.003, -0.024, 0.9884999999999999, 192.0, 0.0, 0.0, 0.0, 0.0, 0.0, 0.0, 0.0, 0.0, 0.0, 1.6444975169969544E9, 0.0, 2022-02-10 23:51:56.996
34.0, -9683.513305606044, -11726.37334184329, -6129.317716278758, -14009.805203653003, 147.38740293829477, -1011.6846575361083, -1709.4837676863394, -2915.740360705896, -20518.812002994062, -16789.736365048455, -22363.255603701546, -12691.052280789887, -7172.540685241304, -11765.645356851264, -5162.582416842272, -8401.03726399389, 0.003, -0.024, 0.9884999999999999, 192.0, 0.0, 0.0, 0.0, 0.0, 0.0, 0.0, 0.0, 0.0, 0.0, 1.6444975169969609E9, 0.0, 2022-02-10 23:51:56.996
36.0, -9714.358712954368, -11748.143940942758, -6139.040725116816, -14014.432014755252, 119.15714969124195, -1027.3532303992786, -1725.4205614829734, -2934.5158260483536, -20522.12006117345, -16802.298045432337, -22357.84648154336, -12681.575141140836, -7182.889542924112, -11760.012717248526, -5170.182009957077, -8408.346284430776, 0.0045000000000000005, -0.025, 0.98925, 192.0, 0.0, 24.0, 127.5, 24.0, 15.0, 120.0, 0.0, 0.0, 0.0, 1.6444975169969673E9, 0.0, 2022-02-10 23:51:56.996
38.0, -9703.361654682358, -11731.13426341227, -6131.64229770211, -14011.213363553688, 128.34371666237314, -1020.1112651957591, -1721.0619713141884, -2927.9444131784935, -20526.478651342233, -16803.437984399556, -22365.24490895807, -12691.141687767707, -7182.934246413022, -11761.3761736603, -5176.6640158491155, -8413.934220544603, 0.0045000000000000005, -0.025, 0.98925, 192.0, 0.0, 0.0, 0.0, 0.0, 0.0, 0.0, 0.0, 0.0, 0.0, 1.644497516996976E9, 0.0, 2022-02-10 23:51:56.996
40.0, -9710.961247797162, -11752.033144477982, -6133.653954703088, -14013.023854854568, 119.67123981371401, -1022.8605297637617, -1726.5381487057386, -2933.018259169848, -20529.45143335479, -16801.5157343764, -22359.120530977314, -12678.915283550656, -7186.823449948246, -11769.646319108764, -5174.741765825959, -8412.257839710455, 0.0045000000000000005, -0.025, 0.98925, 192.0, 0.0, 0.0, 0.0, 0.0, 0.0, 0.0, 0.0, 0.0, 0.0, 1.6444975169969823E9, 0.0, 2022-02-10 23:51:56.996
42.0, -9712.414111186758, -11755.095333468358, -6134.659783203577, -14010.609866453395, 117.48076885709392, -1016.8702622497395, -1727.8345498841466, -2938.2038638834792, -20534.905259001884, -16806.142545478648, -22374.140903251282, -12690.98522555652, -7199.2957233543075, -11765.019508006515, -5180.419108917607, -8413.889517055693, 0.0045000000000000005, -0.025, 0.98925, 192.0, 0.0, 0.0, 0.0, 0.0, 0.0, 0.0, 0.0, 0.0, 0.0, 1.6444975169969888E9, 0.0, 2022-02-10 23:51:56.996
44.0, -9677.634796814298, -11740.142016427759, -6119.7735213963415, -14002.652645427304, 134.06576324293175, -1015.015067459949, -1710.9589828203898, -2929.1961108679907, -20520.19781115029, -16783.053193456315, -22359.81343505543, -12677.708289350068, -7185.549400514294, -11762.605519605342, -5171.053727990834, -8408.94978153107, 0.0045000000000000005, -0.025, 0.98925, 192.0, 0.0, 0.0, 0.0, 0.0, 0.0, 0.0, 0.0, 0.0, 0.0, 1.6444975169969954E9, 0.0, 2022-02-10 23:51:56.996
46.0, -9701.305294192469, -11753.396600889755, -6125.272050532348, -14006.743014662627, 114.77620777800176, -1029.7001635670858, -1723.8112358821913, -2934.895805704094, -20519.482555327722, -16795.860743029207, -22359.634621099787, -12684.994958042498, -7191.070281394754, -11763.678403339196, -5166.2704546773975, -8410.00031352047, 0.00725, -0.0225, 0.991625, 192.0, 0.0, 40.0, 127.5, 48.0, 15.5, 8.0, 0.0, 0.0, 0.0, 1.644497516997002E9, 0.0, 2022-02-10 23:51:56.997
48.0, -9699.695968591686, -11748.635679320774, -6121.114626063661, -14006.698311173715, 123.91807126022236, -1019.8653960067506, -1720.1902532804315, -2930.9395469355045, -20519.996645450192, -16805.293179189346, -22368.977650282104, -12688.057147032876, -7200.815641977268, -11775.636586622786, -5167.946835511546, -8408.346284430776, 0.00725, -0.0225, 0.991625, 192.0, 0.0, 0.0, 0.0, 0.0, 0.0, 0.0, 0.0, 0.0, 0.0, 1.6444975169970083E9, 0.0, 2022-02-10 23:51:56.997
50.0, -9690.82232604293, -11748.166292687214, -6119.572355696244, -14012.710930432193, 121.48173111459388, -1032.0918002238036, -1708.43323569694, -2927.698543989485, -20520.376625105935, -16794.09495521724, -22353.66670533022, -12682.93859755261, -7197.37347333115, -11781.783316347995, -5164.549370354339, -8405.70877858505, 0.00725, -0.0225, 0.991625, 192.0, 0.0, 0.0, 0.0, 0.0, 0.0, 0.0, 0.0, 0.0, 0.0, 1.6444975169970152E9, 0.0, 2022-02-10 23:51:56.997
52.0, -9702.691102348697, -11754.4247811347, -6131.329373279736, -14014.342607777431, 105.88021348478955, -1035.3775066587339, -1717.7092096458925, -2943.2330063859235, -20520.287218128113, -16798.744118063943, -22368.016525270526, -12696.617865159258, -7199.608647776681, -11786.857162339349, -5168.59503610075, -8412.056674010359, 0.00725, -0.0225, 0.991625, 192.0, 0.0, 0.0, 0.0, 0.0, 0.0, 0.0, 0.0, 0.0, 0.0, 1.644497516997022E9, 0.0, 2022-02-10 23:51:56.997
54.0, -9711.073006519438, -11760.415048648721, -6123.483910975923, -14013.359131021398, 109.12121643080908, -1023.7098960530635, -1729.6003376961157, -2923.0940846316917, -20523.05883444057, -16804.644978600143, -22365.781350824996, -12683.050356274887, -7205.733025757436, -11775.323662200411, -5168.818553545303, -8405.217040207033, 0.00725, -0.0225, 0.991625, 192.0, 0.0, 0.0, 0.0, 0.0, 0.0, 0.0, 0.0, 0.0, 0.0, 1.6444975169970284E9, 0.0, 2022-02-10 23:51:56.997
56.0, -9725.981620071128, -11783.772621604518, -6135.6209082151545, -14020.310523546998, 90.63632376627014, -1044.3629079297673, -1725.9346516054454, -2950.0726401892475, -20531.48544210022, -16808.869458302197, -22375.683173618698, -12694.673263391645, -7215.277220639851, -11766.919406285217, -5170.561989612816, -8409.106243742257, 0.009625, -0.02325, 0.9958125, 192.0, 0.0, 48.0, 127.5, 32.0, 15.5, 32.0, 0.0, 0.0, 0.0, 1.6444975169970348E9, 0.0, 2022-02-10 23:51:56.997
58.0, -9709.240163474104, -11782.051537281459, -6130.971745368451, -14013.359131021398, 95.93368720217791, -1049.012070776471, -1722.984221337345, -2933.957032436971, -20528.6467705544, -16816.826679328286, -22384.400353956265, -12698.003673315487, -7213.466729338972, -11799.418842723233, -5177.580437371783, -8415.454139167565, 0.009625, -0.02325, 0.9958125, 192.0, 0.0, 0.0, 0.0, 0.0, 0.0, 0.0, 0.0, 0.0, 0.0, 1.6444975169970415E9, 0.0, 2022-02-10 23:51:56.997
60.0, -9712.369407697846, -11775.122496500313, -6127.551928466789, -14014.253200799609, 95.53135580198239, -1046.0392887639152, -1727.0969423171214, -2937.019221427348, -20524.936380974817, -16808.71299609101, -22367.94947003716, -12690.404080200682, -7225.156691689097, -11803.33039800291, -5171.187838457566, -8412.056674010359, 0.009625, -0.02325, 0.9958125, 192.0, 0.0, 0.0, 0.0, 0.0, 0.0, 0.0, 0.0, 0.0, 0.0, 1.644497516997048E9, 0.0, 2022-02-10 23:51:56.997
62.0, -9716.34801821089, -11788.690005384686, -6135.464446003967, -14010.609866453395, 88.82583246539026, -1052.7224603560521, -1738.1163523335879, -2945.445829086999, -20525.383415863922, -16806.388414667657, -22388.24485400258, -12700.596475672302, -7229.872909769168, -11803.352749747366, -5174.741765825959, -8417.152871746168, 0.009625, -0.02325, 0.9958125, 192.0, 0.0, 0.0, 0.0, 0.0, 0.0, 0.0, 0.0, 0.0, 0.0, 1.6444975169970543E9, 0.0, 2022-02-10 23:51:56.997
64.0, -9705.4403669167, -11788.690005384686, -6127.26135578887, -14012.82268915447, 101.70043727164713, -1045.815771319362, -1729.8462068851243, -2936.974517938437, -20528.758529276674, -16805.80726931182, -22379.86294983184, -12701.244676261507, -7234.030334237855, -11786.90186582826, -5170.9643210130125, -8412.369598432731, 0.009625, -0.02325, 0.9958125, 192.0, 0.0, 0.0, 0.0, 0.0, 0.0, 0.0, 0.0, 0.0, 0.0, 1.644497516997061E9, 0.0, 2022-02-10 23:51:56.997
66.0, -9727.546242183, -11796.736633388595, -6142.773466440853, -14023.797395682026, 71.57028574589322, -1057.5727889028537, -1749.7392594503474, -2947.077506432236, -20536.000494480195, -16796.106612218216, -22384.46740918963, -12704.75390014099, -7240.177063963064, -11795.57434267692, -5175.188800715066, -8421.019723536936, 0.008812500000000001, -0.022625, 0.99490625, 192.0, 0.0, 32.0, 127.5, 40.0, 15.5, 8.0, 0.0, 0.0, 0.0, 1.6444975169970677E9, 0.0, 2022-02-10 23:51:56.997
68.0, -9717.756178111575, -11788.108860028848, -6136.514977993367, -14014.163793821788, 76.53237301497138, -1050.3531754437895, -1730.9414423634341, -2938.896767961594, -20529.63024731043, -16812.155164737127, -22400.694775664186, -12719.28253403694, -7236.0419912388315, -11805.789089892995, -5182.274303707398, -8421.444406681587, 0.008812500000000001, -0.022625, 0.99490625, 192.0, 0.0, 0.0, 0.0, 0.0, 0.0, 0.0, 0.0, 0.0, 0.0, 1.644497516997074E9, 0.0, 2022-02-10 23:51:56.997
70.0, -9720.63955314631, -11817.657866198762, -6127.864852889163, -14011.906267631803, 79.37104456079538, -1053.1918469896134, -1728.2145295398868, -2938.8073609837725, -20527.573886820544, -16815.105595005225, -22380.891130076783, -12694.695615136101, -7238.880662784656, -11823.849299412883, -5165.778716299381, -8419.432749680609, 0.008812500000000001, -0.022625, 0.99490625, 192.0, 0.0, 0.0, 0.0, 0.0, 0.0, 0.0, 0.0, 0.0, 0.0, 1.6444975169970822E9, 0.0, 2022-02-10 23:51:56.997
72.0, -9727.747407883096, -11815.869726642339, -6128.960088367473, -14012.979151365656, 69.13394560026474, -1055.4940766685102, -1730.0697243296772, -2945.8481604871945, -20525.383415863922, -16818.99479854045, -22391.776429626516, -12707.346702497805, -7241.3840581636505, -11811.913467873748, -5163.901169765136, -8419.611563636252, 0.008812500000000001, -0.022625, 0.99490625, 192.0, 0.0, 0.0, 0.0, 0.0, 0.0, 0.0, 0.0, 0.0, 0.0, 1.644497516997089E9, 0.0, 2022-02-10 23:51:56.997
74.0, -9705.529773894523, -11794.47910719861, -6123.752131909387, -14015.34843627792, 72.93374215766694, -1048.3862219317225, -1722.693648659426, -2934.0687911592477, -20516.82269773754, -16808.2659612019, -22379.930005065205, -12699.121260538252, -7238.8583110402005, -11794.657921154252, -5162.090678464256, -8416.348208945778, 0.008812500000000001, -0.022625, 0.99490625, 192.0, 0.0, 0.0, 0.0, 0.0, 0.0, 0.0, 0.0, 0.0, 0.0, 1.644497516997095E9, 0.0, 2022-02-10 23:51:56.997
76.0, -9718.180861256225, -11798.234200267101, -6132.8045884137855, -14018.187107823744, 52.32543376987383, -1059.11505927027, -1738.0045936113113, -2943.3671168526553, -20523.10353792948, -16810.94817053654, -22381.829903343907, -12702.652836162191, -7247.4860843999495, -11804.112709058847, -5163.87881802068, -8419.365694447242, 0.009406250000000001, -0.0223125, 0.995453125, 192.0, 0.0, 40.0, 127.5, 40.0, 15.5, 16.0, 0.0, 0.0, 0.0, 1.6444975169971018E9, 0.0, 2022-02-10 23:51:56.997
78.0, -9712.682332120221, -11801.497554957576, -6122.321620264247, -14007.458270485196, 62.070794352387715, -1063.719518628063, -1730.5167592187834, -2940.1261139066355, -20519.974293705738, -16804.93555127806, -22388.356612724856, -12706.363225741772, -7245.206206465507, -11829.794863437995, -5166.650434333138, -8417.085816512801, 0.009406250000000001, -0.0223125, 0.995453125, 192.0, 0.0, 0.0, 0.0, 0.0, 0.0, 0.0, 0.0, 0.0, 0.0, 1.6444975169971085E9, 0.0, 2022-02-10 23:51:56.997
80.0, -9712.123538508838, -11806.079662570914, -6119.929983607529, -14009.447575741719, 56.21463730509726, -1058.1315825142362, -1727.3428115061297, -2941.824846485239, -20515.660407025865, -16791.680966816064, -22369.53644389349, -12692.32633022384, -7227.660087068091, -11812.852241140872, -5161.084849963767, -8414.38125543371, 0.009406250000000001, -0.0223125, 0.995453125, 192.0, 0.0, 0.0, 0.0, 0.0, 0.0, 0.0, 0.0, 0.0, 0.0, 1.644497516997115E9, 0.0, 2022-02-10 23:51:56.997
82.0, -9719.901945579284, -11814.059235341458, -6130.032972101328, -14011.39217750933, 43.27297726547447, -1064.5912366618202, -1735.9705848658784, -2936.594538282697, -20514.319302358545, -16802.74508032144, -22383.193359755678, -12707.681978664636, -7256.337375204251, -11810.304142272968, -5165.018756987901, -8417.599906635274, 0.009406250000000001, -0.0223125, 0.995453125, 192.0, 0.0, 0.0, 0.0, 0.0, 0.0, 0.0, 0.0, 0.0, 0.0, 1.644497516997121E9, 0.0, 2022-02-10 23:51:56.997
84.0, -9712.145890253292, -11808.873630627828, -6126.054361588283, -14016.086043844945, 57.466334994594455, -1061.2161232490687, -1727.208701039398, -2927.4526748004764, -20515.950979703783, -16801.403975654124, -22383.215711500136, -12713.672246178658, -7265.233369497463, -11806.705511415663, -5164.750536054437, -8409.396816420176, 0.009406250000000001, -0.0223125, 0.995453125, 192.0, 0.0, 0.0, 0.0, 0.0, 0.0, 0.0, 0.0, 0.0, 0.0, 1.6444975169971278E9, 0.0, 2022-02-10 23:51:56.997
86.0, -9725.266364248559, -11820.451834255677, -6136.872605904652, -14020.77991018056, 44.27880576596329, -1083.7913851489288, -1738.5857389671492, -2953.313643135267, -20519.34844486099, -16806.835449556762, -22384.445057445177, -12716.89089738022, -7269.524904432882, -11820.228316811123, -5161.442477875052, -8411.386121676698, 0.01, -0.018000000000000002, 0.992, 192.0, 0.0, 40.0, 127.5, 56.0, 15.5, 0.0, 0.0, 0.0, 0.0, 1.6444975169971344E9, 0.0, 2022-02-10 23:51:56.997
88.0, -9713.822271087442, -11812.896944629783, -6132.514015735867, -14016.086043844945, 52.101916325320765, -1065.3288442288451, -1727.72279116187, -2942.1377709076132, -20513.045252924592, -16809.33884493576, -22394.99508082808, -12718.679036936646, -7272.721203889991, -11835.62866874083, -5169.824382045792, -8412.704874599562, 0.01, -0.018000000000000002, 0.992, 192.0, 0.0, 0.0, 0.0, 0.0, 0.0, 0.0, 0.0, 0.0, 0.0, 1.644497516997141E9, 0.0, 2022-02-10 23:51:56.997
90.0, -9727.658000905276, -11838.28852633101, -6130.032972101328, -14021.24929681412, 43.340032498840394, -1077.9352281016384, -1739.368050023085, -2946.8316372432278, -20516.129793659424, -16800.733423320464, -22377.448961430666, -12718.455519492092, -7269.100221288231, -11821.636476711808, -5165.063460476811, -8406.513441385441, 0.01, -0.018000000000000002, 0.992, 192.0, 0.0, 0.0, 0.0, 0.0, 0.0, 0.0, 0.0, 0.0, 0.0, 1.644497516997147E9, 0.0, 2022-02-10 23:51:56.997
92.0, -9735.324649253447, -11851.163131137268, -6136.157350082082, -14017.561258978994, 26.956203813100316, -1094.5649259763868, -1754.0307943857665, -2955.504114091887, -20524.98108446373, -16819.017150284904, -22399.4877814636, -12719.863679392778, -7271.6706719005915, -11845.15051187879, -5177.0216437604, -8418.538679902396, 0.01, -0.018000000000000002, 0.992, 192.0, 0.0, 0.0, 0.0, 0.0, 0.0, 0.0, 0.0, 0.0, 0.0, 1.6444975169971538E9, 0.0, 2022-02-10 23:51:56.997
94.0, -9720.483090935122, -11838.869671686849, -6122.388675497613, -14014.0073316106, 33.818189360879586, -1086.1606700611915, -1746.1629803374983, -2948.5303698218313, -20521.87419198444, -16813.00453102643, -22391.66467090424, -12714.454557234592, -7287.719224419502, -11845.888119445815, -5181.760213584926, -8415.923525801127, 0.01, -0.018000000000000002, 0.992, 192.0, 0.0, 0.0, 0.0, 0.0, 0.0, 0.0, 0.0, 0.0, 0.0, 1.6444975169971604E9, 0.0, 2022-02-10 23:51:56.997
96.0, -9733.000067830095, -11838.57909900893, -6130.077675590239, -14020.824613669469, 17.300250208407668, -1094.1849463206465, -1762.2562363453194, -2960.600311827697, -20516.800345993084, -16808.534182135365, -22381.04759228797, -12711.057092077386, -7288.032148841876, -11839.786093209517, -5176.842829804758, -8418.359865946753, 0.012, -0.018000000000000002, 0.992, 192.0, 0.0, 48.0, 127.5, 56.0, 15.5, 0.0, 0.0, 0.0, 0.0, 1.6444975169971669E9, 0.0, 2022-02-10 23:51:56.997
98.0, -9712.101186764383, -11832.454721028176, -6122.656896431076, -14015.259029300098, 28.990212558533262, -1084.6183996937752, -1735.4117912544957, -2953.53716057982, -20514.609875036465, -16798.006510496918, -22398.593711685386, -12727.7538451855, -7289.216791298008, -11839.674334487241, -5175.814649559814, -8419.589211891796, 0.012, -0.018000000000000002, 0.992, 192.0, 0.0, 0.0, 0.0, 0.0, 0.0, 0.0, 0.0, 0.0, 0.0, 1.6444975169971733E9, 0.0, 2022-02-10 23:51:56.997
100.0, -9721.801843857986, -11831.359485549867, -6121.785178397319, -14016.130747333855, 28.744343369524884, -1078.5163734574764, -1732.4837127308504, -2942.1377709076132, -20510.184229634313, -16795.056080228816, -22389.72006913663, -12706.050301319397, -7285.77462265189, -11846.871596201849, -5167.87978027818, -8409.419168164632, 0.012, -0.018000000000000002, 0.992, 192.0, 0.0, 0.0, 0.0, 0.0, 0.0, 0.0, 0.0, 0.0, 0.0, 1.6444975169971797E9, 0.0, 2022-02-10 23:51:56.997
102.0, -9733.603564930389, -11847.00570666858, -6132.044629102305, -14019.01412236859, 21.345915954818246, -1083.6349229377417, -1735.1212185765767, -2947.8598174881718, -20511.614741279453, -16801.582789609765, -22398.794877385484, -12728.536156241436, -7284.791145895857, -11811.913467873748, -5174.294730936853, -8408.86037455325, 0.012, -0.018000000000000002, 0.992, 192.0, 0.0, 0.0, 0.0, 0.0, 0.0, 0.0, 0.0, 0.0, 0.0, 1.644497516997188E9, 0.0, 2022-02-10 23:51:56.997
104.0, -9718.784358356519, -11850.671392759252, -6122.723951664442, -14016.935410134247, 36.858026606801346, -1085.5348212164429, -1730.337945263141, -2946.8539889876834, -20507.3902615774, -16806.61193211221, -22389.85417960336, -12716.600324702302, -7285.931084863078, -11839.361410064867, -5167.544504111351, -8405.37350241822, 0.012, -0.018000000000000002, 0.992, 192.0, 0.0, 0.0, 0.0, 0.0, 0.0, 0.0, 0.0, 0.0, 0.0, 1.6444975169971945E9, 0.0, 2022-02-10 23:51:56.997
106.0, -9735.59287018691, -11868.195160412211, -6131.843463402208, -14020.802261925015, 22.687020622136668, -1101.3151528018896, -1737.5128552332944, -2939.5226168063423, -20509.223104622735, -16801.381623909667, -22395.19624652818, -12721.94239162712, -7278.8902853596555, -11863.411887098777, -5164.705832565526, -8410.76027283195, 0.014, -0.016, 0.99, 192.0, 0.0, 56.0, 127.5, 64.0, 15.0, 120.0, 0.0, 0.0, 0.0, 1.6444975169972012E9, 0.0, 2022-02-10 23:51:56.997
108.0, -9721.220698502148, -11855.320555605955, -6121.7628266528645, -14010.833383897947, 32.2759189934634, -1089.625190451764, -1741.3797070240626, -2938.315622605756, -20503.411651064354, -16808.08714724626, -22406.975615856125, -12730.324295797862, -7290.893172132155, -11851.073724159447, -5169.5561611123285, -8406.334627429798, 0.014, -0.016, 0.99, 192.0, 0.0, 0.0, 0.0, 0.0, 0.0, 0.0, 0.0, 0.0, 0.0, 1.6444975169972079E9, 0.0, 2022-02-10 23:51:56.997
110.0, -9718.292619978503, -11854.2476718721, -6120.980515596929, -14010.699273431215, 20.027163031955126, -1096.5095277439987, -1743.2796053027637, -2940.7519627513843, -20496.81788645004, -16790.384565637658, -22374.319717206923, -12709.760690898978, -7288.278018030885, -11853.957099194182, -5164.772887798892, -8406.42403440762, 0.014, -0.016, 0.99, 192.0, 0.0, 0.0, 0.0, 0.0, 0.0, 0.0, 0.0, 0.0, 0.0, 1.6444975169972143E9, 0.0, 2022-02-10 23:51:56.997
112.0, -9728.283849750025, -11863.25542488759, -6125.495567976901, -14011.839212398436, 7.130206481242953, -1105.0031906370152, -1751.5050472623168, -2955.6158728141636, -20503.657520253364, -16797.067737229794, -22387.060211546446, -12716.622676446757, -7303.298390304851, -11864.149494665802, -5175.591132115261, -8416.2364502235, 0.014, -0.016, 0.99, 192.0, 0.0, 0.0, 0.0, 0.0, 0.0, 0.0, 0.0, 0.0, 0.0, 1.6444975169972208E9, 0.0, 2022-02-10 23:51:56.997
114.0, -9713.39758794279, -11860.260291130578, -6115.906669605573, -14008.888782130336, 20.027163031955126, -1092.8885451422389, -1737.8257796556688, -2938.4050295835773, -20503.836334209005, -16793.200885439026, -22383.90861557825, -12717.673208436157, -7304.0136461274205, -11865.691765033218, -5172.394832658152, -8409.776796075916, 0.014, -0.016, 0.99, 192.0, 0.0, 0.0, 0.0, 0.0, 0.0, 0.0, 0.0, 0.0, 0.0, 1.6444975169972272E9, 0.0, 2022-02-10 23:51:56.997
116.0, -9712.905849564773, -11845.955174679182, -6121.986344097418, -14015.10256708891, 7.040799503421725, -1101.851594668817, -1752.5779309961715, -2951.1902274120125, -20495.990871905193, -16790.27280691538, -22379.080638775904, -12708.620751931758, -7298.15748908013, -11857.48867481812, -5166.0692889773, -8406.155813474157, 0.012, -0.014, 0.99, 192.0, 0.0, 48.0, 127.5, 72.0, 15.0, 120.0, 0.0, 0.0, 0.0, 1.6444975169972339E9, 0.0, 2022-02-10 23:51:56.997
118.0, -9734.631745175331, -11878.58872158393, -6128.378943011635, -14019.707026446704, 3.0174855014664534, -1103.7961964364288, -1759.752840966325, -2950.2067506559792, -20501.020014407637, -16793.93849300605, -22400.471258219633, -12725.51867073997, -7300.4373670145715, -11868.195160412211, -5175.278207692887, -8413.62129612223, 0.012, -0.014, 0.99, 192.0, 0.0, 0.0, 0.0, 0.0, 0.0, 0.0, 0.0, 0.0, 0.0, 1.6444975169972405E9, 0.0, 2022-02-10 23:51:56.997
120.0, -9725.244012504103, -11872.330233136445, -6122.656896431076, -14026.72547420567, 2.212822701075399, -1107.663048227197, -1760.6692624889927, -2954.922968736049, -20521.91889547335, -16807.66246410161, -22394.19041802769, -12721.249487549007, -7316.016532899921, -11835.941593163205, -5171.009024501923, -8412.883688555205, 0.012, -0.014, 0.99, 192.0, 0.0, 0.0, 0.0, 0.0, 0.0, 0.0, 0.0, 0.0, 0.0, 1.6444975174766388E9, 0.0, 2022-02-10 23:51:57.476
122.0, -9738.789169644018, -11889.183448455746, -6136.716143693465, -14027.73130270616, -17.210843230586438, -1122.951641434627, -1777.9918644418556, -2963.1931141845125, -20518.074395427037, -16810.389376925155, -22405.72391816663, -12733.900574910711, -7325.78424522689, -11875.213608171178, -5183.101318252244, -8418.024589779925, 0.012, -0.014, 0.99, 192.0, 0.0, 0.0, 0.0, 0.0, 0.0, 0.0, 0.0, 0.0, 0.0, 1.6444975174768026E9, 0.0, 2022-02-10 23:51:57.476
124.0, -9714.470471676645, -11879.058108217492, -6127.484873233423, -14022.657456714805, -9.298325693407739, -1112.6251354962749, -1772.1804108834758, -2957.0016809703925, -20512.911142457862, -16808.2659612019, -22407.824982145426, -12735.08521736684, -7324.286678348384, -11886.30007342101, -5187.035225276378, -8414.76123508945, 0.012, -0.014, 0.99, 192.0, 0.0, 0.0, 0.0, 0.0, 0.0, 0.0, 0.0, 0.0, 0.0, 1.6444975174768577E9, 0.0, 2022-02-10 23:51:57.476
126.0, -9722.785320614019, -11872.643157558818, -6130.524710479344, -14024.177375337766, -24.341049711829392, -1120.9176326891939, -1783.2221726443975, -2963.7742595403506, -20514.92279945884, -16795.413708140102, -22397.967862840636, -12727.619734718768, -7334.747294753468, -11888.602303099908, -5183.615408374716, -8414.023627522425, 0.012, -0.016, 0.99, 192.0, 0.0, 48.0, 127.5, 64.0, 15.0, 120.0, 0.0, 0.0, 0.0, 1.644497517476866E9, 0.0, 2022-02-10 23:51:57.476
128.0, -9711.721207108641, -11859.522683563553, -6125.316754021258, -14020.936372391747, -15.199186229608802, -1100.108158601303, -1760.8704281890905, -2948.4633145884654, -20507.993758677694, -16784.28253940136, -22411.222447302636, -12737.56626100138, -7327.304163849851, -11873.738393037129, -5188.59984738825, -8413.531889144408, 0.012, -0.016, 0.99, 192.0, 0.0, 0.0, 0.0, 0.0, 0.0, 0.0, 0.0, 0.0, 0.0, 1.644497517476874E9, 0.0, 2022-02-10 23:51:57.476
130.0, -9716.504480422078, -11870.63150055784, -6118.991210340406, -14015.616657211383, -11.757017583491516, -1105.6737429706745, -1754.4554775304173, -2950.25145414489, -20500.215351607247, -16783.455524856512, -22386.4343627017, -12704.03864431842, -7329.7852074843895, -11858.405096340788, -5178.876838550191, -8402.333665172298, 0.012, -0.016, 0.99, 192.0, 0.0, 0.0, 0.0, 0.0, 0.0, 0.0, 0.0, 0.0, 0.0, 1.6444975174768815E9, 0.0, 2022-02-10 23:51:57.476
132.0, -9731.346038740401, -11889.205800200201, -6123.752131909387, -14016.756596178604, -16.652049619203762, -1119.3530105773225, -1768.5370765372606, -2961.315567650267, -20500.72944172972, -16801.493382631943, -22394.548045938976, -12716.108586324286, -7320.665695746625, -11867.166980167269, -5179.055652505834, -8411.296714698878, 0.012, -0.016, 0.99, 192.0, 0.0, 0.0, 0.0, 0.0, 0.0, 0.0, 0.0, 0.0, 0.0, 1.6444975174768891E9, 0.0, 2022-02-10 23:51:57.476
134.0, -9711.29652396399, -11877.672300061262, -6120.645239430099, -14016.086043844945, -6.660819847681505, -1107.8865656717498, -1762.6809194899702, -2957.985157726426, -20498.181342861815, -16789.98223423746, -22396.649109917773, -12725.161042828686, -7322.92322193661, -11875.817105271472, -5177.222809460498, -8410.268534453933, 0.012, -0.016, 0.99, 192.0, 0.0, 0.0, 0.0, 0.0, 0.0, 0.0, 0.0, 0.0, 0.0, 1.6444975174769068E9, 0.0, 2022-02-10 23:51:57.476
136.0, -9729.759064884074, -11899.085271249447, -6135.375039026147, -14019.327046790964, -23.223462489064037, -1121.8340542118615, -1769.6770155044815, -2964.1095357071804, -20502.830505708516, -16792.150353449626, -22401.320624508935, -12715.795661901911, -7338.033001188398, -11869.648023801807, -5182.855449063236, -8413.800110077871, 0.006, -0.016, 0.99, 192.0, 0.0, 24.0, 127.5, 64.0, 15.0, 120.0, 0.0, 0.0, 0.0, 1.644497517476915E9, 0.0, 2022-02-10 23:51:57.476
138.0, -9713.196422242692, -11882.053241974503, -6124.847367387697, -14015.460195000196, -22.172930499664606, -1114.5697372638867, -1772.0239486722887, -2963.01430022887, -20501.221180107736, -16799.593484353245, -22417.927970639226, -12728.670266708168, -7343.665640791135, -11861.847264986905, -5194.187783502077, -8419.008066535958, 0.006, -0.016, 0.99, 192.0, 0.0, 0.0, 0.0, 0.0, 0.0, 0.0, 0.0, 0.0, 0.0, 1.6444975174769216E9, 0.0, 2022-02-10 23:51:57.476
140.0, -9709.173108240737, -11872.06201220298, -6125.160291810071, -14020.087006102445, -25.257471234496983, -1120.560004777909, -1787.4690040909059, -2970.412727643577, -20493.643938737387, -16783.343766134236, -22402.37115649833, -12722.903516638698, -7340.223472145019, -11862.4507620872, -5187.54931539885, -8414.224793222522, 0.006, -0.016, 0.99, 192.0, 0.0, 0.0, 0.0, 0.0, 0.0, 0.0, 0.0, 0.0, 0.0, 1.6444975174769285E9, 0.0, 2022-02-10 23:51:57.476
142.0, -9732.463625963168, -11884.668396075773, -6133.0951610917045, -14024.691465460237, -38.310889996396305, -1137.0555921859257, -1782.8198412442018, -2979.4204806590656, -20502.003491163672, -16792.619740083188, -22418.844392161893, -12731.419531276171, -7357.680184564613, -11898.168849726779, -5194.813632346825, -8420.237412481, 0.006, -0.016, 0.99, 192.0, 0.0, 0.0, 0.0, 0.0, 0.0, 0.0, 0.0, 0.0, 0.0, 1.6444975174769356E9, 0.0, 2022-02-10 23:51:57.476
144.0, -9719.387855456813, -11903.510916651598, -6126.054361588283, -14022.791567181537, -27.827921846857294, -1129.6795165156743, -1776.5837045411713, -2985.3660446841773, -20494.850932937974, -16794.027899983874, -22402.281749520513, -12733.319429554873, -7346.034925703398, -11874.654814559795, -5188.421033432607, -8418.80690083586, 0.006, -0.016, 0.99, 192.0, 0.0, 0.0, 0.0, 0.0, 0.0, 0.0, 0.0, 0.0, 0.0, 1.6444975174769428E9, 0.0, 2022-02-10 23:51:57.476
146.0, -9727.97092532765, -11910.752881855116, -6136.805550671286, -14028.200689339721, -46.58103544485992, -1142.3082521329227, -1800.0530362192437, -2997.3242279677665, -20500.30475858507, -16799.951112264527, -22407.556761211963, -12722.791757916422, -7354.327422896317, -11890.144573467323, -5193.673693379605, -8423.009028793458, 0.006, -0.018000000000000002, 0.988, 192.0, 0.0, 24.0, 127.5, 56.0, 15.0, 112.0, 0.0, 0.0, 0.0, 1.64449751747695E9, 0.0, 2022-02-10 23:51:57.476
148.0, -9716.772701355541, -11898.63823636034, -6132.893995391607, -14021.96455263669, -39.00379407451082, -1135.9603567076156, -1791.1346901815762, -2989.5234691528644, -20504.797459220586, -16798.162972708105, -22424.924066653737, -12735.956935400598, -7366.55382711337, -11890.770422312073, -5196.847641092258, -8424.104264271768, 0.006, -0.018000000000000002, 0.988, 192.0, 0.0, 0.0, 0.0, 0.0, 0.0, 0.0, 0.0, 0.0, 0.0, 1.6444975174769568E9, 0.0, 2022-02-10 23:51:57.476
150.0, -9710.290695463502, -11893.251465946612, -6131.619945957655, -14020.042302613534, -38.57911092985999, -1143.0905631888586, -1785.5691058122047, -2983.823774316761, -20494.180380604314, -16794.69845231753, -22403.44404023219, -12722.434130005138, -7359.758896798957, -11892.715024079684, -5182.006082773934, -8419.700970614073, 0.006, -0.018000000000000002, 0.988, 192.0, 0.0, 0.0, 0.0, 0.0, 0.0, 0.0, 0.0, 0.0, 0.0, 1.6444975174769635E9, 0.0, 2022-02-10 23:51:57.476
152.0, -9725.132253781827, -11907.757748098105, -6144.472199019457, -14021.092834602934, -58.67332919518104, -1137.7931997529506, -1793.3922163715622, -2968.602236342697, -20495.54383701609, -16805.114365233705, -22424.544086997998, -12733.900574910711, -7363.31282416735, -11893.407928157798, -5188.5774956437945, -8421.578517148318, 0.006, -0.018000000000000002, 0.988, 192.0, 0.0, 0.0, 0.0, 0.0, 0.0, 0.0, 0.0, 0.0, 0.0, 1.644497517476971E9, 0.0, 2022-02-10 23:51:57.476
154.0, -9703.987503527105, -11897.364186926388, -6132.02227735785, -14015.974285122667, -52.88422738125651, -1133.9486997066379, -1787.5807628131824, -2972.245570688912, -20490.268825324634, -16795.860743029207, -22421.97363638564, -12735.219327833573, -7358.104867709264, -11890.725718823162, -5186.297617709353, -8415.968229290036, 0.006, -0.018000000000000002, 0.988, 192.0, 0.0, 0.0, 0.0, 0.0, 0.0, 0.0, 0.0, 0.0, 0.0, 1.6444975174769776E9, 0.0, 2022-02-10 23:51:57.476
156.0, -9732.754198641087, -11929.729512897673, -6145.813303686775, -14024.132671848854, -67.92695139967816, -1146.3762696237886, -1800.7682920418135, -2983.309684194289, -20495.499133527177, -16806.880153045673, -22417.100956094382, -12725.630429462246, -7362.463457878049, -11908.964742298693, -5185.895286309157, -8420.28211596991, 0.008, -0.018000000000000002, 0.988, 192.0, 0.0, 32.0, 127.5, 56.0, 15.0, 112.0, 0.0, 0.0, 0.0, 1.6444975174769845E9, 0.0, 2022-02-10 23:51:57.476
158.0, -9734.587041686422, -11917.793681358538, -6146.081524620238, -14025.876107916369, -64.35067228682904, -1141.1012579323362, -1815.7439608268692, -2990.059911019792, -20503.16578187535, -16814.47974616048, -22436.032883648026, -12744.42824654916, -7380.210742975562, -11905.768442841583, -5197.518193425917, -8429.491034685498, 0.008, -0.018000000000000002, 0.988, 192.0, 0.0, 0.0, 0.0, 0.0, 0.0, 0.0, 0.0, 0.0, 0.0, 1.6444975174769917E9, 0.0, 2022-02-10 23:51:57.476
160.0, -9725.02049505955, -11910.082329521458, -6140.873568162152, -14026.591363738939, -58.5392187284492, -1133.233443884068, -1810.0219142463106, -2985.9918935289256, -20499.656557995862, -16793.670272072588, -22416.20688631617, -12734.816996433377, -7372.611149860758, -11880.309805906989, -5188.398681688152, -8424.305429971866, 0.008, -0.018000000000000002, 0.988, 192.0, 0.0, 0.0, 0.0, 0.0, 0.0, 0.0, 0.0, 0.0, 0.0, 1.6444975174769983E9, 0.0, 2022-02-10 23:51:57.476
162.0, -9726.652172404787, -11918.59834415893, -6150.730687466942, -14032.089892874945, -78.05229163793226, -1145.3257376343893, -1823.1647399860312, -3000.6099344026966, -20498.538970773097, -16786.71887954699, -22429.3944155448, -12742.550700014914, -7368.632539347714, -11894.436108402742, -5192.220829990009, -8430.988601564002, 0.008, -0.018000000000000002, 0.988, 192.0, 0.0, 0.0, 0.0, 0.0, 0.0, 0.0, 0.0, 0.0, 0.0, 1.6444975174770052E9, 0.0, 2022-02-10 23:51:57.477
164.0, -9715.722169366141, -11913.412739445299, -6144.382792041635, -14025.473776516174, -66.18351533216422, -1139.5366358204647, -1825.1763969870087, -2992.1833267430457, -20498.136639372904, -16814.85972581622, -22432.322494068445, -12741.14254011423, -7378.601417374781, -11914.060940034502, -5194.79128060237, -8430.541566674896, 0.009000000000000001, -0.02, 0.987, 192.0, 0.0, 40.0, 127.5, 40.0, 15.0, 104.0, 0.0, 0.0, 0.0, 1.6444975174770124E9, 0.0, 2022-02-10 23:51:57.477
166.0, -9743.125408068348, -11952.08125735298, -6150.976556655951, -14024.244430571132, -77.2029253486306, -1160.100240719347, -1822.8294638192015, -3001.414597203088, -20505.847991209983, -16816.51375490591, -22422.085395107915, -12745.255261094006, -7383.988187788509, -11908.182431242756, -5191.997312545456, -8431.010953308458, 0.009000000000000001, -0.02, 0.987, 192.0, 0.0, 0.0, 0.0, 0.0, 0.0, 0.0, 0.0, 0.0, 0.0, 1.6444975174770224E9, 0.0, 2022-02-10 23:51:57.477
168.0, -9742.16428305677, -11942.470007237198, -6149.635451988632, -14025.809052683004, -72.37494854628427, -1149.9525487366377, -1813.2405654478748, -2994.6867221220405, -20509.15604938937, -16823.4204439426, -22445.934706441727, -12747.959822173098, -7374.958083028565, -11916.631390646862, -5194.746577113459, -8432.597927164785, 0.009000000000000001, -0.02, 0.987, 192.0, 0.0, 0.0, 0.0, 0.0, 0.0, 0.0, 0.0, 0.0, 0.0, 1.644497517477029E9, 0.0, 2022-02-10 23:51:57.477
170.0, -9734.721152153154, -11942.358248514922, -6148.517864765867, -14030.502919018618, -73.29137006895186, -1154.2217319276015, -1817.8450248056681, -3000.073492535769, -20507.703185999773, -16815.530278149876, -22433.753005713585, -12740.159063358196, -7383.049414521386, -11900.493431150131, -5191.259704978431, -8427.926412573626, 0.009000000000000001, -0.02, 0.987, 192.0, 0.0, 0.0, 0.0, 0.0, 0.0, 0.0, 0.0, 0.0, 0.0, 1.6444975174770372E9, 0.0, 2022-02-10 23:51:57.477
172.0, -9738.744466155109, -11946.001582861136, -6156.385678814135, -14029.899421918324, -86.23303010857465, -1167.0292815004923, -1833.714763368936, -3005.2143937604897, -20510.63126452342, -16823.822775342796, -22449.399226832298, -12748.76448497349, -7388.816164590856, -11912.630428389362, -5197.987580059478, -8438.342325489799, 0.009000000000000001, -0.02, 0.987, 192.0, 0.0, 0.0, 0.0, 0.0, 0.0, 0.0, 0.0, 0.0, 0.0, 1.6444975174770446E9, 0.0, 2022-02-10 23:51:57.477
174.0, -9721.757140369074, -11921.92875408277, -6145.366268797668, -14034.928564420768, -81.00272190603279, -1151.3383568928668, -1823.723533597414, -2991.378663942655, -20501.66821499684, -16810.635246114165, -22446.78407273103, -12747.982173917553, -7395.521687927448, -11909.411777187799, -5199.5522021713505, -8434.721342888039, 0.0105, -0.020999999999999998, 0.9884999999999999, 192.0, 0.0, 48.0, 127.5, 40.0, 15.0, 120.0, 0.0, 0.0, 0.0, 1.644497517477052E9, 0.0, 2022-02-10 23:51:57.477
176.0, -9733.670620163753, -11944.235795049168, -6151.021260144861, -14032.380465552864, -96.47012906910528, -1159.5637988524197, -1826.6963156099696, -3005.59437341623, -20508.91018020036, -16808.936513535562, -22440.838508705918, -12757.99575543353, -7389.710234369068, -11917.234887747156, -5196.467661436518, -8431.525043430931, 0.0105, -0.020999999999999998, 0.9884999999999999, 192.0, 0.0, 0.0, 0.0, 0.0, 0.0, 0.0, 0.0, 0.0, 0.0, 1.644497517477059E9, 0.0, 2022-02-10 23:51:57.477
178.0, -9738.588003943922, -11950.091952096458, -6151.892978178618, -14031.553451008018, -89.29521909895172, -1169.3091594349337, -1815.9004230380565, -3003.0015710594143, -20513.268770369144, -16820.782938096876, -22448.974543687647, -12765.885921226254, -7402.093100797308, -11922.912230838803, -5203.195536517565, -8435.928337088626, 0.0105, -0.020999999999999998, 0.9884999999999999, 192.0, 0.0, 0.0, 0.0, 0.0, 0.0, 0.0, 0.0, 0.0, 0.0, 1.6444975174770656E9, 0.0, 2022-02-10 23:51:57.477
180.0, -9743.438332490723, -11950.561338730018, -6147.26616707637, -14028.692427717737, -87.14945163124224, -1167.94570302316, -1822.3824289300953, -3005.639076905141, -20513.62639828043, -16814.345635693746, -22437.619857504353, -12752.094894897331, -7403.590667675814, -11922.88987909435, -5198.7922428598695, -8432.061485297858, 0.0105, -0.020999999999999998, 0.9884999999999999, 192.0, 0.0, 0.0, 0.0, 0.0, 0.0, 0.0, 0.0, 0.0, 0.0, 1.6444975174770725E9, 0.0, 2022-02-10 23:51:57.477
182.0, -9759.732754198641, -11957.691545211263, -6158.106763137193, -14032.224003341677, -110.86465249832303, -1175.0535577599476, -1841.5155221838384, -3007.047236805825, -20519.706072772275, -16818.5701153958, -22456.44002633572, -12761.750848502023, -7421.89674638471, -11909.88116382136, -5205.296600496364, -8436.218909766545, 0.0105, -0.020999999999999998, 0.9884999999999999, 192.0, 0.0, 0.0, 0.0, 0.0, 0.0, 0.0, 0.0, 0.0, 0.0, 1.6444975174770796E9, 0.0, 2022-02-10 23:51:57.477
184.0, -9746.612280203377, -11949.220234062701, -6153.323489823758, -14031.665209730294, -104.74027451756889, -1171.365519924822, -1826.5175016543271, -3002.755701870406, -20525.83045075303, -16823.733368364974, -22456.39532284681, -12763.494284569537, -7426.858833653789, -11933.618716432897, -5211.55508894385, -8434.85545335477, 0.00725, -0.0225, 0.98925, 192.0, 0.0, 16.0, 127.5, 32.0, 15.0, 120.0, 0.0, 0.0, 0.0, 1.6444975174770865E9, 0.0, 2022-02-10 23:51:57.477
186.0, -9749.6521174493, -11960.910196412826, -6154.4634287909785, -14043.422227313786, -116.25142291205204, -1183.7930898419727, -1840.8896733390898, -3013.5739461867747, -20524.511697830167, -16820.581772396778, -22453.1990233897, -12768.322261371883, -7419.728627172545, -11909.54588765453, -5208.872879609213, -8433.447293454086, 0.00725, -0.0225, 0.98925, 192.0, 0.0, 0.0, 0.0, 0.0, 0.0, 0.0, 0.0, 0.0, 0.0, 1.644497517477095E9, 0.0, 2022-02-10 23:51:57.477
188.0, -9753.004879117594, -11959.099705111947, -6153.323489823758, -14038.661305744805, -108.80829200843478, -1181.200287485157, -1845.1812082745087, -3021.687629424051, -20529.25026765469, -16827.108481777726, -22467.124160185358, -12785.62251158029, -7418.141653316218, -11927.628448918873, -5216.0477895793665, -8438.789360378905, 0.00725, -0.0225, 0.98925, 192.0, 0.0, 0.0, 0.0, 0.0, 0.0, 0.0, 0.0, 0.0, 0.0, 1.644497517477102E9, 0.0, 2022-02-10 23:51:57.477
190.0, -9742.432503990234, -11973.024841907602, -6151.736515967431, -14038.996581911635, -99.3535041038399, -1190.722130623118, -1842.8566268511568, -3017.887832866649, -20523.01413095166, -16828.80721435633, -22448.169880887257, -12771.943243973643, -7416.733493415534, -11927.583745429964, -5207.732940641992, -8434.47547369903, 0.00725, -0.0225, 0.98925, 192.0, 0.0, 0.0, 0.0, 0.0, 0.0, 0.0, 0.0, 0.0, 0.0, 1.6444975174771092E9, 0.0, 2022-02-10 23:51:57.477
192.0, -9758.771629187064, -11976.377603575898, -6153.189379357026, -14041.678791246271, -109.27767864199623, -1201.42861621721, -1842.6331094066036, -3020.6147456901963, -20525.96456121976, -16842.039447073872, -22467.16886367427, -12781.375680133782, -7413.51484221397, -11946.962707872714, -5207.576478430806, -8440.108113301769, 0.00725, -0.0225, 0.98925, 192.0, 0.0, 0.0, 0.0, 0.0, 0.0, 0.0, 0.0, 0.0, 0.0, 1.6444975174771163E9, 0.0, 2022-02-10 23:51:57.477
194.0, -9732.553032940988, -11962.206597591234, -6136.805550671286, -14035.308544076508, -94.14554764575335, -1182.0273020300033, -1822.941222541478, -3008.4553967065094, -20514.743985503195, -16831.33296147978, -22461.64798279381, -12774.223121908084, -7412.397254991205, -11938.98313510217, -5202.5473359283615, -8432.53087193142, 0.006625000000000001, -0.02225, 0.989625, 192.0, 0.0, 24.0, 127.5, 40.0, 15.0, 120.0, 0.0, 0.0, 0.0, 1.6444975174771235E9, 0.0, 2022-02-10 23:51:57.477
196.0, -9744.980602858139, -11957.400972533344, -6138.236062316426, -14037.58842201095, -111.84812925435654, -1187.816403843928, -1838.4756849379164, -3011.338771741244, -20514.654578525377, -16826.28146723288, -22449.846261721406, -12771.540912573448, -7404.216516520562, -11924.275687250578, -5197.473489937007, -8424.327781716322, 0.006625000000000001, -0.02225, 0.989625, 192.0, 0.0, 0.0, 0.0, 0.0, 0.0, 0.0, 0.0, 0.0, 0.0, 1.6444975174771304E9, 0.0, 2022-02-10 23:51:57.477
198.0, -9749.138027326826, -11971.773144218105, -6134.9727076259505, -14035.286192332052, -110.99876296505488, -1189.0457497889697, -1847.394030975584, -3012.434007219554, -20517.269732626646, -16818.167783995603, -22465.470131095666, -12788.260017426017, -7417.046417837909, -11939.69839092474, -5203.88844059568, -8430.42980795262, 0.006625000000000001, -0.02225, 0.989625, 192.0, 0.0, 0.0, 0.0, 0.0, 0.0, 0.0, 0.0, 0.0, 0.0, 1.6444975174771404E9, 0.0, 2022-02-10 23:51:57.477
200.0, -9747.036963348028, -11979.283330355089, -6135.062114603772, -14036.470834788184, -112.83160601039005, -1181.3791014407996, -1844.8459321076791, -3008.2318792619562, -20517.984988449214, -16822.258153230923, -22449.958020443682, -12771.138581173253, -7417.694618427113, -11935.652725178328, -5202.390873717174, -8429.356924218766, 0.006625000000000001, -0.02225, 0.989625, 192.0, 0.0, 0.0, 0.0, 0.0, 0.0, 0.0, 0.0, 0.0, 0.0, 1.6444975174771473E9, 0.0, 2022-02-10 23:51:57.477
202.0, -9752.423733761756, -11983.194885634766, -6145.880358920141, -14040.605907512416, -131.9870510085882, -1197.4053022152546, -1857.4523159804721, -3017.440797977543, -20523.93055247433, -16823.24162998696, -22467.839416007926, -12790.830468038377, -7418.23106029404, -11930.69063790925, -5213.41028373364, -8433.871976598737, 0.006625000000000001, -0.02225, 0.989625, 192.0, 0.0, 0.0, 0.0, 0.0, 0.0, 0.0, 0.0, 0.0, 0.0, 1.6444975174771547E9, 0.0, 2022-02-10 23:51:57.477
204.0, -9745.226472047147, -11988.089917670479, -6141.45471351799, -14039.085988889456, -125.16976894971955, -1187.0564445324476, -1856.5805979467152, -3016.0326380768583, -20523.48351758522, -16833.94811558105, -22472.823855021463, -12793.467973884104, -7425.249508053006, -11932.478777465676, -5215.913679112635, -8433.939031832104, 0.0063125, -0.023125, 0.9918125, 192.0, 0.0, 24.0, 127.5, 32.0, 15.5, 8.0, 0.0, 0.0, 0.0, 1.644497517477162E9, 0.0, 2022-02-10 23:51:57.477
206.0, -9762.347908299913, -11988.268731626122, -6148.137885110126, -14038.236622600154, -131.74118181957982, -1205.9213168527267, -1849.4056879765617, -3024.7274666699727, -20525.472822841744, -16837.591449927266, -22465.581889817942, -12779.632244066268, -7423.729589430045, -11944.973402616191, -5211.085702310289, -8434.38606672121, 0.0063125, -0.023125, 0.9918125, 192.0, 0.0, 0.0, 0.0, 0.0, 0.0, 0.0, 0.0, 0.0, 0.0, 1.6444975174771693E9, 0.0, 2022-02-10 23:51:57.477
208.0, -9749.674469193753, -11975.975272175703, -6142.639355974121, -14034.883860931857, -129.34954516286197, -1208.6258779318189, -1836.9334145705004, -3007.7177891394845, -20520.555439061576, -16835.33392373728, -22478.478846368653, -12788.8188110374, -7428.222290065562, -11947.566204973007, -5211.219812777021, -8435.078970799324, 0.0063125, -0.023125, 0.9918125, 192.0, 0.0, 0.0, 0.0, 0.0, 0.0, 0.0, 0.0, 0.0, 0.0, 1.6444975174771764E9, 0.0, 2022-02-10 23:51:57.477
210.0, -9733.201233530192, -11978.098687898957, -6135.68796344852, -14032.805148697515, -129.7295248186022, -1193.136119024291, -1835.9946413033774, -3009.2600595069002, -20508.396090077887, -16820.939400308063, -22465.44777935121, -12774.826619008378, -7426.8141301648775, -11942.358248514922, -5205.542469685372, -8428.507557929464, 0.0063125, -0.023125, 0.9918125, 192.0, 0.0, 0.0, 0.0, 0.0, 0.0, 0.0, 0.0, 0.0, 0.0, 1.644497517477184E9, 0.0, 2022-02-10 23:51:57.477
212.0, -9753.74248668462, -11981.607911778441, -6140.694754206509, -14037.409608055308, -140.30189994596242, -1201.8980028507713, -1842.2084262619528, -3015.0044578319144, -20511.659444768364, -16821.341731708257, -22466.073628195958, -12784.571979590892, -7424.958935375087, -11931.003562331625, -5211.577440688306, -8427.971116062536, 0.0063125, -0.023125, 0.9918125, 192.0, 0.0, 0.0, 0.0, 0.0, 0.0, 0.0, 0.0, 0.0, 0.0, 1.6444975174771907E9, 0.0, 2022-02-10 23:51:57.477
214.0, -9746.12054182536, -11989.788650249082, -6140.046553617305, -14032.06754113049, -135.87625454381163, -1198.7240551381178, -1839.2803477383077, -3011.2270130189677, -20515.123965158935, -16822.548725908844, -22462.564404316476, -12781.979177234076, -7423.32725802985, -11945.219271805201, -5208.783472631392, -8429.848662596782, 0.00615625, -0.0225625, 0.99190625, 192.0, 0.0, 24.0, 127.5, 40.0, 15.5, 0.0, 0.0, 0.0, 0.0, 1.6444975174771976E9, 0.0, 2022-02-10 23:51:57.477
216.0, -9751.417905261267, -11993.856667739949, -6155.491609035923, -14038.326029577975, -150.9860337955992, -1218.550052469975, -1853.3842984896064, -3018.5583852003083, -20523.34940711849, -16827.17553701109, -22465.15720667329, -12779.542837088447, -7427.507034242993, -11957.89271091136, -5208.783472631392, -8436.554185933373, 0.00615625, -0.0225625, 0.99190625, 192.0, 0.0, 0.0, 0.0, 0.0, 0.0, 0.0, 0.0, 0.0, 0.0, 1.6444975174772043E9, 0.0, 2022-02-10 23:51:57.477
218.0, -9752.714306439675, -11989.632188037896, -6155.31279508028, -14036.381427810364, -150.13666750629753, -1220.0923228373913, -1864.6048742061705, -3019.6089171897074, -20522.030654195627, -16829.05308354534, -22479.819951035974, -12791.05398548293, -7439.219348337573, -11943.431132248776, -5218.394722747174, -8437.895290600693, 0.00615625, -0.0225625, 0.99190625, 192.0, 0.0, 0.0, 0.0, 0.0, 0.0, 0.0, 0.0, 0.0, 0.0, 1.6444975174772115E9, 0.0, 2022-02-10 23:51:57.477
220.0, -9756.983489630638, -11985.385356591387, -6153.88228343514, -14050.418323328297, -145.06282151494284, -1215.7337326686065, -1851.8196763777348, -3019.1395305561464, -20522.88002048493, -16817.452528173035, -22457.11057866938, -12779.118153943797, -7445.053153640409, -11940.74892291414, -5213.946725600568, -8435.950688833082, 0.00615625, -0.0225625, 0.99190625, 192.0, 0.0, 0.0, 0.0, 0.0, 0.0, 0.0, 0.0, 0.0, 0.0, 1.6444975174772189E9, 0.0, 2022-02-10 23:51:57.477
222.0, -9768.472286280667, -12008.1841359358, -6162.93473993954, -14046.931451193268, -159.59145541089242, -1239.940671913704, -1866.683586440514, -3035.6798214530736, -20533.20652642328, -16842.352371496247, -22482.703326070707, -12799.234723953572, -7446.103685629808, -11963.480647025186, -5212.896193611168, -8445.159607548667, 0.00615625, -0.0225625, 0.99190625, 192.0, 0.0, 0.0, 0.0, 0.0, 0.0, 0.0, 0.0, 0.0, 0.0, 1.6444975174772265E9, 0.0, 2022-02-10 23:51:57.477
224.0, -9751.462608750178, -12008.944095247281, -6156.162161369582, -14048.83134947197, -142.1794464802082, -1225.8143694179498, -1856.0441560797879, -3030.5165684838976, -20530.077282199538, -16846.46509247602, -22480.222282436167, -12795.39022390726, -7446.371906563271, -11957.445676022253, -5216.673638424116, -8445.025497081935, 0.004078125, -0.02228125, 0.991953125, 192.0, 0.0, 8.0, 127.5, 40.0, 15.5, 0.0, 0.0, 0.0, 0.0, 1.644497517477234E9, 0.0, 2022-02-10 23:51:57.477
226.0, -9767.824085691464, -12016.700150573273, -6168.589731286733, -14051.714724506704, -166.22992351411864, -1231.6928782096957, -1864.7613364173576, -3037.98205113197, -20533.474747356744, -16848.476749477, -22476.19896843421, -12798.273598941994, -7446.438961796637, -11962.117190613413, -5210.213984276532, -8444.153779048178, 0.004078125, -0.02228125, 0.991953125, 192.0, 0.0, 0.0, 0.0, 0.0, 0.0, 0.0, 0.0, 0.0, 0.0, 1.6444975174772415E9, 0.0, 2022-02-10 23:51:57.477
228.0, -9765.700669968208, -12010.776938292616, -6167.270978363869, -14050.373619839385, -170.49910670508228, -1225.523796740031, -1866.616531207148, -3035.9033388976263, -20539.643828826407, -16851.360124511735, -22498.014271022592, -12816.602029395346, -7459.738249747545, -11974.008318663637, -5222.261574537942, -8448.758238405971, 0.004078125, -0.02228125, 0.991953125, 192.0, 0.0, 0.0, 0.0, 0.0, 0.0, 0.0, 0.0, 0.0, 0.0, 1.6444975174772482E9, 0.0, 2022-02-10 23:51:57.477
230.0, -9762.057335621994, -12004.451394611764, -6159.26905384887, -14051.245337873142, -162.36307172335052, -1229.323593297433, -1859.7992491482794, -3040.9771848889814, -20535.039369468614, -16838.932554594583, -22484.469113882675, -12814.031578782986, -7449.434095553648, -11974.254187852644, -5213.656152922649, -8445.785456393416, 0.004078125, -0.02228125, 0.991953125, 192.0, 0.0, 0.0, 0.0, 0.0, 0.0, 0.0, 0.0, 0.0, 0.0, 1.6444975174772584E9, 0.0, 2022-02-10 23:51:57.477
232.0, -9784.900818455317, -12023.159804720855, -6165.7287079964535, -14051.670021017793, -182.63610394431402, -1247.3390993284106, -1882.7321389594244, -3066.212304379023, -20543.48832887272, -16846.867423876218, -22497.723698344675, -12812.601067137846, -7460.47585731457, -11983.37369959041, -5215.824272134813, -8456.491941987508, 0.004078125, -0.02228125, 0.991953125, 192.0, 0.0, 0.0, 0.0, 0.0, 0.0, 0.0, 0.0, 0.0, 0.0, 1.6444975174772651E9, 0.0, 2022-02-10 23:51:57.477
234.0, -9761.587948988432, -12017.258944184656, -6159.939606182529, -14049.434846572263, -174.6788829182247, -1233.548072999486, -1874.976083633433, -3035.635117964163, -20536.20166018029, -16850.3766477557, -22493.745087831627, -12811.05879677043, -7457.972461935576, -11979.37273733291, -5219.825234392314, -8452.96036636357, 0.004078125, -0.02228125, 0.991953125, 192.0, 0.0, 0.0, 127.5, 40.0, 15.0, 120.0, 0.0, 0.0, 0.0, 1.644497517477272E9, 0.0, 2022-02-10 23:51:57.477
236.0, -9778.575274774466, -12028.792444323593, -6169.081469664749, -14051.044172173044, -186.59236271290337, -1241.2370730921118, -1873.9702551329442, -3043.0335453788693, -20536.20166018029, -16851.985973356484, -22485.92197727227, -12812.735177604578, -7452.8092089664, -11976.981100676192, -5217.567708202328, -8449.719363417551, 0.004078125, -0.02228125, 0.991953125, 192.0, 0.0, 0.0, 0.0, 0.0, 0.0, 0.0, 0.0, 0.0, 0.0, 1.6444975174772787E9, 0.0, 2022-02-10 23:51:57.477
238.0, -9780.586931775444, -12020.477595386219, -6166.8462952192185, -14058.710820521215, -184.02191210054303, -1237.8172561904498, -1879.7593569468686, -3040.820722677794, -20544.404750395388, -16859.160883326636, -22501.970529791182, -12829.342523734871, -7464.7897439944445, -11962.608928991429, -5220.2722692814195, -8451.52985471843, 0.004078125, -0.02228125, 0.991953125, 192.0, 0.0, 0.0, 0.0, 0.0, 0.0, 0.0, 0.0, 0.0, 0.0, 1.6444975174772856E9, 0.0, 2022-02-10 23:51:57.477
240.0, -9777.681204996254, -12022.779825065116, -6166.511019052389, -14059.269614132598, -181.16088881026374, -1235.425619533732, -1869.7904789198017, -3035.5233592418863, -20548.96450626427, -16850.86838613372, -22499.377727434367, -12824.8274713549, -7468.969520207587, -11977.741059987673, -5217.344190757774, -8449.093514572802, 0.004078125, -0.02228125, 0.991953125, 192.0, 0.0, 0.0, 0.0, 0.0, 0.0, 0.0, 0.0, 0.0, 0.0, 1.6444975179570725E9, 0.0, 2022-02-10 23:51:57.957
242.0, -9785.280798111058, -12028.881851301414, -6175.407013345602, -14062.264747889609, -192.58263022692566, -1239.8959684247934, -1868.203505063475, -3039.9713563884925, -20550.663238842873, -16866.156979341147, -22509.50306767262, -12831.197718524661, -7464.320357360883, -11978.053984410046, -5218.618240191727, -8453.563863463864, 0.004078125, -0.02228125, 0.991953125, 192.0, 0.0, 0.0, 0.0, 0.0, 0.0, 0.0, 0.0, 0.0, 0.0, 1.6444975179572597E9, 0.0, 2022-02-10 23:51:57.957
244.0, -9766.661794979787, -12006.060720212547, -6162.7335742394425, -14052.92171870729, -170.94614159418842, -1228.8542066638718, -1862.9284933720226, -3029.398981261132, -20541.54372710511, -16846.28627852038, -22506.21736123769, -12820.223011997106, -7455.7596392345, -11988.22402813721, -5215.645458179171, -8449.294680272898, 0.002, -0.024, 0.992, 192.0, 0.0, 8.0, 127.5, 32.0, 15.5, 0.0, 0.0, 0.0, 0.0, 1.6444975179572668E9, 0.0, 2022-02-10 23:51:57.957
246.0, -9777.50239104061, -12031.117025746946, -6164.40995507359, -14051.625317528882, -184.31248477846205, -1238.3089945684667, -1884.1850023490194, -3050.566083260308, -20541.476671871744, -16848.76732215492, -22497.053146011014, -12808.130718246784, -7474.691566788146, -11986.145315902868, -5209.74459764297, -8450.971061107048, 0.002, -0.024, 0.992, 192.0, 0.0, 0.0, 0.0, 0.0, 0.0, 0.0, 0.0, 0.0, 0.0, 1.644497517957276E9, 0.0, 2022-02-10 23:51:57.957
248.0, -9767.891140924829, -12032.078150758523, -6166.3769085856575, -14045.54564303704, -187.0393976020095, -1230.2176630756455, -1887.6271709951368, -3042.564158745308, -20544.404750395388, -16858.177406570605, -22508.229018238668, -12826.168576022217, -7471.42821209767, -11979.216275121722, -5217.344190757774, -8450.904005873681, 0.002, -0.024, 0.992, 192.0, 0.0, 0.0, 0.0, 0.0, 0.0, 0.0, 0.0, 0.0, 0.0, 1.6444975179572828E9, 0.0, 2022-02-10 23:51:57.957
250.0, -9761.655004221799, -12013.70501681626, -6158.799667215308, -14041.745846479636, -176.75759515256826, -1227.5578054854639, -1873.9479033884888, -3036.976222631481, -20537.11808170296, -16846.91212736513, -22489.431201151754, -12815.506793917037, -7470.511790575003, -11972.51075178513, -5217.835929135791, -8440.666906913151, 0.002, -0.024, 0.992, 192.0, 0.0, 0.0, 0.0, 0.0, 0.0, 0.0, 0.0, 0.0, 0.0, 1.6444975179572897E9, 0.0, 2022-02-10 23:51:57.957
252.0, -9780.877504453363, -12008.206487680256, -6163.404126573101, -14043.556337780517, -183.39606325579445, -1238.3536980573772, -1868.3823190191174, -3041.558330244819, -20531.954828733782, -16838.46316796102, -22490.437029652243, -12822.949924820654, -7463.515694560492, -11988.447545581765, -5211.465681966029, -8441.091590057802, 0.002, -0.024, 0.992, 192.0, 0.0, 0.0, 0.0, 0.0, 0.0, 0.0, 0.0, 0.0, 0.0, 1.6444975179572964E9, 0.0, 2022-02-10 23:51:57.957
254.0, -9756.961137886185, -12007.84885976897, -6152.652937490098, -14039.86829994539, -166.27462700302925, -1221.1205030823355, -1864.8954468840896, -3035.1880830750565, -20526.858630997973, -16843.984048841485, -22487.68776508424, -12814.322151460905, -7469.975348708075, -11957.624489977896, -5214.997257589967, -8437.67177315614, 0.002, -0.02, 0.988, 192.0, 0.0, 8.0, 127.5, 48.0, 15.0, 112.0, 0.0, 0.0, 0.0, 1.6444975179573154E9, 0.0, 2022-02-10 23:51:57.957
0.0, -9760.917396654773, -12003.557324833551, -6154.709297979987, -14037.54371852204, -172.28724626150685, -1230.1506078422794, -1875.1325458446202, -3040.530149999875, -20522.88002048493, -16843.514662207923, -22476.377782389856, -12800.039386753964, -7460.922892203676, -11964.486475525675, -5207.397664475163, -8434.989563821502, 0.002, -0.02, 0.988, 192.0, 0.0, 0.0, 0.0, 0.0, 0.0, 0.0, 0.0, 0.0, 0.0, 1.6444975179573226E9, 0.0, 2022-02-10 23:51:57.957
2.0, -9751.283794794535, -11990.727423516206, -6157.2797485923475, -14034.101549875923, -176.80229864147887, -1229.9270903977265, -1884.6096854936702, -3039.434914521565, -20514.92279945884, -16825.5215079214, -22488.514779629088, -12803.638017611269, -7462.822790482377, -11971.840199451472, -5216.427769235107, -8436.330668488821, 0.002, -0.02, 0.988, 192.0, 0.0, 0.0, 0.0, 0.0, 0.0, 0.0, 0.0, 0.0, 0.0, 1.6444975179573295E9, 0.0, 2022-02-10 23:51:57.957
4.0, -9782.687995754242, -12033.62042112594, -6158.59850151521, -14040.58355576796, -168.3086357484622, -1228.9659653861481, -1873.903199899578, -3033.7352196854617, -20534.078244457036, -16839.111368550228, -22487.196026706224, -12812.265790971016, -7471.919950475687, -11983.284292612589, -5212.98560058899, -8429.468682941042, 0.002, -0.02, 0.988, 192.0, 0.0, 0.0, 0.0, 0.0, 0.0, 0.0, 0.0, 0.0, 0.0, 1.6444975179573364E9, 0.0, 2022-02-10 23:51:57.957
6.0, -9799.563562817999, -12042.605822396974, -6166.801591730308, -14044.249241858632, -174.120089306842, -1240.1194858693464, -1868.5387812303045, -3038.0044028764255, -20538.459186370277, -16857.842130403773, -22497.254311711113, -12825.587430666379, -7471.025880697475, -11973.874208196905, -5213.499690711462, -8431.010953308458, 0.002, -0.02, 0.988, 192.0, 0.0, 0.0, 0.0, 0.0, 0.0, 0.0, 0.0, 0.0, 0.0, 1.644497517957358E9, 0.0, 2022-02-10 23:51:57.957
8.0, -9765.633614734843, -12026.356104177965, -6155.938643925028, -14041.835253457459, -157.84801934337847, -1221.4110757602543, -1861.2074090489639, -3025.9344608705596, -20533.564154334566, -16849.795502399862, -22502.68578561375, -12823.598125409857, -7465.214427139095, -11953.914100398315, -5213.209118033543, -8429.2898689854, 0.002, -0.022, 0.986, 192.0, 0.0, 8.0, 127.5, 40.0, 15.0, 104.0, 0.0, 0.0, 0.0, 1.6444975179573643E9, 0.0, 2022-02-10 23:51:57.957
10.0, -9791.829859236463, -12050.764209123161, -6155.357498569191, -14038.057808644511, -165.60407466937002, -1227.2895845520002, -1869.6116649641592, -3036.4621325090093, -20531.865421755963, -16848.052066332348, -22484.245596438122, -12819.306590474438, -7468.433078340659, -11955.769295188105, -5206.034208063389, -8425.400665450175, 0.002, -0.022, 0.986, 192.0, 0.0, 0.0, 0.0, 0.0, 0.0, 0.0, 0.0, 0.0, 0.0, 1.6444975179573717E9, 0.0, 2022-02-10 23:51:57.957
12.0, -9811.588801334954, -12050.272470745143, -6155.31279508028, -14036.515538277095, -168.15217353727502, -1230.5305874980197, -1871.84683940969, -3033.1540743296237, -20538.05685497008, -16853.774112912906, -22505.50210541512, -12822.391131209271, -7470.958825464109, -11961.021955135102, -5210.906888354646, -8427.1888050066, 0.002, -0.022, 0.986, 192.0, 0.0, 0.0, 0.0, 0.0, 0.0, 0.0, 0.0, 0.0, 0.0, 1.6444975179573786E9, 0.0, 2022-02-10 23:51:57.957
14.0, -9797.440147094745, -12040.013020040158, -6148.584919999233, -14039.801244712025, -169.76149913805713, -1225.3673345288437, -1886.5095837723713, -3029.108408583213, -20533.54180259011, -16842.039447073872, -22491.241692452633, -12812.288142715472, -7480.793593024444, -11961.737210957672, -5213.0526558223555, -8426.250031739477, 0.002, -0.022, 0.986, 192.0, 0.0, 0.0, 0.0, 0.0, 0.0, 0.0, 0.0, 0.0, 0.0, 1.6444975179573996E9, 0.0, 2022-02-10 23:51:57.957
16.0, -9808.794833278042, -12061.761267395172, -6159.380812571146, -14045.903270948324, -187.82170865794524, -1249.3060528404776, -1881.100461614187, -3041.3795162891765, -20534.994665979706, -16846.599202942754, -22498.2601402116, -12823.39695970976, -7478.133735434263, -11960.574920245996, -5212.024475577411, -8430.496863185987, 0.002, -0.022, 0.986, 192.0, 0.0, 0.0, 0.0, 0.0, 0.0, 0.0, 0.0, 0.0, 0.0, 1.6444975179574065E9, 0.0, 2022-02-10 23:51:57.957
18.0, -9797.998940706128, -12049.62427015594, -6155.625719502655, -14045.053904659022, -176.44467073019396, -1246.5791400169303, -1869.5669614752487, -3034.7410481859506, -20542.43779688332, -16844.72165640851, -22503.69161411424, -12831.175366780206, -7480.212447668607, -12007.84885976897, -5215.667809923627, -8437.805883622872, 0.006, -0.024, 0.998, 192.0, 0.0, 24.0, 127.5, 32.0, 15.5, 24.0, 0.0, 0.0, 0.0, 1.644497517957414E9, 0.0, 2022-02-10 23:51:57.957
20.0, -9795.115565671393, -12051.077133545534, -6153.994042157417, -14045.657401759316, -180.84796438788945, -1245.0815731384246, -1873.2773510548295, -3035.1657313306014, -20537.92274450335, -16846.53214770939, -22499.735355345652, -12818.278410229494, -7473.484572587558, -11978.880998954894, -5205.8330423632915, -8433.179072520623, 0.006, -0.024, 0.998, 192.0, 0.0, 0.0, 0.0, 0.0, 0.0, 0.0, 0.0, 0.0, 0.0, 1.6444975179574203E9, 0.0, 2022-02-10 23:51:57.957
22.0, -9795.517897071588, -12053.178197524334, -6155.26809159137, -14042.841081957948, -179.0821765759202, -1243.1593231152683, -1875.2666563113519, -3039.501969754931, -20539.241497426214, -16860.032601360395, -22510.397137450833, -12830.527166191003, -7472.255226642517, -11976.824638465005, -5213.0303040779, -8435.794226621894, 0.006, -0.024, 0.998, 192.0, 0.0, 0.0, 0.0, 0.0, 0.0, 0.0, 0.0, 0.0, 0.0, 1.6444975179574275E9, 0.0, 2022-02-10 23:51:57.957
24.0, -9798.200106406226, -12032.882813558916, -6145.366268797668, -14041.790549968548, -166.63225491431416, -1243.0475643929917, -1865.6554061955699, -3037.1326848426684, -20533.497099101198, -16859.25029030446, -22486.12314297237, -12824.223974254606, -7458.888883458243, -11985.295949613566, -5213.41028373364, -8437.537662689409, 0.006, -0.024, 0.998, 192.0, 0.0, 0.0, 0.0, 0.0, 0.0, 0.0, 0.0, 0.0, 0.0, 1.6444975179574344E9, 0.0, 2022-02-10 23:51:57.957
26.0, -9798.289513384047, -12034.46978741524, -6151.244777589414, -14039.533023778562, -184.08896733390895, -1252.5470557864971, -1879.13350810212, -3049.537903015364, -20530.613724066465, -16852.29889777886, -22493.45451515371, -12818.948962563154, -7465.259130628006, -11983.75367924615, -5213.0303040779, -8445.04784882639, 0.006, -0.024, 0.998, 192.0, 0.0, 0.0, 0.0, 0.0, 0.0, 0.0, 0.0, 0.0, 0.0, 1.6444975179574413E9, 0.0, 2022-02-10 23:51:57.957
28.0, -9773.255559594103, -12026.467862900241, -6144.941585653018, -14038.661305744805, -183.15019406678607, -1237.1914073457012, -1878.4182522795502, -3055.4834670404753, -20519.43785183881, -16840.608935428732, -22488.93946277374, -12817.317285217916, -7470.623549297279, -11962.675984224796, -5217.523004713417, -8447.439485483108, 0.01, -0.026000000000000002, 0.996, 192.0, 0.0, 40.0, 127.5, 24.0, 15.5, 16.0, 0.0, 0.0, 0.0, 1.6444975179574487E9, 0.0, 2022-02-10 23:51:57.957
30.0, -9777.301225340512, -12024.500909388174, -6146.729725209442, -14039.533023778562, -195.6448192173027, -1249.4625150516647, -1889.7505867183909, -3061.7643072324167, -20519.326093116535, -16838.865499361218, -22480.31168941399, -12810.231782225585, -7471.04823244193, -11967.36985056041, -5214.661981423138, -8448.95940410607, 0.01, -0.026000000000000002, 0.996, 192.0, 0.0, 0.0, 0.0, 0.0, 0.0, 0.0, 0.0, 0.0, 0.0, 1.6444975179574564E9, 0.0, 2022-02-10 23:51:57.957
32.0, -9786.465440567188, -12045.757418365172, -6157.83854220373, -14041.119997634889, -199.08698786342, -1256.5703697884524, -1889.035330895821, -3049.0685163818025, -20522.947075718293, -16838.262002260926, -22503.91513155879, -12826.839128355878, -7477.306720889416, -11981.093821655968, -5222.932126871601, -8445.092552315302, 0.01, -0.026000000000000002, 0.996, 192.0, 0.0, 0.0, 0.0, 0.0, 0.0, 0.0, 0.0, 0.0, 0.0, 1.644497517957463E9, 0.0, 2022-02-10 23:51:57.957
34.0, -9775.021347406071, -12045.131569520423, -6149.680155477543, -14040.292983090041, -188.82753715843407, -1254.491657554109, -1873.8361446662122, -3040.3736877886877, -20524.712863530265, -16849.3261157663, -22492.113410486392, -12817.898430573754, -7471.338805119849, -11981.004414678147, -5221.076932081811, -8439.52696794593, 0.01, -0.026000000000000002, 0.996, 192.0, 0.0, 0.0, 0.0, 0.0, 0.0, 0.0, 0.0, 0.0, 0.0, 1.64449751795747E9, 0.0, 2022-02-10 23:51:57.957
36.0, -9794.13208891536, -12034.022752526136, -6152.228254345448, -14042.416398813297, -200.89747916429988, -1263.9464454587037, -1885.0343686383212, -3052.55538851683, -20525.96456121976, -16845.57102269781, -22492.538093631043, -12818.747796863056, -7480.52537209098, -11973.56128377453, -5216.6959901685705, -8442.879729614226, 0.01, -0.026000000000000002, 0.996, 192.0, 0.0, 0.0, 0.0, 0.0, 0.0, 0.0, 0.0, 0.0, 0.0, 1.6444975179574769E9, 0.0, 2022-02-10 23:51:57.957
38.0, -9779.335234085946, -12027.853671056471, -6144.651012975099, -14036.806110955014, -193.3872930273167, -1245.6403667498073, -1881.7263104589356, -3044.106429112724, -20526.612761808963, -16843.201737785548, -22492.22516920867, -12816.892602073265, -7480.570075579892, -11981.250283867155, -5216.494824468473, -8444.28788951491, 0.01, -0.026000000000000002, 1.002, 192.0, 0.0, 40.0, 127.5, 24.0, 15.5, 40.0, 0.0, 0.0, 0.0, 1.6444975179574888E9, 0.0, 2022-02-10 23:51:57.957
40.0, -9777.256521851603, -12043.81281659756, -6150.417763044568, -14037.029628399567, -190.861545903867, -1242.2429015926007, -1880.5193162583491, -3045.98397564697, -20522.43298559582, -16839.178423783593, -22475.64017482283, -12809.427119425192, -7476.323244133383, -11961.647803979851, -5211.957420344045, -8438.789360378905, 0.01, -0.026000000000000002, 1.002, 192.0, 0.0, 0.0, 0.0, 0.0, 0.0, 0.0, 0.0, 0.0, 0.0, 1.644497517957498E9, 0.0, 2022-02-10 23:51:57.957
42.0, -9797.395443605834, -12051.926499834837, -6156.899768936607, -14037.722532477681, -188.20168831368548, -1250.4683435521536, -1869.008167863866, -3044.8440366797495, -20522.209468151268, -16853.23767104598, -22498.59541637843, -12823.821642854411, -7476.4126511112045, -11974.097725641457, -5222.350981515763, -8436.844758611292, 0.01, -0.026000000000000002, 1.002, 192.0, 0.0, 0.0, 0.0, 0.0, 0.0, 0.0, 0.0, 0.0, 0.0, 1.6444975179575052E9, 0.0, 2022-02-10 23:51:57.957
44.0, -9769.478114781155, -12017.571868607029, -6145.902710664596, -14038.303677833519, -168.3086357484622, -1235.783247445017, -1850.7020891549694, -3041.759495944917, -20518.700244271786, -16848.208528543535, -22487.73246857315, -12816.959657306632, -7478.4690116010925, -11978.903350699347, -5210.191632532076, -8434.095494043291, 0.01, -0.026000000000000002, 1.002, 192.0, 0.0, 0.0, 0.0, 0.0, 0.0, 0.0, 0.0, 0.0, 0.0, 1.644497517957512E9, 0.0, 2022-02-10 23:51:57.957
46.0, -9781.995091676128, -12036.86142407196, -6151.512998522878, -14040.672962745783, -180.378577754328, -1259.230227378634, -1864.493115483894, -3047.146266358646, -20520.309569872566, -16839.983086583983, -22490.459381396697, -12821.005323053041, -7466.3767178507715, -11988.715766515228, -5209.69989415406, -8438.834063867816, 0.01, -0.024, 0.999, 192.0, 0.0, 40.0, 127.5, 40.0, 15.5, 16.0, 0.0, 0.0, 0.0, 1.644497517957519E9, 0.0, 2022-02-10 23:51:57.957
48.0, -9775.93776892874, -12031.00526702467, -6140.426533273046, -14033.430997542262, -167.70513864816888, -1236.7667242010505, -1856.4241357355281, -3034.852806908227, -20512.77703199113, -16839.491348205967, -22488.78300056255, -12817.563154406924, -7466.779049250967, -11961.17841734629, -5211.868013366225, -8435.883633599715, 0.01, -0.024, 0.999, 192.0, 0.0, 0.0, 0.0, 0.0, 0.0, 0.0, 0.0, 0.0, 0.0, 1.6444975179575255E9, 0.0, 2022-02-10 23:51:57.957
50.0, -9774.082574138949, -12032.681647858817, -6139.264242561369, -14031.888727174846, -171.5049352055711, -1236.7667242010505, -1867.7341184299135, -3046.565121002808, -20512.4417558243, -16842.33001975179, -22476.288375412034, -12811.461128170626, -7471.271749886483, -11980.289158855578, -5206.972981330512, -8430.76508411945, 0.01, -0.024, 0.999, 192.0, 0.0, 0.0, 0.0, 0.0, 0.0, 0.0, 0.0, 0.0, 0.0, 1.6444975179575331E9, 0.0, 2022-02-10 23:51:57.957
52.0, -9774.328443327957, -12023.495080887686, -6145.8356554312295, -14030.882898674357, -178.1657550532526, -1236.2749858230336, -1869.2540370528743, -3033.623460963185, -20511.055947668072, -16838.46316796102, -22489.520608129576, -12816.959657306632, -7479.497191846037, -11983.977196690703, -5211.890365110679, -8430.474511441531, 0.01, -0.024, 0.999, 192.0, 0.0, 0.0, 0.0, 0.0, 0.0, 0.0, 0.0, 0.0, 0.0, 1.64449751795754E9, 0.0, 2022-02-10 23:51:57.957
54.0, -9753.697783195708, -12015.202583694767, -6136.492626248912, -14038.862471444902, -175.41649048524982, -1231.938747398704, -1849.5621501877488, -3030.2036440615234, -20505.40095632088, -16818.100728762238, -22480.26698592508, -12813.070453771408, -7484.52633434848, -11964.262958081123, -5204.044902806867, -8427.233508495512, 0.01, -0.024, 0.999, 192.0, 0.0, 0.0, 0.0, 0.0, 0.0, 0.0, 0.0, 0.0, 0.0, 1.6444975179575467E9, 0.0, 2022-02-10 23:51:57.957
56.0, -9789.728795257664, -12037.889604316904, -6140.828864673241, -14032.939259164246, -186.43590050171622, -1237.1914073457012, -1861.1850573045085, -3043.41352503461, -20514.699282014284, -16828.203717256038, -22476.22132017867, -12815.752663106045, -7485.867439015799, -11983.910141457336, -5201.072120794311, -8428.462854440553, 0.01, -0.022, 0.9935, 192.0, 0.0, 40.0, 127.5, 48.0, 15.0, 112.0, 0.0, 0.0, 0.0, 1.6444975179575536E9, 0.0, 2022-02-10 23:51:57.957
58.0, -9772.070917137971, -12029.127720490424, -6133.5645477252665, -14027.44073002824, -165.02292931353205, -1235.8950061672933, -1863.0849555832096, -3045.715754713506, -20516.86740122645, -16850.62251694471, -22480.714020814183, -12808.86832581381, -7468.589540551847, -11989.855705482449, -5202.480280694996, -8428.19463350709, 0.01, -0.022, 0.9935, 192.0, 0.0, 0.0, 0.0, 0.0, 0.0, 0.0, 0.0, 0.0, 0.0, 1.6444975179575603E9, 0.0, 2022-02-10 23:51:57.957
60.0, -9764.672489723265, -12033.66512461485, -6140.4935885064115, -14033.051017886522, -171.79550788349007, -1239.717154469151, -1866.9741591184331, -3043.748801201439, -20510.78772673461, -16838.306705749834, -22473.06972421047, -12803.593314122358, -7468.611892296302, -11994.571923562518, -5197.562896914827, -8429.66984864114, 0.01, -0.022, 0.9935, 192.0, 0.0, 0.0, 0.0, 0.0, 0.0, 0.0, 0.0, 0.0, 0.0, 1.6444975179575667E9, 0.0, 2022-02-10 23:51:57.957
62.0, -9780.69869049772, -12030.915860046847, -6143.108742607683, -14032.983962653158, -178.88101087582243, -1239.7842097025168, -1863.84491489469, -3035.277490052878, -20511.257113368167, -16841.95004009605, -22485.2067214497, -12808.465994413615, -7466.041441683941, -11980.825600722505, -5204.514289440428, -8426.76412186195, 0.01, -0.022, 0.9935, 192.0, 0.0, 0.0, 0.0, 0.0, 0.0, 0.0, 0.0, 0.0, 0.0, 1.6444975179575737E9, 0.0, 2022-02-10 23:51:57.957
64.0, -9776.69772824022, -12031.787578080604, -6136.090294848716, -14029.653552729316, -168.6215601708365, -1227.714267696651, -1850.7691443883355, -3029.5777952167746, -20514.095784913992, -16834.305743492336, -22469.806369519996, -12794.831430295877, -7481.397090124738, -11967.950995916248, -5200.826251605303, -8422.271421226433, 0.01, -0.022, 0.9935, 192.0, 0.0, 0.0, 0.0, 0.0, 0.0, 0.0, 0.0, 0.0, 0.0, 1.6444975179575803E9, 0.0, 2022-02-10 23:51:57.957
66.0, -9787.024234178572, -12036.324982205031, -6144.628661230643, -14032.760445208603, -182.41258649976095, -1236.811427689961, -1866.0577375957655, -3043.5476355013416, -20513.760508747164, -16841.681819162586, -22471.773323032063, -12811.505831659537, -7471.294101630939, -11981.205580378244, -5199.8427748492695, -8425.557127661363, 0.009000000000000001, -0.020999999999999998, 0.99175, 192.0, 0.0, 32.0, 127.5, 48.0, 15.0, 120.0, 0.0, 0.0, 0.0, 1.6444975179575877E9, 0.0, 2022-02-10 23:51:57.957
68.0, -9771.780344460052, -12023.137452976402, -6137.386696027123, -14032.380465552864, -177.69636841969114, -1218.4606454921538, -1863.9566736169666, -3034.8751586526823, -20509.647787767386, -16829.723635878996, -22484.82674179396, -12816.043235783964, -7472.411688853704, -11956.79747543305, -5205.900097596657, -8424.014857293947, 0.009000000000000001, -0.020999999999999998, 0.99175, 192.0, 0.0, 0.0, 0.0, 0.0, 0.0, 0.0, 0.0, 0.0, 0.0, 1.6444975179575942E9, 0.0, 2022-02-10 23:51:57.957
70.0, -9767.175885102259, -12030.222955968733, -6142.706411207487, -14032.536927764051, -190.7944906705011, -1228.7424479415952, -1860.5145049708492, -3043.122952356691, -20506.406784821367, -16817.47487991749, -22477.852997523903, -12818.613686396324, -7481.486497102559, -11956.417495777308, -5201.832080105792, -8419.745674102984, 0.009000000000000001, -0.020999999999999998, 0.99175, 192.0, 0.0, 0.0, 0.0, 0.0, 0.0, 0.0, 0.0, 0.0, 0.0, 1.6444975179576032E9, 0.0, 2022-02-10 23:51:57.957
72.0, -9779.826972463963, -12046.875005587937, -6142.92992865204, -14023.573878237472, -177.5622579529593, -1235.6714887227404, -1851.1714757885309, -3045.2687198244003, -20513.06760466905, -16831.623534157698, -22495.242654710135, -12806.230819968085, -7469.215389396595, -11989.18515314879, -5214.907850612146, -8422.249069481977, 0.009000000000000001, -0.020999999999999998, 0.99175, 192.0, 0.0, 0.0, 0.0, 0.0, 0.0, 0.0, 0.0, 0.0, 0.0, 1.64449751795761E9, 0.0, 2022-02-10 23:51:57.957
74.0, -9783.827934721463, -12022.355141920465, -6126.233175543925, -14025.250259071621, -158.16094376575276, -1234.039811377503, -1846.2093885194527, -3046.118086113702, -20510.72067150124, -16817.251362472936, -22466.051276451504, -12794.786726806966, -7472.881075487266, -11985.56417054703, -5206.034208063389, -8417.935182802103, 0.009000000000000001, -0.020999999999999998, 0.99175, 192.0, 0.0, 0.0, 0.0, 0.0, 0.0, 0.0, 0.0, 0.0, 0.0, 1.6444975179576168E9, 0.0, 2022-02-10 23:51:57.957
76.0, -9794.713234271198, -12040.035371784614, -6137.900786149596, -14034.123901620378, -170.61086542735882, -1241.2594248365672, -1855.2394932793968, -3037.311498798311, -20516.800345993084, -16822.168746253104, -22473.87438701086, -12815.529145661492, -7470.176514408174, -11998.61758930893, -5205.117786540722, -8415.834118823304, 0.006500000000000001, -0.0215, 0.990875, 192.0, 0.0, 16.0, 127.5, 40.0, 15.0, 120.0, 0.0, 0.0, 0.0, 1.6444975179576235E9, 0.0, 2022-02-10 23:51:57.957
78.0, -9787.828896978963, -12059.280223760632, -6139.532463494834, -14031.128767863365, -171.43787997220517, -1231.782285187517, -1855.038327579299, -3032.5282254848753, -20521.024825695138, -16845.19104304207, -22485.2067214497, -12810.34354094786, -7472.456392342615, -11972.466048296219, -5207.084740052788, -8411.94491528808, 0.006500000000000001, -0.0215, 0.990875, 192.0, 0.0, 0.0, 0.0, 0.0, 0.0, 0.0, 0.0, 0.0, 0.0, 1.6444975179576304E9, 0.0, 2022-02-10 23:51:57.957
80.0, -9786.55484754501, -12058.967299338257, -6147.847312432207, -14033.699218475727, -179.70802542066878, -1237.973718401637, -1856.3570805021623, -3037.467961009498, -20521.963598962262, -16847.873252376707, -22471.706267798694, -12799.257075698028, -7476.85968600031, -11980.13269664439, -5206.9506295860565, -8410.357941431754, 0.006500000000000001, -0.0215, 0.990875, 192.0, 0.0, 0.0, 0.0, 0.0, 0.0, 0.0, 0.0, 0.0, 0.0, 1.6444975179576373E9, 0.0, 2022-02-10 23:51:57.957
82.0, -9810.694731556741, -12067.81859014256, -6155.156332869093, -14036.716703977192, -192.20265057118544, -1248.0543551509804, -1869.7457754308912, -3052.4883332834643, -20529.742006032706, -16849.706095422043, -22487.93363427325, -12815.909125317232, -7486.403880882726, -11997.544705575074, -5215.399588990163, -8415.85647056776, 0.006500000000000001, -0.0215, 0.990875, 192.0, 0.0, 0.0, 0.0, 0.0, 0.0, 0.0, 0.0, 0.0, 0.0, 1.6444975179576437E9, 0.0, 2022-02-10 23:51:57.957
84.0, -9816.774406048586, -12078.14509608091, -6152.764696212375, -14041.902308690824, -185.72064467914637, -1245.7968289609944, -1865.230723050919, -3045.2463680799447, -20538.079206714538, -16855.450493747056, -22487.86657903988, -12819.574811407902, -7479.966578479598, -11998.729348031206, -5220.764007659436, -8418.270458968933, 0.006500000000000001, -0.0215, 0.990875, 192.0, 0.0, 0.0, 0.0, 0.0, 0.0, 0.0, 0.0, 0.0, 0.0, 1.6444975179576511E9, 0.0, 2022-02-10 23:51:57.957
86.0, -9852.827769854995, -12113.326741853565, -6163.962920184484, -14048.630183771871, -197.32120005145075, -1253.3517185868882, -1877.6582929680699, -3055.505818784931, -20549.277430686645, -16871.52139801042, -22501.389384435344, -12833.678762159201, -7490.449546629137, -11990.906237471849, -5227.603641462761, -8424.081912527314, 0.00825, -0.02375, 0.9924375, 192.0, 0.0, 40.0, 127.5, 24.0, 15.5, 8.0, 0.0, 0.0, 0.0, 1.644497517957658E9, 0.0, 2022-02-10 23:51:57.957
88.0, -9871.089145074982, -12132.102207196023, -6158.620853259666, -14046.037381415055, -180.02094984304307, -1239.0242503910365, -1869.2763887973297, -3046.7439349584506, -20552.29491618811, -16876.215264346036, -22515.202762508725, -12848.96735536663, -7490.516601862503, -11994.32605437351, -5229.324725785819, -8420.550336903374, 0.00825, -0.02375, 0.9924375, 192.0, 0.0, 0.0, 0.0, 0.0, 0.0, 0.0, 0.0, 0.0, 0.0, 1.6444975179576647E9, 0.0, 2022-02-10 23:51:57.957
90.0, -9925.090959679004, -12183.734736887782, -6165.304024851803, -14053.055829174022, -179.70802542066878, -1234.6656602222515, -1867.3094352852627, -3040.7313156999726, -20582.000384569215, -16878.53984576939, -22523.785832379563, -12849.056762344451, -7492.14827920774, -11995.018958451625, -5218.729998914004, -8416.862299068249, 0.00825, -0.02375, 0.9924375, 192.0, 0.0, 0.0, 0.0, 0.0, 0.0, 0.0, 0.0, 0.0, 0.0, 1.6444975179576716E9, 0.0, 2022-02-10 23:51:57.957
92.0, -9964.87706480945, -12208.612228466538, -6172.434231333045, -14053.055829174022, -181.92084812174417, -1248.3449278288995, -1868.9187608860448, -3048.241501836956, -20596.238445787247, -16905.25018039348, -22556.93346940678, -12876.88468419131, -7491.05304372943, -11995.354234618455, -5224.116769327733, -8424.394836949687, 0.00825, -0.02375, 0.9924375, 192.0, 0.0, 0.0, 0.0, 0.0, 0.0, 0.0, 0.0, 0.0, 0.0, 1.6444975179576783E9, 0.0, 2022-02-10 23:51:57.957
94.0, -9996.974169847272, -12245.336144606608, -6170.3108156097915, -14055.223948386187, -173.69540616219118, -1235.3809160448213, -1854.9712723459331, -3038.6749552100846, -20603.50276273522, -16907.664168794654, -22555.07827461699, -12876.549408024479, -7488.48259311707, -11994.907199729349, -5215.153719801155, -8421.310296214855, 0.00825, -0.02375, 0.9924375, 192.0, 0.0, 0.0, 0.0, 0.0, 0.0, 0.0, 0.0, 0.0, 0.0, 1.6444975179576857E9, 0.0, 2022-02-10 23:51:57.957
96.0, -10028.22190859579, -12278.506133378283, -6182.961902971495, -14061.325974622487, -175.6847114187135, -1241.907625425771, -1848.1763420315199, -3044.3522983017324, -20631.822422960096, -16913.25210490848, -22580.738077251684, -12891.636835531812, -7492.975293752586, -12002.931475988804, -5219.758179158947, -8422.04790378188, 0.006125, -0.021875, 0.99321875, 192.0, 0.0, 16.0, 127.5, 48.0, 15.5, 8.0, 0.0, 0.0, 0.0, 1.6444975179576929E9, 0.0, 2022-02-10 23:51:57.957
98.0, -10027.976039406782, -12277.992043255812, -6169.707318509498, -14058.129675165377, -156.86454258734497, -1236.00676488957, -1836.7322488704026, -3035.4116005196097, -20613.73986169575, -16898.634064034708, -22574.948975437757, -12888.21701863015, -7481.218276169095, -12004.384339378399, -5219.199385547565, -8421.354999703766, 0.006125, -0.021875, 0.99321875, 192.0, 0.0, 0.0, 0.0, 0.0, 0.0, 0.0, 0.0, 0.0, 0.0, 1.6444975179576995E9, 0.0, 2022-02-10 23:51:57.957
100.0, -10022.656324226418, -12281.300101435198, -6172.322472610769, -14059.247262388142, -173.60599918436995, -1237.6607939792627, -1856.647653180081, -3039.07728661028, -20615.729166952275, -16907.35124437228, -22558.341629307466, -12875.320062079438, -7485.465107615603, -11999.958693976247, -5210.281039509898, -8419.008066535958, 0.006125, -0.021875, 0.99321875, 192.0, 0.0, 0.0, 0.0, 0.0, 0.0, 0.0, 0.0, 0.0, 0.0, 1.6444975179577067E9, 0.0, 2022-02-10 23:51:57.957
102.0, -10028.758350462718, -12259.171874424443, -6185.599408817221, -14051.982945440168, -181.6526271882805, -1243.1816748597234, -1871.1539353315754, -3040.910129655615, -20619.998350143236, -16898.075270423327, -22575.485417304688, -12884.864256961853, -7494.450508886637, -11989.363967104431, -5226.12842632871, -8423.992505549491, 0.006125, -0.021875, 0.99321875, 192.0, 0.0, 0.0, 0.0, 0.0, 0.0, 0.0, 0.0, 0.0, 0.0, 1.6444975179577172E9, 0.0, 2022-02-10 23:51:57.957
104.0, -9986.580608675553, -12234.339086334598, -6175.094088923227, -14049.300736105532, -155.3893274532947, -1226.619032218341, -1842.7001646399694, -3023.922803869582, -20615.282132063167, -16896.041261677892, -22564.018972399113, -12864.188893340695, -7491.254209429528, -11983.150182145857, -5222.976830360512, -8414.962400789547, 0.006125, -0.021875, 0.99321875, 192.0, 0.0, 0.0, 0.0, 0.0, 0.0, 0.0, 0.0, 0.0, 0.0, 1.6444975184377997E9, 0.0, 2022-02-10 23:51:58.437
106.0, -9990.447460466321, -12234.830824712613, -6176.74811801292, -14045.947974437235, -165.894647347289, -1246.3109190834666, -1846.6117199196483, -3039.949004644037, -20607.056690103615, -16899.036395434905, -22557.93929790727, -12861.372573539325, -7474.199828410128, -11995.734214274195, -5213.454987222551, -8419.76802584744, 0.0050625, -0.020937499999999998, 0.991609375, 192.0, 0.0, 16.0, 127.5, 48.0, 15.0, 120.0, 0.0, 0.0, 0.0, 1.6444975184379356E9, 0.0, 2022-02-10 23:51:58.437
108.0, -9962.373669430455, -12220.32454256112, -6169.886132465141, -14049.658364016816, -165.80524036946778, -1241.4605905366648, -1850.0985920546761, -3041.3124610558107, -20592.662166674396, -16892.599093031775, -22544.125919833892, -12862.467809017637, -7478.558418578914, -11977.048155909557, -5222.84271989378, -8426.04886603938, 0.0050625, -0.020937499999999998, 0.991609375, 192.0, 0.0, 0.0, 0.0, 0.0, 0.0, 0.0, 0.0, 0.0, 0.0, 1.6444975184379423E9, 0.0, 2022-02-10 23:51:58.437
110.0, -9937.943212740805, -12197.861039383537, -6167.583902786244, -14052.094704162444, -171.97432183913253, -1248.1884656177124, -1857.8322956362124, -3046.5427692583526, -20586.806009627107, -16881.847903948772, -22532.257143528124, -12857.349259537372, -7487.990854739053, -12002.931475988804, -5222.395685004674, -8423.880746827215, 0.0050625, -0.020937499999999998, 0.991609375, 192.0, 0.0, 0.0, 0.0, 0.0, 0.0, 0.0, 0.0, 0.0, 0.0, 1.6444975184379487E9, 0.0, 2022-02-10 23:51:58.437
112.0, -9942.234747676224, -12183.444164209863, -6175.049385434317, -14052.385276840363, -181.51851672154865, -1254.871637209849, -1869.0752230972319, -3042.0053651339254, -20581.68746014684, -16883.14430512718, -22550.56322223702, -12872.816666700444, -7479.720709290589, -12008.832336525003, -5229.928222886112, -8430.161587019156, 0.0050625, -0.020937499999999998, 0.991609375, 192.0, 0.0, 0.0, 0.0, 0.0, 0.0, 0.0, 0.0, 0.0, 0.0, 1.6444975184379556E9, 0.0, 2022-02-10 23:51:58.437
114.0, -9912.86455546195, -12150.49769288274, -6160.900731194107, -14046.953802937724, -166.63225491431416, -1236.4985032675868, -1853.1384293005979, -3029.8907196391488, -20578.871140345473, -16872.460171277544, -22537.04041684156, -12845.726352420612, -7470.578845808369, -11997.924685230815, -5229.771760674926, -8423.90309857167, 0.0050625, -0.020937499999999998, 0.991609375, 192.0, 0.0, 0.0, 0.0, 0.0, 0.0, 0.0, 0.0, 0.0, 0.0, 1.6444975184379623E9, 0.0, 2022-02-10 23:51:58.437
116.0, -9905.667293747341, -12153.470474895297, -6165.862818463185, -14047.691410504749, -186.10062433488662, -1248.6578522512737, -1858.2793305253185, -3043.9052634126265, -20574.579605410054, -16865.86640666323, -22530.424300482788, -12860.411448527748, -7481.352386635827, -11979.171571632813, -5221.41220824864, -8424.61835439424, 0.004, -0.02, 0.986, 192.0, 0.0, 16.0, 127.5, 48.0, 15.0, 104.0, 0.0, 0.0, 0.0, 1.6444975184379692E9, 0.0, 2022-02-10 23:51:58.437
118.0, -9894.692587219786, -12150.207120204821, -6157.615024759177, -14036.984924910657, -176.6011329413811, -1231.581119487419, -1852.55728394476, -3037.333850542766, -20560.565061636575, -16858.87031064872, -22529.88785861586, -12852.6330414573, -7472.970482465087, -12004.496098100675, -5225.41317050614, -8424.104264271768, 0.004, -0.02, 0.986, 192.0, 0.0, 0.0, 0.0, 0.0, 0.0, 0.0, 0.0, 0.0, 0.0, 1.644497518437976E9, 0.0, 2022-02-10 23:51:58.437
120.0, -9884.276674303614, -12136.036114220156, -6150.8200944447635, -14038.035456900056, -171.10260380537557, -1233.1233898548353, -1842.4542954509611, -3043.3464698012435, -20559.69334360282, -16873.801275944865, -22518.332006732468, -12836.472730216114, -7466.577883550869, -11984.535990302085, -5218.953516358557, -8418.493976413487, 0.004, -0.02, 0.986, 192.0, 0.0, 0.0, 0.0, 0.0, 0.0, 0.0, 0.0, 0.0, 0.0, 1.6444975184379823E9, 0.0, 2022-02-10 23:51:58.437
122.0, -9874.464258487733, -12122.490957080241, -6158.710260237487, -14033.274535331075, -174.83534512941185, -1240.6335759918186, -1863.1520108165755, -3040.753667444428, -20551.4008464099, -16864.86057816274, -22519.337835232956, -12846.374553009815, -7460.006470681009, -11990.012167693636, -5224.474397239018, -8421.153834003668, 0.004, -0.02, 0.986, 192.0, 0.0, 0.0, 0.0, 0.0, 0.0, 0.0, 0.0, 0.0, 0.0, 1.6444975184379892E9, 0.0, 2022-02-10 23:51:58.437
124.0, -9851.821941354507, -12107.403529572908, -6142.88522516313, -14037.409608055308, -163.927693835222, -1233.6598317217627, -1830.7419813563802, -3017.351390999722, -20544.91884051786, -16856.34456352527, -22505.703271115217, -12827.576735922901, -7464.923854461176, -11978.836295465982, -5221.479263482006, -8418.672790369128, 0.004, -0.02, 0.986, 192.0, 0.0, 0.0, 0.0, 0.0, 0.0, 0.0, 0.0, 0.0, 0.0, 1.6444975184379957E9, 0.0, 2022-02-10 23:51:58.437
126.0, -9862.215502526225, -12101.077985892056, -6149.367231055168, -14041.701142990727, -174.00833058456547, -1249.5966255183966, -1826.875129565612, -3038.4514377655314, -20547.288125430125, -16859.160883326636, -22511.581779906963, -12835.846881371366, -7456.720764246079, -11981.294987356066, -5221.74748441547, -8424.528947416418, 0.004, -0.02, 0.988, 192.0, 0.0, 16.0, 127.5, 48.0, 15.0, 112.0, 0.0, 0.0, 0.0, 1.644497518438002E9, 0.0, 2022-02-10 23:51:58.438
128.0, -9831.258336455625, -12079.016814114668, -6143.4887222634225, -14031.06171263, -161.13372577830862, -1233.6598317217627, -1821.5777661297043, -3024.660411436607, -20541.02963698264, -16853.70705767954, -22516.02977705357, -12828.58256442339, -7457.525427046469, -11989.006339193147, -5228.005972862956, -8423.657229382663, 0.004, -0.02, 0.988, 192.0, 0.0, 0.0, 0.0, 0.0, 0.0, 0.0, 0.0, 0.0, 0.0, 1.6444975184380088E9, 0.0, 2022-02-10 23:51:58.438
130.0, -9820.104815972427, -12067.639776186918, -6148.875492677152, -14031.531099263562, -164.95587408016613, -1232.1622648432572, -1838.4980366823718, -3020.0336003343587, -20528.937343232315, -16823.50985092042, -22495.533227388052, -12816.043235783964, -7446.394258307727, -11992.359100861442, -5221.36750475973, -8416.258801967955, 0.004, -0.02, 0.988, 192.0, 0.0, 0.0, 0.0, 0.0, 0.0, 0.0, 0.0, 0.0, 0.0, 1.6444975184380155E9, 0.0, 2022-02-10 23:51:58.438
