%OpenBCI Raw EEG Data
%Number of channels = 16
%Sample Rate = 125 Hz
%Board = OpenBCI_GUI$BoardCytonSerialDaisy
Sample Index, EXG Channel 0, EXG Channel 1, EXG Channel 2, EXG Channel 3, EXG Channel 4, EXG Channel 5, EXG Channel 6, EXG Channel 7, EXG Channel 8, EXG Channel 9, EXG Channel 10, EXG Channel 11, EXG Channel 12, EXG Channel 13, EXG Channel 14, EXG Channel 15, Accel Channel 0, Accel Channel 1, Accel Channel 2, Other, Other, Other, Other, Other, Other, Other, Analog Channel 0, Analog Channel 1, Analog Channel 2, Timestamp, Other, Timestamp (Formatted)
0.0, -9853.319508233013, -11839.070837386947, -6051.779514763298, -13779.448125296609, -392.3625221684602, -1808.1890712009754, -2364.523990693568, -3431.484512267651, 0.0, 0.0, 0.0, 0.0, 0.0, 0.0, 0.0, 0.0, 0.0, 0.0, 0.0, 192.0, 0.0, 0.0, 0.0, 0.0, 0.0, 0.0, 0.0, 0.0, 0.0, 1.6444974288818827E9, 0.0, 2022-02-10 23:50:28.881
84.0, -9809.241868167146, -11785.76192686104, -6041.34125010267, -13776.564750261874, -382.2595336746614, -1794.3756931275957, -2369.441374473736, -3423.2367185636426, -21002.794325684827, -16518.74381527231, -22543.343608777956, -13687.403641629655, -7120.416417171528, -11556.209511305036, -4808.3296189701105, -8932.606450630004, 0.006, -0.02, 0.984, 192.0, 0.0, 24.0, 127.5, 48.0, 15.0, 96.0, 0.0, 0.0, 0.0, 1.6444974288818913E9, 0.0, 2022-02-10 23:50:28.881
86.0, -9833.42645566779, -11841.462474043665, -6056.272215398814, -13780.409250308187, -389.2332779447172, -1802.7128938094252, -2396.8669649203975, -3444.984965918656, -21007.264674575887, -16502.382338331026, -22533.37473075089, -13679.871103748215, -7115.856661302646, -11536.472920951, -4804.730988112806, -8930.818311073579, 0.006, -0.02, 0.984, 192.0, 0.0, 0.0, 0.0, 0.0, 0.0, 0.0, 0.0, 0.0, 0.0, 1.6444974288818984E9, 0.0, 2022-02-10 23:50:28.881
88.0, -9850.324374476002, -11851.788979982017, -6062.061317212739, -13768.920453658158, -382.3265889080273, -1805.0598269772324, -2357.7961156125207, -3425.471893009173, -21030.130509153667, -16543.46484463988, -22569.003411412647, -13687.13542069619, -7111.006332755845, -11571.431049279101, -4807.815528847638, -8930.550090140116, 0.006, -0.02, 0.984, 192.0, 0.0, 0.0, 0.0, 0.0, 0.0, 0.0, 0.0, 0.0, 0.0, 1.6444974288819065E9, 0.0, 2022-02-10 23:50:28.881
90.0, -9871.022089841616, -11862.20489289819, -6052.047735696761, -13773.435506038131, -369.8990189908766, -1802.4893763648722, -2354.5551126665014, -3421.0238958625673, -21013.836087445747, -16536.871080025565, -22552.46312051572, -13682.285092149388, -7092.163812180021, -11578.71771797153, -4804.574525901619, -8927.487901149738, 0.006, -0.02, 0.984, 192.0, 0.0, 0.0, 0.0, 0.0, 0.0, 0.0, 0.0, 0.0, 0.0, 1.6444974288819132E9, 0.0, 2022-02-10 23:50:28.881
92.0, -9888.970540639228, -11850.246709614601, -6056.205160165448, -13781.035099152936, -386.23814418770604, -1814.2240422039083, -2382.1595170688056, -3434.569053002483, -21029.571715542283, -16540.22384169386, -22554.69829496125, -13685.123763695212, -7116.460158402939, -11568.592377733277, -4800.640618877485, -8933.366409941484, 0.006, -0.02, 0.984, 192.0, 0.0, 0.0, 0.0, 0.0, 0.0, 0.0, 0.0, 0.0, 0.0, 1.64449742888192E9, 0.0, 2022-02-10 23:50:28.881
94.0, -9857.186360023781, -11851.63251777083, -6050.840741496175, -13779.291663085422, -376.8280597720218, -1799.0472077187549, -2387.3451217824368, -3420.2639365510868, -21030.376378342677, -16540.04502773822, -22561.917908420313, -13703.943932526581, -7121.26578346083, -11555.896586882662, -4803.300476467666, -8931.9582500408, 0.004, -0.018000000000000002, 0.992, 192.0, 0.0, 16.0, 127.5, 56.0, 15.5, 0.0, 0.0, 0.0, 0.0, 1.644497428881927E9, 0.0, 2022-02-10 23:50:28.881
96.0, -9852.76071462163, -11854.851168972395, -6049.946671717963, -13779.604587507796, -376.71630104974525, -1807.6973328229587, -2363.6746244042665, -3423.8849191528466, -21032.119814410187, -16529.338542144127, -22548.3727512804, -13690.37642364221, -7113.532079879294, -11565.396078276168, -4793.599819374063, -8931.019476773678, 0.004, -0.018000000000000002, 0.992, 192.0, 0.0, 0.0, 0.0, 0.0, 0.0, 0.0, 0.0, 0.0, 0.0, 1.6444974288819337E9, 0.0, 2022-02-10 23:50:28.881
98.0, -9868.921025862817, -11851.319593348455, -6045.252805382348, -13771.513256014974, -384.89703952038764, -1808.814920045724, -2371.989473341641, -3432.4232855347736, -21018.82052645928, -16540.402655649505, -22561.917908420313, -13691.315196909332, -7119.499995648861, -11571.185180090091, -4797.824299076116, -8930.974773284766, 0.004, -0.018000000000000002, 0.992, 192.0, 0.0, 0.0, 0.0, 0.0, 0.0, 0.0, 0.0, 0.0, 0.0, 1.6444974288819537E9, 0.0, 2022-02-10 23:50:28.881
100.0, -9856.33699373448, -11842.021267655047, -6036.602680278144, -13769.948633903103, -373.9893882261978, -1794.107472194132, -2370.268389018582, -3430.1434076003325, -21023.134413139156, -16530.83610902263, -22541.019027354603, -13668.427010587098, -7100.478661117395, -11564.546711986866, -4794.85151706356, -8925.275078448663, 0.004, -0.018000000000000002, 0.992, 192.0, 0.0, 0.0, 0.0, 0.0, 0.0, 0.0, 0.0, 0.0, 0.0, 1.64449742888196E9, 0.0, 2022-02-10 23:50:28.881
102.0, -9835.125188246393, -11837.461511786165, -6041.028325680295, -13768.115790857768, -370.9048474913654, -1799.5612978412269, -2380.5725432124786, -3438.391201304341, -21014.14901186812, -16531.21608867837, -22543.544774478054, -13676.026603701903, -7107.4300536429955, -11546.642964678165, -4802.272296222723, -8927.934936038844, 0.004, -0.018000000000000002, 0.992, 192.0, 0.0, 0.0, 0.0, 0.0, 0.0, 0.0, 0.0, 0.0, 0.0, 1.644497428881981E9, 0.0, 2022-02-10 23:50:28.881
104.0, -9813.689865313752, -11830.644229727297, -6036.468569811413, -13771.334442059333, -356.39856533987114, -1789.7041785364365, -2329.945842021208, -3417.9840586166456, -20998.39103202713, -16524.97995197534, -22546.964591379714, -13692.432784132097, -7099.852812272646, -11537.791673873864, -4789.643560605474, -8926.14679648242, 0.002, -0.016, 0.988, 192.0, 0.0, 8.0, 127.5, 64.0, 15.0, 112.0, 0.0, 0.0, 0.0, 1.6444974288819876E9, 0.0, 2022-02-10 23:50:28.881
106.0, -9837.717990603209, -11830.376008793834, -6044.29168037077, -13778.82227645186, -365.562780566547, -1784.3174081227075, -2345.860284073387, -3421.1133028403883, -21002.168476840077, -16520.911934484477, -22540.75080642114, -13683.13445843869, -7089.21338191192, -11537.121121540204, -4786.402557659454, -8924.738636581737, 0.002, -0.016, 0.988, 192.0, 0.0, 0.0, 0.0, 0.0, 0.0, 0.0, 0.0, 0.0, 0.0, 1.6444974288819945E9, 0.0, 2022-02-10 23:50:28.881
108.0, -9859.086258302481, -11846.62572701284, -6046.303337371747, -13774.463686283076, -364.467545088237, -1807.2279461893972, -2364.0546040600066, -3432.959727401701, -21018.10527063671, -16531.908992756486, -22553.066617616012, -13684.542618339376, -7099.092852961166, -11551.828569391797, -4792.348121684566, -8932.584098885549, 0.002, -0.016, 0.988, 192.0, 0.0, 0.0, 0.0, 0.0, 0.0, 0.0, 0.0, 0.0, 0.0, 1.6444974288820012E9, 0.0, 2022-02-10 23:50:28.882
110.0, -9838.61206038142, -11845.3963810678, -6030.947688930952, -13770.060392625379, -363.6628822878459, -1797.5049373513386, -2362.2888162480376, -3436.804227448014, -21007.130564109157, -16526.254001409292, -22534.581724951473, -13676.294824635366, -7113.286210690286, -11564.792581175874, -4788.5483251271635, -8933.835796575046, 0.002, -0.016, 0.988, 192.0, 0.0, 0.0, 0.0, 0.0, 0.0, 0.0, 0.0, 0.0, 0.0, 1.644497428882008E9, 0.0, 2022-02-10 23:50:28.882
112.0, -9856.828732112495, -11855.25350037259, -6046.035116438284, -13772.206160093088, -380.87372551843237, -1808.6584578345369, -2381.3548542684143, -3437.9218146707794, -21014.663101990594, -16532.959524745886, -22543.678884944784, -13682.463906105031, -7113.465024645928, -11573.040374879882, -4796.214973475334, -8932.472340163273, 0.004, -0.021, 0.99, 192.0, 0.0, 24.0, 127.5, 24.0, 15.5, 0.0, 0.0, 0.0, 0.0, 1.6444974288820148E9, 0.0, 2022-02-10 23:50:28.882
114.0, -9825.916269530806, -11830.48776751611, -6042.212968136427, -13764.539511744919, -363.79699275457773, -1788.0054459578332, -2361.4841534476463, -3423.9072708973017, -21016.1606688691, -16537.720446314866, -22558.051056629545, -13683.179161927601, -7101.842117529169, -11571.185180090091, -4800.640618877485, -8929.141930239432, 0.004, -0.021, 0.99, 192.0, 0.0, 0.0, 0.0, 0.0, 0.0, 0.0, 0.0, 0.0, 0.0, 1.6444974288820264E9, 0.0, 2022-02-10 23:50:28.882
116.0, -9818.383731649368, -11829.727808204629, -6049.05260193975, -13779.001090407502, -358.41022234084875, -1784.6750360339925, -2365.149839538317, -3436.826579192469, -21013.29964557882, -16528.08684445463, -22541.30960003252, -13668.427010587098, -7115.096701991165, -11539.088075052272, -4794.80681357465, -8924.828043559557, 0.004, -0.021, 0.99, 192.0, 0.0, 0.0, 0.0, 0.0, 0.0, 0.0, 0.0, 0.0, 0.0, 1.644497428882033E9, 0.0, 2022-02-10 23:50:28.882
118.0, -9843.015354039117, -11831.359485549867, -6051.176017663004, -13778.911683429682, -368.49085909019226, -1788.1842599134757, -2379.164383311794, -3428.064695365989, -20992.3560610242, -16518.565001316667, -22554.050094372047, -13693.393909143677, -7107.206536198442, -11538.909261096629, -4804.082787523602, -8935.19925298682, 0.004, -0.021, 0.99, 192.0, 0.0, 0.0, 0.0, 0.0, 0.0, 0.0, 0.0, 0.0, 0.0, 1.6444974288820405E9, 0.0, 2022-02-10 23:50:28.882
120.0, -9853.923005333305, -11834.86870942935, -6037.38499133408, -13774.262520582977, -367.06034744505257, -1788.8548122471348, -2361.1265255363614, -3422.9461458857236, -21017.43471830305, -16515.569867559658, -22541.73428317717, -13677.52417058041, -7100.9256960065, -11562.557406730344, -4804.99920904627, -8928.314915694586, 0.004, -0.021, 0.99, 192.0, 0.0, 0.0, 0.0, 0.0, 0.0, 0.0, 0.0, 0.0, 0.0, 1.6444974288820477E9, 0.0, 2022-02-10 23:50:28.882
122.0, -9850.391429709367, -11857.868654473861, -6053.165322919527, -13780.789229963928, -388.11569072195186, -1798.2648966628192, -2372.637673930845, -3418.7887214170364, -21028.34236959724, -16538.726274815355, -22555.94999265075, -13678.954682225549, -7126.786664341291, -11567.38538353269, -4809.134281770502, -8934.86397681999, 0.005, -0.0215, 0.991, 192.0, 0.0, 24.0, 127.5, 40.0, 15.5, 0.0, 0.0, 0.0, 0.0, 1.6444974288820553E9, 0.0, 2022-02-10 23:50:28.882
124.0, -9828.218499209703, -11830.688933216206, -6045.699840271454, -13780.275139841455, -373.497649848181, -1789.368902369607, -2355.627996400356, -3418.3640382723856, -21016.473593291474, -16542.95075451741, -22556.061751373025, -13689.035318974891, -7121.936335794489, -11548.520511212411, -4814.543403928686, -8933.947555297322, 0.005, -0.0215, 0.991, 192.0, 0.0, 0.0, 0.0, 0.0, 0.0, 0.0, 0.0, 0.0, 0.0, 1.644497428882062E9, 0.0, 2022-02-10 23:50:28.882
126.0, -9832.37592367839, -11832.43236928372, -6050.0360786957835, -13790.087555657336, -374.54818183758044, -1800.4106641305286, -2377.465650733191, -3437.1395036148438, -21006.236494330944, -16516.486289082324, -22538.582687208975, -13683.000347971958, -7111.855699045146, -11527.241650490958, -4806.966162558337, -8931.91354655189, 0.005, -0.0215, 0.991, 192.0, 0.0, 0.0, 0.0, 0.0, 0.0, 0.0, 0.0, 0.0, 0.0, 1.644497428882069E9, 0.0, 2022-02-10 23:50:28.882
128.0, -9852.604252410443, -11850.738447992617, -6057.635671810588, -13787.181828878145, -381.87955401892117, -1809.239603190375, -2365.105136049406, -3426.321259298475, -21024.855497462213, -16537.519280614768, -22568.578728267996, -13695.42791788911, -7133.894519078079, -11547.291165267368, -4814.386941717499, -8939.401380944417, 0.005, -0.0215, 0.991, 192.0, 0.0, 0.0, 0.0, 0.0, 0.0, 0.0, 0.0, 0.0, 0.0, 1.644497428882076E9, 0.0, 2022-02-10 23:50:28.882
130.0, -9847.28453723008, -11856.236977128623, -6054.931110731496, -13784.074936398858, -369.38492886840453, -1797.6390478180706, -2350.3529847089035, -3419.258108050598, -21023.20146837252, -16539.150957960006, -22548.104530346936, -13672.919711222616, -7133.514539422338, -11580.885837183696, -4811.883546338505, -8936.115674509487, 0.005, -0.0215, 0.991, 192.0, 0.0, 0.0, 0.0, 0.0, 0.0, 0.0, 0.0, 0.0, 0.0, 1.6444974288820827E9, 0.0, 2022-02-10 23:50:28.882
132.0, -9865.456505472244, -11860.260291130578, -6059.401459622558, -13788.567637034374, -399.5150803941584, -1817.4650451499278, -2375.0740140764733, -3437.765352459592, -21023.961427684, -16540.42500739396, -22558.2745740741, -13697.841906290283, -7141.002373814867, -11591.234694866502, -4811.771787616228, -8938.909642566401, 0.006500000000000001, -0.02275, 0.9904999999999999, 192.0, 0.0, 32.0, 127.5, 32.0, 15.0, 120.0, 0.0, 0.0, 0.0, 1.64449742888209E9, 0.0, 2022-02-10 23:50:28.882
134.0, -9859.354479235946, -11864.216549899167, -6053.746468275365, -13790.266369612977, -390.77554831213337, -1806.3115246667296, -2383.366511269392, -3445.029669407567, -21038.378302857676, -16542.973106261863, -22568.601080012453, -13692.231618432, -7139.46010344745, -11581.534037772899, -4817.806758619161, -8942.843549590534, 0.006500000000000001, -0.02275, 0.9904999999999999, 192.0, 0.0, 0.0, 0.0, 0.0, 0.0, 0.0, 0.0, 0.0, 0.0, 1.644497428882098E9, 0.0, 2022-02-10 23:50:28.882
136.0, -9856.225235012202, -11858.136875407325, -6057.76978227732, -13797.217762138578, -404.9912577857087, -1813.4864346368831, -2409.2498313486376, -3451.3999165773293, -21034.399692344632, -16538.525109115257, -22555.1229781059, -13679.736993281484, -7145.740943639392, -11572.548636501866, -4818.767883630739, -8948.923224082379, 0.006500000000000001, -0.02275, 0.9904999999999999, 192.0, 0.0, 0.0, 0.0, 0.0, 0.0, 0.0, 0.0, 0.0, 0.0, 1.6444974288821068E9, 0.0, 2022-02-10 23:50:28.882
138.0, -9863.601310682454, -11854.024154427547, -6066.598721337166, -13800.749337762516, -409.72982761023377, -1820.4378271624837, -2370.5813134409564, -3454.2162363786983, -21037.283067379365, -16545.521205129768, -22576.535949294084, -13699.160659213145, -7150.099533808177, -11576.549598759366, -4827.440360479398, -8950.756067127713, 0.006500000000000001, -0.02275, 0.9904999999999999, 192.0, 0.0, 0.0, 0.0, 0.0, 0.0, 0.0, 0.0, 0.0, 0.0, 1.6444974288821137E9, 0.0, 2022-02-10 23:50:28.882
140.0, -9836.019258024604, -11843.96586942266, -6054.417020609024, -13802.358663363299, -394.6424001029015, -1820.3707719291178, -2406.120587124895, -3452.405745077818, -21033.68443652206, -16547.778731319755, -22557.98400139618, -13684.922597995115, -7146.456199461962, -11574.023851635917, -4825.987497089804, -8953.862959607, 0.006500000000000001, -0.02275, 0.9904999999999999, 192.0, 0.0, 0.0, 0.0, 0.0, 0.0, 0.0, 0.0, 0.0, 0.0, 1.6444974288821208E9, 0.0, 2022-02-10 23:50:28.882
142.0, -9872.162028808836, -11885.093079220424, -6071.024366739317, -13813.311018146398, -406.15354849738463, -1823.6341266195927, -2368.5920081844342, -3435.150198358321, -21033.952657455524, -16540.804987049698, -22565.56124276653, -13696.500801622964, -7142.611699415648, -11551.448589736056, -4824.66874416694, -8953.907663095912, 0.00725, -0.020375, 0.99025, 192.0, 0.0, 32.0, 127.5, 56.0, 15.0, 120.0, 0.0, 0.0, 0.0, 1.6444974288821275E9, 0.0, 2022-02-10 23:50:28.882
144.0, -9852.313679732524, -11862.517817320564, -6057.814485766231, -13804.213858153089, -404.27600196313887, -1811.6088881026374, -2378.404424000314, -3441.8110182060027, -21046.73785528396, -16548.672801097968, -22574.23371961519, -13698.512458623942, -7150.859493119657, -11582.361052317745, -4824.177005788923, -8953.974718329277, 0.00725, -0.020375, 0.99025, 192.0, 0.0, 0.0, 0.0, 0.0, 0.0, 0.0, 0.0, 0.0, 0.0, 1.6444974288821347E9, 0.0, 2022-02-10 23:50:28.882
146.0, -9862.126095548403, -11846.670430501752, -6064.989395736385, -13807.767785521482, -409.5733653990466, -1822.9859260303888, -2382.114813579895, -3454.8197334789916, -21043.429797104574, -16539.21801319337, -22562.879033431895, -13685.436688117587, -7162.504751980871, -11593.022834422927, -4824.020543577736, -8956.120485796986, 0.00725, -0.020375, 0.99025, 192.0, 0.0, 0.0, 0.0, 0.0, 0.0, 0.0, 0.0, 0.0, 0.0, 1.6444974288821435E9, 0.0, 2022-02-10 23:50:28.882
148.0, -9879.783973668096, -11868.77630576805, -6070.957311505951, -13804.213858153089, -411.5179671666583, -1828.9538417999556, -2405.0029999021294, -3467.470820840695, -21033.952657455524, -16545.767074318777, -22567.595251511964, -13695.114993466736, -7148.825484374223, -11601.069462426838, -4833.229462293322, -8962.311919011107, 0.00725, -0.020375, 0.99025, 192.0, 0.0, 0.0, 0.0, 0.0, 0.0, 0.0, 0.0, 0.0, 0.0, 1.6444974288821504E9, 0.0, 2022-02-10 23:50:28.882
150.0, -9868.652804929354, -11882.321462907967, -6060.4296398675015, -13810.695864045128, -397.4363681598149, -1818.3591149281401, -2388.0603776050066, -3447.644823508838, -21050.135320441168, -16548.493987142323, -22568.444617801266, -13678.574702569807, -7163.018842103344, -11575.141438858682, -4833.497683226787, -8955.315822996596, 0.00725, -0.020375, 0.99025, 192.0, 0.0, 0.0, 0.0, 0.0, 0.0, 0.0, 0.0, 0.0, 0.0, 1.644497428882157E9, 0.0, 2022-02-10 23:50:28.882
152.0, -9858.147485035359, -11869.648023801807, -6076.366433664136, -13814.272143157978, -414.6472113904013, -1824.1482167420647, -2400.2867818220598, -3451.9810619331674, -21046.60374481723, -16551.5561761327, -22574.166664381824, -13691.650473076163, -7153.720516409936, -11594.833325723806, -4830.010811091758, -8957.282776508662, 0.007625, -0.021187499999999998, 0.991125, 192.0, 0.0, 32.0, 127.5, 40.0, 15.5, 0.0, 0.0, 0.0, 0.0, 1.6444974288821642E9, 0.0, 2022-02-10 23:50:28.882
154.0, -9867.646976428865, -11870.899721491305, -6064.609416080644, -13810.025311711468, -401.012647272664, -1817.241527705375, -2392.1283950958723, -3443.8450269514356, -21041.284029636863, -16545.543556874225, -22578.32408885051, -13700.233542947, -7159.241397290397, -11585.870276197229, -4835.308174527666, -8956.545168941639, 0.007625, -0.021187499999999998, 0.991125, 192.0, 0.0, 0.0, 0.0, 0.0, 0.0, 0.0, 0.0, 0.0, 0.0, 1.6444974288821716E9, 0.0, 2022-02-10 23:50:28.882
156.0, -9876.073584088515, -11866.54113132252, -6063.894160258074, -13808.661855299695, -412.43438868932594, -1812.2794404362967, -2399.4374155327578, -3451.0646404105, -21047.855442506727, -16555.199510478917, -22560.912079919824, -13689.728223053005, -7168.070336350243, -11586.3843663197, -4832.715372170851, -8951.828950861567, 0.007625, -0.021187499999999998, 0.991125, 192.0, 0.0, 0.0, 0.0, 0.0, 0.0, 0.0, 0.0, 0.0, 0.0, 1.6444974288821783E9, 0.0, 2022-02-10 23:50:28.882
158.0, -9862.99781358216, -11870.720907535662, -6065.972872492418, -13809.600628566817, -409.03692353211926, -1815.8333678046904, -2397.2245928316825, -3452.7857247335587, -21043.809776760314, -16548.806911564698, -22572.1773591253, -13691.09167946478, -7151.239472775397, -11583.545694773877, -4839.823226907638, -8956.34400324154, 0.007625, -0.021187499999999998, 0.991125, 192.0, 0.0, 0.0, 0.0, 0.0, 0.0, 0.0, 0.0, 0.0, 0.0, 1.6444974288821855E9, 0.0, 2022-02-10 23:50:28.882
160.0, -9835.952202791239, -11849.620860769852, -6057.05452645475, -13810.58410532285, -397.59283037100204, -1819.7002195954585, -2374.559923954001, -3454.4621055677067, -21032.63390453266, -16542.257850439295, -22559.749789208152, -13687.738917796483, -7156.9168158670445, -11574.649700480664, -4827.440360479398, -8955.516988696694, 0.007625, -0.021187499999999998, 0.991125, 192.0, 0.0, 0.0, 0.0, 0.0, 0.0, 0.0, 0.0, 0.0, 0.0, 1.6444974288821921E9, 0.0, 2022-02-10 23:50:28.882
162.0, -9871.044441586071, -11870.519741835564, -6063.8271050247085, -13810.360587878298, -401.48203390622547, -1831.4348854344948, -2391.1225665953834, -3462.598140549438, -21030.465785320495, -16537.116949214575, -22563.638992743374, -13684.229693917001, -7158.816714145746, -11600.443613582089, -4830.256680280767, -8964.994128345745, 0.0078125, -0.02159375, 0.9935625, 192.0, 0.0, 32.0, 127.5, 40.0, 15.5, 16.0, 0.0, 0.0, 0.0, 1.644497428882199E9, 0.0, 2022-02-10 23:50:28.882
164.0, -9864.80830488304, -11859.947366708204, -6063.96121549144, -13810.82997451186, -399.5150803941584, -1823.365905686129, -2381.3548542684143, -3441.386335061352, -21040.389959858654, -16536.8040247922, -22564.443655543764, -13694.489144621986, -7152.602929187171, -11592.86637221174, -4833.989421604803, -8966.446991735338, 0.0078125, -0.02159375, 0.9935625, 192.0, 0.0, 0.0, 0.0, 0.0, 0.0, 0.0, 0.0, 0.0, 0.0, 1.6444974288822072E9, 0.0, 2022-02-10 23:50:28.882
166.0, -9856.784028623584, -11885.204837942701, -6066.017575981328, -13813.020445468479, -412.79201660061085, -1831.233719734397, -2365.5745226829677, -3439.866416438391, -21039.49589008044, -16550.79621682122, -22565.18126311079, -13695.070289977824, -7163.577635714726, -11595.325064101824, -4824.691095911396, -8960.501427710227, 0.0078125, -0.02159375, 0.9935625, 192.0, 0.0, 0.0, 0.0, 0.0, 0.0, 0.0, 0.0, 0.0, 0.0, 1.6444974288822143E9, 0.0, 2022-02-10 23:50:28.882
168.0, -9864.00364208265, -11881.203875685202, -6068.8785992716075, -13813.378073379765, -414.2448799902058, -1829.9596703004445, -2365.596874427423, -3446.840160708447, -21038.087730179755, -16557.52409190227, -22582.682679019294, -13695.919656267126, -7172.898313152589, -11618.302657401879, -4825.093427311591, -8965.39645974594, 0.0078125, -0.02159375, 0.9935625, 192.0, 0.0, 0.0, 0.0, 0.0, 0.0, 0.0, 0.0, 0.0, 0.0, 1.6444974288822212E9, 0.0, 2022-02-10 23:50:28.882
170.0, -9844.244699984158, -11862.182541153734, -6067.7610120488425, -13814.607419324806, -407.7181706092561, -1808.814920045724, -2374.0905373204396, -3449.902349698824, -21037.886564479657, -16539.732103315844, -22559.682733974783, -13690.443478875575, -7157.699126922981, -11581.981072662005, -4823.975840088826, -8958.735639898257, 0.0078125, -0.02159375, 0.9935625, 192.0, 0.0, 0.0, 0.0, 0.0, 0.0, 0.0, 0.0, 0.0, 0.0, 1.644497428882228E9, 0.0, 2022-02-10 23:50:28.882
172.0, -9871.759697408641, -11867.837532500927, -6081.06029999975, -13817.222573426077, -426.2254150182504, -1836.8440075926792, -2389.177964827772, -3461.346442859941, -21034.645561533638, -16546.527033630256, -22565.80711195554, -13699.585342357797, -7172.831257919223, -11595.01213967945, -4831.083694825613, -8965.687032423859, 0.00590625, -0.021796875, 0.9937812500000001, 192.0, 0.0, 16.0, 127.5, 40.0, 15.5, 8.0, 0.0, 0.0, 0.0, 1.6444974288822355E9, 0.0, 2022-02-10 23:50:28.882
174.0, -9860.673232158808, -11890.993939756625, -6072.656044084554, -13814.696826302628, -416.4577026912812, -1827.165702243531, -2389.0215026165847, -3458.708937014215, -21024.654331762118, -16553.210205222393, -22566.254146844643, -13696.90313302316, -7172.719499196947, -11602.365863605246, -4836.895148383993, -8970.313843526106, 0.00590625, -0.021796875, 0.9937812500000001, 192.0, 0.0, 0.0, 0.0, 0.0, 0.0, 0.0, 0.0, 0.0, 0.0, 1.6444974288822422E9, 0.0, 2022-02-10 23:50:28.882
176.0, -9865.14358104987, -11884.199009442213, -6076.858172042153, -13818.317808904387, -430.3828394869375, -1838.6544988935589, -2390.206145072716, -3467.7837452630697, -21037.55128831283, -16551.31030694369, -22560.08506537498, -13677.546522324863, -7188.008092404377, -11611.731244532019, -4844.382982776521, -8970.269140037197, 0.00590625, -0.021796875, 0.9937812500000001, 192.0, 0.0, 0.0, 0.0, 0.0, 0.0, 0.0, 0.0, 0.0, 0.0, 1.6444974288822489E9, 0.0, 2022-02-10 23:50:28.882
178.0, -9856.828732112495, -11884.73545130914, -6088.279913458814, -13823.659875829206, -438.3624122574821, -1847.4387344644947, -2410.076845893484, -3481.8206407810026, -21048.905974496123, -16548.873966798063, -22580.00046968466, -13706.626141861218, -7188.23160984893, -11630.529061618932, -4857.145828860501, -8984.216628577307, 0.00590625, -0.021796875, 0.9937812500000001, 192.0, 0.0, 0.0, 0.0, 0.0, 0.0, 0.0, 0.0, 0.0, 0.0, 1.644497428882259E9, 0.0, 2022-02-10 23:50:28.882
180.0, -9863.891883360373, -11879.281625662044, -6072.410174895546, -13821.603515339319, -426.9853743297308, -1825.8245975762127, -2398.7668631990987, -3461.5252568155834, -21040.188794158556, -16536.871080025565, -22572.244414358665, -13684.654377061652, -7167.757411927869, -11603.997540950482, -4849.032145623225, -8974.9183028839, 0.00590625, -0.021796875, 0.9937812500000001, 192.0, 0.0, 0.0, 0.0, 0.0, 0.0, 0.0, 0.0, 0.0, 0.0, 1.6444974288822663E9, 0.0, 2022-02-10 23:50:28.882
182.0, -9871.200903797258, -11899.487602649642, -6081.283817444303, -13827.057340986412, -438.49652272421395, -1830.272594722819, -2375.4092902433026, -3466.1073644289213, -21039.07120693579, -16551.399713921513, -22568.064638145523, -13689.594112586274, -7192.277275595341, -11593.939255945596, -4847.109895600069, -8973.085459838565, 0.01, -0.022, 0.99, 192.0, 0.0, 40.0, 127.5, 40.0, 15.0, 120.0, 0.0, 0.0, 0.0, 1.644497428882275E9, 0.0, 2022-02-10 23:50:28.882
184.0, -9849.85498784244, -11876.286491905033, -6073.617169096133, -13826.54325086394, -416.0106678021751, -1811.9441642694671, -2368.2343802731493, -3441.7216112281817, -21029.079977164267, -16549.90214704301, -22583.46499007523, -13695.249103933467, -7200.770938488357, -11584.43976455209, -4848.428648522931, -8968.704517925325, 0.01, -0.022, 0.99, 192.0, 0.0, 0.0, 0.0, 0.0, 0.0, 0.0, 0.0, 0.0, 0.0, 1.644497428882282E9, 0.0, 2022-02-10 23:50:28.882
186.0, -9853.543025677565, -11883.170829197268, -6070.018538238828, -13822.095253717334, -419.0281533036415, -1820.1472544845647, -2381.04192984604, -3447.8236374644803, -21026.174250385076, -16533.361856146083, -22554.541832750063, -13684.453211361553, -7182.241342334908, -11597.113203658248, -4837.073962339636, -8962.513084711205, 0.01, -0.022, 0.99, 192.0, 0.0, 0.0, 0.0, 0.0, 0.0, 0.0, 0.0, 0.0, 0.0, 1.6444974288822892E9, 0.0, 2022-02-10 23:50:28.882
188.0, -9852.179569265792, -11870.63150055784, -6071.717270817432, -13808.147765177222, -422.98441207223084, -1826.875129565612, -2377.2644850330935, -3445.96844267469, -21030.35402659822, -16532.154861945495, -22568.064638145523, -13693.706833566052, -7171.311339296262, -11621.834233025818, -4843.62302346504, -8962.468381222294, 0.01, -0.022, 0.99, 192.0, 0.0, 0.0, 0.0, 0.0, 0.0, 0.0, 0.0, 0.0, 0.0, 1.644497428882296E9, 0.0, 2022-02-10 23:50:28.882
190.0, -9839.99786853765, -11865.311785377478, -6063.380070135602, -13811.902858245714, -399.850356560988, -1816.4815683938943, -2361.7747261255654, -3440.6934309832372, -21018.775822970372, -16530.858460767085, -22561.001486897647, -13682.866237505226, -7176.295778309796, -11594.81097397935, -4837.76686641775, -8955.159360785408, 0.01, -0.022, 0.99, 192.0, 0.0, 0.0, 0.0, 0.0, 0.0, 0.0, 0.0, 0.0, 0.0, 1.6444974288823028E9, 0.0, 2022-02-10 23:50:28.882
192.0, -9861.85787461494, -11897.721814837672, -6070.443221383479, -13813.713349546595, -421.2186242602616, -1826.718667354425, -2343.5133509055795, -3445.387297318852, -21017.658235747604, -16531.104329956095, -22558.766312452117, -13684.475563106009, -7178.016862632855, -11596.353244346768, -4825.249889522778, -8956.858093364011, 0.012, -0.02, 0.992, 192.0, 0.0, 48.0, 127.5, 48.0, 15.5, 0.0, 0.0, 0.0, 0.0, 1.64449742888231E9, 0.0, 2022-02-10 23:50:28.882
194.0, -9840.824883082496, -11886.858867032393, -6066.933997503996, -13809.198297166622, -410.8697665774544, -1817.3085829387408, -2356.5891214119342, -3434.7255152136704, -21022.083881149756, -16542.92840277295, -22567.304678834043, -13679.312310136833, -7170.998414873889, -11588.306616342858, -4834.659973938462, -8958.10979105351, 0.012, -0.02, 0.992, 192.0, 0.0, 0.0, 0.0, 0.0, 0.0, 0.0, 0.0, 0.0, 0.0, 1.644497428882317E9, 0.0, 2022-02-10 23:50:28.882
196.0, -9846.256356985135, -11886.747108310117, -6067.403384137558, -13811.098195445324, -422.5373771831247, -1823.0306295192993, -2374.5152204650904, -3445.387297318852, -21014.39488105713, -16524.84584150861, -22548.99860012515, -13678.686461292084, -7183.895371424601, -11595.77209899093, -4828.4014854909765, -8955.114657296499, 0.012, -0.02, 0.992, 192.0, 0.0, 0.0, 0.0, 0.0, 0.0, 0.0, 0.0, 0.0, 0.0, 1.6444974288823237E9, 0.0, 2022-02-10 23:50:28.882
198.0, -9877.615854455931, -11916.184355757756, -6073.05837548475, -13809.667683800184, -435.7919616451218, -1829.3561732001513, -2374.6493309318225, -3448.6283002648715, -21032.745663254937, -16543.911879528987, -22568.690486990272, -13691.359900398244, -7184.90119992509, -11597.090851913794, -4836.157540816968, -8960.568482943592, 0.012, -0.02, 0.992, 192.0, 0.0, 0.0, 0.0, 0.0, 0.0, 0.0, 0.0, 0.0, 0.0, 1.644497428882331E9, 0.0, 2022-02-10 23:50:28.882
200.0, -9851.106685531937, -11902.259218962101, -6062.262482912837, -13804.772651764471, -419.96692657076443, -1822.9859260303888, -2361.014766814085, -3445.4096490633074, -21022.933247439058, -16538.36864690407, -22565.494187533164, -13688.476525363509, -7183.13541211312, -11612.558259076866, -4838.638584451507, -8957.595700931037, 0.012, -0.02, 0.992, 192.0, 0.0, 0.0, 0.0, 0.0, 0.0, 0.0, 0.0, 0.0, 0.0, 1.6444974288823376E9, 0.0, 2022-02-10 23:50:28.882
202.0, -9855.979365823194, -11899.666416605285, -6073.170134207026, -13811.701692545617, -432.5956621880129, -1836.5534349147601, -2376.862153632898, -3459.379489347874, -21023.514392794896, -16537.631039337044, -22568.310507334532, -13687.917731752126, -7193.305455840285, -11624.650552827186, -4840.717296685851, -8956.67927940837, 0.008, -0.024, 0.994, 192.0, 0.0, 32.0, 127.5, 32.0, 15.5, 8.0, 0.0, 0.0, 0.0, 1.644497428882345E9, 0.0, 2022-02-10 23:50:28.882
204.0, -4871.696814500906, -5820.10368348404, -3032.2600045514114, -6916.680266461404, -109.94823097565543, -793.3081142077583, -1082.5396874594317, -1585.051606303645, -21027.224782374476, -16535.84289978062, -22581.85566447445, -13699.674749335618, -7185.370586558651, -11612.602962565776, -4848.808628178672, -8960.993166088243, 0.008, -0.024, 0.994, 192.0, 0.0, 0.0, 0.0, 0.0, 0.0, 0.0, 0.0, 0.0, 0.0, 1.6444974294790213E9, 0.0, 2022-02-10 23:50:29.479
2.0, -9752.423733761756, -11643.582480380832, -6060.317881145225, -13830.141881721245, -214.77791247104557, -1582.0117690577233, -2158.3962033267267, -3170.9525788965916, -21105.99232983498, -16887.56995052933, -22502.417564680287, -13374.54627448872, -7179.760298700368, -11665.777762624952, -4844.204168820878, -8758.531064812072, 0.008, -0.024, 0.994, 192.0, 0.0, 0.0, 0.0, 0.0, 0.0, 0.0, 0.0, 0.0, 0.0, 1.644497429479158E9, 0.0, 2022-02-10 23:50:29.479
4.0, -9761.051507121505, -11644.409494925678, -6065.682299814499, -13824.375131651776, -217.50482529459302, -1601.860118134036, -2166.442831330637, -3184.3189220808654, -21110.149754303668, -16890.587436030797, -22506.798506593528, -13375.753268689308, -7177.480420765927, -11684.575579711865, -4845.232349065823, -8761.347384613442, 0.008, -0.024, 0.994, 192.0, 0.0, 0.0, 0.0, 0.0, 0.0, 0.0, 0.0, 0.0, 0.0, 1.6444974294791648E9, 0.0, 2022-02-10 23:50:29.479
6.0, -9743.013649346072, -11636.944012277605, -6056.048697954261, -13823.034026984458, -206.03838038902052, -1587.1750220268991, -2166.532238308458, -3171.0196341299575, -21099.487972198483, -16883.457229549556, -22505.233884481655, -13369.07009709717, -7171.870132907646, -11669.890483604728, -4843.53361648722, -8754.328936854476, 0.008, -0.024, 0.994, 192.0, 0.0, 0.0, 0.0, 0.0, 0.0, 0.0, 0.0, 0.0, 0.0, 1.644497429479179E9, 0.0, 2022-02-10 23:50:29.479
8.0, -9741.203158045193, -11633.770064564951, -6061.726041045909, -13826.342085163842, -219.09179915091983, -1597.2333070317875, -2183.698378050134, -3183.3354453248317, -21098.728012887004, -16881.266758592934, -22495.1085442434, -13363.303347027702, -7173.144182341598, -11665.844817858317, -4840.627889708029, -8762.040288691556, -0.002, -0.026000000000000002, 0.988, 192.0, 127.5, 120.0, 127.5, 24.0, 15.0, 112.0, 0.0, 0.0, 0.0, 1.6444974294791853E9, 0.0, 2022-02-10 23:50:29.479
10.0, -9754.435390762734, -11637.145177977703, -6059.334404389192, -13818.92130600468, -219.85175846240026, -1601.4801384782957, -2180.6138373153017, -3158.167381068156, -21106.305254257353, -16886.34060458429, -22507.536114160554, -13375.440344266934, -7184.610627247171, -11688.93416988065, -4850.462657268365, -8757.771105500593, -0.002, -0.026000000000000002, 0.988, 192.0, 0.0, 0.0, 0.0, 0.0, 0.0, 0.0, 0.0, 0.0, 0.0, 1.644497429479192E9, 0.0, 2022-02-10 23:50:29.479
12.0, -9752.177864572748, -11638.77685532294, -6055.176979920505, -13822.989323495547, -214.01795315956514, -1601.9718768563125, -2182.6254943162794, -3166.549285238896, -21106.573475190817, -16886.00532841746, -22501.948178046725, -13365.471466239867, -7177.972159143944, -11692.510448993498, -4842.997174620292, -8751.244396119642, -0.002, -0.026000000000000002, 0.988, 192.0, 0.0, 0.0, 0.0, 0.0, 0.0, 0.0, 0.0, 0.0, 0.0, 1.6444974294791985E9, 0.0, 2022-02-10 23:50:29.479
14.0, -9766.818257190975, -11655.741829364519, -6061.748392790365, -13828.867832287293, -227.09372366591975, -1617.729856697304, -2193.086110721363, -3183.8942389362146, -21116.676463684616, -16904.15494491517, -22517.393233465344, -13376.133248345048, -7180.073223122743, -11686.386071012745, -4848.898035156493, -8763.582559058972, -0.002, -0.026000000000000002, 0.988, 192.0, 0.0, 0.0, 0.0, 0.0, 0.0, 0.0, 0.0, 0.0, 0.0, 1.644497429479205E9, 0.0, 2022-02-10 23:50:29.479
16.0, -9748.623937204355, -11637.078122744337, -6049.834912995686, -13822.430529884165, -206.84304318941156, -1601.5695454561169, -2174.0424244454416, -3171.131392852234, -21109.99329209248, -16892.375575587223, -22507.044375782538, -13378.79310593523, -7179.268560322352, -11683.279178533458, -4848.428648522931, -8764.25311139263, -0.002, -0.026000000000000002, 0.988, 192.0, 0.0, 0.0, 127.5, 56.0, 15.0, 104.0, 0.0, 0.0, 0.0, 1.6444974294792123E9, 0.0, 2022-02-10 23:50:29.479
18.0, -9747.372239514856, -11640.296773945902, -6055.333442131691, -13815.657951314206, -214.01795315956514, -1607.023371103212, -2179.451546603626, -3178.7309859670386, -21103.60069317826, -16883.568988271832, -22493.63332910935, -13358.765942903274, -7175.8934469096, -11682.563922710888, -4836.939851872904, -8759.223968890186, -0.002, -0.026000000000000002, 0.988, 192.0, 0.0, 0.0, 0.0, 0.0, 0.0, 0.0, 0.0, 0.0, 0.0, 1.6444974294792187E9, 0.0, 2022-02-10 23:50:29.479
20.0, -9743.639498190822, -11634.530023876432, -6060.072011956217, -13815.032102469457, -213.90619443728858, -1598.4850047212847, -2183.2736949054834, -3174.5288580094407, -21103.89126585618, -16882.42904930461, -22509.68188162826, -13369.450076752912, -7181.481383023427, -11692.443393760133, -4841.05257285268, -8762.956710214223, -0.002, -0.026000000000000002, 0.988, 192.0, 0.0, 0.0, 0.0, 0.0, 0.0, 0.0, 0.0, 0.0, 0.0, 1.6444974294792252E9, 0.0, 2022-02-10 23:50:29.479
22.0, -9737.06808532096, -11638.620393111754, -6055.445200853968, -13817.580201337363, -207.08891237841993, -1597.9709145988124, -2180.9044099932207, -3167.331596294832, -21100.02441406541, -16887.86052320725, -22495.287358199046, -13361.112876071082, -7178.5756562442375, -11683.368585511278, -4837.81156990666, -8754.485399065661, -0.002, -0.026000000000000002, 0.988, 192.0, 0.0, 0.0, 0.0, 0.0, 0.0, 0.0, 0.0, 0.0, 0.0, 1.644497429479232E9, 0.0, 2022-02-10 23:50:29.479
24.0, -9745.539396469521, -11629.098549973793, -6057.278043899303, -13808.527744832963, -219.51648229557065, -1601.9048216229467, -2198.249363690539, -3171.712538208072, -21102.0807745553, -16890.185104630604, -22499.668300112284, -13360.308213270691, -7176.496944009894, -11667.923530092661, -4841.700773441884, -8757.368774100396, -0.002, -0.026000000000000002, 0.988, 192.0, 0.0, 0.0, 0.0, 0.0, 0.0, 0.0, 0.0, 0.0, 0.0, 1.6444974294792385E9, 0.0, 2022-02-10 23:50:29.479
26.0, -9730.094341050904, -11629.031494740426, -6043.5764245482005, -13805.823183753871, -196.27066806205133, -1590.3936732284635, -2171.896656977732, -3161.318977036354, -21099.01858556492, -16872.99661314447, -22494.326233187465, -13349.73583814333, -7167.243321805397, -11672.907969106194, -4839.152674573979, -8752.943128698245, 0.002, -0.024, 0.989, 192.0, 0.0, 24.0, 127.5, 40.0, 15.0, 120.0, 0.0, 0.0, 0.0, 1.6444974294792454E9, 0.0, 2022-02-10 23:50:29.479
28.0, -9741.650192934298, -11632.652477342186, -6051.801866507753, -13814.585067580352, -209.9052321797886, -1605.5258042247062, -2194.6730845776897, -3183.268390091466, -21097.16339077513, -16867.967470642026, -22487.911282528792, -13343.11972178456, -7178.687414966514, -11669.73402139354, -4830.837825636605, -8758.821637489991, 0.002, -0.024, 0.989, 192.0, 0.0, 0.0, 0.0, 0.0, 0.0, 0.0, 0.0, 0.0, 0.0, 1.644497429479252E9, 0.0, 2022-02-10 23:50:29.479
30.0, -9738.006858588084, -11636.96636402206, -6054.282910142292, -13813.847460013327, -207.49124377861546, -1601.5918972005722, -2184.2124681726063, -3170.8631719187706, -21100.60555942125, -16887.77111622943, -22500.20474197921, -13365.918501128972, -7170.529028240327, -11678.473553475565, -4838.102142584579, -8766.041250949056, 0.002, -0.024, 0.989, 192.0, 0.0, 0.0, 0.0, 0.0, 0.0, 0.0, 0.0, 0.0, 0.0, 1.6444974294792588E9, 0.0, 2022-02-10 23:50:29.479
32.0, -9726.138082282316, -11625.209346438569, -6047.24211063887, -13809.466518100086, -199.77989194153452, -1588.5384784386729, -2169.929703465665, -3154.591101955307, -21100.873780354712, -16876.57289225732, -22492.22516920867, -13357.000155091306, -7175.13348759812, -11661.039192800426, -4827.619174435041, -8750.171512385788, 0.002, -0.024, 0.989, 192.0, 0.0, 0.0, 0.0, 0.0, 0.0, 0.0, 0.0, 0.0, 0.0, 1.6444974294792652E9, 0.0, 2022-02-10 23:50:29.479
34.0, -9757.139951841826, -11638.508634389476, -6053.992337464373, -13810.87467800077, -218.667116006269, -1594.439338974874, -2194.3601601553155, -3174.394747542709, -21106.2829025129, -16880.14917137017, -22496.40494542181, -13361.202283048902, -7177.033385876822, -11682.206294799602, -4834.972898360837, -8750.931471697268, 0.002, -0.024, 0.989, 192.0, 0.0, 0.0, 0.0, 0.0, 0.0, 0.0, 0.0, 0.0, 0.0, 1.644497429479272E9, 0.0, 2022-02-10 23:50:29.479
36.0, -9747.88632963733, -11637.659268100175, -6047.040944938773, -13811.656989056706, -212.2968688365065, -1590.6395424174718, -2179.183325670162, -3160.849590402793, -21108.003986835956, -16889.313386596845, -22497.723698344675, -13351.300460255201, -7177.435717277017, -11686.274312290469, -4840.650241452485, -8749.836236218958, 0.005, -0.022, 0.9884999999999999, 192.0, 0.0, 32.0, 127.5, 48.0, 15.0, 112.0, 0.0, 0.0, 0.0, 1.6444974294792783E9, 0.0, 2022-02-10 23:50:29.479
38.0, -9739.191501044215, -11638.285116944924, -6045.208101893438, -13816.306151903409, -207.46889203416015, -1599.1779087993991, -2182.513735594003, -3180.3179598233655, -21104.36065248974, -16887.56995052933, -22490.437029652243, -13348.528843942744, -7170.305510795773, -11675.83604762984, -4834.905843127471, -8750.506788552617, 0.005, -0.022, 0.9884999999999999, 192.0, 0.0, 0.0, 0.0, 0.0, 0.0, 0.0, 0.0, 0.0, 0.0, 1.644497429479287E9, 0.0, 2022-02-10 23:50:29.479
40.0, -9732.910660852272, -11634.373561665245, -6049.678450784499, -13812.707521046106, -207.73711296762383, -1598.440301232374, -2183.2960466499385, -3172.405442286187, -21097.766887875427, -16893.470811065534, -22495.823800065973, -13358.654184180998, -7169.9925863734, -11683.41328900019, -4842.259567053266, -8761.101515424432, 0.005, -0.022, 0.9884999999999999, 192.0, 0.0, 0.0, 0.0, 0.0, 0.0, 0.0, 0.0, 0.0, 0.0, 1.644497429479293E9, 0.0, 2022-02-10 23:50:29.479
42.0, -9726.83098636043, -11638.821558811851, -6045.431619337991, -13820.97766649457, -197.96940064065464, -1598.1720802989103, -2176.188191913151, -3180.8320499458373, -21100.89613209917, -16879.59037775879, -22488.49242788463, -13349.937003843428, -7178.709766710969, -11665.241320758025, -4837.141017573002, -8754.999489188134, 0.005, -0.022, 0.9884999999999999, 192.0, 0.0, 0.0, 0.0, 0.0, 0.0, 0.0, 0.0, 0.0, 0.0, 1.6444974294792998E9, 0.0, 2022-02-10 23:50:29.479
44.0, -9757.162303586281, -11652.478474674044, -6058.239168910882, -13825.40331189672, -208.4970722791043, -1613.9971153732677, -2192.4155583877036, -3182.4190238021642, -21111.55791420435, -16895.504819810965, -22509.70423337272, -13369.628890708553, -7180.877885923134, -11690.923475137171, -4838.817398407149, -8762.956710214223, 0.005, -0.022, 0.9884999999999999, 192.0, 0.0, 0.0, 0.0, 0.0, 0.0, 0.0, 0.0, 0.0, 0.0, 1.6444974294793065E9, 0.0, 2022-02-10 23:50:29.479
46.0, -9745.852320891896, -11640.743808835008, -6041.028325680295, -13813.713349546595, -190.28040054802904, -1605.0117141022342, -2174.645921545735, -3175.9593696545803, -21107.914579858134, -16891.95089244257, -22500.49531465713, -13367.058440096192, -7190.422080805551, -11693.382167027255, -4841.499607741786, -8757.994622945145, 0.0075, -0.020999999999999998, 0.98825, 192.0, 0.0, 40.0, 127.5, 48.0, 15.0, 112.0, 0.0, 0.0, 0.0, 1.644497429479313E9, 0.0, 2022-02-10 23:50:29.479
48.0, -9741.918413867763, -11619.554355091377, -6038.748447745854, -13812.148727434724, -194.6389907168139, -1592.1371092959773, -2174.7129767791007, -3153.8311426438268, -21107.04286182438, -16886.56412202884, -22487.12897147286, -13358.095390569615, -7188.23160984893, -11680.999300599016, -4827.842691879594, -8751.11028565291, 0.0075, -0.020999999999999998, 0.98825, 192.0, 0.0, 0.0, 0.0, 0.0, 0.0, 0.0, 0.0, 0.0, 0.0, 1.6444974294793193E9, 0.0, 2022-02-10 23:50:29.479
50.0, -9730.474320706644, -11632.54071861991, -6037.541453545267, -13800.704634273605, -195.48835700611556, -1587.6891121493713, -2182.826660016377, -3155.976910111536, -21098.482143697995, -16875.76822945693, -22487.531302873052, -13355.5025882128, -7186.979912159433, -11669.823428371363, -4836.068133839147, -8744.672983249782, 0.0075, -0.020999999999999998, 0.98825, 192.0, 0.0, 0.0, 0.0, 0.0, 0.0, 0.0, 0.0, 0.0, 0.0, 1.6444974294793265E9, 0.0, 2022-02-10 23:50:29.479
52.0, -9730.317858495458, -11644.744771092508, -6036.982659933885, -13801.01755869598, -196.31537155096194, -1593.2323447742874, -2200.3951311582487, -3173.5006777644967, -21096.515190185928, -16881.82555220432, -22478.07651496846, -13337.218861248359, -7175.871095165146, -11677.713594164086, -4835.643450694496, -8749.120980396388, 0.0075, -0.020999999999999998, 0.98825, 192.0, 0.0, 0.0, 0.0, 0.0, 0.0, 0.0, 0.0, 0.0, 0.0, 1.6444974294793327E9, 0.0, 2022-02-10 23:50:29.479
54.0, -9757.318765797469, -11649.997431039505, -6049.8572647401415, -13807.991302966037, -208.29590657900653, -1611.180795571899, -2186.604104829324, -3179.133317367234, -21111.60261769326, -16892.889665709696, -22497.768401833582, -13349.02058232076, -7191.830240706235, -11681.513390721488, -4839.443247251898, -8757.793457245047, 0.0075, -0.020999999999999998, 0.98825, 192.0, 0.0, 0.0, 0.0, 0.0, 0.0, 0.0, 0.0, 0.0, 0.0, 1.6444974294793394E9, 0.0, 2022-02-10 23:50:29.479
56.0, -9740.733771411631, -11648.16458799417, -6045.275157126804, -13809.243000655533, -188.11228133586425, -1590.1701557839103, -2169.214447643095, -3166.3928230277093, -21112.697853171572, -16883.948967927572, -22503.55750364751, -13358.050687080704, -7195.674740752547, -11672.282120261445, -4836.068133839147, -8753.501922309628, 0.00475, -0.0195, 0.989125, 192.0, 0.0, 8.0, 127.5, 56.0, 15.0, 120.0, 0.0, 0.0, 0.0, 1.644497429479346E9, 0.0, 2022-02-10 23:50:29.479
58.0, -9753.630727962343, -11649.952727550593, -6047.130351916594, -13809.801794266916, -201.45627277568255, -1602.8659466345248, -2200.5962968583462, -3189.035140160935, -21116.475297984518, -16893.046127920883, -22494.035660509548, -13363.772733661262, -7194.065415151766, -11668.884655104239, -4828.893223868993, -8754.641861276848, 0.00475, -0.0195, 0.989125, 192.0, 0.0, 0.0, 0.0, 0.0, 0.0, 0.0, 0.0, 0.0, 0.0, 1.6444974294793525E9, 0.0, 2022-02-10 23:50:29.479
60.0, -9744.488864480123, -11642.956631536083, -6042.592947792166, -13797.642445283229, -193.409644771772, -1596.8980308649577, -2170.756718010511, -3158.10032583479, -21115.31300727284, -16902.098584425283, -22511.090041528947, -13361.023469093261, -7190.310322083274, -11677.244207530524, -4838.772694918239, -8757.301718867031, 0.00475, -0.0195, 0.989125, 192.0, 0.0, 0.0, 0.0, 0.0, 0.0, 0.0, 0.0, 0.0, 0.0, 1.644497429479359E9, 0.0, 2022-02-10 23:50:29.479
62.0, -9728.373256727846, -11629.567936607355, -6034.76983723281, -13797.530686560953, -179.4398044872051, -1591.310094751131, -2165.3028923634165, -3148.0196890854468, -21104.98650133449, -16884.86538945024, -22484.536169116043, -13342.78444561773, -7188.969217415955, -11670.292815004923, -4827.663877923951, -8746.818750717492, 0.00475, -0.0195, 0.989125, 192.0, 0.0, 0.0, 0.0, 0.0, 0.0, 0.0, 0.0, 0.0, 0.0, 1.6444974294793653E9, 0.0, 2022-02-10 23:50:29.479
64.0, -9739.191501044215, -11633.412436653667, -6046.48215132739, -13801.129317418256, -193.78962442751222, -1589.9019348504467, -2171.2261046440726, -3161.5424944809074, -21108.920408358623, -16886.072383650826, -22491.621672108373, -13352.239233522325, -7179.961464400467, -11653.126675263247, -4830.077866325124, -8753.926605454279, 0.00475, -0.0195, 0.989125, 192.0, 0.0, 0.0, 0.0, 0.0, 0.0, 0.0, 0.0, 0.0, 0.0, 1.644497429479372E9, 0.0, 2022-02-10 23:50:29.479
66.0, -9723.947611325695, -11622.325971403834, -6035.842720966664, -13793.552076047907, -184.33483652291736, -1585.2080685148321, -2166.6663487751903, -3155.90985487817, -21105.388832734687, -16875.142380612182, -22490.21351220769, -13343.320887484657, -7186.577580759237, -11669.64461441572, -4835.107008827568, -8749.903291452323, 0.003375, -0.01675, 0.9865625, 192.0, 0.0, 8.0, 127.5, 72.0, 15.0, 96.0, 0.0, 0.0, 0.0, 1.6444974294793785E9, 0.0, 2022-02-10 23:50:29.479
68.0, -9740.644364433809, -11629.143253462704, -6036.557976789234, -13796.323692360365, -188.9616476251659, -1599.088501821578, -2183.5642675834024, -3169.879695162737, -21108.495725213972, -16873.82362768932, -22480.624613836364, -13339.92342232745, -7186.912856926067, -11692.510448993498, -4834.056476838169, -8751.065582164, 0.003375, -0.01675, 0.9865625, 192.0, 0.0, 0.0, 0.0, 0.0, 0.0, 0.0, 0.0, 0.0, 0.0, 1.644497429479385E9, 0.0, 2022-02-10 23:50:29.479
70.0, -9730.54137594001, -11626.975134250539, -6040.089552413172, -13796.480154571553, -186.83823190191174, -1588.4937749497624, -2189.353369397327, -3157.6756426901393, -21105.58999843478, -16876.05880213485, -22495.667337854786, -13350.093466054615, -7182.956598157478, -11667.722364392563, -4836.358706517066, -8752.943128698245, 0.003375, -0.01675, 0.9865625, 192.0, 0.0, 0.0, 0.0, 0.0, 0.0, 0.0, 0.0, 0.0, 0.0, 1.6444974294793932E9, 0.0, 2022-02-10 23:50:29.479
72.0, -9716.906811822273, -11623.421206882145, -6032.802883720742, -13797.06129992739, -170.96849333864373, -1583.2187632583098, -2172.0754709333746, -3156.423945000642, -21095.93404483009, -16865.79935142986, -22479.372916146865, -13343.075018295649, -7172.339519541207, -11659.07223928836, -4824.66874416694, -8747.891634451345, 0.003375, -0.01675, 0.9865625, 192.0, 0.0, 0.0, 0.0, 0.0, 0.0, 0.0, 0.0, 0.0, 0.0, 1.6444974294793997E9, 0.0, 2022-02-10 23:50:29.479
74.0, -9736.531643454033, -11637.167529722159, -6041.430657080491, -13793.641483025729, -175.90822886326657, -1590.4830802062847, -2176.7916890134443, -3161.564846225363, -21099.64443440967, -16877.176389357614, -22492.739259331138, -13335.87775658104, -7184.118888869154, -11667.4541434591, -4827.619174435041, -8752.607852531417, 0.003375, -0.01675, 0.9865625, 192.0, 0.0, 0.0, 0.0, 0.0, 0.0, 0.0, 0.0, 0.0, 0.0, 1.644497429479406E9, 0.0, 2022-02-10 23:50:29.479
76.0, -9724.037018303516, -11623.510613859966, -6027.036133651273, -13788.63469226774, -166.49814444758232, -1574.7698038542037, -2165.638168530246, -3148.354965252276, -21096.35872797474, -16869.77796194291, -22493.812143064995, -13335.006038547283, -7176.876923665634, -11655.227739242047, -4823.841729622094, -8746.282308850565, 0.0036875, -0.017375, 0.98428125, 192.0, 0.0, 16.0, 127.5, 56.0, 15.0, 88.0, 0.0, 0.0, 0.0, 1.6444974294794128E9, 0.0, 2022-02-10 23:50:29.479
78.0, -9735.861091120374, -11627.377465650734, -6027.9078516850295, -13793.976759192557, -176.31056026346212, -1579.5754289120948, -2174.601218056824, -3153.6746804326394, -21098.37038497572, -16864.19002582908, -22477.383610890345, -13323.181965730426, -7179.447374277995, -11662.983794568037, -4818.298496997178, -8743.264823349098, 0.0036875, -0.017375, 0.98428125, 192.0, 0.0, 0.0, 0.0, 0.0, 0.0, 0.0, 0.0, 0.0, 0.0, 1.6444974294794192E9, 0.0, 2022-02-10 23:50:29.479
80.0, -9736.129312053838, -11628.718570318053, -6028.354886574136, -13795.675491771162, -181.09383357689782, -1575.5521149101396, -2175.7858605129554, -3152.2888722764105, -21103.533637944896, -16881.311462081845, -22492.918073286783, -13345.489006696822, -7174.574693986738, -11647.471683916056, -4824.601688933574, -8749.366849585396, 0.0036875, -0.017375, 0.98428125, 192.0, 0.0, 0.0, 0.0, 0.0, 0.0, 0.0, 0.0, 0.0, 0.0, 1.644497429479426E9, 0.0, 2022-02-10 23:50:29.479
82.0, -9717.934992067218, -11607.216192152047, -6017.894270169052, -13792.121564402767, -175.08121431842022, -1573.6745683758938, -2177.283427391461, -3157.653290945684, -21092.581283161795, -16867.632194475198, -22478.21062543519, -13332.793215846208, -7179.626188233637, -11641.570823379854, -4815.437473706898, -8744.762390227603, 0.0036875, -0.017375, 0.98428125, 192.0, 0.0, 0.0, 0.0, 0.0, 0.0, 0.0, 0.0, 0.0, 0.0, 1.6444974294794323E9, 0.0, 2022-02-10 23:50:29.479
84.0, -9732.664791663265, -11616.268648656447, -6029.3160115857145, -13792.702709758605, -189.8780691478335, -1586.9515045823462, -2186.693511807145, -3158.010918856969, -21096.35872797474, -16861.932499639093, -22483.798561549018, -13338.336448471124, -7183.649502235592, -11655.205387497592, -4818.85729060856, -8749.456256563219, 0.0036875, -0.017375, 0.98428125, 192.0, 0.0, 0.0, 0.0, 0.0, 0.0, 0.0, 0.0, 0.0, 0.0, 1.6444974294794388E9, 0.0, 2022-02-10 23:50:29.479
86.0, -9716.280962977526, -11622.929468504128, -6020.598831248144, -13788.880561456748, -173.33777825090627, -1585.9456760818573, -2166.7110522641005, -3160.1566863246785, -21098.83977160928, -16865.553482240855, -22489.766477318582, -13334.02256179125, -7189.125679627143, -11673.511466206488, -4822.05359006567, -8748.942166440745, 0.006, -0.02, 0.988, 192.0, 0.0, 24.0, 127.5, 48.0, 15.0, 112.0, 0.0, 0.0, 0.0, 1.6444974294794457E9, 0.0, 2022-02-10 23:50:29.479
88.0, -9722.897079336295, -11633.59125060931, -6026.276174339792, -13792.233323125045, -182.83726964441178, -1585.6103999150278, -2172.2319331445615, -3140.5765581818296, -21096.895169841668, -16869.308575309347, -22485.385535405345, -13327.406445432478, -7177.301606810285, -11659.385163710735, -4816.912688840948, -8748.405724573819, 0.006, -0.02, 0.988, 192.0, 0.0, 0.0, 0.0, 0.0, 0.0, 0.0, 0.0, 0.0, 0.0, 1.6444974294794524E9, 0.0, 2022-02-10 23:50:29.479
90.0, -9726.786282871519, -11623.890593515705, -6030.4335988084795, -13788.187657378634, -182.9490283666883, -1579.955408567835, -2175.271770390483, -3133.5804621673183, -21101.56668443283, -16878.651604491664, -22503.401041436322, -13342.627983406543, -7184.498868524894, -11647.091704260314, -4825.4063517339655, -8744.672983249782, 0.006, -0.02, 0.988, 192.0, 0.0, 0.0, 0.0, 0.0, 0.0, 0.0, 0.0, 0.0, 0.0, 1.6444974294794588E9, 0.0, 2022-02-10 23:50:29.479
92.0, -9719.58902115691, -11620.940163247606, -6024.24216559436, -13784.991357921524, -173.94127535119955, -1576.8485160885473, -2172.1425261667405, -3133.8039796118715, -21100.247931509966, -16864.257081062446, -22485.83257029445, -13338.179986259936, -7180.184981845019, -11648.276346716446, -4818.343200486088, -8740.448503547728, 0.006, -0.02, 0.988, 192.0, 0.0, 0.0, 0.0, 0.0, 0.0, 0.0, 0.0, 0.0, 0.0, 1.644497429479466E9, 0.0, 2022-02-10 23:50:29.479
94.0, -9734.967021342161, -11640.16266347917, -6035.552148288745, -13788.008843422991, -188.33579878041732, -1586.6832836488825, -2162.6877382621456, -3144.8904448617036, -21102.46075421104, -16872.460171277544, -22492.761611075595, -13335.453073436389, -7170.976063129433, -11660.5027509335, -4815.8398051070935, -8742.97425067118, 0.006, -0.02, 0.988, 192.0, 0.0, 0.0, 0.0, 0.0, 0.0, 0.0, 0.0, 0.0, 0.0, 1.6444974294794724E9, 0.0, 2022-02-10 23:50:29.479
96.0, -9731.658963162776, -11617.25212541248, -6019.615354492111, -13787.67356725616, -168.82272587093425, -1578.9495800673462, -2158.440906815637, -3138.140218036201, -21105.567646690328, -16873.845979433772, -22494.92973028776, -13347.813588120174, -7183.716557468958, -11673.466762717577, -4817.516185941242, -8744.628279760871, 0.004, -0.02, 0.986, 192.0, 0.0, 16.0, 127.5, 48.0, 15.0, 104.0, 0.0, 0.0, 0.0, 1.6444974294794788E9, 0.0, 2022-02-10 23:50:29.479
98.0, -9735.034076575528, -11606.590343307298, -6026.298526084248, -13792.993282436524, -178.56808645344813, -1588.8961063499578, -2174.28829363445, -3156.9156833786587, -21098.951530331557, -16866.760476441443, -22478.903529513304, -13332.055608279183, -7171.020766618343, -11664.526064935455, -4813.112892283546, -8745.052962905522, 0.004, -0.02, 0.986, 192.0, 0.0, 0.0, 0.0, 0.0, 0.0, 0.0, 0.0, 0.0, 0.0, 1.6444974294794855E9, 0.0, 2022-02-10 23:50:29.479
100.0, -9726.74157938261, -11621.007218480972, -6033.7193052434095, -13788.58998877883, -191.1968220706966, -1594.4169872304187, -2191.3650263983045, -3169.745584696005, -21106.998158335467, -16872.99661314447, -22498.55071288952, -13355.234367279336, -7182.487211523916, -11674.4055359847, -4828.088561068602, -8758.30754736752, 0.004, -0.02, 0.986, 192.0, 0.0, 0.0, 0.0, 0.0, 0.0, 0.0, 0.0, 0.0, 0.0, 1.6444974294794924E9, 0.0, 2022-02-10 23:50:29.479
102.0, -9727.97092532765, -11640.900271046195, -6037.42969482299, -13797.843610983326, -182.30082777748441, -1587.8008708716477, -2173.0365959449528, -3146.05273557338, -21103.824210622814, -16875.567063756833, -22486.279605183558, -13334.4472449359, -7182.129583612631, -11660.122771277758, -4827.19449129039, -8750.797361230536, 0.004, -0.02, 0.986, 192.0, 0.0, 0.0, 0.0, 0.0, 0.0, 0.0, 0.0, 0.0, 0.0, 1.6444974294795008E9, 0.0, 2022-02-10 23:50:29.479
104.0, -9746.254652292091, -11634.552375620888, -6049.164360662027, -13801.844573240825, -192.31440929346198, -1599.2896675216757, -2177.931627980665, -3163.8000206708934, -21115.625931695216, -16890.073345908328, -22504.429221681265, -13351.12164629956, -7192.701958739992, -11675.12079180727, -4828.043857579692, -8755.334765354964, 0.004, -0.02, 0.986, 192.0, 0.0, 0.0, 0.0, 0.0, 0.0, 0.0, 0.0, 0.0, 0.0, 1.6444974294795072E9, 0.0, 2022-02-10 23:50:29.479
106.0, -9738.811521388474, -11633.904175031683, -6039.731924501887, -13800.771689506972, -186.50295573508214, -1578.860173089525, -2170.644959288235, -3158.2791397904325, -21114.307178772353, -16882.071421393328, -22505.725622859674, -13348.21591952037, -7191.494964539405, -11663.855512601795, -4828.021505835236, -8752.764314742602, 0.01, -0.022, 0.986, 192.0, 0.0, 40.0, 127.5, 40.0, 15.0, 104.0, 0.0, 0.0, 0.0, 1.6444974294795141E9, 0.0, 2022-02-10 23:50:29.479
108.0, -9745.852320891896, -11621.051921969882, -6047.979718205896, -13801.218724396078, -201.45627277568255, -1597.1886035428768, -2187.8110990299106, -3172.740718453016, -21113.346053760775, -16875.00827014545, -22489.095924984926, -13348.014753820271, -7182.196638845997, -11653.908986319184, -4828.62500293553, -8752.563149042506, 0.01, -0.022, 0.986, 192.0, 0.0, 0.0, 0.0, 0.0, 0.0, 0.0, 0.0, 0.0, 0.0, 1.6444974294795213E9, 0.0, 2022-02-10 23:50:29.479
110.0, -9752.446085506212, -11645.817654826362, -6051.935976974485, -13799.877619728759, -204.0937786214088, -1596.9650860983238, -2190.1133287088073, -3161.073107847346, -21119.716300930537, -16876.86346493524, -22515.292169486544, -13349.422913720957, -7205.263639123874, -11674.472591218066, -4843.645375209496, -8757.25701537812, 0.01, -0.022, 0.986, 192.0, 0.0, 0.0, 0.0, 0.0, 0.0, 0.0, 0.0, 0.0, 0.0, 1.644497429479528E9, 0.0, 2022-02-10 23:50:29.479
112.0, -9738.11861731036, -11641.526119890943, -6043.554072803745, -13796.100174915813, -195.15308083928596, -1589.4325482168852, -2174.1094796788075, -3152.9594246100696, -21117.70464392956, -16888.15109588517, -22503.244579225135, -13344.617288663065, -7205.688322268525, -11669.957538838094, -4839.95733737437, -8751.423210075285, 0.01, -0.022, 0.986, 192.0, 0.0, 0.0, 0.0, 0.0, 0.0, 0.0, 0.0, 0.0, 0.0, 1.6444974294795344E9, 0.0, 2022-02-10 23:50:29.479
114.0, -9741.203158045193, -11640.58734662382, -6046.146875160561, -13798.312997616888, -202.35034255389485, -1598.0156180877232, -2171.38256685526, -3160.8048869138825, -21114.26247528344, -16882.33964232679, -22500.49531465713, -13346.986573575328, -7195.719444241458, -11666.269501002967, -4835.57639546113, -8754.328936854476, 0.01, -0.022, 0.986, 192.0, 0.0, 0.0, 0.0, 0.0, 0.0, 0.0, 0.0, 0.0, 0.0, 1.6444974294795408E9, 0.0, 2022-02-10 23:50:29.479
116.0, -9728.462663705666, -11626.282230172425, -6035.798017477753, -13791.763936491483, -184.37954001182797, -1583.4199289584076, -2158.440906815637, -3154.233474044022, -21107.333434502296, -16875.72352596802, -22494.728564587662, -13345.824282863652, -7192.813717462268, -11678.965291853583, -4833.944718115892, -8752.138465897855, 0.01, -0.02, 0.992, 192.0, 0.0, 40.0, 127.5, 48.0, 15.5, 0.0, 0.0, 0.0, 0.0, 1.6444974294795475E9, 0.0, 2022-02-10 23:50:29.479
118.0, -9734.4976347086, -11627.511576117466, -6038.994316934863, -13797.240113883034, -188.5593162249704, -1582.8387836025697, -2172.8130785003996, -3166.549285238896, -21106.528771701905, -16867.4310287751, -22486.480770883652, -13339.185814760425, -7188.075147637743, -11679.50173372051, -4831.8660058815485, -8751.333803097463, 0.01, -0.02, 0.992, 192.0, 0.0, 0.0, 0.0, 0.0, 0.0, 0.0, 0.0, 0.0, 0.0, 1.6444974294795544E9, 0.0, 2022-02-10 23:50:29.479
120.0, -9735.302297508992, -11619.82257602484, -6040.983622191385, -13799.654102284207, -190.59332497040333, -1582.3246934800975, -2167.7168807645894, -3164.0458898599018, -21104.584169934293, -16872.326060810814, -22500.74118384614, -13349.244099765314, -7187.359891815173, -11647.382276938233, -4841.968994375347, -8753.390163587352, 0.01, -0.02, 0.992, 192.0, 0.0, 0.0, 0.0, 0.0, 0.0, 0.0, 0.0, 0.0, 0.0, 1.644497429958595E9, 0.0, 2022-02-10 23:50:29.958
122.0, -9727.367428227357, -11633.434788398123, -6032.981697676385, -13796.234285382545, -178.12105156434197, -1571.9087805639244, -2160.832543472355, -3146.3209565068432, -21105.679405412604, -16874.583587000798, -22494.192122720735, -13336.235384492325, -7183.671853980048, -11661.910910834184, -4832.760075659761, -8743.175416371276, 0.01, -0.02, 0.992, 192.0, 0.0, 0.0, 0.0, 0.0, 0.0, 0.0, 0.0, 0.0, 0.0, 1.644497429958774E9, 0.0, 2022-02-10 23:50:29.958
124.0, -9745.181768558237, -11639.626221612243, -6042.034154180784, -13800.436413340141, -199.0646361189647, -1583.665798147416, -2183.094880949841, -3169.9914538850135, -21106.953454846556, -16882.205531860058, -22496.06966925498, -13335.855404836584, -7191.85259245069, -11671.656271416698, -4833.989421604803, -8746.237605361654, 0.01, -0.02, 0.992, 192.0, 0.0, 0.0, 0.0, 0.0, 0.0, 0.0, 0.0, 0.0, 0.0, 1.6444974299587808E9, 0.0, 2022-02-10 23:50:29.958
126.0, -9725.467529948655, -11646.756428093486, -6031.260613353326, -13798.82708773936, -185.00538885657656, -1580.8047748571366, -2174.5565145679134, -3163.040061359413, -21104.13713504519, -16876.639947490687, -22496.472000655176, -13348.037105564727, -7188.9468656715, -11675.433716229643, -4839.219729807345, -8748.83040771847, 0.008, -0.022, 0.99, 192.0, 0.0, 32.0, 127.5, 40.0, 15.0, 120.0, 0.0, 0.0, 0.0, 1.6444974299587877E9, 0.0, 2022-02-10 23:50:29.958
128.0, -9743.348925512902, -11640.006201267983, -6032.7805319762865, -13794.580256292851, -193.32023779395078, -1585.185716770377, -2182.6031425718243, -3170.2820265629325, -21107.26637926893, -16868.503912508957, -22480.423448136266, -13341.398637461501, -7184.99060690291, -11671.924492350161, -4833.430627993421, -8747.154026884322, 0.008, -0.022, 0.99, 192.0, 0.0, 0.0, 0.0, 0.0, 0.0, 0.0, 0.0, 0.0, 0.0, 1.6444974299587944E9, 0.0, 2022-02-10 23:50:29.958
130.0, -9748.668640693264, -11644.856529814784, -6034.926299443996, -13790.646349268718, -188.76048192506815, -1581.4306237018852, -2167.739232509045, -3167.108078850279, -21106.148792046166, -16874.561235256344, -22495.197951221224, -13338.224689748848, -7182.576618501737, -11664.660175402187, -4834.458808238364, -8745.298832094531, 0.008, -0.022, 0.99, 192.0, 0.0, 0.0, 0.0, 0.0, 0.0, 0.0, 0.0, 0.0, 0.0, 1.6444974299588013E9, 0.0, 2022-02-10 23:50:29.958
132.0, -9737.448064976701, -11640.296773945902, -6030.187729619472, -13803.051567441413, -181.74203416610172, -1583.732853380782, -2168.47684007607, -3148.198503041089, -21112.31787351583, -16881.356165570756, -22490.437029652243, -13325.595954131599, -7187.6728162375475, -11665.375431224757, -4828.312078513155, -8745.947032683735, 0.008, -0.022, 0.99, 192.0, 0.0, 0.0, 0.0, 0.0, 0.0, 0.0, 0.0, 0.0, 0.0, 1.6444974299588077E9, 0.0, 2022-02-10 23:50:29.958
134.0, -9747.059315092483, -11637.994544267005, -6035.865072711119, -13799.274122628465, -194.5942872279033, -1587.9796848272902, -2185.285351906461, -3160.6037212137844, -21108.51807695843, -16883.792505716385, -22489.185331962744, -13331.563869901165, -7187.784574959824, -11679.635844187242, -4833.855311138072, -8746.103494894922, 0.008, -0.022, 0.99, 192.0, 0.0, 0.0, 0.0, 0.0, 0.0, 0.0, 0.0, 0.0, 0.0, 1.6444974299588225E9, 0.0, 2022-02-10 23:50:29.958
136.0, -9736.509291709577, -11633.054808742381, -6037.139122145071, -13800.861096484792, -185.0947958343978, -1575.3733009544972, -2142.682926974646, -3133.3792964672207, -21110.194457792575, -16881.982014415506, -22498.126029744868, -13343.633811907031, -7186.465822036961, -11659.698088133107, -4833.095351826591, -8743.756561727114, 0.008, -0.026000000000000002, 0.992, 192.0, 0.0, 32.0, 127.5, 24.0, 15.5, 0.0, 0.0, 0.0, 0.0, 1.6444974299588296E9, 0.0, 2022-02-10 23:50:29.958
138.0, -9743.438332490723, -11650.131541506236, -6038.636689023578, -13800.279951128954, -195.19778432819658, -1583.6881498918713, -2161.0337091724527, -3153.6076251992736, -21111.826135137813, -16879.81389520334, -22489.610015107395, -13334.491948424811, -7187.717519726458, -11675.478419718555, -4829.04968608018, -8741.901366937323, 0.008, -0.026000000000000002, 0.992, 192.0, 0.0, 0.0, 0.0, 0.0, 0.0, 0.0, 0.0, 0.0, 0.0, 1.6444974299588363E9, 0.0, 2022-02-10 23:50:29.958
140.0, -9750.07680059395, -11633.211270953569, -6042.749410003354, -13804.593837808829, -190.41451101476088, -1585.8339173595807, -2169.728537765567, -3156.781572911927, -21116.676463684616, -16888.91105519665, -22507.111431015903, -13351.881605611039, -7202.335560600229, -11661.01684105597, -4839.465598996353, -8748.092800151444, 0.008, -0.026000000000000002, 0.992, 192.0, 0.0, 0.0, 0.0, 0.0, 0.0, 0.0, 0.0, 0.0, 0.0, 1.644497429958843E9, 0.0, 2022-02-10 23:50:29.958
142.0, -9736.911623109774, -11627.556279606377, -6037.183825633982, -13799.452936584108, -184.58070571192573, -1586.1468417819551, -2177.9763314695756, -3155.976910111536, -21110.283864770397, -16876.684650979598, -22492.940425031236, -13342.248003750803, -7196.23353436393, -11663.095553290315, -4837.990383862303, -8744.1141896384, 0.008, -0.026000000000000002, 0.992, 192.0, 0.0, 0.0, 0.0, 0.0, 0.0, 0.0, 0.0, 0.0, 0.0, 1.6444974299588497E9, 0.0, 2022-02-10 23:50:29.958
144.0, -9755.575329729954, -11643.805997825384, -6047.823255994708, -13799.989378451035, -193.56610698295916, -1602.8659466345248, -2172.5672093113913, -3166.0798986053346, -21111.021472337423, -16875.410601545645, -22500.115335001392, -13332.033256534727, -7193.752490729391, -11682.586274455343, -4838.236253051312, -8747.73517224016, 0.008, -0.026000000000000002, 0.992, 192.0, 0.0, 0.0, 0.0, 0.0, 0.0, 0.0, 0.0, 0.0, 0.0, 1.6444974299588566E9, 0.0, 2022-02-10 23:50:29.958
146.0, -9743.058352834983, -11640.96732627956, -6039.441351823968, -13801.419890096175, -181.07148183244252, -1588.4937749497624, -2156.5633602813914, -3156.8933316342036, -21117.771699162924, -16880.43974404809, -22506.373823448877, -13343.87968109604, -7201.955580944488, -11681.803963399407, -4838.973860618336, -8748.003393173623, 0.01, -0.024, 0.992, 192.0, 0.0, 40.0, 127.5, 32.0, 15.5, 0.0, 0.0, 0.0, 0.0, 1.6444974299588633E9, 0.0, 2022-02-10 23:50:29.958
148.0, -9750.300318038502, -11641.883747802229, -6039.5307588017895, -13802.425718596664, -181.63027544382518, -1593.634676174483, -2160.0725841608746, -3150.4560292310753, -21114.195420050077, -16887.033508662404, -22491.554616875008, -13326.847651821095, -7198.267543109363, -11677.423021486167, -4830.726066914328, -8743.555396027017, 0.01, -0.024, 0.992, 192.0, 0.0, 0.0, 0.0, 0.0, 0.0, 0.0, 0.0, 0.0, 0.0, 1.64449742995887E9, 0.0, 2022-02-10 23:50:29.958
150.0, -9754.010707618083, -11643.358962936278, -6042.436485580979, -13803.29743663042, -183.41841500024975, -1596.406292486941, -2167.9627499535977, -3157.496828734497, -21111.960245604547, -16892.86731396524, -22505.524457159576, -13349.221748020858, -7188.477479037939, -11687.257789046502, -4837.588052462108, -8751.49026530865, 0.01, -0.024, 0.992, 192.0, 0.0, 0.0, 0.0, 0.0, 0.0, 0.0, 0.0, 0.0, 0.0, 1.6444974299588768E9, 0.0, 2022-02-10 23:50:29.958
152.0, -9733.178881785738, -11632.428959897634, -6033.764008732321, -13802.626884296762, -174.9694555961437, -1596.3392372535752, -2168.052156931419, -3158.9049886351813, -21108.540428702883, -16882.563159771344, -22494.013308765094, -13335.721294369852, -7203.542554800815, -11673.176190039658, -4835.822264650138, -8749.076276907477, 0.01, -0.024, 0.992, 192.0, 0.0, 0.0, 0.0, 0.0, 0.0, 0.0, 0.0, 0.0, 0.0, 1.6444974299588833E9, 0.0, 2022-02-10 23:50:29.958
154.0, -9761.900873410807, -11649.528044405943, -6043.978755948396, -13808.483041344052, -191.88972614881112, -1609.6161734600275, -2173.8859622342543, -3164.7611456824716, -21114.03895783889, -16889.268683107937, -22497.45547741121, -13338.247041493303, -7207.029426935844, -11679.255864531502, -4837.185721061912, -8754.932433954767, 0.01, -0.024, 0.992, 192.0, 0.0, 0.0, 0.0, 0.0, 0.0, 0.0, 0.0, 0.0, 0.0, 1.64449742995889E9, 0.0, 2022-02-10 23:50:29.958
156.0, -9746.187597058726, -11632.361904664267, -6029.695991241454, -13810.271180900478, -175.3494352518839, -1586.2586005042317, -2159.334976593849, -3141.850607615782, -21114.061309583343, -16889.782773230407, -22502.417564680287, -13350.115817799071, -7201.620304777659, -11666.560073680886, -4839.689116440906, -8756.519407811094, 0.01, -0.024, 0.992, 192.0, 0.0, 40.0, 127.5, 32.0, 15.5, 0.0, 0.0, 0.0, 0.0, 1.6444974299588969E9, 0.0, 2022-02-10 23:50:29.958
158.0, -9747.014611603572, -11638.419227411656, -6032.020572664806, -13808.818317510882, -188.64872320279161, -1598.730873910293, -2173.0365959449528, -3155.686337433617, -21103.623044922715, -16875.567063756833, -22484.111485971393, -13336.63771589252, -7192.4337378065275, -11654.288965974923, -4828.915575613449, -8752.250224620131, 0.01, -0.024, 0.992, 192.0, 0.0, 0.0, 0.0, 0.0, 0.0, 0.0, 0.0, 0.0, 0.0, 1.6444974299589036E9, 0.0, 2022-02-10 23:50:29.958
160.0, -9739.191501044215, -11628.182128451124, -6040.223662879904, -13797.396576094221, -200.24927857509599, -1603.3353332680863, -2184.6818548061674, -3174.662968476173, -21106.193495535077, -16879.165694614137, -22500.897646057325, -13338.962297315873, -7199.2957233543075, -11670.337518493834, -4843.690078698406, -8758.799285745536, 0.01, -0.024, 0.992, 192.0, 0.0, 0.0, 0.0, 0.0, 0.0, 0.0, 0.0, 0.0, 0.0, 1.6444974299589102E9, 0.0, 2022-02-10 23:50:29.958
162.0, -9714.850451332386, -11605.472756084533, -6030.411247064024, -13796.21193363809, -184.1113190783643, -1587.2867807491757, -2165.280540618961, -3148.399668741187, -21083.931158057592, -16862.021906616916, -22477.897701012815, -13319.605686617577, -7194.691263996514, -11667.252977759003, -4842.505436242275, -8750.707954252715, 0.01, -0.024, 0.992, 192.0, 0.0, 0.0, 0.0, 0.0, 0.0, 0.0, 0.0, 0.0, 0.0, 1.644497429958917E9, 0.0, 2022-02-10 23:50:29.958
164.0, -9759.062201864983, -11645.661192615175, -6044.6940117709655, -13804.616189553284, -202.97619139864344, -1605.0117141022342, -2171.248456388528, -3167.130430594734, -21092.804800606347, -16869.48738926499, -22487.93363427325, -13330.245116978302, -7200.770938488357, -11645.996468782005, -4840.404372263476, -8755.513579310606, 0.01, -0.025, 0.99, 192.0, 0.0, 40.0, 127.5, 24.0, 15.0, 112.0, 0.0, 0.0, 0.0, 1.6444974299589236E9, 0.0, 2022-02-10 23:50:29.958
166.0, -9737.49276846561, -11633.211270953569, -6039.173130890505, -13799.140012161733, -194.46017676117145, -1599.5578884551394, -2170.443793588137, -3151.7971338983934, -21108.51807695843, -16896.398889589178, -22504.295111214535, -13341.063361294671, -7208.3928833476175, -11685.581408212354, -4844.628851965529, -8757.458181078218, 0.01, -0.025, 0.99, 192.0, 0.0, 0.0, 0.0, 0.0, 0.0, 0.0, 0.0, 0.0, 0.0, 1.6444974299589324E9, 0.0, 2022-02-10 23:50:29.958
168.0, -9735.056428319982, -11628.383294151223, -6035.730962244387, -13798.49181157253, -201.03158963103172, -1602.8659466345248, -2183.1619361832068, -3163.241227059511, -21092.961262817535, -16881.937310926594, -22482.949195259716, -13326.087692509616, -7200.23449662143, -11693.248056560524, -4838.325660029132, -8757.59229154495, 0.01, -0.025, 0.99, 192.0, 0.0, 0.0, 0.0, 0.0, 0.0, 0.0, 0.0, 0.0, 0.0, 1.644497429958939E9, 0.0, 2022-02-10 23:50:29.958
170.0, -9733.40239923029, -11617.028607967926, -6039.687221012977, -13797.910666216692, -205.25606933308475, -1608.1633100704325, -2191.476785120581, -3166.549285238896, -21096.269320996922, -16885.044203405883, -22496.427297166265, -13338.247041493303, -7209.890450226123, -11683.323882022367, -4847.512227000264, -8759.872169479391, 0.01, -0.025, 0.99, 192.0, 0.0, 0.0, 0.0, 0.0, 0.0, 0.0, 0.0, 0.0, 0.0, 1.6444974299589467E9, 0.0, 2022-02-10 23:50:29.958
172.0, -9714.425768187735, -11605.159831662158, -6033.2499186098485, -13801.598704051818, -192.44851976019382, -1604.0952925795666, -2175.338825623849, -3166.549285238896, -21086.725126114503, -16873.220130589027, -22480.91518651428, -13329.932192555929, -7202.022636177855, -11693.560980982898, -4840.314965285655, -8756.988794444656, 0.01, -0.025, 0.99, 192.0, 0.0, 0.0, 0.0, 0.0, 0.0, 0.0, 0.0, 0.0, 0.0, 1.6444974299589536E9, 0.0, 2022-02-10 23:50:29.958
174.0, -9722.695913636198, -11613.63114281072, -6049.678450784499, -13799.564695306384, -208.69823797920205, -1610.599650216061, -2169.0132819429973, -3151.90889262067, -21088.401506948652, -16862.848921161763, -22488.3583174179, -13335.430721691933, -7203.766072245368, -11678.942940109127, -4840.739648430306, -8759.760410757115, 0.01, -0.025500000000000002, 0.988, 192.0, 0.0, 40.0, 127.5, 24.0, 15.0, 104.0, 0.0, 0.0, 0.0, 1.6444974299589603E9, 0.0, 2022-02-10 23:50:29.958
176.0, -9722.651210147287, -11610.25602939797, -6034.971002932907, -13790.244017868521, -200.6739617197468, -1602.083635578589, -2166.9345697086537, -3166.81750617236, -21095.017623307423, -16878.942177169585, -22498.55071288952, -13345.377247974546, -7205.129528657142, -11685.827277401362, -4841.141979830501, -8753.233701376164, 0.01, -0.025500000000000002, 0.988, 192.0, 0.0, 0.0, 0.0, 0.0, 0.0, 0.0, 0.0, 0.0, 0.0, 1.644497429958967E9, 0.0, 2022-02-10 23:50:29.958
178.0, -9735.235242275625, -11627.869204028751, -6038.234357623382, -13800.704634273605, -213.07917989244223, -1603.1341675679885, -2183.2066396721175, -3159.977872369036, -21091.016661049922, -16876.215264346036, -22475.103732955904, -13323.137262241515, -7202.559078044782, -11670.203408027102, -4838.996212362792, -8752.764314742602, 0.01, -0.025500000000000002, 0.988, 192.0, 0.0, 0.0, 0.0, 0.0, 0.0, 0.0, 0.0, 0.0, 0.0, 1.6444974299589741E9, 0.0, 2022-02-10 23:50:29.958
180.0, -9744.488864480123, -11634.932355276627, -6045.118694915616, -13796.323692360365, -211.91688918076625, -1604.7211414243152, -2177.506944836014, -3157.2956630343992, -21100.627911165706, -16881.44557254858, -22498.93069254526, -13336.704771125886, -7200.905048955089, -11682.966254111083, -4846.573453733141, -8754.194826387742, 0.01, -0.025500000000000002, 0.988, 192.0, 0.0, 0.0, 0.0, 0.0, 0.0, 0.0, 0.0, 0.0, 0.0, 1.6444974299589808E9, 0.0, 2022-02-10 23:50:29.958
182.0, -9735.905794609285, -11621.3424946478, -6036.692087255966, -13797.485983072042, -193.0296651160318, -1591.533612195684, -2150.059002644897, -3153.8311426438268, -21104.293597256376, -16885.71475573954, -22487.173674961767, -13325.3947884315, -7207.543517058315, -11677.780649397451, -4834.302346027177, -8751.73613449766, 0.01, -0.025500000000000002, 0.988, 192.0, 0.0, 0.0, 0.0, 0.0, 0.0, 0.0, 0.0, 0.0, 0.0, 1.6444974299589877E9, 0.0, 2022-02-10 23:50:29.958
184.0, -9753.02723086205, -11631.91486977516, -6048.136180417083, -13801.755166263005, -213.74973222610143, -1594.2381732747763, -2164.7888022409443, -3156.62511070074, -21105.500591456963, -16887.458191807054, -22494.013308765094, -13332.346180957102, -7207.588220547226, -11671.87978886125, -4829.608479691563, -8752.54079729805, 0.01, -0.02375, 0.987, 192.0, 0.0, 40.0, 127.5, 40.0, 15.0, 104.0, 0.0, 0.0, 0.0, 1.6444974299589944E9, 0.0, 2022-02-10 23:50:29.958
186.0, -9747.282832537036, -11632.786587808918, -6052.092439185672, -13799.564695306384, -213.77208397055674, -1583.4199289584076, -2173.863610489799, -3158.077974090335, -21109.27803626991, -16882.71962198253, -22502.149343746823, -13343.87968109604, -7214.584316561737, -11656.188864253625, -4840.270261796744, -8755.602986288428, 0.01, -0.02375, 0.987, 192.0, 0.0, 0.0, 0.0, 0.0, 0.0, 0.0, 0.0, 0.0, 0.0, 1.6444974299590013E9, 0.0, 2022-02-10 23:50:29.959
188.0, -9744.354754013391, -11620.671942314142, -6053.38884036408, -13800.235247640045, -213.25799384808468, -1585.6774551483936, -2173.8859622342543, -3165.364642782765, -21113.524867716416, -16885.424183061623, -22493.543922131532, -13334.290782724713, -7219.166424175075, -11672.997376084015, -4842.5501397311855, -8752.227872875676, 0.01, -0.02375, 0.987, 192.0, 0.0, 0.0, 0.0, 0.0, 0.0, 0.0, 0.0, 0.0, 0.0, 1.6444974299590092E9, 0.0, 2022-02-10 23:50:29.959
190.0, -9757.341117541924, -11627.891555773205, -6058.172113677516, -13795.720195260072, -210.66519149126907, -1588.4267197163965, -2177.931627980665, -3167.8009829283933, -21111.84848688227, -16887.078212151315, -22513.16875376329, -13345.109027041082, -7215.634848551136, -11669.3540417378, -4844.472389754342, -8754.68656476576, 0.01, -0.02375, 0.987, 192.0, 0.0, 0.0, 0.0, 0.0, 0.0, 0.0, 0.0, 0.0, 0.0, 1.644497429959016E9, 0.0, 2022-02-10 23:50:29.959
192.0, -9752.200216317204, -11648.678678116641, -6047.800904250254, -13790.44518356862, -196.67299946224685, -1580.3577399680305, -2166.509886564003, -3168.3597765397762, -21119.7833561639, -16886.00532841746, -22500.897646057325, -13326.646486120999, -7213.176156661053, -11685.559056467899, -4842.572491475641, -8752.473742064683, 0.01, -0.02375, 0.987, 192.0, 0.0, 0.0, 0.0, 0.0, 0.0, 0.0, 0.0, 0.0, 0.0, 1.6444974299590225E9, 0.0, 2022-02-10 23:50:29.959
194.0, -9765.544207757022, -11646.287041459924, -6057.680375299499, -13795.899009215715, -212.83331070343385, -1590.9077633509355, -2183.743081539045, -3167.398651528198, -21122.174992820623, -16893.873142465727, -22506.4632304267, -13332.122663512548, -7225.782540533846, -11687.324844279867, -4842.773657175739, -8753.904253709825, 0.008, -0.021875, 0.9904999999999999, 192.0, 0.0, 24.0, 127.5, 48.0, 15.5, 8.0, 0.0, 0.0, 0.0, 1.6444974299590292E9, 0.0, 2022-02-10 23:50:29.959
196.0, -9746.031134847539, -11639.872090801251, -6047.443276338969, -13799.788212750938, -193.16377558276363, -1575.149783509944, -2164.162953396196, -3155.0604885888683, -21121.504440486962, -16888.955758685563, -22511.3135589735, -13350.965184088373, -7221.7145230429805, -11666.515370191977, -4847.5345787447195, -8750.77500948608, 0.008, -0.021875, 0.9904999999999999, 192.0, 0.0, 0.0, 0.0, 0.0, 0.0, 0.0, 0.0, 0.0, 0.0, 1.644497429959036E9, 0.0, 2022-02-10 23:50:29.959
198.0, -9750.45678024969, -11649.371582194755, -6052.427715352502, -13800.458765084597, -198.52819425203734, -1585.3198272371087, -2177.6857587916566, -3169.365605040265, -21117.414071251642, -16892.53203779841, -22494.437991909745, -13333.799044346697, -7212.639714794125, -11676.283082518947, -4838.795046662694, -8746.77404722858, 0.008, -0.021875, 0.9904999999999999, 192.0, 0.0, 0.0, 0.0, 0.0, 0.0, 0.0, 0.0, 0.0, 0.0, 1.6444974299590445E9, 0.0, 2022-02-10 23:50:29.959
200.0, -9759.442181520722, -11632.339552919811, -6054.394668864568, -13795.764898748983, -205.18901409971883, -1589.4996034502512, -2164.5876365408467, -3173.7688986979606, -21122.733786432003, -16897.87410472323, -22510.64300663984, -13344.93021308544, -7219.211127663985, -11691.169344326181, -4843.086581598113, -8752.63020427587, 0.008, -0.021875, 0.9904999999999999, 192.0, 0.0, 0.0, 0.0, 0.0, 0.0, 0.0, 0.0, 0.0, 0.0, 1.6444974299590511E9, 0.0, 2022-02-10 23:50:29.959
202.0, -9742.365448756867, -11626.550451105888, -6040.916566958019, -13788.746450990016, -182.0102550995654, -1579.2848562341758, -2150.5283892784582, -3154.9934333555025, -21096.157562274642, -16871.968432899528, -22487.084267983948, -13323.919573297451, -7206.157708902087, -11676.797172641418, -4834.347049516088, -8741.946070426235, 0.008, -0.021875, 0.9904999999999999, 192.0, 0.0, 0.0, 0.0, 0.0, 0.0, 0.0, 0.0, 0.0, 0.0, 1.6444974299590578E9, 0.0, 2022-02-10 23:50:29.959
204.0, -9790.578161546966, -11684.620283200775, -6055.176979920505, -13801.486945329541, -191.5320982375262, -1587.6444086604606, -2157.7927062264334, -3165.565808482863, -21136.010722638457, -16896.15302040017, -22511.53707641805, -13336.63771589252, -7205.129528657142, -11675.321957507367, -4831.441322736898, -8742.34840182643, 0.009000000000000001, -0.020937499999999998, 0.98925, 192.0, 0.0, 40.0, 127.5, 48.0, 15.0, 112.0, 0.0, 0.0, 0.0, 1.6444974299590645E9, 0.0, 2022-02-10 23:50:29.959
206.0, -9782.822106220974, -11663.520236434966, -6048.113828672627, -13795.049642926413, -181.63027544382518, -1574.5462864096507, -2152.7188602350784, -3145.784514639916, -21135.787205193905, -16907.306540883368, -22517.594399165442, -13350.115817799071, -7215.947772973511, -11669.398745226712, -4835.598747205585, -8742.795436715536, 0.009000000000000001, -0.020937499999999998, 0.98925, 192.0, 0.0, 0.0, 0.0, 0.0, 0.0, 0.0, 0.0, 0.0, 0.0, 1.6444974299590712E9, 0.0, 2022-02-10 23:50:29.959
208.0, -9778.485867796644, -11668.951710337606, -6042.280023369793, -13789.260541112488, -178.85865913136712, -1575.2168387433098, -2156.8986364482207, -3145.940976851103, -21125.974789378022, -16891.280340108915, -22498.863637311893, -13332.524994912745, -7211.030389193344, -11675.389012740734, -4827.2391947793, -8732.267765077087, 0.009000000000000001, -0.020937499999999998, 0.98925, 192.0, 0.0, 0.0, 0.0, 0.0, 0.0, 0.0, 0.0, 0.0, 0.0, 1.644497429959078E9, 0.0, 2022-02-10 23:50:29.959
210.0, -9805.03974020955, -11689.448260003122, -6052.360660119136, -13792.479192314053, -182.97138011114362, -1578.6590073894272, -2160.541970794436, -3150.1207530642455, -21135.22841158252, -16900.176334402124, -22525.708082402718, -13354.049724823204, -7210.4492438375055, -11679.524085464966, -4827.820340135138, -8734.502939522617, 0.009000000000000001, -0.020937499999999998, 0.98925, 192.0, 0.0, 0.0, 0.0, 0.0, 0.0, 0.0, 0.0, 0.0, 0.0, 1.6444974299590845E9, 0.0, 2022-02-10 23:50:29.959
212.0, -9795.741414516142, -11676.55130345241, -6045.00693619334, -13788.72409924556, -172.8236881284342, -1561.0011292697347, -2152.2941770904276, -3145.918625106648, -21137.150661605676, -16896.510648311454, -22510.866524084395, -13345.846634608108, -7211.924458971555, -11667.744716137018, -4824.62404067803, -8731.68661972125, 0.009000000000000001, -0.020937499999999998, 0.98925, 192.0, 0.0, 0.0, 0.0, 0.0, 0.0, 0.0, 0.0, 0.0, 0.0, 1.6444974299590912E9, 0.0, 2022-02-10 23:50:29.959
214.0, -9796.993112205639, -11683.480344233554, -6054.886407242586, -13791.92039870267, -186.50295573508214, -1562.699861848338, -2167.6498255312235, -3160.5143142359634, -21130.802766180368, -16895.080136666315, -22513.727547374674, -13342.292707239712, -7206.962371702478, -11659.251053244001, -4824.959316844859, -8735.173491856276, 0.0105, -0.01946875, 0.987625, 192.0, 0.0, 48.0, 127.5, 56.0, 15.0, 104.0, 0.0, 0.0, 0.0, 1.644497429959098E9, 0.0, 2022-02-10 23:50:29.959
216.0, -9784.252617866114, -11669.5552074379, -6050.930148473996, -13790.48988705753, -176.2435050300962, -1562.1187164925, -2162.7771452399666, -3143.9516715945806, -21132.009760380955, -16890.743898241984, -22517.08030904297, -13345.198434018903, -7205.7553775018905, -11652.657288629687, -4828.8708721245375, -8735.844044189937, 0.0105, -0.01946875, 0.987625, 192.0, 0.0, 0.0, 0.0, 0.0, 0.0, 0.0, 0.0, 0.0, 0.0, 1.6444974299591048E9, 0.0, 2022-02-10 23:50:29.959
218.0, -9783.31384459899, -11676.908931363694, -6054.6181863091215, -13788.098250400812, -180.75855741006822, -1559.4812106467737, -2171.1366976662516, -3149.226683286033, -21124.94660913308, -16893.426107576623, -22501.299977457522, -13338.917593826962, -7216.484214840439, -11700.914704908695, -4824.825206378127, -8734.391180800341, 0.0105, -0.01946875, 0.987625, 192.0, 0.0, 0.0, 0.0, 0.0, 0.0, 0.0, 0.0, 0.0, 0.0, 1.6444974299591115E9, 0.0, 2022-02-10 23:50:29.959
220.0, -9787.873600467874, -11674.852570873807, -6058.6638520555325, -13781.660947997683, -188.313447035962, -1559.0118240132124, -2158.306796348905, -3154.5463984663966, -21125.348940533273, -16899.72929951302, -22514.82278285298, -13344.282012496235, -7216.707732284991, -11688.464783247087, -4823.931136599915, -8733.519462766584, 0.0105, -0.01946875, 0.987625, 192.0, 0.0, 0.0, 0.0, 0.0, 0.0, 0.0, 0.0, 0.0, 0.0, 1.644497429959118E9, 0.0, 2022-02-10 23:50:29.959
222.0, -9780.497524797622, -11664.883692846739, -6055.042869453772, -13785.751317233005, -168.9568363376661, -1552.8650942880029, -2150.6177962562797, -3150.81365714236, -21126.399472522673, -16898.075270423327, -22506.21736123769, -13330.759207100775, -7211.276258382351, -11669.063469059882, -4824.6463924224845, -8732.066599376989, 0.0105, -0.01946875, 0.987625, 192.0, 0.0, 0.0, 0.0, 0.0, 0.0, 0.0, 0.0, 0.0, 0.0, 1.6444974299591248E9, 0.0, 2022-02-10 23:50:29.959
224.0, -9790.46640282469, -11673.533817950944, -6065.905817259052, -13795.250808626512, -188.5593162249704, -1568.0642805176117, -2167.2698458754835, -3134.6756976456286, -21134.446100526584, -16902.478564081022, -22521.349492233934, -13338.805835104686, -7211.6785897825475, -11656.59119565382, -4821.114816798547, -8732.960669155202, 0.009250000000000001, -0.020734375, 0.9868125, 192.0, 0.0, 32.0, 127.5, 40.0, 15.0, 104.0, 0.0, 0.0, 0.0, 1.6444974299591317E9, 0.0, 2022-02-10 23:50:29.959
226.0, -9779.804620719508, -11680.753431410007, -6060.742564289876, -13792.658006269696, -176.0423393299984, -1564.2868357046648, -2164.565284796391, -3146.7009361625837, -21125.460699255553, -16891.660319764655, -22515.001596808626, -13349.042934065215, -7207.990551947421, -11675.009033084993, -4828.245023279789, -8739.800302958525, 0.009250000000000001, -0.020734375, 0.9868125, 192.0, 0.0, 0.0, 0.0, 0.0, 0.0, 0.0, 0.0, 0.0, 0.0, 1.6444974299591382E9, 0.0, 2022-02-10 23:50:29.959
228.0, -9792.232190636658, -11672.483285961544, -6061.681337556999, -13796.502506316008, -184.29013303400674, -1564.9350362938687, -2169.1920958986398, -3147.304433262877, -21125.460699255553, -16901.360976858257, -22502.350509446922, -13336.771826359252, -7219.501700341904, -11680.775783154462, -4824.62404067803, -8741.141407625844, 0.009250000000000001, -0.020734375, 0.9868125, 192.0, 0.0, 0.0, 0.0, 0.0, 0.0, 0.0, 0.0, 0.0, 0.0, 1.6444974299591448E9, 0.0, 2022-02-10 23:50:29.959
230.0, -9799.809432007007, -11685.64846344572, -6071.449049883968, -13798.849439483814, -188.98399936962122, -1568.4889636622624, -2174.1765349121733, -3158.8826368907257, -21128.388777779197, -16908.893514739695, -22518.17554452128, -13346.651297408498, -7223.52501434386, -11671.209236527591, -4832.2906890262, -8747.377544328874, 0.009250000000000001, -0.020734375, 0.9868125, 192.0, 0.0, 0.0, 0.0, 0.0, 0.0, 0.0, 0.0, 0.0, 0.0, 1.6444974299591532E9, 0.0, 2022-02-10 23:50:29.959
232.0, -9783.112678898893, -11674.271425517969, -6067.358680648646, -13796.927189460659, -181.20559229917436, -1561.8728473034917, -2174.66827329019, -3153.6299769437287, -21133.41792028164, -16901.45038383608, -22512.006463051614, -13343.969088073862, -7225.38020913365, -11656.144160764714, -4832.402447748476, -8750.372678085885, 0.009250000000000001, -0.020734375, 0.9868125, 192.0, 0.0, 0.0, 0.0, 0.0, 0.0, 0.0, 0.0, 0.0, 0.0, 1.64449742995916E9, 0.0, 2022-02-10 23:50:29.959
234.0, -9792.209838892202, -11678.115925564281, -6076.053509241761, -13795.004939437502, -202.8197291874563, -1576.736757366271, -2194.158994455218, -3169.7679364404603, -21139.51994651794, -16901.293921624892, -22516.946198576235, -13331.16153850097, -7228.934136502045, -11680.261693031991, -4837.900976884482, -8753.25605312062, 0.008, -0.024, 0.986, 192.0, 0.0, 32.0, 127.5, 32.0, 15.0, 104.0, 0.0, 0.0, 0.0, 1.6444974299591665E9, 0.0, 2022-02-10 23:50:29.959
236.0, -9775.110754383893, -11668.59408242632, -6064.989395736385, -13790.467535313075, -190.43686275921618, -1574.2110102428212, -2177.7081105361117, -3163.598854970796, -21130.64630396918, -16906.211305405057, -22520.567181177998, -13332.614401890565, -7230.945793503022, -11671.544512694421, -4842.572491475641, -8755.133599654866, 0.008, -0.024, 0.986, 192.0, 0.0, 0.0, 0.0, 0.0, 0.0, 0.0, 0.0, 0.0, 0.0, 1.6444974299591732E9, 0.0, 2022-02-10 23:50:29.959
238.0, -9781.212780620192, -11668.057640559393, -6065.168209692027, -13799.899971473214, -193.49905174959324, -1580.6930161348603, -2180.636189059757, -3173.8359539313265, -21121.37033002023, -16895.236598877502, -22500.115335001392, -13329.283991966724, -7232.644526081625, -11692.666911204686, -4836.783389661717, -8754.530102554572, 0.008, -0.024, 0.986, 192.0, 0.0, 0.0, 0.0, 0.0, 0.0, 0.0, 0.0, 0.0, 0.0, 1.6444974299591808E9, 0.0, 2022-02-10 23:50:29.959
240.0, -9796.4119668498, -11683.256826789002, -6069.795020794275, -13795.742547004527, -199.33285705242838, -1582.0341208021787, -2182.8490117608326, -3174.461802776075, -21128.79110917939, -16908.40177636168, -22514.733375875163, -13341.711561883874, -7231.504587114405, -11652.322012462857, -4840.404372263476, -8757.458181078218, 0.008, -0.024, 0.986, 192.0, 0.0, 0.0, 0.0, 0.0, 0.0, 0.0, 0.0, 0.0, 0.0, 1.6444974304379203E9, 0.0, 2022-02-10 23:50:30.437
242.0, -9786.912475456294, -11677.288911019436, -6058.887369500086, -13794.736718504038, -190.7944906705011, -1577.049681788645, -2182.089052449352, -3161.5424944809074, -21130.154565591165, -16903.19381990359, -22502.819896080484, -13330.200413489392, -7231.124607458664, -11681.848666888318, -4834.771732660739, -8746.215253617198, 0.008, -0.024, 0.986, 192.0, 0.0, 0.0, 0.0, 0.0, 0.0, 0.0, 0.0, 0.0, 0.0, 1.6444974304380977E9, 0.0, 2022-02-10 23:50:30.438
244.0, -9800.837612251951, -11671.678623161153, -6067.179866693004, -13803.319788374876, -205.4348832887272, -1587.2197255158098, -2195.701264822634, -3180.1838493566333, -21139.89992617368, -16909.63112230672, -22514.2639892416, -13341.823320606152, -7232.555119103804, -11692.666911204686, -4839.532654229719, -8754.440695576752, 0.004, -0.022, 0.986, 192.0, 0.0, 16.0, 127.5, 40.0, 15.0, 104.0, 0.0, 0.0, 0.0, 1.644497430438105E9, 0.0, 2022-02-10 23:50:30.438
246.0, -9781.011614920095, -11665.196617269114, -6056.473381098912, -13799.654102284207, -194.54958373899268, -1577.697882377849, -2184.503040850525, -3175.713500465572, -21132.233277825508, -16906.211305405057, -22521.349492233934, -13350.227576521347, -7227.213052178986, -11681.088707576837, -4845.589976977108, -8754.284233365564, 0.004, -0.022, 0.986, 192.0, 0.0, 0.0, 0.0, 0.0, 0.0, 0.0, 0.0, 0.0, 0.0, 1.6444974304381125E9, 0.0, 2022-02-10 23:50:30.438
248.0, -9769.16519035878, -11653.93133806364, -6053.657061297544, -13801.68811102964, -192.13559533781952, -1581.8776585909914, -2201.4903666365585, -3177.7251574665497, -21123.583152721305, -16896.555351800365, -22498.327195444966, -13328.993419288805, -7222.250964909907, -11678.205332542102, -4841.119628086046, -8755.759448499615, 0.004, -0.022, 0.986, 192.0, 0.0, 0.0, 0.0, 0.0, 0.0, 0.0, 0.0, 0.0, 0.0, 1.6444974304381194E9, 0.0, 2022-02-10 23:50:30.438
250.0, -9781.436298064746, -11654.154855508192, -6060.362584634136, -13796.413099338186, -199.7575401970792, -1577.921399822402, -2199.478709635581, -3181.3237883238544, -21121.90677188716, -16891.995595931483, -22513.749899119128, -13343.432646206933, -7218.80879626379, -11675.545474951921, -4850.060325868169, -8753.814846732002, 0.004, -0.022, 0.986, 192.0, 0.0, 0.0, 0.0, 0.0, 0.0, 0.0, 0.0, 0.0, 0.0, 1.644497430438126E9, 0.0, 2022-02-10 23:50:30.438
252.0, -9759.956271643196, -11664.704878891096, -6054.349965375658, -13786.667738755672, -182.85962138886708, -1568.5336671511732, -2176.6575785467126, -3173.00893938648, -21115.31300727284, -16889.268683107937, -22494.08036399846, -13330.848614078595, -7216.081883440243, -11663.833160857339, -4841.656069952974, -8743.82361696048, 0.004, -0.022, 0.986, 192.0, 0.0, 0.0, 0.0, 0.0, 0.0, 0.0, 0.0, 0.0, 0.0, 1.6444974304381351E9, 0.0, 2022-02-10 23:50:30.438
254.0, -9773.970815416673, -11656.278271231446, -6067.135163204094, -13787.226532367056, -196.96357214016584, -1580.6483126459495, -2173.5059825785142, -3168.560942239874, -21112.072004326823, -16891.995595931483, -22498.103678000414, -13320.96914302935, -7214.360799117184, -11670.561035938386, -4838.772694918239, -8741.119055881389, 0.006, -0.018000000000000002, 0.99, 192.0, 0.0, 24.0, 127.5, 56.0, 15.0, 120.0, 0.0, 0.0, 0.0, 1.644497430438142E9, 0.0, 2022-02-10 23:50:30.438
0.0, -9771.847399693419, -11647.02464902695, -6055.53460783179, -13789.01467192348, -186.9946941130989, -1565.0691467606005, -2176.7916890134443, -3160.335500280321, -21117.257609040455, -16880.976185915017, -22510.97828280667, -13341.599803161598, -7222.653296310103, -11672.103306305804, -4843.086581598113, -8738.638012246849, 0.006, -0.018000000000000002, 0.99, 192.0, 0.0, 0.0, 0.0, 0.0, 0.0, 0.0, 0.0, 0.0, 0.0, 1.6444974304381487E9, 0.0, 2022-02-10 23:50:30.438
2.0, -9773.032042149549, -11657.351154965301, -6048.382049606091, -13790.802811479905, -192.53792673801505, -1565.829106072081, -2189.4427763751482, -3167.6892242061167, -21115.156545061654, -16896.354186100267, -22488.514779629088, -13318.376340672534, -7214.003171205899, -11650.958556051082, -4838.035087351213, -8736.693410479238, 0.006, -0.018000000000000002, 0.99, 192.0, 0.0, 0.0, 0.0, 0.0, 0.0, 0.0, 0.0, 0.0, 0.0, 1.6444974304381557E9, 0.0, 2022-02-10 23:50:30.438
4.0, -9766.281815324046, -11644.96828853706, -6047.91266297253, -13785.416041066175, -185.63123770132515, -1572.2664084752093, -2162.4418690731372, -3174.2159335870665, -21109.680367670106, -16892.599093031775, -22500.62942512386, -13320.812680818162, -7210.80687174879, -11672.505637706, -4839.867930396549, -8738.794474458036, 0.006, -0.018000000000000002, 0.99, 192.0, 0.0, 0.0, 0.0, 0.0, 0.0, 0.0, 0.0, 0.0, 0.0, 1.6444974304381628E9, 0.0, 2022-02-10 23:50:30.438
6.0, -9749.048620349005, -11632.831291297829, -6034.211043621426, -13780.722174730561, -168.44274621519403, -1562.409289170419, -2164.2970638629276, -3164.202352071089, -21101.186704777087, -16876.818761446328, -22486.92780577276, -13312.87781153653, -7202.492022811416, -11684.620283200775, -4835.039953594202, -8734.97232615618, 0.006, -0.018000000000000002, 0.99, 192.0, 0.0, 0.0, 0.0, 0.0, 0.0, 0.0, 0.0, 0.0, 0.0, 1.6444974304381783E9, 0.0, 2022-02-10 23:50:30.438
8.0, -9765.432449034744, -11664.324899235356, -6042.48118906989, -13790.06520391288, -180.02094984304307, -1577.8766963334915, -2175.9423227241427, -3169.656177718184, -21105.61235017924, -16885.647700506175, -22485.363183660887, -13329.708675111375, -7205.040121679321, -11660.21217825558, -4833.341221015599, -8729.652610975816, 0.004, -0.02, 0.988, 192.0, 0.0, 16.0, 127.5, 48.0, 15.0, 112.0, 0.0, 0.0, 0.0, 1.6444974304381852E9, 0.0, 2022-02-10 23:50:30.438
10.0, -9761.140914099326, -11660.905082333695, -6032.691124998466, -13792.859171969792, -169.38151948231692, -1575.663873632416, -2170.8684767327877, -3172.047814374902, -21104.762983889937, -16896.734165756006, -22494.907378543303, -13331.385055945524, -7204.123700156653, -11655.630070642243, -4838.124494329035, -8733.742980211136, 0.004, -0.02, 0.988, 192.0, 0.0, 0.0, 0.0, 0.0, 0.0, 0.0, 0.0, 0.0, 0.0, 1.644497430438192E9, 0.0, 2022-02-10 23:50:30.438
12.0, -9751.574367472454, -11651.763218851474, -6033.316973843214, -13796.703672016105, -171.95197009467722, -1579.7989463566478, -2184.413633872704, -3182.150802868701, -21107.08756531329, -16892.95672094306, -22482.390401648332, -13322.73493084132, -7206.761206002379, -11677.087745319337, -4832.424799492932, -8737.118093623889, 0.004, -0.02, 0.988, 192.0, 0.0, 0.0, 0.0, 0.0, 0.0, 0.0, 0.0, 0.0, 0.0, 1.6444974304381988E9, 0.0, 2022-02-10 23:50:30.438
14.0, -9770.819219448475, -11663.967271324072, -6044.604604793144, -13793.619131281273, -190.77213892604578, -1586.9068010934354, -2183.743081539045, -3165.6999189495946, -21110.0826990703, -16906.30071238288, -22495.287358199046, -13330.02159953375, -7206.917668213567, -11689.112983836292, -4838.191549562401, -8742.013125659601, 0.004, -0.02, 0.988, 192.0, 0.0, 0.0, 0.0, 0.0, 0.0, 0.0, 0.0, 0.0, 0.0, 1.6444974304382057E9, 0.0, 2022-02-10 23:50:30.438
16.0, -9760.760934443586, -11656.546492164909, -6041.542415802767, -13788.880561456748, -178.29986551998445, -1571.1711729968993, -2166.6663487751903, -3159.329671779832, -21114.933027617102, -16892.062651164848, -22489.677070340764, -13325.417140175956, -7214.494909583916, -11680.798134898918, -4836.023430350236, -8734.748808711625, 0.004, -0.02, 0.988, 192.0, 0.0, 0.0, 0.0, 0.0, 0.0, 0.0, 0.0, 0.0, 0.0, 1.6444974304382124E9, 0.0, 2022-02-10 23:50:30.438
18.0, -9782.196257376225, -11655.808884597885, -6056.562788076733, -13794.49084931503, -199.80224368598982, -1573.0040160422345, -2188.86163101931, -3165.297587549399, -21115.245952039477, -16899.796354746384, -22491.331099430456, -13327.942887299407, -7217.020656707366, -11675.053736573904, -4839.063267596158, -8734.882919178357, 0.006, -0.022, 0.992, 192.0, 0.0, 24.0, 127.5, 40.0, 15.5, 0.0, 0.0, 0.0, 0.0, 1.6444974304382193E9, 0.0, 2022-02-10 23:50:30.438
20.0, -9766.550036257511, -11645.035343770427, -6046.012764693829, -13796.167230149178, -185.8324034014229, -1568.5560188956285, -2176.0987849353296, -3164.8282009158374, -21114.88832412819, -16897.158848900657, -22503.445744925233, -13347.344201486612, -7220.395770120117, -11660.033364299938, -4839.711468185362, -8735.86639593439, 0.006, -0.022, 0.992, 192.0, 0.0, 0.0, 0.0, 0.0, 0.0, 0.0, 0.0, 0.0, 0.0, 1.644497430438226E9, 0.0, 2022-02-10 23:50:30.438
22.0, -9770.439239792733, -11665.420134713666, -6044.716363515421, -13799.654102284207, -189.67690344773573, -1583.1964115138546, -2173.1930581561396, -3178.6639307336727, -21112.94372236058, -16881.57968301531, -22485.989032505637, -13327.182927987926, -7217.981781718944, -11660.413343955677, -4833.654145437974, -8737.319259323986, 0.006, -0.022, 0.992, 192.0, 0.0, 0.0, 0.0, 0.0, 0.0, 0.0, 0.0, 0.0, 0.0, 1.6444974304382327E9, 0.0, 2022-02-10 23:50:30.438
24.0, -9763.152571100303, -11661.93326257864, -6051.131314174094, -13793.753241748005, -188.9392958807106, -1582.4811556912848, -2180.3009128929275, -3181.904933679692, -21111.669672926626, -16908.424128106133, -22508.74310836114, -13334.424893191444, -7218.920554986067, -11678.987643598039, -4839.57735771863, -8744.44946580523, 0.006, -0.022, 0.992, 192.0, 0.0, 0.0, 0.0, 0.0, 0.0, 0.0, 0.0, 0.0, 0.0, 1.644497430438239E9, 0.0, 2022-02-10 23:50:30.438
26.0, -9752.446085506212, -11647.516387404965, -6045.163398404527, -13790.44518356862, -177.04816783048724, -1566.5443618946508, -2170.734366266056, -3170.8631719187706, -21097.74453613097, -16897.158848900657, -22484.60322434941, -13329.149881499992, -7203.497851311905, -11681.669852932675, -4836.090485583602, -8737.140445368344, 0.006, -0.022, 0.992, 192.0, 0.0, 0.0, 0.0, 0.0, 0.0, 0.0, 0.0, 0.0, 0.0, 1.644497430438246E9, 0.0, 2022-02-10 23:50:30.438
28.0, -9775.423678806268, -11656.948823565106, -6054.528779331301, -13790.199314379612, -187.97817086913238, -1577.6308271444832, -2186.648808318235, -3182.7319482245384, -21111.200286293064, -16896.801220989375, -22487.039564495037, -13320.186831973415, -7210.605706048693, -11672.3044720059, -4833.542386715697, -8735.329954067463, 0.008, -0.022, 0.992, 192.0, 0.0, 32.0, 127.5, 40.0, 15.5, 0.0, 0.0, 0.0, 0.0, 1.6444974304382527E9, 0.0, 2022-02-10 23:50:30.438
30.0, -9772.607359004898, -11644.655364114686, -6055.065221198228, -13793.686186514638, -171.571990438937, -1570.2100479853211, -2165.057023174408, -3168.516238750963, -21114.88832412819, -16894.878970966216, -22504.898608314827, -13335.274259480746, -7214.003171205899, -11673.667928417675, -4839.57735771863, -8738.101570379922, 0.008, -0.022, 0.992, 192.0, 0.0, 0.0, 0.0, 0.0, 0.0, 0.0, 0.0, 0.0, 0.0, 1.64449743043826E9, 0.0, 2022-02-10 23:50:30.438
32.0, -9759.464533265178, -11641.861396057773, -6052.114790930127, -13794.78142199295, -181.0267783435319, -1572.020539286201, -2167.5827702978577, -3162.1459915812006, -21113.256646782953, -16885.088906894794, -22492.493390142132, -13321.326770940635, -7215.165461917575, -11671.812733627885, -4834.48115998282, -8736.335782567952, 0.008, -0.022, 0.992, 192.0, 0.0, 0.0, 0.0, 0.0, 0.0, 0.0, 0.0, 0.0, 0.0, 1.6444974304382668E9, 0.0, 2022-02-10 23:50:30.438
34.0, -9762.929053655751, -11645.191805981614, -6053.746468275365, -13787.91943644517, -181.92084812174417, -1579.21780100081, -2179.6974157926343, -3170.2820265629325, -21109.725071159017, -16884.016023160937, -22503.26693096959, -13322.690227352408, -7212.416197349572, -11689.180039069657, -4835.777561161228, -8739.599137258427, 0.008, -0.022, 0.992, 192.0, 0.0, 0.0, 0.0, 0.0, 0.0, 0.0, 0.0, 0.0, 0.0, 1.6444974304382737E9, 0.0, 2022-02-10 23:50:30.438
36.0, -9732.709495152176, -11625.946954005594, -6033.361677332125, -13781.280968341944, -169.53798169350407, -1563.8398008155586, -2158.373851582271, -3158.9049886351813, -21094.03414655139, -16875.76822945693, -22479.08234346895, -13309.212125445858, -7201.307380355285, -11662.983794568037, -4827.373305246032, -8732.714799966192, 0.008, -0.022, 0.992, 192.0, 0.0, 0.0, 0.0, 0.0, 0.0, 0.0, 0.0, 0.0, 0.0, 1.6444974304382803E9, 0.0, 2022-02-10 23:50:30.438
38.0, -9763.040812378027, -11645.102399003792, -6044.492846070868, -13784.365509076777, -175.7070631631688, -1571.6182078860054, -2171.7848982554556, -3176.272294076955, -21088.893245326668, -16855.15992106914, -22474.522587600066, -13310.10619522407, -7209.063435681276, -11658.4016869547, -4822.232404021312, -8727.14921559682, 0.006, -0.022, 0.988, 192.0, 0.0, 24.0, 127.5, 40.0, 15.0, 112.0, 0.0, 0.0, 0.0, 1.644497430438289E9, 0.0, 2022-02-10 23:50:30.438
40.0, -9766.259463579592, -11646.219986226557, -6044.738715259876, -13783.829067209848, -174.25419977357387, -1561.4258124143855, -2175.8529157463213, -3166.750450938994, -21100.538504187884, -16883.05489814936, -22489.16298021829, -13335.475425180844, -7205.4648048239715, -11631.713704075064, -4829.541424458197, -8728.624430730872, 0.006, -0.022, 0.988, 192.0, 0.0, 0.0, 0.0, 0.0, 0.0, 0.0, 0.0, 0.0, 0.0, 1.6444974304382956E9, 0.0, 2022-02-10 23:50:30.438
42.0, -9763.353736800402, -11653.037268285427, -6041.363601847124, -13779.001090407502, -180.6915021767023, -1564.376242682486, -2171.8072499999107, -3163.4647445040637, -21104.472411212017, -16886.988805173492, -22479.73054405815, -13310.73204406882, -7208.795214747813, -11655.808884597885, -4823.081770310613, -8719.571974226472, 0.006, -0.022, 0.988, 192.0, 0.0, 0.0, 0.0, 0.0, 0.0, 0.0, 0.0, 0.0, 0.0, 1.6444974304383025E9, 0.0, 2022-02-10 23:50:30.438
44.0, -9765.566559501476, -11631.244317441502, -6040.134255902083, -13783.672604998661, -182.2784760330291, -1563.21395197081, -2171.7848982554556, -3169.790288184916, -21100.44909721006, -16884.70892723905, -22491.085230241446, -13310.039139990706, -7210.136319415131, -11662.313242234379, -4824.959316844859, -8725.338724295942, 0.006, -0.022, 0.988, 192.0, 0.0, 0.0, 0.0, 0.0, 0.0, 0.0, 0.0, 0.0, 0.0, 1.6444974304383092E9, 0.0, 2022-02-10 23:50:30.438
46.0, -9746.478169736645, -11627.869204028751, -6026.410284806524, -13782.465610798075, -163.81593511294545, -1552.5298181211733, -2156.0716219033748, -3163.934131137625, -21094.637643651684, -16871.119066610227, -22474.79080853353, -13305.5911428441, -7198.848688465201, -11652.567881651865, -4816.2868399962, -8724.690523706737, 0.008, -0.022, 0.989, 192.0, 0.0, 40.0, 127.5, 40.0, 15.0, 120.0, 0.0, 0.0, 0.0, 1.644497430438316E9, 0.0, 2022-02-10 23:50:30.438
48.0, -9759.039850120527, -11640.095608245803, -6031.417075564513, -13780.521009030463, -174.94710385168838, -1569.763013096215, -2173.707148278612, -3171.176096341145, -21090.74844011646, -16874.784752700896, -22474.388477133332, -13297.34334914009, -7193.148993629097, -11655.11598051977, -4815.705694640362, -8732.759503455103, 0.008, -0.022, 0.989, 192.0, 0.0, 0.0, 0.0, 0.0, 0.0, 0.0, 0.0, 0.0, 0.0, 1.644497430438323E9, 0.0, 2022-02-10 23:50:30.438
50.0, -9757.162303586281, -11647.225814727046, -6020.196499847949, -13773.279043826944, -165.8722956028337, -1556.866056545503, -2166.174610397173, -3165.856381160782, -21095.039975051877, -16878.24927309147, -22482.72567781516, -13311.581410358122, -7195.115947141165, -11677.825352886362, -4821.405389476466, -8732.938317410746, 0.008, -0.022, 0.989, 192.0, 0.0, 0.0, 0.0, 0.0, 0.0, 0.0, 0.0, 0.0, 0.0, 1.6444974304383304E9, 0.0, 2022-02-10 23:50:30.438
52.0, -9763.241978078126, -11662.35794572329, -6019.235374836371, -13776.29652932841, -176.15409805227497, -1553.9156262774022, -2175.9423227241427, -3157.3850700122202, -21098.191571020077, -16875.589415501287, -22469.851073008904, -13297.700977051376, -7203.341389100718, -11657.39585845421, -4815.281011495711, -8726.165738840788, 0.008, -0.022, 0.989, 192.0, 0.0, 0.0, 0.0, 0.0, 0.0, 0.0, 0.0, 0.0, 0.0, 1.644497430438337E9, 0.0, 2022-02-10 23:50:30.438
54.0, -9780.98926317564, -11663.07320154586, -6026.946726673452, -13778.755221218495, -181.94319986619948, -1559.637672857961, -2181.9102384937096, -3168.0915556063123, -21106.104088557255, -16886.96645342904, -22489.78882906304, -13311.961390013861, -7207.409406591583, -11655.942995064617, -4822.455921465865, -8728.959706897702, 0.008, -0.022, 0.989, 192.0, 0.0, 0.0, 0.0, 0.0, 0.0, 0.0, 0.0, 0.0, 0.0, 1.644497430438344E9, 0.0, 2022-02-10 23:50:30.438
56.0, -9776.004824162106, -11670.941015594128, -6017.626049235589, -13776.63180549524, -170.2532375160739, -1549.087649475056, -2166.532238308458, -3155.52987522243, -21109.210981036544, -16885.62534876172, -22483.664451082284, -13303.981817243317, -7208.839918236723, -11650.936204306628, -4818.767883630739, -8725.003448129111, 0.007, -0.020999999999999998, 0.9895, 192.0, 0.0, 24.0, 127.5, 48.0, 15.0, 120.0, 0.0, 0.0, 0.0, 1.644497430438351E9, 0.0, 2022-02-10 23:50:30.438
58.0, -9799.921190729285, -11696.332597295357, -6022.454026037935, -13783.024404409458, -175.48354571861574, -1559.3247484355866, -2159.0667556603858, -3153.4511629880863, -21116.31883577333, -16895.6389302777, -22490.504084885608, -13308.854497534574, -7207.275296124852, -11647.896367060706, -4810.922421326926, -8723.707046950703, 0.007, -0.020999999999999998, 0.9895, 192.0, 0.0, 0.0, 0.0, 0.0, 0.0, 0.0, 0.0, 0.0, 0.0, 1.6444974304383574E9, 0.0, 2022-02-10 23:50:30.438
60.0, -9814.09219671395, -11711.196507358136, -6019.034209136273, -13781.415078808675, -162.87716184582257, -1546.83012328507, -2143.576996752858, -3157.116849078757, -21113.904847372156, -16898.90228496817, -22501.903474557814, -13325.372436687047, -7189.952694171989, -11640.117959990259, -4813.135244028002, -8725.338724295942, 0.007, -0.020999999999999998, 0.9895, 192.0, 0.0, 0.0, 0.0, 0.0, 0.0, 0.0, 0.0, 0.0, 0.0, 1.644497430438364E9, 0.0, 2022-02-10 23:50:30.438
62.0, -9852.71601113272, -11758.917481770217, -6022.364619060114, -13786.801849222406, -171.77315613903477, -1555.413193155908, -2161.212523128095, -3167.845686417304, -21137.91062091716, -16903.149116414683, -22504.11629725889, -13321.483233151823, -7214.964296217478, -11646.287041459924, -4809.849537593072, -8727.551546997018, 0.007, -0.020999999999999998, 0.9895, 192.0, 0.0, 0.0, 0.0, 0.0, 0.0, 0.0, 0.0, 0.0, 0.0, 1.6444974304383707E9, 0.0, 2022-02-10 23:50:30.438
64.0, -9901.487517534199, -11798.077738055914, -6035.038058166273, -13792.121564402767, -181.3844062548168, -1558.6094926130168, -2169.6838342766564, -3164.6940904491057, -21151.142853634698, -16931.40172140619, -22530.781928394073, -13349.44526546541, -7211.991514204921, -11649.751561850497, -4818.745531886284, -8737.743942468636, 0.007, -0.020999999999999998, 0.9895, 192.0, 0.0, 0.0, 0.0, 0.0, 0.0, 0.0, 0.0, 0.0, 0.0, 1.6444974304383776E9, 0.0, 2022-02-10 23:50:30.438
66.0, -9939.239613919213, -11818.797805165983, -6032.981697676385, -13794.44614582612, -172.10843230586437, -1544.7514110507263, -2173.8859622342543, -3161.3860322697205, -21175.595662068805, -16938.263706953967, -22541.242544799155, -13356.374306246556, -7214.629020050647, -11630.864337785762, -4818.946697586382, -8733.54181451104, 0.0085, -0.0215, 0.99075, 192.0, 0.0, 40.0, 127.5, 40.0, 15.5, 0.0, 0.0, 0.0, 0.0, 1.6444974304383845E9, 0.0, 2022-02-10 23:50:30.438
68.0, -9976.4552684373, -11868.932767979237, -6045.163398404527, -13798.715329017083, -187.91111563576646, -1555.92728327838, -2174.087127934352, -3173.9030091646923, -21196.71806057907, -16943.225794223046, -22559.3251060635, -13378.390774535033, -7229.358819646695, -11685.402594256711, -4822.277107510222, -8737.96745991319, 0.0085, -0.0215, 0.99075, 192.0, 0.0, 0.0, 0.0, 0.0, 0.0, 0.0, 0.0, 0.0, 0.0, 1.6444974304383914E9, 0.0, 2022-02-10 23:50:30.438
70.0, -9983.54077142963, -11875.861808760383, -6044.179921648493, -13788.098250400812, -180.6915021767023, -1556.6872425898605, -2166.800459241922, -3165.7669741829604, -21195.91339777868, -16942.532890144932, -22571.08212364699, -13361.69402142692, -7219.099368941709, -11683.457992489099, -4826.300421512177, -8735.39700930083, 0.0085, -0.0215, 0.99075, 192.0, 0.0, 0.0, 0.0, 0.0, 0.0, 0.0, 0.0, 0.0, 0.0, 1.6444974304384003E9, 0.0, 2022-02-10 23:50:30.438
72.0, -9985.887704597439, -11889.094041477925, -6042.570596047712, -13794.982587693046, -183.6195807003475, -1554.6755855888828, -2174.9141424791983, -3167.465706761564, -21198.796772813414, -16943.896346556707, -22563.19195785427, -13358.721239414364, -7224.866119011179, -11668.571730681864, -4817.180909774413, -8731.708971465703, 0.0085, -0.0215, 0.99075, 192.0, 0.0, 0.0, 0.0, 0.0, 0.0, 0.0, 0.0, 0.0, 0.0, 1.6444974304384067E9, 0.0, 2022-02-10 23:50:30.438
74.0, -9981.663224895385, -11890.30103567851, -6053.165322919527, -13792.412137080686, -198.48349076312672, -1547.2548064297207, -2178.5574768254137, -3166.6610439611727, -21205.591703127826, -16951.630050138243, -22578.458199317243, -13369.226559308358, -7230.118778958175, -11666.045983558415, -4822.210052276856, -8733.452407533217, 0.0085, -0.0215, 0.99075, 192.0, 0.0, 0.0, 0.0, 0.0, 0.0, 0.0, 0.0, 0.0, 0.0, 1.6444974304384143E9, 0.0, 2022-02-10 23:50:30.438
76.0, -9962.932463041838, -11871.033831958037, -6040.380125091091, -13789.618169023774, -181.27264753254028, -1540.5492830931287, -2147.7567729660004, -3147.751468151983, -21197.232150701544, -16942.152910489192, -22574.881920204392, -13366.320832529169, -7226.855424267701, -11653.774875852452, -4820.645430164985, -8727.998581886122, 0.00825, -0.020749999999999998, 0.989375, 192.0, 0.0, 32.0, 127.5, 48.0, 15.0, 112.0, 0.0, 0.0, 0.0, 1.6444974304384212E9, 0.0, 2022-02-10 23:50:30.438
78.0, -9971.873160823961, -11860.595567297409, -6037.206177378438, -13785.594855021818, -189.18516506971898, -1552.798039054637, -2165.6828720191565, -3159.9331688801253, -21192.426525643652, -16947.606736136288, -22555.92764090629, -13362.811608649685, -7225.246098666918, -11653.841931085817, -4818.946697586382, -8730.479625520662, 0.00825, -0.020749999999999998, 0.989375, 192.0, 0.0, 0.0, 0.0, 0.0, 0.0, 0.0, 0.0, 0.0, 0.0, 1.6444974304384277E9, 0.0, 2022-02-10 23:50:30.438
80.0, -9929.181328914325, -11814.841546397394, -6022.610488249122, -13780.766878219472, -177.02581608603194, -1540.124599948478, -2154.506999791503, -3139.2578052589665, -21171.9970312115, -16940.722398844053, -22553.066617616012, -13357.603652191598, -7215.254868895397, -11650.422114184155, -4817.560889430152, -8728.691485964238, 0.00825, -0.020749999999999998, 0.989375, 192.0, 0.0, 0.0, 0.0, 0.0, 0.0, 0.0, 0.0, 0.0, 0.0, 1.6444974304384344E9, 0.0, 2022-02-10 23:50:30.438
82.0, -9901.62162800093, -11794.300293242966, -6015.435578278969, -13784.276102098955, -172.01902532804314, -1545.6454808289386, -2158.2620928599945, -3140.978889582025, -21154.0932839028, -16924.718549814053, -22528.189126037258, -13346.114855541571, -7208.191717647519, -11660.748620122507, -4805.200374746368, -8723.751750439615, 0.00825, -0.020749999999999998, 0.989375, 192.0, 0.0, 0.0, 0.0, 0.0, 0.0, 0.0, 0.0, 0.0, 0.0, 1.6444974304384413E9, 0.0, 2022-02-10 23:50:30.438
84.0, -9895.05021513107, -11792.310987986444, -6022.252860337837, -13786.82420096686, -183.19489755569668, -1553.2003704548324, -2168.2533226315168, -3151.2830437759217, -21152.819234468847, -16922.930410257628, -22537.152175563835, -13347.187739275425, -7202.514374555872, -11655.898291575706, -4812.889374838994, -8730.144349353832, 0.00825, -0.020749999999999998, 0.989375, 192.0, 0.0, 0.0, 0.0, 0.0, 0.0, 0.0, 0.0, 0.0, 0.0, 1.6444974304384487E9, 0.0, 2022-02-10 23:50:30.438
86.0, -9861.299081003557, -11777.245912223569, -6011.345209043648, -13793.932055703648, -165.93935083619962, -1535.564844079595, -2146.952110165609, -3136.4861889465083, -21142.85035644178, -16915.889610754206, -22526.98213183667, -13342.717390384363, -7213.802005505801, -11620.58253533632, -4810.073055037625, -8727.752712697114, 0.009125000000000001, -0.021374999999999998, 0.9876875, 192.0, 0.0, 40.0, 127.5, 40.0, 15.0, 104.0, 0.0, 0.0, 0.0, 1.644497430438455E9, 0.0, 2022-02-10 23:50:30.438
88.0, -9858.080429801992, -11763.23136845009, -6018.207194591427, -13792.166267891678, -177.38344399731685, -1541.599815082528, -2153.143543379729, -3148.310261763366, -21135.80955693836, -16910.63695080721, -22514.88983808635, -13342.963259573373, -7209.197546148008, -11638.598041367299, -4805.960334057848, -8727.931526652757, 0.009125000000000001, -0.021374999999999998, 0.9876875, 192.0, 0.0, 0.0, 0.0, 0.0, 0.0, 0.0, 0.0, 0.0, 0.0, 1.644497430438462E9, 0.0, 2022-02-10 23:50:30.438
90.0, -9848.893862830862, -11754.715353812619, -6019.704761469932, -13789.215837623578, -175.6400079298029, -1539.4316958703632, -2146.5050752765032, -3142.945843094092, -21135.764853449447, -16914.883782253717, -22525.283399258067, -13346.584242175131, -7215.3219241287625, -11655.630070642243, -4813.448168450376, -8730.591384242938, 0.009125000000000001, -0.021374999999999998, 0.9876875, 192.0, 0.0, 0.0, 0.0, 0.0, 0.0, 0.0, 0.0, 0.0, 0.0, 1.6444974304384687E9, 0.0, 2022-02-10 23:50:30.438
92.0, -9840.221385982202, -11735.314039625411, -6017.626049235589, -13794.513201059486, -173.87422011783363, -1553.6921088328493, -2156.451601559115, -3154.5463984663966, -21132.1885743366, -16904.937255971105, -22514.152230519325, -13344.505529940789, -7214.025522950355, -11646.82348332685, -4811.302400982667, -8727.819767930481, 0.009125000000000001, -0.021374999999999998, 0.9876875, 192.0, 0.0, 0.0, 0.0, 0.0, 0.0, 0.0, 0.0, 0.0, 0.0, 1.6444974304384754E9, 0.0, 2022-02-10 23:50:30.438
94.0, -9834.18641497927, -11726.105120909826, -6023.817482449709, -13787.047718411413, -193.32023779395078, -1560.9117222919135, -2171.360215110805, -3167.4433550171084, -21131.495670258486, -16903.39498560369, -22528.502050459632, -13346.092503797116, -7221.200432920508, -11676.573655196866, -4822.679438910418, -8736.022858145578, 0.009125000000000001, -0.021374999999999998, 0.9876875, 192.0, 0.0, 0.0, 0.0, 0.0, 0.0, 0.0, 0.0, 0.0, 0.0, 1.644497430438482E9, 0.0, 2022-02-10 23:50:30.438
96.0, -9805.41971986529, -11732.676533779686, -6013.781549189276, -13783.024404409458, -172.95779859516605, -1546.628957584972, -2164.0511946739193, -3156.2227793005445, -21124.834850410803, -16903.86437223725, -22504.272759470077, -13324.143090742004, -7210.404540348594, -11654.64659388621, -4816.219784762834, -8729.831424931459, 0.0115625, -0.0236875, 0.98984375, 192.0, 0.0, 56.0, 127.5, 24.0, 15.5, 0.0, 0.0, 0.0, 0.0, 1.6444974304384887E9, 0.0, 2022-02-10 23:50:30.438
98.0, -9807.230211166168, -11714.45986204861, -6018.453063780435, -13785.3042823439, -185.36301676786147, -1557.3577949235196, -2168.1639156536958, -3155.1945990556, -21120.163335819645, -16899.841058235295, -22496.941387288738, -13318.82337556164, -7217.020656707366, -11660.905082333695, -4816.2868399962, -8731.463102276695, 0.0115625, -0.0236875, 0.98984375, 192.0, 0.0, 0.0, 0.0, 0.0, 0.0, 0.0, 0.0, 0.0, 0.0, 1.644497430438496E9, 0.0, 2022-02-10 23:50:30.438
100.0, -9791.829859236463, -11690.588198970343, -6013.245107322348, -13779.984567163536, -176.0199875855431, -1544.3937831394414, -2161.994834184031, -3147.952633852081, -21112.31787351583, -16896.15302040017, -22504.675090870274, -13324.29955295319, -7211.723293271458, -11656.144160764714, -4818.745531886284, -8728.06563711949, 0.0115625, -0.0236875, 0.98984375, 192.0, 0.0, 0.0, 0.0, 0.0, 0.0, 0.0, 0.0, 0.0, 0.0, 1.6444974304385028E9, 0.0, 2022-02-10 23:50:30.438
102.0, -9778.016481163082, -11672.617396428275, -6010.697008454444, -13783.784363720939, -167.99571132608787, -1542.4938848607403, -2157.5244852929695, -3143.8622646167596, -21103.444230967074, -16879.21039810305, -22482.502160370608, -13313.168384214448, -7198.893391954111, -11647.494035660511, -4808.240211992289, -8723.483529506151, 0.0115625, -0.0236875, 0.98984375, 192.0, 0.0, 0.0, 0.0, 0.0, 0.0, 0.0, 0.0, 0.0, 0.0, 1.6444974304385116E9, 0.0, 2022-02-10 23:50:30.438
104.0, -9783.000920176617, -11666.247149258514, -6023.549261516245, -13787.651215511707, -186.3911970128056, -1547.4559721298185, -2162.28540686195, -3153.808790899371, -21104.13713504519, -16881.266758592934, -22497.902512300316, -13337.934117070929, -7200.681531510536, -11630.149081963193, -4818.47731095282, -8729.697314464727, 0.0115625, -0.0236875, 0.98984375, 192.0, 0.0, 0.0, 0.0, 0.0, 0.0, 0.0, 0.0, 0.0, 0.0, 1.6444974309184036E9, 0.0, 2022-02-10 23:50:30.918
106.0, -9765.745373457119, -11662.73792537903, -6014.42974977848, -13777.01178515098, -177.94223760869951, -1535.2966231461314, -2154.775220724967, -3140.2189302705447, -21108.540428702883, -16876.930520168607, -22491.889893041836, -13319.203355217382, -7209.398711848106, -11649.59509963931, -4822.500624954775, -8722.611811472394, 0.01078125, -0.02484375, 0.988921875, 192.0, 0.0, 40.0, 127.5, 24.0, 15.0, 112.0, 0.0, 0.0, 0.0, 1.6444974309185421E9, 0.0, 2022-02-10 23:50:30.918
108.0, -9775.826010206463, -11663.140256779225, -6020.889403926063, -13780.096325885812, -184.8489266453894, -1545.2655011731986, -2167.3369011088494, -3149.785476897416, -21108.27220776942, -16879.299805080867, -22483.999727249113, -13298.796212529685, -7208.549345558804, -11637.882785544729, -4818.924345841926, -8722.611811472394, 0.01078125, -0.02484375, 0.988921875, 192.0, 0.0, 0.0, 0.0, 0.0, 0.0, 0.0, 0.0, 0.0, 0.0, 1.6444974309185493E9, 0.0, 2022-02-10 23:50:30.918
110.0, -9756.245882063613, -11650.802093839895, -6013.826252678186, -13780.252788097, -176.73524340811295, -1539.92343424838, -2175.38352911276, -3156.178075811634, -21101.834905366293, -16879.76919171443, -22494.527398887563, -13312.073148736137, -7203.788423989824, -11636.049942499392, -4825.115779056046, -8725.338724295942, 0.01078125, -0.02484375, 0.988921875, 192.0, 0.0, 0.0, 0.0, 0.0, 0.0, 0.0, 0.0, 0.0, 0.0, 1.6444974309185565E9, 0.0, 2022-02-10 23:50:30.918
112.0, -9744.131236568837, -11638.240413456013, -6009.802938676231, -13786.310110844388, -174.81299338495654, -1546.4277918848745, -2168.700357520623, -3166.258712560977, -21092.581283161795, -16872.259005577445, -22470.83454976494, -13300.941979997395, -7203.989589689922, -11626.081064472326, -4818.969049330837, -8730.501977265118, 0.01078125, -0.02484375, 0.988921875, 192.0, 0.0, 0.0, 0.0, 0.0, 0.0, 0.0, 0.0, 0.0, 0.0, 1.644497430918563E9, 0.0, 2022-02-10 23:50:30.918
114.0, -9745.584099958432, -11639.089779745314, -6008.3053717977255, -13780.431602052642, -180.7138539211576, -1560.0400042581564, -2166.9569214531093, -3175.065299876368, -21090.569626160817, -16866.939290397084, -22474.701401555707, -13309.882677779518, -7202.357912344684, -11633.770064564951, -4819.013752819747, -8738.861529691403, 0.01078125, -0.02484375, 0.988921875, 192.0, 0.0, 0.0, 0.0, 0.0, 0.0, 0.0, 0.0, 0.0, 0.0, 1.6444974309185696E9, 0.0, 2022-02-10 23:50:30.918
116.0, -9724.64051540381, -11606.389177607201, -5996.056615836217, -13774.620148494263, -165.8499438583784, -1538.5599778366063, -2164.5876365408467, -3160.7378316805166, -21085.205207491545, -16855.56225246933, -22466.632421807342, -13294.191753171892, -7197.753452986891, -11654.82540784185, -4818.499662697275, -8732.58068949946, 0.01, -0.028, 0.984, 192.0, 0.0, 40.0, 127.5, 16.0, 15.0, 96.0, 0.0, 0.0, 0.0, 1.6444974309185762E9, 0.0, 2022-02-10 23:50:30.918
118.0, -9737.291602765514, -11621.186032436613, -6002.76213917281, -13776.877674684249, -180.22211554314086, -1547.120695962989, -2173.640093045246, -3162.2130468145665, -21078.723201599503, -16853.23767104598, -22455.143625157314, -13276.243302374281, -7185.70586272548, -11636.318163432858, -4811.883546338505, -8728.244451075132, 0.01, -0.028, 0.984, 192.0, 0.0, 0.0, 0.0, 0.0, 0.0, 0.0, 0.0, 0.0, 0.0, 1.644497430918583E9, 0.0, 2022-02-10 23:50:30.918
120.0, -9735.525814953544, -11633.993582009505, -6006.606639219122, -13775.87184618376, -179.26099053156264, -1544.1479139504331, -2160.989005683542, -3159.3520235242872, -21083.350012701754, -16863.228900817503, -22473.270889910567, -13288.894389735984, -7185.102365625187, -11643.157797236181, -4815.52688068472, -8724.779930684559, 0.01, -0.028, 0.984, 192.0, 0.0, 0.0, 0.0, 0.0, 0.0, 0.0, 0.0, 0.0, 0.0, 1.6444974309185896E9, 0.0, 2022-02-10 23:50:30.918
122.0, -9723.902907836784, -11635.066465743359, -6005.354941529625, -13785.214875366079, -182.63610394431402, -1549.087649475056, -2167.9403982091426, -3159.8661136467595, -21080.645451622662, -16858.19975831506, -22458.004648447593, -13287.843857746586, -7195.85355470819, -11640.028553012438, -4814.699866139873, -8725.070503362478, 0.01, -0.028, 0.984, 192.0, 0.0, 0.0, 0.0, 0.0, 0.0, 0.0, 0.0, 0.0, 0.0, 1.644497430918596E9, 0.0, 2022-02-10 23:50:30.918
124.0, -9746.321707525458, -11636.340515177311, -6016.396703290547, -13785.572503277363, -186.12297607934192, -1547.7018413188268, -2177.797517513933, -3174.081823120335, -21087.105105770246, -16867.72160145302, -22474.58964283343, -13301.433718375412, -7203.609610034181, -11633.054808742381, -4823.774674388727, -8734.100608122422, 0.01, -0.028, 0.984, 192.0, 0.0, 0.0, 0.0, 0.0, 0.0, 0.0, 0.0, 0.0, 0.0, 1.6444974309186027E9, 0.0, 2022-02-10 23:50:30.918
126.0, -9725.869861348852, -11623.82353828234, -6003.387988017558, -13783.314977087377, -166.1628682807527, -1526.3559253640087, -2175.7411570240447, -3146.008032084469, -21082.61240513473, -16862.245424061468, -22468.062933452482, -13288.737927524797, -7202.022636177855, -11603.259933383457, -4823.439398221898, -8730.390218542841, 0.006, -0.026000000000000002, 0.984, 192.0, 0.0, 24.0, 127.5, 24.0, 15.0, 96.0, 0.0, 0.0, 0.0, 1.6444974309186091E9, 0.0, 2022-02-10 23:50:30.918
128.0, -9744.757085413587, -11630.864337785762, -6014.765025945309, -13778.688165985128, -185.765348168057, -1552.149838465433, -2191.0297502314747, -3157.6756426901393, -21085.853408080748, -16859.786732171386, -22460.39628510431, -13288.469706591333, -7206.761206002379, -11645.750599592997, -4815.459825451354, -8726.568070240983, 0.006, -0.026000000000000002, 0.984, 192.0, 0.0, 0.0, 0.0, 0.0, 0.0, 0.0, 0.0, 0.0, 0.0, 1.6444974309186156E9, 0.0, 2022-02-10 23:50:30.918
130.0, -9740.30908826698, -11643.962460036571, -6007.612467719611, -13780.230436352544, -180.24446728759617, -1552.2615971877096, -2157.7480027375227, -3158.6144159572623, -21100.113821043233, -16868.258043319947, -22479.35056440241, -13302.551305598177, -7211.14214791562, -11667.588253925831, -4826.881566868015, -8736.380486056863, 0.006, -0.026000000000000002, 0.984, 192.0, 0.0, 0.0, 0.0, 0.0, 0.0, 0.0, 0.0, 0.0, 0.0, 1.6444974309186225E9, 0.0, 2022-02-10 23:50:30.918
