%OpenBCI Raw EEG Data
%Number of channels = 16
%Sample Rate = 125 Hz
%Board = OpenBCI_GUI$BoardCytonSerialDaisy
Sample Index, EXG Channel 0, EXG Channel 1, EXG Channel 2, EXG Channel 3, EXG Channel 4, EXG Channel 5, EXG Channel 6, EXG Channel 7, EXG Channel 8, EXG Channel 9, EXG Channel 10, EXG Channel 11, EXG Channel 12, EXG Channel 13, EXG Channel 14, EXG Channel 15, Accel Channel 0, Accel Channel 1, Accel Channel 2, Other, Other, Other, Other, Other, Other, Other, Analog Channel 0, Analog Channel 1, Analog Channel 2, Timestamp, Other, Timestamp (Formatted)
42.0, -8582.712242926627, -10449.552291578328, -4387.625084832321, -12352.758628458814, 956.4534969870446, 196.98592388462114, 24.899843323212068, -621.4902545798129, -19749.174386164475, -15461.707468236384, -21038.802986002327, -11953.690582953763, -6572.619864060863, -9935.149244683891, -2761.669786175464, -6956.712240780859, 0.012, -0.026000000000000002, 0.99, 192.0, 0.0, 48.0, 127.5, 24.0, 15.0, 120.0, 0.0, 0.0, 0.0, 1.6444973890615191E9, 0.0, 2022-02-10 23:49:49.061
44.0, -8576.476106223596, -10448.434704355563, -4384.339378397391, -12349.115294112598, 966.0647471028266, 205.01020014407638, 62.45077400812794, -591.4048065429696, -19747.967391963888, -15472.97274744186, -21047.65427680663, -11966.475780782197, -6576.821992018461, -9933.942250483306, -2771.8174781581733, -6962.18841817241, 0.012, -0.026000000000000002, 0.99, 192.0, 0.0, 0.0, 0.0, 0.0, 0.0, 0.0, 0.0, 0.0, 0.0, 1.6444973890615275E9, 0.0, 2022-02-10 23:49:49.061
46.0, -8581.661710937227, -10457.755381793426, -4386.798070287475, -12360.40292506253, 967.9646453815277, 198.3940837853055, 79.08047188287638, -583.7828616837098, -19756.885738001554, -15478.717145766872, -21040.367608114197, -11962.430115035786, -6579.995939731114, -9931.528262082133, -2761.781544897741, -6957.919234981446, 0.012, -0.026000000000000002, 0.99, 192.0, 0.0, 0.0, 0.0, 0.0, 0.0, 0.0, 0.0, 0.0, 0.0, 1.6444973890615344E9, 0.0, 2022-02-10 23:49:49.061
48.0, -8588.0766615959, -10449.708753789515, -4394.598829102377, -12360.537035529262, 957.4593254875333, 193.52140349404854, 49.46441047959453, -601.2842775922153, -19761.601956081624, -15480.01354694528, -21056.013829232914, -11975.528237286597, -6580.44297462022, -9938.077323207537, -2765.983672855338, -6962.926025739435, 0.012, -0.026000000000000002, 0.99, 192.0, 0.0, 0.0, 0.0, 0.0, 0.0, 0.0, 0.0, 0.0, 0.0, 1.6444973890615416E9, 0.0, 2022-02-10 23:49:49.061
50.0, -8563.445039206152, -10437.348239105731, -4385.099337708872, -12357.676012238982, 973.016139628427, 192.24735406009606, 59.92502688467823, -604.6370392605113, -19753.15299667752, -15466.982479927836, -21052.92928849808, -11977.718708243217, -6574.229189661645, -9945.11812271096, -2763.033242587238, -6960.444982104896, 0.012, -0.026000000000000002, 0.99, 192.0, 0.0, 0.0, 0.0, 0.0, 0.0, 0.0, 0.0, 0.0, 0.0, 1.6444973890615494E9, 0.0, 2022-02-10 23:49:49.061
52.0, -8579.828867891893, -10455.453152114529, -4394.688236080198, -12353.16095985901, 952.7431074074635, 188.17933656923017, 44.703488910614126, -609.8673474630532, -19751.72248503238, -15476.236102132334, -21053.152805942635, -11964.285309825578, -6579.034814719536, -9946.347468656, -2763.122649565059, -6962.970729228346, 0.008, -0.024, 0.984, 192.0, 0.0, 32.0, 127.5, 32.0, 15.0, 96.0, 0.0, 0.0, 0.0, 1.6444973890615563E9, 0.0, 2022-02-10 23:49:49.061
54.0, -8591.563533730929, -10451.407486368118, -4392.028378490017, -12351.976317402878, 965.8859331471841, 204.4067030437831, 65.06592810939885, -584.453414017369, -19761.311383403707, -15484.193323158423, -21058.271355422898, -11978.724536743706, -6577.000805974103, -9953.522378626154, -2764.776678654752, -6959.148580926488, 0.008, -0.024, 0.984, 192.0, 0.0, 0.0, 0.0, 0.0, 0.0, 0.0, 0.0, 0.0, 0.0, 1.6444973890615633E9, 0.0, 2022-02-10 23:49:49.061
56.0, -8589.149545329756, -10462.896283018146, -4385.926352253718, -12354.144436615043, 962.1084883342372, 199.17639484124123, 59.88032339576762, -595.361065311559, -19761.892528759545, -15475.92317770996, -21043.92153548259, -11963.212426091723, -6573.87156175036, -9937.406770873878, -2756.6182919285648, -6957.9862902148125, 0.008, -0.024, 0.984, 192.0, 0.0, 0.0, 0.0, 0.0, 0.0, 0.0, 0.0, 0.0, 0.0, 1.644497389061571E9, 0.0, 2022-02-10 23:49:49.061
58.0, -8591.496478497564, -10460.683460317072, -4389.636741833298, -12358.592433761649, 952.5195899629105, 185.0947958343978, 42.98240458755548, -612.8177777311537, -19765.44645612794, -15483.72393652486, -21056.952602500034, -11973.13660062988, -6579.9065327532935, -9945.855730277985, -2765.2684170327684, -6967.239912419309, 0.008, -0.024, 0.984, 192.0, 0.0, 0.0, 0.0, 0.0, 0.0, 0.0, 0.0, 0.0, 0.0, 1.6444973890615776E9, 0.0, 2022-02-10 23:49:49.061
60.0, -8565.16612352921, -10445.461922343007, -4380.897209751273, -12361.878140196579, 968.2999215483572, 191.97913312663235, 46.71514591159176, -599.1608618689611, -19754.784674022758, -15476.884302721537, -21050.56000358582, -11977.115211142924, -6574.385651872833, -9942.167692442858, -2764.128478065548, -6963.66363330646, 0.008, -0.024, 0.984, 192.0, 0.0, 0.0, 0.0, 0.0, 0.0, 0.0, 0.0, 0.0, 0.0, 1.6444973890615845E9, 0.0, 2022-02-10 23:49:49.061
62.0, -8587.249647051054, -10456.54838759284, -4390.419052889234, -12367.06374491021, 954.9112266196283, 187.62054295784748, 57.22046580558608, -601.776015970232, -19756.706924045913, -15482.136962668535, -21042.2675063929, -11982.457278067743, -6574.430355361743, -9936.15507318438, -2761.222751286358, -6962.613101317061, 0.002, -0.022, 0.994, 192.0, 0.0, 8.0, 127.5, 40.0, 15.5, 8.0, 0.0, 0.0, 0.0, 1.6444973890615911E9, 0.0, 2022-02-10 23:49:49.061
64.0, -8577.07960332389, -10454.603785825228, -4387.826250532419, -12358.100695383633, 956.7887731538741, 187.3523220243838, 48.883265123756544, -601.776015970232, -19753.443569355437, -15487.97076797137, -21056.527919355383, -11986.771164747617, -6578.476021108154, -9952.404791403389, -2764.776678654752, -6960.802610016181, 0.002, -0.022, 0.994, 192.0, 0.0, 0.0, 0.0, 0.0, 0.0, 0.0, 0.0, 0.0, 0.0, 1.644497389061598E9, 0.0, 2022-02-10 23:49:49.061
66.0, -8581.371138259308, -10445.797198509837, -4389.904962766763, -12363.576872775182, 960.9014941336507, 188.08992959140895, 46.73749765604707, -597.3727223125366, -19756.23753741235, -15481.44405859042, -21047.49781459544, -11975.170609375313, -6579.504201353097, -9950.840169291518, -2767.2353705448354, -6961.651976305482, 0.002, -0.022, 0.994, 192.0, 0.0, 0.0, 0.0, 0.0, 0.0, 0.0, 0.0, 0.0, 0.0, 1.6444973890616045E9, 0.0, 2022-02-10 23:49:49.061
68.0, -8591.384719775286, -10462.940986507057, -4397.057520992461, -12361.1181808851, 946.7081364045306, 176.66818817474703, 54.1135733262984, -603.4971002932907, -19760.059685714208, -15491.234122661845, -21066.295631682355, -11991.196810149768, -6582.365224643377, -9956.49516063871, -2767.972978111861, -6967.0834502081225, 0.002, -0.022, 0.994, 192.0, 0.0, 0.0, 0.0, 0.0, 0.0, 0.0, 0.0, 0.0, 0.0, 1.6444973890616117E9, 0.0, 2022-02-10 23:49:49.061
70.0, -8571.961053843625, -10456.168407937099, -4387.625084832321, -12358.145398872543, 967.0035203699495, 184.5136504785598, 53.39831750372857, -610.3367340966147, -19756.706924045913, -15486.026166203757, -21056.103236210733, -11983.016071679125, -6584.533343855542, -9966.575797388054, -2768.5317717232433, -6965.943511240901, 0.003, -0.020999999999999998, 0.993, 192.0, 0.0, 16.0, 127.5, 48.0, 15.5, 0.0, 0.0, 0.0, 0.0, 1.6444973890616183E9, 0.0, 2022-02-10 23:49:49.061
72.0, -8595.65390296625, -10473.26749244541, -4390.709625567153, -12362.571044274693, 955.3359097642792, 173.51659220654872, 46.53633195594931, -587.6944169633886, -19759.567947336192, -15488.395451116021, -21051.811701275314, -11984.93832170228, -6580.040643220025, -9961.233730463235, -2763.6590914319863, -6965.4964763517955, 0.003, -0.020999999999999998, 0.993, 192.0, 0.0, 0.0, 0.0, 0.0, 0.0, 0.0, 0.0, 0.0, 0.0, 1.6444973890616252E9, 0.0, 2022-02-10 23:49:49.061
74.0, -8582.55578071544, -10460.705812061526, -4384.562895841944, -12361.229939607376, 958.5769127102986, 182.79256615550116, 66.4293845211726, -588.8790594195199, -19763.77007529379, -15495.995044230825, -21059.634811834672, -11993.2308188952, -6580.040643220025, -9953.321212926056, -2768.1294403230477, -6966.23408391882, 0.003, -0.020999999999999998, 0.993, 192.0, 0.0, 0.0, 0.0, 0.0, 0.0, 0.0, 0.0, 0.0, 0.0, 1.6444973890616376E9, 0.0, 2022-02-10 23:49:49.061
76.0, -8579.672405680705, -10459.49881786094, -4384.24997141957, -12363.152189630531, 961.2814737893908, 179.70802542066878, 55.812305904901734, -594.2658298332489, -19757.109255446107, -15481.82403824616, -21040.568773814295, -11981.071469911512, -6579.370090886366, -9963.714774097774, -2764.4861059768327, -6962.546046083695, 0.003, -0.020999999999999998, 0.993, 192.0, 0.0, 0.0, 0.0, 0.0, 0.0, 0.0, 0.0, 0.0, 0.0, 1.6444973890616443E9, 0.0, 2022-02-10 23:49:49.061
78.0, -8585.662673194727, -10456.838960270758, -4392.3860064013015, -12358.704192483925, 957.6381394431758, 179.4398044872051, 46.26811102248562, -601.2395741033047, -19759.322078147183, -15482.15931441299, -21058.584279845272, -11994.191943906779, -6582.231114176645, -9976.49997192621, -2774.5890944706316, -6969.542142098206, 0.003, -0.020999999999999998, 0.993, 192.0, 0.0, 0.0, 0.0, 0.0, 0.0, 0.0, 0.0, 0.0, 0.0, 1.6444973890616512E9, 0.0, 2022-02-10 23:49:49.061
80.0, -8576.36434750132, -10457.0177742264, -4385.389910386791, -12360.134704129065, 967.2717413034131, 185.74299642360168, 44.3011575104186, -606.581641028123, -19761.087865959154, -15487.34491912662, -21055.186814688066, -11985.519467058119, -6587.528477612553, -9963.357146186489, -2774.477335748355, -6966.703470552382, 0.006500000000000001, -0.0215, 0.9904999999999999, 192.0, 0.0, 40.0, 127.5, 40.0, 15.0, 112.0, 0.0, 0.0, 0.0, 1.644497389061658E9, 0.0, 2022-02-10 23:49:49.061
82.0, -8598.403167534252, -10477.78254482538, -4400.656151849765, -12365.63323326507, 945.0541073148379, 176.71289166365764, 26.889148579734396, -621.132626668528, -19764.57473809418, -15491.278826150756, -21054.672724565593, -11980.020937922114, -6580.353567642399, -9968.095716011014, -2774.477335748355, -6973.90073226699, 0.006500000000000001, -0.0215, 0.9904999999999999, 192.0, 0.0, 0.0, 0.0, 0.0, 0.0, 0.0, 0.0, 0.0, 0.0, 1.6444973890616646E9, 0.0, 2022-02-10 23:49:49.061
84.0, -8600.817155935425, -10479.950664037546, -4398.420977404235, -12372.092887412655, 949.6362149281758, 169.9850165826102, 37.528578940460555, -612.6613155199666, -19777.181121966973, -15504.35459665711, -21075.325736442297, -11999.3328451315, -6591.507088125598, -9966.486390410231, -2784.826193431162, -6981.947360270901, 0.006500000000000001, -0.0215, 0.9904999999999999, 192.0, 0.0, 0.0, 0.0, 0.0, 0.0, 0.0, 0.0, 0.0, 0.0, 1.6444973890616715E9, 0.0, 2022-02-10 23:49:49.061
86.0, -8601.107728613344, -10477.156695980633, -4397.929239026218, -12380.899474728045, 942.7071741470306, 174.6341794293141, 34.421686461172875, -594.3328850666148, -19776.77879056678, -15505.785108302249, -21060.148901957145, -12002.529144588607, -6593.406986404299, -9969.079192767047, -2776.086661349137, -6977.342900913108, 0.006500000000000001, -0.0215, 0.9904999999999999, 192.0, 0.0, 0.0, 0.0, 0.0, 0.0, 0.0, 0.0, 0.0, 0.0, 1.644497389061678E9, 0.0, 2022-02-10 23:49:49.061
88.0, -8607.634437994295, -10480.040071015366, -4410.200346732181, -12383.201704406942, 925.3622204497124, 156.6633768872472, 20.049514776410437, -614.8964899654973, -19784.668956359503, -15516.201021218423, -21085.115800513722, -12014.75554880566, -6603.1523469868125, -9994.381367490456, -2787.6648649769863, -6982.930837026935, 0.006500000000000001, -0.0215, 0.9904999999999999, 192.0, 0.0, 0.0, 0.0, 0.0, 0.0, 0.0, 0.0, 0.0, 0.0, 1.6444973890616848E9, 0.0, 2022-02-10 23:49:49.061
90.0, -8586.065004594922, -10470.428820899586, -4398.555087870966, -12383.894608485058, 940.5167031904106, 167.92865609272195, 17.613174630781966, -611.2978591081928, -19784.57954938168, -15510.411919404498, -21083.03708827938, -12012.341560404488, -6606.862736566393, -9988.346396487523, -2792.6269522460643, -6982.327339926642, 0.00725, -0.01975, 0.98825, 192.0, 0.0, 32.0, 127.5, 56.0, 15.0, 104.0, 0.0, 0.0, 0.0, 1.6444973890617037E9, 0.0, 2022-02-10 23:49:49.061
92.0, -8605.46631878213, -10479.50362914844, -4399.0244745045275, -12388.11908818711, 929.631403640676, 156.50691467606006, 16.875567063756833, -617.8469202335979, -19777.40463941153, -15503.16995420098, -21062.02644849139, -11992.13558341689, -6602.727663842162, -9983.719585385274, -2787.6872167214415, -6986.775337073248, 0.00725, -0.01975, 0.98825, 192.0, 0.0, 0.0, 0.0, 0.0, 0.0, 0.0, 0.0, 0.0, 0.0, 1.6444973890617104E9, 0.0, 2022-02-10 23:49:49.061
94.0, -8603.901696670258, -10480.665919860116, -4400.9020210387735, -12384.83338175218, 931.3301362192793, 166.8110688699566, 22.754075855502588, -603.0500654041846, -19782.880816803077, -15501.359462900098, -21075.37043993121, -12002.395034121875, -6597.095024239425, -9987.049995309115, -2792.69400747943, -6986.685930095427, 0.00725, -0.01975, 0.98825, 192.0, 0.0, 0.0, 0.0, 0.0, 0.0, 0.0, 0.0, 0.0, 0.0, 1.644497389061717E9, 0.0, 2022-02-10 23:49:49.061
96.0, -8586.444984250664, -10484.666882117615, -4399.158584971259, -12393.349396389653, 932.6041856532319, 167.83924911490072, 45.776372644468864, -598.713826979855, -19788.848732572646, -15496.576189586664, -21069.111951483723, -11996.293007885577, -6603.241753964634, -9979.36099521649, -2786.9943126433272, -6985.389528917019, 0.00725, -0.01975, 0.98825, 192.0, 0.0, 0.0, 0.0, 0.0, 0.0, 0.0, 0.0, 0.0, 0.0, 1.6444973890617237E9, 0.0, 2022-02-10 23:49:49.061
98.0, -8611.881269440802, -10483.482239661484, -4411.273230466036, -12390.890704499569, 914.1416447331483, 154.1376297637975, 15.735628096536171, -621.0208679462514, -19792.670880874502, -15515.2622479513, -21082.433591179084, -12014.263810427645, -6609.857870323404, -9990.02277732167, -2794.8844784360504, -6997.392415689518, 0.00725, -0.01975, 0.98825, 192.0, 0.0, 0.0, 0.0, 0.0, 0.0, 0.0, 0.0, 0.0, 0.0, 1.64449738906173E9, 0.0, 2022-02-10 23:49:49.061
100.0, -8596.190344833178, -10471.83698080027, -4400.343227427391, -12389.616655065616, 930.1231420186928, 163.57006592393708, 31.471256193072342, -605.7099229943661, -19787.30646220523, -15507.819117047682, -21076.55508238734, -12009.122909202923, -6608.695579611729, -9986.692367397829, -2803.2663826067906, -6995.090186010621, 0.005625, -0.016875, 0.991125, 192.0, 0.0, 16.0, 127.5, 72.0, 15.5, 8.0, 0.0, 0.0, 0.0, 1.644497389061737E9, 0.0, 2022-02-10 23:49:49.061
102.0, -8617.379798576809, -10488.086699019277, -4409.887422309807, -12396.12101270211, 919.3943046801454, 151.54482740698188, 24.206939245097548, -623.4572080918799, -19798.325872221696, -15509.964884515392, -21079.1255329997, -12010.843993525981, -6607.466233666687, -9988.212286020791, -2793.409263302, -6995.29135171072, 0.005625, -0.016875, 0.991125, 192.0, 0.0, 0.0, 0.0, 0.0, 0.0, 0.0, 0.0, 0.0, 0.0, 1.6444973890617435E9, 0.0, 2022-02-10 23:49:49.061
104.0, -8611.367179318331, -10493.451117688552, -4410.379160687824, -12400.45725112644, 922.6800111150756, 154.3611472083506, 17.94845079761157, -623.8371877476201, -19797.230636743385, -15512.848259550126, -21095.55406517435, -12030.200604224277, -6612.920059313782, -10005.244315295735, -2807.60262103112, -6999.024093034755, 0.005625, -0.016875, 0.991125, 192.0, 0.0, 0.0, 0.0, 0.0, 0.0, 0.0, 0.0, 0.0, 0.0, 1.6444973890617504E9, 0.0, 2022-02-10 23:49:49.061
106.0, -8617.580964276905, -10498.592018913272, -4404.992390274095, -12408.034492496789, 916.7120953455086, 144.54873139247078, 9.231270460041817, -640.4221821334579, -19803.01973855731, -15523.375931188577, -21081.2265969785, -12012.1850981933, -6612.316562213488, -9992.995559334226, -2807.379103586567, -7001.371026202563, 0.005625, -0.016875, 0.991125, 192.0, 0.0, 0.0, 0.0, 0.0, 0.0, 0.0, 0.0, 0.0, 0.0, 1.6444973890617738E9, 0.0, 2022-02-10 23:49:49.061
108.0, -8635.305897629965, -10500.626027658705, -4416.436483435212, -12411.878992543101, 901.535260860355, 141.8218185689233, 0.5364418669273695, -633.7613622857765, -19810.328758994194, -15535.244707494345, -21098.728012887004, -12029.66416235735, -6614.931716314759, -10000.259876282202, -2813.5928885451426, -7007.920087327968, 0.005625, -0.016875, 0.991125, 192.0, 0.0, 0.0, 0.0, 0.0, 0.0, 0.0, 0.0, 0.0, 0.0, 1.6444973890617807E9, 0.0, 2022-02-10 23:49:49.061
110.0, -8609.646094995273, -10495.395719456163, -4403.986561773606, -12409.085024486189, 912.9122987881063, 151.52247566252657, -0.40233140019552716, -622.9207662249526, -19808.63002641559, -15527.399245190532, -21095.531713429897, -12025.640848355395, -6617.569222160486, -9997.108280314003, -2809.413112332, -7003.472090181362, 0.0058125, -0.0164375, 0.9935625, 192.0, 0.0, 24.0, 127.5, 64.0, 15.5, 16.0, 0.0, 0.0, 0.0, 1.6444973890617871E9, 0.0, 2022-02-10 23:49:49.061
112.0, -8620.151414889266, -10499.843716602769, -4406.44525366369, -12407.162774463031, 904.4186358950897, 146.7839058380015, -11.019410016466383, -634.4766181083463, -19801.946854823454, -15518.950285786426, -21085.160504002633, -12014.442624383286, -6613.0765215249685, -9991.45328896681, -2805.1662808854917, -7005.595505904616, 0.0058125, -0.0164375, 0.9935625, 192.0, 0.0, 0.0, 0.0, 0.0, 0.0, 0.0, 0.0, 0.0, 0.0, 1.644497389061794E9, 0.0, 2022-02-10 23:49:49.061
114.0, -8599.408996034741, -10486.11974550721, -4404.500651896078, -12401.060748226733, 918.0979035017376, 152.61771114083663, 4.827976802346326, -639.6622228219775, -19797.811782099223, -15516.893925296537, -21102.907789100147, -12026.37845592242, -6615.423454692776, -9990.335701744045, -2806.1944611304357, -7003.6509041370045, 0.0058125, -0.0164375, 0.9935625, 192.0, 0.0, 0.0, 0.0, 0.0, 0.0, 0.0, 0.0, 0.0, 0.0, 1.6444973890618007E9, 0.0, 2022-02-10 23:49:49.061
116.0, -8620.307877100453, -10505.543411438872, -4402.6007536173765, -12403.228867438898, 919.37195293569, 149.30965296145118, 25.12336076776514, -614.4047515874805, -19800.8739710896, -15517.922105541482, -21080.1760649891, -12018.085958729502, -6615.02112329258, -9998.047053581126, -2799.0866063936483, -7001.236915735832, 0.0058125, -0.0164375, 0.9935625, 192.0, 0.0, 0.0, 0.0, 0.0, 0.0, 0.0, 0.0, 0.0, 0.0, 1.6444973890618076E9, 0.0, 2022-02-10 23:49:49.061
118.0, -8629.986182449602, -10510.058463818845, -4406.914640297251, -12403.474736627906, 908.1290254746707, 144.928711048211, 8.51601463747199, -617.0646091776621, -19808.80884037123, -15527.354541701621, -21088.714431371027, -12017.750682562671, -6617.256297738111, -10000.393986748933, -2806.440330319444, -6999.694645368415, 0.0058125, -0.0164375, 0.9935625, 192.0, 0.0, 0.0, 0.0, 0.0, 0.0, 0.0, 0.0, 0.0, 0.0, 1.6444973890618267E9, 0.0, 2022-02-10 23:49:49.061
120.0, -8604.12521411481, -10491.819440343314, -4395.224677947125, -12400.099623215154, 930.2349007409694, 159.8596763443561, 18.77546534245793, -613.2648126202599, -19792.559122152226, -15520.850184065126, -21079.617271377716, -12008.072377213524, -6613.523556414075, -9990.916847099883, -2806.12740589707, -6997.012436033779, 0.00590625, -0.01821875, 0.9937812500000001, 192.0, 0.0, 24.0, 127.5, 48.0, 15.5, 8.0, 0.0, 0.0, 0.0, 1.6444973890618331E9, 0.0, 2022-02-10 23:49:49.061
122.0, -8626.65577252576, -10502.592981170772, -4406.288791452503, -12409.576762864204, 918.0084965239164, 142.82764706941214, 21.39061944372886, -622.9654697138632, -19793.25202623034, -15509.07081473718, -21073.627003863694, -12008.206487680256, -6609.746111601128, -9988.301692998612, -2798.5948680156316, -6998.822927334658, 0.00590625, -0.01821875, 0.9937812500000001, 192.0, 0.0, 0.0, 0.0, 0.0, 0.0, 0.0, 0.0, 0.0, 0.0, 1.6444973890618544E9, 0.0, 2022-02-10 23:49:49.061
124.0, -8617.782129977004, -10499.597847413761, -4409.753311843075, -12404.659379084038, 913.4487406550337, 148.30382446096237, 0.5587936113826766, -639.259891421782, -19802.81857285721, -15523.822966077681, -21093.564759917826, -12023.338618676498, -6613.031818036058, -10000.12576581547, -2807.98260068686, -7003.986180303834, 0.00590625, -0.01821875, 0.9937812500000001, 192.0, 0.0, 0.0, 0.0, 0.0, 0.0, 0.0, 0.0, 0.0, 0.0, 1.6444973890618613E9, 0.0, 2022-02-10 23:49:49.061
126.0, -8603.767586203527, -10484.666882117615, -4407.4734339086335, -12407.967437263422, 918.5002349019331, 155.88106583131145, 25.391581701228823, -614.9411934544079, -19795.8224768427, -15515.396358418031, -21076.443323665062, -12002.23857191069, -6613.590611647441, -9987.675844153864, -2799.9806761718605, -7001.572191902661, 0.00590625, -0.01821875, 0.9937812500000001, 192.0, 0.0, 0.0, 0.0, 0.0, 0.0, 0.0, 0.0, 0.0, 0.0, 1.644497389061868E9, 0.0, 2022-02-10 23:49:49.061
128.0, -8617.692722999183, -10491.081832776288, -4417.643477635798, -12412.996579765866, 909.2689644418913, 143.3417371918842, 12.986363528533403, -631.034449462229, -19788.49110466136, -15498.2078669319, -21078.164407988123, -12007.155955690856, -6615.334047714955, -9982.043204551126, -2799.824213960673, -7004.008532048289, 0.00590625, -0.01821875, 0.9937812500000001, 192.0, 0.0, 0.0, 0.0, 0.0, 0.0, 0.0, 0.0, 0.0, 0.0, 1.644497389061875E9, 0.0, 2022-02-10 23:49:49.061
130.0, -8615.904583442758, -10510.03611207439, -4410.267401965547, -12416.103472245155, 922.791769837352, 153.73529836360197, 16.115607752276393, -617.1540161554833, -19811.178125283495, -15530.640248136551, -21087.350974959252, -12026.2890489446, -6628.387466476855, -9991.45328896681, -2801.925277939472, -7008.2330117503425, 0.008953125, -0.019109374999999998, 0.991890625, 192.0, 0.0, 48.0, 127.5, 48.0, 15.0, 120.0, 0.0, 0.0, 0.0, 1.644497389061882E9, 0.0, 2022-02-10 23:49:49.061
132.0, -8611.791862462982, -10496.334492723287, -4413.2848874670135, -12409.21913495292, 913.4040371661231, 141.21832146863002, -5.319715180363081, -640.7351065558322, -19804.07027054671, -15524.270000966788, -21074.99046027547, -12016.498984873175, -6619.536175672552, -9992.973207589772, -2798.930144182461, -7006.511927427284, 0.008953125, -0.019109374999999998, 0.991890625, 192.0, 0.0, 0.0, 0.0, 0.0, 0.0, 0.0, 0.0, 0.0, 0.0, 1.6444973890618887E9, 0.0, 2022-02-10 23:49:49.061
134.0, -8608.573211261417, -10489.36074845323, -4414.804806089975, -12399.272608670308, 920.4001331806343, 139.02785051200993, 5.073845991354704, -626.6982110378995, -19793.16261925252, -15504.153430957012, -21086.188684247576, -12017.61657209594, -6615.512861670597, -9995.744823902229, -2804.9874669298492, -7009.1717850174655, 0.008953125, -0.019109374999999998, 0.991890625, 192.0, 0.0, 0.0, 0.0, 0.0, 0.0, 0.0, 0.0, 0.0, 0.0, 1.6444973890618956E9, 0.0, 2022-02-10 23:49:49.061
136.0, -8601.241839080076, -10489.874838575703, -4412.524928155533, -12402.535963360782, 926.8821390726732, 145.82278082642327, 8.985401271033439, -624.3959813590028, -19795.934235564975, -15515.150489229023, -21074.074038752802, -12007.1336039464, -6620.519652428586, -9990.290998255134, -2795.1303476250587, -6998.889982568024, 0.008953125, -0.019109374999999998, 0.991890625, 192.0, 0.0, 0.0, 0.0, 0.0, 0.0, 0.0, 0.0, 0.0, 0.0, 1.6444973890619023E9, 0.0, 2022-02-10 23:49:49.061
138.0, -8619.100882899867, -10496.155678767644, -4423.387875960812, -12401.59719009366, 907.1008452297265, 144.81695232593447, -0.5364418669273695, -649.4522868934021, -19794.749593108845, -15515.999855518325, -21084.109972013233, -12013.012112738146, -6619.69263788374, -9989.821611621574, -2802.3946645730334, -7004.097939026111, 0.008953125, -0.019109374999999998, 0.991890625, 192.0, 0.0, 0.0, 0.0, 0.0, 0.0, 0.0, 0.0, 0.0, 0.0, 1.6444973890619113E9, 0.0, 2022-02-10 23:49:49.061
140.0, -8605.287504826487, -10492.087661276777, -4417.084684024416, -12408.727396574903, 921.1377407476593, 156.70808037615782, 27.31383172438523, -621.7361237688212, -19800.78456411178, -15512.624742105574, -21091.776620361405, -12014.599086594473, -6626.8675478538935, -9993.464945967788, -2801.835870961651, -7002.108633769588, 0.0094765625, -0.0175546875, 0.9899453125, 192.0, 0.0, 40.0, 127.5, 64.0, 15.0, 112.0, 0.0, 0.0, 0.0, 1.6444973890619183E9, 0.0, 2022-02-10 23:49:49.061
142.0, -8617.80448172146, -10502.727091637504, -4421.06329453746, -12411.476661142906, 906.922031274084, 141.37478367981717, 12.695790850614411, -640.5339408557345, -19800.225770500394, -15522.16893698799, -21086.25573948094, -12015.001417994668, -6622.1736815182785, -9989.575742432564, -2793.2751528352683, -7006.57898266065, 0.0094765625, -0.0175546875, 0.9899453125, 192.0, 0.0, 0.0, 0.0, 0.0, 0.0, 0.0, 0.0, 0.0, 0.0, 1.644497389061925E9, 0.0, 2022-02-10 23:49:49.061
144.0, -8616.441025309685, -10498.323797979809, -4423.052599793983, -12406.872201785112, 908.5313568748662, 140.34660343487306, 8.51601463747199, -651.2404264498266, -19801.857447845632, -15526.952210301426, -21091.08371628329, -12021.818700053538, -6623.626544907874, -9991.386233733445, -2808.250821620324, -7011.585773418638, 0.0094765625, -0.0175546875, 0.9899453125, 192.0, 0.0, 0.0, 0.0, 0.0, 0.0, 0.0, 0.0, 0.0, 0.0, 1.6444973890619318E9, 0.0, 2022-02-10 23:49:49.061
146.0, -8620.933725945202, -10500.089585791777, -4423.723152127642, -12415.052940255755, 900.9094120156064, 144.52637964801548, 2.413988401173163, -634.7224872973546, -19805.947817080953, -15518.905582297515, -21083.864102824224, -12015.537859861597, -6633.371905490388, -9990.335701744045, -2807.5579175422095, -7009.887040840035, 0.0094765625, -0.0175546875, 0.9899453125, 192.0, 0.0, 0.0, 0.0, 0.0, 0.0, 0.0, 0.0, 0.0, 0.0, 1.6444973890619383E9, 0.0, 2022-02-10 23:49:49.061
148.0, -8642.927842489224, -10507.622123673216, -4432.64149816531, -12418.450405412961, 900.0153422373942, 125.41563813872793, -9.030104759944054, -636.8235512761535, -19813.7262241514, -15525.521698656286, -21103.779507133902, -12032.748703092182, -6639.496283471141, -10003.769100161684, -2810.5306995547653, -7014.938535086934, 0.0094765625, -0.0175546875, 0.9899453125, 192.0, 0.0, 0.0, 0.0, 0.0, 0.0, 0.0, 0.0, 0.0, 0.0, 1.6444973890619454E9, 0.0, 2022-02-10 23:49:49.061
150.0, -8626.074627169923, -10510.393739985675, -4427.880576596329, -12420.12678624711, 917.1367784901594, 124.81214103843463, 8.67247684865914, -656.1131067410835, -19810.284055505283, -15528.472128924386, -21099.689137898582, -12032.86046181446, -6637.484626470164, -10009.044111853136, -2811.670638521986, -7020.191195033932, 0.008, -0.02, 0.994, 192.0, 0.0, 32.0, 127.5, 48.0, 15.5, 8.0, 0.0, 0.0, 0.0, 1.6444973890619524E9, 0.0, 2022-02-10 23:49:49.061
152.0, -8623.794749235482, -10515.042902832378, -4435.100190055393, -12426.340571205685, 896.506118357911, 113.16688217721966, -21.45767467709478, -661.2763597102595, -19817.548372453257, -15537.301067984232, -21096.895169841668, -12033.66512461485, -6647.721725430695, -10011.435748509855, -2813.123501911581, -7026.539090459239, 0.008, -0.02, 0.994, 192.0, 0.0, 0.0, 0.0, 0.0, 0.0, 0.0, 0.0, 0.0, 0.0, 1.6444973890619593E9, 0.0, 2022-02-10 23:49:49.061
154.0, -8629.539147560496, -10509.231449273999, -4433.3567539878795, -12424.21715548243, 902.7199033164864, 121.12410320330898, 0.357627911284913, -662.9303887999522, -19815.000273585352, -15528.248611479834, -21109.52390545892, -12036.347333949487, -6646.8276556524825, -10011.346341532033, -2825.886347995561, -7031.702343428415, 0.008, -0.02, 0.994, 192.0, 0.0, 0.0, 0.0, 0.0, 0.0, 0.0, 0.0, 0.0, 0.0, 1.644497389061966E9, 0.0, 2022-02-10 23:49:49.061
156.0, -8622.028961423512, -10502.056539303845, -4426.248899251092, -12428.039303784288, 910.5877173647544, 127.62846083980332, 19.11074150928754, -641.9197490119635, -19812.943913095467, -15526.2146027344, -21090.54727441636, -12025.707903588762, -6644.279556784578, -9998.516440214687, -2810.7765687437736, -7023.678067168959, 0.008, -0.02, 0.994, 192.0, 0.0, 0.0, 0.0, 0.0, 0.0, 0.0, 0.0, 0.0, 0.0, 1.6444973890619729E9, 0.0, 2022-02-10 23:49:49.061
158.0, -8626.834586481404, -10504.805803871848, -4434.407285977279, -12424.015989782332, 896.9531532470171, 121.01234448103244, -28.789046858435498, -653.6991183399103, -19813.502706706848, -15532.137815015056, -21099.242103009477, -12035.788540338104, -6643.564300962008, -10010.653437453919, -2814.9563449569164, -7023.879232869057, 0.008, -0.02, 0.994, 192.0, 0.0, 0.0, 0.0, 0.0, 0.0, 0.0, 0.0, 0.0, 0.0, 1.6444973890619798E9, 0.0, 2022-02-10 23:49:49.061
160.0, -8609.579039761906, -10494.45694618904, -4424.527814928033, -12421.333780447696, 915.0133627669052, 135.31746093242896, 13.768674584469151, -656.7389555858321, -19798.191761754962, -15517.005684018814, -21089.541445915875, -12026.691380344795, -6634.891824113349, -10009.55820197561, -2816.744484513341, -7020.727636900859, 0.006, -0.024, 0.996, 192.0, 0.0, 24.0, 127.5, 32.0, 15.5, 16.0, 0.0, 0.0, 0.0, 1.6444973890619867E9, 0.0, 2022-02-10 23:49:49.061
162.0, -8624.88998471379, -10503.285885248886, -4430.138102786315, -12429.849795085169, 900.6858945710534, 122.10757995934249, -13.23223271754178, -671.5358104152454, -19809.50174444935, -15518.056216008214, -21089.340280215776, -12025.484386144208, -6635.36121074691, -10000.393986748933, -2812.5870600446538, -7019.297125255719, 0.006, -0.024, 0.996, 192.0, 0.0, 0.0, 0.0, 0.0, 0.0, 0.0, 0.0, 0.0, 0.0, 1.6444973890619955E9, 0.0, 2022-02-10 23:49:49.061
0.0, -4896.149622935012, -5991.832136134164, -2994.910239566593, -6866.858228070525, -357.627911284913, -1017.7419802834964, -1367.256208331133, -1827.0315917767994, -9905.62259025843, -7760.637433604888, -10551.096266638788, -6018.542470758256, -3319.166996379733, -5007.729531255905, -1412.6973048087723, -3518.7457226211695, 0.01, -0.026000000000000002, 0.994, 192.0, 0.0, 40.0, 127.5, 24.0, 15.5, 8.0, 0.0, 0.0, 0.0, 1.6444973896252024E9, 0.0, 2022-02-10 23:49:49.625
2.0, -9795.629655793864, -12000.986874221191, -5990.803955889221, -13737.71741839855, -716.1945958369489, -2040.133123413697, -2724.4541316573777, -3655.3595847320066, -20780.662689287983, -15465.216692115868, -22564.42130379931, -13936.960868473157, -7227.101293456709, -11304.6182757161, -5007.260144622343, -9012.201012635353, 0.01, -0.026000000000000002, 0.994, 192.0, 0.0, 0.0, 0.0, 0.0, 0.0, 0.0, 0.0, 0.0, 0.0, 1.6444973896253376E9, 0.0, 2022-02-10 23:49:49.625
4.0, -9807.27491465508, -11991.017996194125, -6002.270400794792, -13739.371447488244, -727.8622064426191, -2049.7443735294787, -2733.2607189727687, -3668.792983149646, -20792.59852082712, -15481.48876207933, -22577.117094649922, -13945.409827877264, -7225.626078322659, -11311.971999641895, -5012.512804569341, -9021.40993135094, 0.01, -0.026000000000000002, 0.994, 192.0, 0.0, 0.0, 0.0, 0.0, 0.0, 0.0, 0.0, 0.0, 0.0, 1.6444973896253452E9, 0.0, 2022-02-10 23:49:49.625
6.0, -9797.954237217216, -11981.697318756262, -5992.413281490002, -13735.90692709767, -719.4355987829684, -2041.4742280810153, -2729.3938671820006, -3657.080669055065, -20784.864817245583, -15468.547102039707, -22580.536911551586, -13956.317479171454, -7227.257755667896, -11306.09349085015, -5016.737284271394, -9017.878355727, 0.01, -0.026000000000000002, 0.994, 192.0, 0.0, 0.0, 0.0, 0.0, 0.0, 0.0, 0.0, 0.0, 0.0, 1.6444973896253667E9, 0.0, 2022-02-10 23:49:49.625
8.0, -9826.117435230904, -12004.361987633943, -6000.705778682921, -13744.28883126841, -736.6911455024655, -2041.3401176142834, -2739.4521521868887, -3667.921265115889, -20790.31864289268, -15471.363421841077, -22567.88582418988, -13934.971563216635, -7236.645488339125, -11293.777679655275, -5018.123092427622, -9016.537251059683, 0.014, -0.016, 0.994, 192.0, 0.0, 56.0, 127.5, 64.0, 15.5, 8.0, 0.0, 0.0, 0.0, 1.644497389625374E9, 0.0, 2022-02-10 23:49:49.625
10.0, -9823.837557296463, -12013.973237749726, -6005.354941529625, -13742.612450434262, -738.9039682035409, -2039.5966815467696, -2738.222806241847, -3670.312901772607, -20800.60044534212, -15482.002852201804, -22580.1792836403, -13958.686764083715, -7236.667840083581, -11282.579455683168, -5027.197900676478, -9023.64510579647, 0.014, -0.016, 0.994, 192.0, 0.0, 0.0, 0.0, 0.0, 0.0, 0.0, 0.0, 0.0, 0.0, 1.6444973896253812E9, 0.0, 2022-02-10 23:49:49.625
12.0, -9813.533403102565, -11998.528182331107, -5999.767005415798, -13742.590098689807, -720.1508546055383, -2045.1399141716856, -2742.3578789660787, -3670.625826194981, -20799.21463718589, -15472.816285230672, -22570.232757357688, -13939.486615596606, -7241.071133741276, -11334.90488945304, -5022.146406429578, -9023.421588351917, 0.014, -0.016, 0.994, 192.0, 0.0, 0.0, 0.0, 0.0, 0.0, 0.0, 0.0, 0.0, 0.0, 1.644497389625388E9, 0.0, 2022-02-10 23:49:49.625
14.0, -9831.124225988893, -12003.065586455536, -6003.142118828549, -13749.876767382237, -736.8252559691973, -2051.934844486099, -2754.2713587607573, -3682.3828437784728, -20804.713166321893, -15485.40031735901, -22585.007260442646, -13965.504046142585, -7237.360744161695, -11327.752331227342, -5019.866528495137, -9026.483777342293, 0.014, -0.016, 0.994, 192.0, 0.0, 0.0, 0.0, 0.0, 0.0, 0.0, 0.0, 0.0, 0.0, 1.6444973896253948E9, 0.0, 2022-02-10 23:49:49.625
16.0, -9814.673342069787, -11998.595237564474, -5992.480336723368, -13742.321877756343, -716.418113281502, -2033.2264343770069, -2730.511454404766, -3662.6462534244365, -20801.65097733152, -15483.54512256922, -22579.732248751196, -13962.128932729833, -7240.355877918706, -11318.364598556114, -5019.866528495137, -9022.415759851428, 0.012, -0.018000000000000002, 0.994, 192.0, 0.0, 40.0, 127.5, 48.0, 15.5, 8.0, 0.0, 0.0, 0.0, 1.6444973896254015E9, 0.0, 2022-02-10 23:49:49.625
18.0, -9823.301115429535, -12001.925647488315, -6000.594019960645, -13749.697953426596, -726.5881570086667, -2036.0204024339203, -2748.2363877578246, -3671.698709928836, -20800.041651730735, -15478.985366700337, -22572.534987036586, -13949.790769790503, -7234.097389471221, -11309.937990896464, -5013.51863306983, -9019.599440050059, 0.012, -0.018000000000000002, 0.994, 192.0, 0.0, 0.0, 0.0, 0.0, 0.0, 0.0, 0.0, 0.0, 0.0, 1.644497389625409E9, 0.0, 2022-02-10 23:49:49.625
20.0, -9822.742321818152, -12007.200659179767, -6000.035226349262, -13746.702819669585, -720.8661104281081, -2034.5228355554148, -2723.7835793237186, -3671.5198959731933, -20806.657768089506, -15489.40127961651, -22588.337670366487, -13966.107543242877, -7240.020601751877, -11310.787357185765, -5019.7547697728605, -9020.426454594904, 0.012, -0.018000000000000002, 0.994, 192.0, 0.0, 0.0, 0.0, 0.0, 0.0, 0.0, 0.0, 0.0, 0.0, 1.644497389625416E9, 0.0, 2022-02-10 23:49:49.625
22.0, -9813.242830424648, -12001.679778299305, -5997.509479225812, -13749.899119126692, -710.1372730895607, -2030.7677424869232, -2715.066398986149, -3655.1584190319086, -20801.44981163142, -15481.712279523885, -22572.087952147478, -13959.133798972822, -7236.28786042784, -11307.47929900638, -5013.943316214481, -9014.458538825338, 0.012, -0.018000000000000002, 0.994, 192.0, 0.0, 0.0, 0.0, 0.0, 0.0, 0.0, 0.0, 0.0, 0.0, 1.6444973896254232E9, 0.0, 2022-02-10 23:49:49.625
24.0, -9827.726760831685, -12000.115156187434, -6007.165432830505, -13746.702819669585, -723.9506511629404, -2031.4159430761272, -2736.121742263048, -3682.673416456392, -20804.44494538843, -15480.751154512305, -22586.102495920957, -13965.749915331593, -7231.683401070047, -11312.91077290902, -5017.027856949313, -9014.726759758802, 0.012, -0.018000000000000002, 0.994, 192.0, 0.0, 0.0, 0.0, 0.0, 0.0, 0.0, 0.0, 0.0, 0.0, 1.6444973896254303E9, 0.0, 2022-02-10 23:49:49.625
26.0, -9816.349722903935, -11991.532086316596, -5996.7942234032425, -13739.125578299234, -712.126578346083, -2028.063181407831, -2726.0858090026154, -3663.406212735917, -20801.963901753894, -15486.2049801594, -22579.57578654001, -13958.28443268352, -7232.979802248455, -11322.879650936085, -5024.09100819719, -9018.683018527392, 0.011, -0.019000000000000003, 0.992, 192.0, 0.0, 40.0, 127.5, 48.0, 15.0, 120.0, 0.0, 0.0, 0.0, 1.6444973896254375E9, 0.0, 2022-02-10 23:49:49.625
28.0, -9808.75012978913, -11977.964577432225, -6002.940953128452, -13745.294659768899, -723.0789331291835, -2021.7823412158898, -2739.3627452090677, -3659.5170092006933, -20803.841448288138, -15489.289520894234, -22570.165702124323, -13951.28833666901, -7238.970069762478, -11315.302409565737, -5017.676057538517, -9011.73162600179, 0.011, -0.019000000000000003, 0.992, 192.0, 0.0, 0.0, 0.0, 0.0, 0.0, 0.0, 0.0, 0.0, 0.0, 1.6444973896254444E9, 0.0, 2022-02-10 23:49:49.625
30.0, -9818.60724909392, -11995.667159040828, -6002.985656617362, -13742.366581245255, -710.2713835562926, -2017.06612313582, -2725.7505328357856, -3661.886294112956, -20804.3108349217, -15486.383794115043, -22586.66128953234, -13966.867502554358, -7235.885529027645, -11299.633836702567, -5020.425322106519, -9015.01733243672, 0.011, -0.019000000000000003, 0.992, 192.0, 0.0, 0.0, 0.0, 0.0, 0.0, 0.0, 0.0, 0.0, 0.0, 1.644497389625451E9, 0.0, 2022-02-10 23:49:49.625
32.0, -9817.243792682148, -11997.343539874977, -5996.9730373588845, -13746.099322569291, -706.0692555986948, -2012.1710911001078, -2716.765131564752, -3659.405250478417, -20794.341956894634, -15484.506247580797, -22566.254146844643, -13945.007496477068, -7221.6027643207035, -11295.655226189521, -5011.819900491226, -9011.195184134864, 0.011, -0.019000000000000003, 0.992, 192.0, 0.0, 0.0, 0.0, 0.0, 0.0, 0.0, 0.0, 0.0, 0.0, 1.6444973896254582E9, 0.0, 2022-02-10 23:49:49.625
34.0, -9822.250583440136, -11990.347443860466, -6007.1877845749605, -13740.936069600115, -715.6358022255662, -2023.391666816672, -2733.35012595059, -3667.6083406935145, -20797.091221462637, -15486.584959815142, -22582.03447843009, -13949.813121534959, -7224.955525988999, -11282.825324872176, -5017.899574983069, -9014.570297547614, 0.011, -0.019000000000000003, 0.992, 192.0, 0.0, 0.0, 0.0, 0.0, 0.0, 0.0, 0.0, 0.0, 0.0, 1.6444973896254652E9, 0.0, 2022-02-10 23:49:49.625
36.0, -9814.829804280973, -11988.425193837309, -5992.99442684584, -13732.554165429374, -694.3345897596586, -2008.2818875648843, -2719.2461751992914, -3654.7784393761685, -20792.375003382567, -15484.148619669513, -22574.32312659301, -13944.962792988157, -7220.015790464377, -11305.177069327483, -5015.217365648433, -9012.02219867971, 0.010499999999999999, -0.019500000000000003, 0.991, 192.0, 0.0, 40.0, 127.5, 48.0, 15.0, 120.0, 0.0, 0.0, 0.0, 1.6444973896254723E9, 0.0, 2022-02-10 23:49:49.625
38.0, -9822.965839262706, -11989.006339193147, -5997.04009259225, -13737.67271490964, -704.6834474424658, -2026.319745340317, -2714.842881541596, -3665.2837592701626, -20801.382756398056, -15492.128192440057, -22565.091856132967, -13946.035676722013, -7222.8321102657455, -11304.238296060359, -5004.041493420779, -9012.111605657532, 0.010499999999999999, -0.019500000000000003, 0.991, 192.0, 0.0, 0.0, 0.0, 0.0, 0.0, 0.0, 0.0, 0.0, 0.0, 1.6444973896254814E9, 0.0, 2022-02-10 23:49:49.625
40.0, -9818.115510715903, -11987.50877231464, -5998.5600112152115, -13738.835005621315, -703.4988049863344, -2020.3741813152053, -2709.545518105688, -3660.6792999123695, -20800.35457615311, -15489.267169149778, -22578.927585950805, -13957.613880349862, -7221.7145230429805, -11312.150813597538, -5011.663438280039, -9015.777291748202, 0.010499999999999999, -0.019500000000000003, 0.991, 192.0, 0.0, 0.0, 0.0, 0.0, 0.0, 0.0, 0.0, 0.0, 0.0, 1.6444973896255002E9, 0.0, 2022-02-10 23:49:49.625
42.0, -9801.284647141058, -11981.406746078343, -5998.80588040422, -13742.545395200897, -702.2918107857479, -2019.25659409244, -2720.5649281221545, -3660.791058634646, -20797.53825635174, -15489.937721483437, -22561.426170042298, -13953.344697158898, -7225.268450411374, -11304.28299954927, -5008.534194056296, -9014.838518481078, 0.010499999999999999, -0.019500000000000003, 0.991, 192.0, 0.0, 0.0, 0.0, 0.0, 0.0, 0.0, 0.0, 0.0, 0.0, 1.6444973896255069E9, 0.0, 2022-02-10 23:49:49.625
44.0, -9826.273897442092, -11992.76143226164, -6009.244145064848, -13742.38893298971, -719.7038197164321, -2036.0874576672863, -2730.936137549417, -3670.2011430503303, -20804.601407599617, -15489.78125927225, -22578.502902806154, -13949.85782502387, -7234.142092960131, -11318.81163344522, -5014.680923781505, -9021.208765650841, 0.010499999999999999, -0.019500000000000003, 0.991, 192.0, 0.0, 0.0, 0.0, 0.0, 0.0, 0.0, 0.0, 0.0, 0.0, 1.6444973896255133E9, 0.0, 2022-02-10 23:49:49.625
46.0, -9815.433301381267, -11978.635129765884, -6000.191688560449, -13745.227604535534, -707.9244503884853, -2019.8153877038228, -2719.8496722995847, -3661.1263348014754, -20805.271959933278, -15487.166105170978, -22578.391144083875, -13957.055086738479, -7237.9195377730775, -11312.664903720011, -5015.977324959913, -9022.236945895786, 0.010249999999999999, -0.018750000000000003, 0.9895, 192.0, 0.0, 40.0, 127.5, 56.0, 15.0, 112.0, 0.0, 0.0, 0.0, 1.6444973896255343E9, 0.0, 2022-02-10 23:49:49.625
48.0, -9820.261278183614, -11986.167667647323, -6006.517232241301, -13755.129427329235, -715.0099533808176, -2029.896024453166, -2720.028486255227, -3672.8162971516012, -20804.981387255357, -15490.518866839275, -22565.158911366336, -13946.348601144386, -7225.581374833749, -11280.433688215458, -5010.501147568363, -9020.985248206289, 0.010249999999999999, -0.018750000000000003, 0.9895, 192.0, 0.0, 0.0, 0.0, 0.0, 0.0, 0.0, 0.0, 0.0, 0.0, 1.6444973896255412E9, 0.0, 2022-02-10 23:49:49.625
50.0, -9817.780234549075, -12004.272580656121, -6015.368523045603, -13752.134293572224, -722.0060493953288, -2035.774533244912, -2719.782617066219, -3673.3303872740735, -20808.58001811266, -15502.812326289693, -22585.230777887202, -13966.934557787725, -7242.747514575424, -11316.777624699787, -5016.84904299367, -9025.276783141708, 0.010249999999999999, -0.018750000000000003, 0.9895, 192.0, 0.0, 0.0, 0.0, 0.0, 0.0, 0.0, 0.0, 0.0, 0.0, 1.6444973896255484E9, 0.0, 2022-02-10 23:49:49.625
52.0, -9821.937659017762, -11996.091842185479, -6007.232488063871, -13752.96130811707, -710.4054940230244, -2028.286698852384, -2721.0119630112604, -3668.681224427369, -20812.379814670065, -15502.499401867319, -22571.99854516966, -13965.280528698031, -7248.693078600536, -11323.550203269746, -5019.039513950291, -9023.488643585282, 0.010249999999999999, -0.018750000000000003, 0.9895, 192.0, 0.0, 0.0, 0.0, 0.0, 0.0, 0.0, 0.0, 0.0, 0.0, 1.6444973896255553E9, 0.0, 2022-02-10 23:49:49.625
54.0, -9835.683981857776, -11995.711862529739, -6013.110996855617, -13748.155683059178, -721.2013865949377, -2033.964041944032, -2730.869082316051, -3677.44310825385, -20814.637340860052, -15506.321550169177, -22576.178321382802, -13958.66441233926, -7242.702811086513, -11316.308238066225, -5021.0511709512675, -9028.026047709709, 0.010249999999999999, -0.018750000000000003, 0.9895, 192.0, 0.0, 0.0, 0.0, 0.0, 0.0, 0.0, 0.0, 0.0, 0.0, 1.6444973896255624E9, 0.0, 2022-02-10 23:49:49.625
56.0, -9828.062036998515, -11987.441717081276, -6004.326761284681, -13746.1440260582, -710.8525289121305, -2021.3129545823283, -2717.2792216872244, -3663.339157502551, -20809.541143124243, -15504.667521079484, -22570.724495735707, -13950.61778433535, -7235.8631772831895, -11308.686293206965, -5020.827653506715, -9020.962896461833, 0.011125, -0.017375, 0.98875, 192.0, 0.0, 48.0, 127.5, 64.0, 15.0, 112.0, 0.0, 0.0, 0.0, 1.6444973896255813E9, 0.0, 2022-02-10 23:49:49.625
58.0, -9829.738417832663, -11983.105478656946, -6013.021589877795, -13755.86703489626, -727.7504477203427, -2030.2983558533617, -2732.478407916833, -3675.6773204418805, -20809.943474524436, -15503.393471645531, -22559.012181641127, -13950.438970379708, -7236.489026127938, -11298.00215935733, -5018.257202894354, -9022.236945895786, 0.011125, -0.017375, 0.98875, 192.0, 0.0, 0.0, 0.0, 0.0, 0.0, 0.0, 0.0, 0.0, 0.0, 1.644497389625588E9, 0.0, 2022-02-10 23:49:49.625
60.0, -9834.745208590652, -11998.148202675367, -6022.141101615561, -13755.844683151805, -723.0118778958175, -2038.032059434898, -2718.9779542658275, -3675.565561719604, -20818.861820562106, -15505.963922257892, -22579.464027817732, -13979.652700382794, -7233.471540626471, -11318.543412511757, -5026.907327998559, -9027.64606805397, 0.011125, -0.017375, 0.98875, 192.0, 0.0, 0.0, 0.0, 0.0, 0.0, 0.0, 0.0, 0.0, 0.0, 1.6444973896255944E9, 0.0, 2022-02-10 23:49:49.625
62.0, -9837.561528392022, -12010.352255147965, -6018.676581224988, -13756.291718040911, -718.5862324936668, -2033.673469266113, -2714.552308863677, -3677.9795501207773, -20824.06977702019, -15509.629608348563, -22575.977155682704, -13957.368011160854, -7242.725162830969, -11321.315028824214, -5018.458368594453, -9028.45073085436, 0.011125, -0.017375, 0.98875, 192.0, 0.0, 0.0, 0.0, 0.0, 0.0, 0.0, 0.0, 0.0, 0.0, 1.644497389625601E9, 0.0, 2022-02-10 23:49:49.625
64.0, -9847.508054674632, -11998.595237564474, -6028.868976696608, -13755.755276173983, -727.9739651648957, -2042.0106699479427, -2728.2762799592356, -3675.9678931197996, -20825.321474709686, -15516.670407851983, -22584.493170320176, -13959.245557695098, -7240.132360474153, -11320.644476490555, -5020.917060484536, -9030.887070999988, 0.011125, -0.017375, 0.98875, 192.0, 0.0, 0.0, 0.0, 0.0, 0.0, 0.0, 0.0, 0.0, 0.0, 1.6444973896256075E9, 0.0, 2022-02-10 23:49:49.625
66.0, -9827.927926531784, -11981.742022245173, -6021.738770215366, -13756.917566885659, -713.8253109246864, -2028.9572511860433, -2714.77582630823, -3665.462573225805, -20818.2136199729, -15507.103861225112, -22580.156931895846, -13962.28539494102, -7245.049744254321, -11312.061406619718, -5022.772255274326, -9024.673286041414, 0.010562499999999999, -0.018687500000000003, 0.988375, 192.0, 0.0, 40.0, 127.5, 48.0, 15.0, 112.0, 0.0, 0.0, 0.0, 1.6444973896256144E9, 0.0, 2022-02-10 23:49:49.625
68.0, -9836.309830702523, -11985.027728680103, -6021.738770215366, -13758.996279120003, -719.480302271879, -2035.9980506894651, -2727.4045619254784, -3675.6996721863356, -20820.851125818626, -15511.909486283004, -22578.100571405957, -13954.462284381663, -7240.758209318902, -11297.912752379509, -5018.123092427622, -9024.203899407852, 0.010562499999999999, -0.018687500000000003, 0.988375, 192.0, 0.0, 0.0, 0.0, 0.0, 0.0, 0.0, 0.0, 0.0, 0.0, 1.644497389625621E9, 0.0, 2022-02-10 23:49:49.625
70.0, -9840.221385982202, -11992.582618305996, -6024.488034783368, -13757.76693317496, -714.5182150028008, -2038.993184446476, -2724.990573524305, -3677.599570465037, -20818.906524051014, -15507.662654836495, -22581.922719707814, -13967.292185699009, -7243.015735508888, -11309.826232174186, -5022.6381448075945, -9031.110588444542, 0.010562499999999999, -0.018687500000000003, 0.988375, 192.0, 0.0, 0.0, 0.0, 0.0, 0.0, 0.0, 0.0, 0.0, 0.0, 1.6444973896256297E9, 0.0, 2022-02-10 23:49:49.625
72.0, -9834.298173701545, -11984.401879835354, -6019.704761469932, -13762.527854743941, -706.0692555986948, -2041.5412833143812, -2717.748608320786, -3674.515029730205, -20818.0124542728, -15508.266151936788, -22571.484455047186, -13951.355391902374, -7236.0419912388315, -11327.260592849327, -5017.5866505606955, -9031.557623333649, 0.010562499999999999, -0.018687500000000003, 0.988375, 192.0, 0.0, 0.0, 0.0, 0.0, 0.0, 0.0, 0.0, 0.0, 0.0, 1.6444973896256363E9, 0.0, 2022-02-10 23:49:49.625
74.0, -9843.015354039117, -11997.410595108342, -6027.147892373549, -13765.2994710564, -724.1071133741276, -2042.7929810038784, -2727.4939689032994, -3682.3828437784728, -20820.649960118528, -15518.682064852961, -22581.967423196726, -13964.207644964177, -7235.773770305368, -11323.751368969843, -5018.793644761282, -9036.78793153619, 0.010562499999999999, -0.018687500000000003, 0.988375, 192.0, 0.0, 0.0, 0.0, 0.0, 0.0, 0.0, 0.0, 0.0, 0.0, 1.6444973896256428E9, 0.0, 2022-02-10 23:49:49.625
76.0, -9823.457577640722, -11985.072432169012, -6013.043941622251, -13756.291718040911, -703.5658602197004, -2023.5257772834036, -2709.769035550241, -3660.880465612467, -20812.849201303627, -15516.715111340895, -22575.999507427157, -13955.512816371061, -7239.305345929307, -11297.756290168321, -5016.558470315751, -9032.585803578593, 0.00828125, -0.023343750000000003, 0.9891875, 192.0, 0.0, 24.0, 127.5, 16.0, 15.0, 120.0, 0.0, 0.0, 0.0, 1.6444973896256497E9, 0.0, 2022-02-10 23:49:49.625
78.0, -9831.459502155722, -11994.236647395688, -6022.766950460309, -13758.862168653272, -719.3685435496025, -2035.7521815004566, -2727.315154947657, -3667.9659686047994, -20808.758832068306, -15512.580038616663, -22555.74882695065, -13944.918089499246, -7228.867081268679, -11314.028360131784, -5008.80241498976, -9025.433245352895, 0.00828125, -0.023343750000000003, 0.9891875, 192.0, 0.0, 0.0, 0.0, 0.0, 0.0, 0.0, 0.0, 0.0, 0.0, 1.644497389625656E9, 0.0, 2022-02-10 23:49:49.625
80.0, -9829.42549341029, -11994.348406117966, -6024.33157257218, -13758.10220934179, -717.0663138707059, -2031.1030186537528, -2727.1139892475594, -3672.1233930734866, -20815.39730017153, -15514.010550261803, -22577.251205116656, -13963.604147863884, -7234.767941804879, -11302.584266970667, -5023.3981041190755, -9030.9317744889, 0.00828125, -0.023343750000000003, 0.9891875, 192.0, 0.0, 0.0, 0.0, 0.0, 0.0, 0.0, 0.0, 0.0, 0.0, 1.6444973896256628E9, 0.0, 2022-02-10 23:49:49.625
82.0, -9823.301115429535, -11991.174458405312, -6017.581345746678, -13758.929223886636, -707.0527323547283, -2031.6841640095909, -2719.8943757884954, -3671.7881169066573, -20814.4138234155, -15516.849221807626, -22566.05298114455, -13961.838360051914, -7234.209148193497, -11312.664903720011, -5016.08908368219, -9026.997867464766, 0.00828125, -0.023343750000000003, 0.9891875, 192.0, 0.0, 0.0, 0.0, 0.0, 0.0, 0.0, 0.0, 0.0, 0.0, 1.6444973896256692E9, 0.0, 2022-02-10 23:49:49.625
84.0, -9847.99979305265, -11991.062699683036, -6024.219813849904, -13766.551168745897, -715.3228778031919, -2042.8153327483337, -2727.4939689032994, -3675.63261695297, -20817.341901939144, -15524.851146322626, -22573.98785042618, -13966.666336854261, -7230.208185935997, -11318.76692995631, -5011.104644668656, -9032.78696927869, 0.00828125, -0.023343750000000003, 0.9891875, 192.0, 0.0, 0.0, 0.0, 0.0, 0.0, 0.0, 0.0, 0.0, 0.0, 1.6444973896256769E9, 0.0, 2022-02-10 23:49:49.625
86.0, -9836.868624313907, -11996.985911963691, -6018.944802158452, -13762.460799510574, -707.544470732745, -2031.5053500539484, -2720.766093822252, -3671.206971550819, -20814.97261702688, -15520.336093942655, -22573.697277748262, -13964.207644964177, -7233.583299348748, -11309.267438562803, -5011.663438280039, -9031.937602989388, 0.006, -0.022, 0.99, 192.0, 0.0, 24.0, 127.5, 40.0, 15.0, 120.0, 0.0, 0.0, 0.0, 1.6444973896256835E9, 0.0, 2022-02-10 23:49:49.625
88.0, -9833.337048689968, -11986.346481602965, -6021.783473704276, -13759.018630864459, -714.0935318581501, -2038.4567425795487, -2724.543538635199, -3677.756032676224, -20817.051329261223, -15520.73842534285, -22565.18126311079, -13957.502121627585, -7233.67270632657, -11324.019589903306, -5012.356342358154, -9030.752960533257, 0.006, -0.022, 0.99, 192.0, 0.0, 0.0, 0.0, 0.0, 0.0, 0.0, 0.0, 0.0, 0.0, 1.6444973896256902E9, 0.0, 2022-02-10 23:49:49.625
90.0, -9839.461426670721, -12004.876077756415, -6023.213985349415, -13763.176055333144, -720.5755377501891, -2044.8940449826773, -2727.963355536861, -3677.6219222094924, -20803.416765143487, -15505.986274002347, -22572.691449247774, -13958.61970885035, -7225.067284711276, -11309.401549029535, -5018.905403483558, -9034.664515812936, 0.006, -0.022, 0.99, 192.0, 0.0, 0.0, 0.0, 0.0, 0.0, 0.0, 0.0, 0.0, 0.0, 1.644497389625697E9, 0.0, 2022-02-10 23:49:49.625
92.0, -9832.197109722747, -12006.731272546205, -6019.123616114094, -13770.418020536665, -716.9322034039741, -2038.032059434898, -2728.7903700817074, -3675.5879134640595, -20830.909410823515, -15529.477957424875, -22574.4795888042, -13961.838360051914, -7240.28882268534, -11321.918525924508, -5019.397141861576, -9035.044495468675, 0.006, -0.022, 0.99, 192.0, 0.0, 0.0, 0.0, 0.0, 0.0, 0.0, 0.0, 0.0, 0.0, 1.644497389625703E9, 0.0, 2022-02-10 23:49:49.625
94.0, -9845.474045929199, -11999.243438153677, -6026.186767361971, -13768.607529235785, -728.1974826094488, -2046.2351496499957, -2744.481294689333, -3677.3313495315733, -20826.863745077106, -15535.200004005434, -22573.27259460361, -13967.381592676831, -7237.025467994866, -11317.00114214434, -5023.509862841352, -9035.826806524612, 0.006, -0.022, 0.99, 192.0, 0.0, 0.0, 0.0, 0.0, 0.0, 0.0, 0.0, 0.0, 0.0, 1.6444973896257105E9, 0.0, 2022-02-10 23:49:49.625
96.0, -9833.51586264561, -11996.360063118944, -6021.00116264834, -13770.10509611429, -711.6348399680662, -2033.3381930992834, -2707.1762331934256, -3668.34594826054, -20827.780166599772, -15530.774358603283, -22576.89357720537, -13972.030755523534, -7235.326735416262, -11301.936066381462, -5021.8111302627485, -9029.031876210198, 0.006, -0.022, 0.996, 192.0, 0.0, 24.0, 127.5, 40.0, 15.5, 16.0, 0.0, 0.0, 0.0, 1.6444973896257315E9, 0.0, 2022-02-10 23:49:49.625
98.0, -9833.605269623431, -11994.303702629055, -6026.231470850882, -13774.82131419436, -715.4122847810131, -2052.493638097482, -2719.1120647325597, -3684.8638874130115, -20827.757814855315, -15524.560573644707, -22571.41739981382, -13963.917072286258, -7234.544424360326, -11316.934086910975, -5010.702313268461, -9028.78600702119, 0.006, -0.022, 0.996, 192.0, 0.0, 0.0, 0.0, 0.0, 0.0, 0.0, 0.0, 0.0, 0.0, 1.6444973896257389E9, 0.0, 2022-02-10 23:49:49.625
100.0, -9821.89295552885, -11974.544760530564, -6024.085703383173, -13769.38984029172, -714.0488283692395, -2039.7307920135013, -2714.194680952392, -3677.465459998305, -20823.42157643099, -15525.991085289847, -22586.19190289878, -13977.082249770434, -7227.682438812547, -11329.294601594758, -5017.340781371687, -9036.922042002921, 0.006, -0.022, 0.996, 192.0, 0.0, 0.0, 0.0, 0.0, 0.0, 0.0, 0.0, 0.0, 0.0, 1.6444973896257455E9, 0.0, 2022-02-10 23:49:49.625
102.0, -9818.316676416001, -11969.917949428314, -6018.989505647362, -13770.19450309211, -706.5609939767115, -2040.7813240029006, -2715.6922478308975, -3673.2856837851627, -20817.006625772316, -15505.762756557795, -22566.18709161128, -13961.838360051914, -7232.443360381528, -11316.934086910975, -5014.5915168036845, -9024.717989530325, 0.006, -0.022, 0.996, 192.0, 0.0, 0.0, 0.0, 0.0, 0.0, 0.0, 0.0, 0.0, 0.0, 1.6444973896257553E9, 0.0, 2022-02-10 23:49:49.625
104.0, -9839.886109815372, -11991.822658994515, -6030.567709275211, -13771.468552526065, -728.0186686538063, -2052.203065419563, -2739.005117297783, -3684.8415356685564, -20828.830698589172, -15522.772434088283, -22575.3289550935, -13960.698421084693, -7236.0419912388315, -11314.47539502089, -5025.409761120053, -9032.138768689487, 0.006, -0.022, 0.996, 192.0, 0.0, 0.0, 0.0, 0.0, 0.0, 0.0, 0.0, 0.0, 0.0, 1.6444973896257625E9, 0.0, 2022-02-10 23:49:49.625
106.0, -9818.674304327287, -11988.916932215327, -6022.141101615561, -13763.757200688982, -714.8981946585411, -2032.2653093654287, -2723.7835793237186, -3670.670529683892, -20825.969675298893, -15527.958038801915, -22573.2278911147, -13970.95787178968, -7236.109046472197, -11312.24022057536, -5034.506921113363, -9029.50126284376, 0.004, -0.028, 0.996, 192.0, 0.0, 16.0, 127.5, 16.0, 15.5, 16.0, 0.0, 0.0, 0.0, 1.6444973896257691E9, 0.0, 2022-02-10 23:49:49.625
108.0, -9825.066903241504, -11995.644807296374, -6024.644496994555, -13760.292680298411, -720.2402615833595, -2039.0155361909315, -2724.2753177017353, -3675.766727419702, -20822.885134564058, -15527.22043123489, -22559.056885130034, -13951.37774364683, -7228.57650859076, -11311.100281608138, -5022.66049655205, -9023.555698818649, 0.004, -0.028, 0.996, 192.0, 0.0, 0.0, 0.0, 0.0, 0.0, 0.0, 0.0, 0.0, 0.0, 1.6444973896257763E9, 0.0, 2022-02-10 23:49:49.625
110.0, -9820.305981672524, -11986.972330447714, -6022.8563574381305, -13757.811636663871, -720.7319999613762, -2040.133123413697, -2744.570701667154, -3691.055320627132, -20824.40505318702, -15530.17086150299, -22575.306603349043, -13958.37383966134, -7226.2966306563185, -11309.021569373796, -5028.583708832706, -9029.076579699109, 0.004, -0.028, 0.996, 192.0, 0.0, 0.0, 0.0, 0.0, 0.0, 0.0, 0.0, 0.0, 0.0, 1.6444973896258154E9, 0.0, 2022-02-10 23:49:49.625
112.0, -9799.563562817999, -11974.522408786108, -6016.419055035002, -13760.471494254052, -720.6649447280104, -2043.4411815930823, -2763.0779460761487, -3698.341989319562, -20817.02897751677, -15515.083433995658, -22558.520443263107, -13941.654734808772, -7220.574584075759, -11301.220810558892, -5028.963688488447, -9030.26122215524, 0.004, -0.028, 0.996, 192.0, 0.0, 0.0, 0.0, 0.0, 0.0, 0.0, 0.0, 0.0, 0.0, 1.6444973896258366E9, 0.0, 2022-02-10 23:49:49.625
114.0, -9838.366191192412, -11987.329958359, -6026.47734003989, -13770.038040880925, -728.7115727319209, -2056.5393038438924, -2708.1150064605486, -3673.240980296252, -20827.0649107772, -15524.202945733423, -22567.304678834043, -13952.674144825238, -7234.075037726765, -11322.544374769257, -5029.90246175557, -9039.179568192909, 0.004, -0.028, 0.996, 192.0, 0.0, 0.0, 0.0, 0.0, 0.0, 0.0, 0.0, 0.0, 0.0, 1.6444973896258433E9, 0.0, 2022-02-10 23:49:49.625
116.0, -9818.048455482538, -11973.248359352156, -6013.558031744723, -13767.601700735297, -707.7456364328428, -2043.1059054262528, -2700.4260063679226, -3659.1370295449533, -20826.148489254534, -15525.901678312026, -22579.732248751196, -13960.631365851328, -7238.500683128916, -11326.47828179339, -5029.343668144187, -9031.714085544836, 0.004, -0.028, 0.996, 192.0, 0.0, 0.0, 127.5, 32.0, 15.5, 0.0, 0.0, 0.0, 0.0, 1.64449738962585E9, 0.0, 2022-02-10 23:49:49.625
118.0, -9813.019312980094, -11966.878112182392, -6011.836947421664, -13770.418020536665, -708.125616088583, -2049.8114287628446, -2715.0440472416935, -3673.0398145961544, -20808.088279734646, -15521.520736398787, -22544.975286123194, -13950.126045957333, -7223.435607366038, -11300.013816358307, -5026.169720431533, -9031.69173380038, 0.004, -0.028, 0.996, 192.0, 0.0, 0.0, 0.0, 0.0, 0.0, 0.0, 0.0, 0.0, 0.0, 1.644497389625857E9, 0.0, 2022-02-10 23:49:49.625
120.0, -9815.925039759284, -11962.787742947072, -6012.708665455421, -13767.601700735297, -712.0818748571724, -2046.0786874388086, -2728.5892043816098, -3679.790041421657, -20813.340939681642, -15526.88515506806, -22555.212385083723, -13962.91124378577, -7213.220860149963, -11307.546354239745, -5034.909252513558, -9035.960916991344, 0.004, -0.028, 0.996, 192.0, 0.0, 0.0, 0.0, 0.0, 0.0, 0.0, 0.0, 0.0, 0.0, 1.6444973901052535E9, 0.0, 2022-02-10 23:49:50.105
122.0, -9811.521746101589, -11979.193923377266, -6009.400607276036, -13772.988471149025, -701.9788863633736, -2037.3615071012387, -2698.280238900213, -3663.2944540136405, -20813.5644571262, -15519.129099742067, -22547.635143713374, -13947.980278489624, -7225.491967855927, -11290.156697053517, -5028.628412321617, -9031.848196011568, 0.004, -0.028, 0.996, 192.0, 0.0, 0.0, 0.0, 0.0, 0.0, 0.0, 0.0, 0.0, 0.0, 1.6444973901054313E9, 0.0, 2022-02-10 23:49:50.105
124.0, -9818.853118282928, -11987.173496147812, -6016.039075379262, -13768.696936213606, -713.870014413597, -2048.6267863067137, -2716.899242031484, -3666.1331255594646, -20820.649960118528, -15530.752006858827, -22562.454350287244, -13951.154226202278, -7230.655220825103, -11317.381121800081, -5032.092932712189, -9033.390466378984, 0.004, -0.028, 0.996, 192.0, 0.0, 0.0, 0.0, 0.0, 0.0, 0.0, 0.0, 0.0, 0.0, 1.6444973901054404E9, 0.0, 2022-02-10 23:49:50.105
126.0, -9809.84536526744, -11973.874208196905, -6009.467662509402, -13762.416096021665, -695.8545083826194, -2027.3479255852612, -2700.6271720680206, -3651.1574567744087, -20812.87155304808, -15514.681102595461, -22557.80518744054, -13938.212566162654, -7218.719389285969, -11316.040017132762, -5028.650764066072, -9024.561527319138, 0.006, -0.028, 0.988, 192.0, 0.0, 24.0, 127.5, 16.0, 15.0, 112.0, 0.0, 0.0, 0.0, 1.6444973901054475E9, 0.0, 2022-02-10 23:49:50.105
128.0, -9817.37790314888, -11959.077353367491, -6016.508462012824, -13771.043869381414, -705.644572454044, -2035.1710361446187, -2730.533806149221, -3668.636520938459, -20820.06881476269, -15526.482823667864, -22551.904326904336, -13941.162996430756, -7226.408389378595, -11297.778641912777, -5029.768351288838, -9025.992038964278, 0.006, -0.028, 0.988, 192.0, 0.0, 0.0, 0.0, 0.0, 0.0, 0.0, 0.0, 0.0, 0.0, 1.6444973901054547E9, 0.0, 2022-02-10 23:49:50.105
130.0, -9807.118452443892, -11968.263920338622, -6016.374351546091, -13764.405401278187, -705.0857788426613, -2037.6073762902472, -2730.489102660311, -3663.473267969283, -20815.77727982727, -15515.955152029414, -22562.208481098234, -13958.820874550447, -7218.115892185676, -11309.71447345191, -5038.552586859773, -9034.038666968187, 0.006, -0.028, 0.988, 192.0, 0.0, 0.0, 0.0, 0.0, 0.0, 0.0, 0.0, 0.0, 0.0, 1.6444973901054616E9, 0.0, 2022-02-10 23:49:50.105
132.0, -9794.22149589318, -11966.073449382002, -6012.753368944332, -13767.601700735297, -692.6805606699659, -2027.1914633740741, -2689.8536312405627, -3649.1010962845203, -20810.234047202357, -15512.714149083395, -22555.882937417384, -13941.073589452933, -7213.33261887224, -11312.553144997733, -5028.270784410332, -9022.147538917963, 0.006, -0.028, 0.988, 192.0, 0.0, 0.0, 0.0, 0.0, 0.0, 0.0, 0.0, 0.0, 0.0, 1.6444973901054685E9, 0.0, 2022-02-10 23:49:50.105
134.0, -9824.955144519228, -11973.337766329976, -6015.90496491253, -13765.858264667782, -708.1703195774936, -2037.8755972237109, -2714.932288519417, -3664.9708348477884, -20816.671349605484, -15526.549878901229, -22555.212385083723, -13940.850072008381, -7218.942906730522, -11293.598865699634, -5025.7450372868825, -9025.857928497546, 0.006, -0.028, 0.988, 192.0, 0.0, 0.0, 0.0, 0.0, 0.0, 0.0, 0.0, 0.0, 0.0, 1.644497390105494E9, 0.0, 2022-02-10 23:49:50.105
136.0, -9814.159251947314, -11964.732344714683, -6009.33355204267, -13767.15466584619, -696.7932816497424, -2027.7502569854566, -2713.5911838520988, -3661.9309976018667, -20815.285541449255, -15520.470204409386, -22557.13463510688, -13945.722752299638, -7215.14311017312, -11295.47641223388, -5030.595365833684, -9028.69660004337, 0.012, -0.024, 0.99, 192.0, 0.0, 48.0, 127.5, 32.0, 15.0, 120.0, 0.0, 0.0, 0.0, 1.6444973901055007E9, 0.0, 2022-02-10 23:49:50.105
138.0, -9817.08733047096, -11962.94420515826, -6006.673694452488, -13772.027346137447, -702.001238107829, -2044.35760311575, -2726.555195636177, -3676.213762308808, -20815.79963157173, -15514.032902006258, -22545.0199896121, -13950.774246546538, -7215.6124968066815, -11287.072156318683, -5020.984115717902, -9032.317582645128, 0.012, -0.024, 0.99, 192.0, 0.0, 0.0, 0.0, 0.0, 0.0, 0.0, 0.0, 0.0, 0.0, 1.6444973901055071E9, 0.0, 2022-02-10 23:49:50.105
140.0, -9821.244754939647, -11970.476743039697, -6015.994371890351, -13770.798000192404, -712.2606888128148, -2042.5024083259593, -2742.737858621819, -3650.9786428187663, -20820.471146162887, -15520.961942787402, -22563.61664099892, -13963.984127519623, -7220.216956164474, -11303.14306058205, -5030.193034433489, -9037.592594336582, 0.012, -0.024, 0.99, 192.0, 0.0, 0.0, 0.0, 0.0, 0.0, 0.0, 0.0, 0.0, 0.0, 1.644497390105514E9, 0.0, 2022-02-10 23:49:50.105
142.0, -9814.315714158502, -11970.2755773396, -6011.278153810282, -13767.62405247975, -702.3588660191139, -2042.7482775149679, -2698.324942389124, -3652.0068230637103, -20819.822945573684, -15525.387588189555, -22555.57001299501, -13949.790769790503, -7223.0109242213875, -11318.185784600471, -5030.215386177943, -9031.110588444542, 0.012, -0.024, 0.99, 192.0, 0.0, 0.0, 0.0, 0.0, 0.0, 0.0, 0.0, 0.0, 0.0, 1.6444973901055229E9, 0.0, 2022-02-10 23:49:50.105
144.0, -9826.564470120009, -11978.858647210438, -6021.582308004178, -13773.100229871301, -720.7990551947422, -2062.21664693554, -2722.710695589864, -3675.2526372972297, -20829.165974756, -15525.45464342292, -22560.733265964183, -13953.411752392263, -7225.71548530048, -11337.00595343184, -5030.036572222301, -9036.49735885827, 0.012, -0.024, 0.99, 192.0, 0.0, 0.0, 0.0, 0.0, 0.0, 0.0, 0.0, 0.0, 0.0, 1.6444973901055436E9, 0.0, 2022-02-10 23:49:50.105
146.0, -9822.56350786251, -11986.257074625144, -6015.23441257887, -13771.91558741517, -717.8486249266416, -2048.962062473543, -2743.855445844584, -3662.802715635624, -20829.635361389563, -15532.003704548324, -22563.41547529882, -13963.805313563982, -7228.040066723832, -11319.750406712343, -5042.7100113284605, -9041.951184505366, 0.01, -0.02, 0.988, 192.0, 0.0, 40.0, 127.5, 48.0, 15.0, 112.0, 0.0, 0.0, 0.0, 1.6444973901055503E9, 0.0, 2022-02-10 23:49:50.105
148.0, -9831.571260878, -11996.494173585676, -6021.291735326259, -13775.648328739206, -725.0682383857059, -2063.937731258599, -2739.6533178869868, -3673.553904718626, -20831.624666646083, -15540.720884885895, -22554.94416415026, -13955.736333815616, -7239.14888371812, -11319.370427056603, -5037.636165337106, -9039.112512959542, 0.01, -0.02, 0.988, 192.0, 0.0, 0.0, 0.0, 0.0, 0.0, 0.0, 0.0, 0.0, 0.0, 1.6444973901055572E9, 0.0, 2022-02-10 23:49:50.105
150.0, -9835.818092324507, -11985.452411824754, -6025.337401072669, -13775.670680483661, -724.9564796634293, -2058.3050916558614, -2722.643640356498, -3665.3508145035285, -20836.474995192886, -15541.637306408562, -22573.116132392424, -13972.0978107569, -7239.260642440396, -11324.868956192608, -5039.8936915270915, -9044.164007206442, 0.01, -0.02, 0.988, 192.0, 0.0, 0.0, 0.0, 0.0, 0.0, 0.0, 0.0, 0.0, 0.0, 1.644497390105564E9, 0.0, 2022-02-10 23:49:50.105
152.0, -9821.937659017762, -11972.622510507406, -6017.6931044689545, -13774.307224071888, -704.3034677867255, -2040.0660681803308, -2704.806948281163, -3652.72207888628, -20828.40601544452, -15543.64896340954, -22561.627335742396, -13968.677993855239, -7230.342296402729, -11315.861203177119, -5025.052133208768, -9033.859853012545, 0.01, -0.02, 0.988, 192.0, 0.0, 0.0, 0.0, 0.0, 0.0, 0.0, 0.0, 0.0, 0.0, 1.6444973901055713E9, 0.0, 2022-02-10 23:49:50.105
154.0, -9833.359400434423, -11987.933455459292, -6023.370447560603, -13778.44229679612, -722.0060493953288, -2059.422678878627, -2741.3073469766796, -3681.019387366699, -20834.865669592105, -15541.771416875294, -22567.438789300777, -13975.808200336482, -7225.693133556025, -11327.081778893684, -5030.640069322595, -9036.542062347182, 0.009000000000000001, -0.022, 0.989, 192.0, 0.0, 32.0, 127.5, 32.0, 15.0, 120.0, 0.0, 0.0, 0.0, 1.644497390105578E9, 0.0, 2022-02-10 23:49:50.105
156.0, -9815.187432192259, -11975.41647856432, -6020.151796359039, -13774.82131419436, -717.3121830597142, -2053.812391020345, -2734.2665474732576, -3678.739509432258, -20831.512907923807, -15543.045466309246, -22566.36590556692, -13960.541958873506, -7226.453092867505, -11338.458816821434, -5037.680868826016, -9045.21453919584, 0.009000000000000001, -0.022, 0.989, 192.0, 0.0, 0.0, 0.0, 0.0, 0.0, 0.0, 0.0, 0.0, 0.0, 1.6444973901055849E9, 0.0, 2022-02-10 23:49:50.105
158.0, -9820.708313072719, -11975.908216942336, -6029.00308716334, -13782.53266603144, -723.5259680182896, -2059.1097544562526, -2727.9186520479507, -3670.312901772607, -20833.010474802315, -15544.766550632305, -22553.625411227396, -13952.674144825238, -7234.209148193497, -11332.915584196518, -5036.4291711365195, -9044.231062439807, 0.009000000000000001, -0.022, 0.989, 192.0, 0.0, 0.0, 0.0, 0.0, 0.0, 0.0, 0.0, 0.0, 0.0, 1.6444973901055915E9, 0.0, 2022-02-10 23:49:50.105
160.0, -9832.934717289772, -11976.288196598078, -6037.295584356259, -13787.53945678943, -726.0740668861946, -2054.5947020762806, -2735.719410862853, -3677.2195908092967, -20840.990047572857, -15548.320478000698, -22579.240510373176, -13979.160962004777, -7230.386999891639, -11335.888366209074, -5045.392220663098, -9049.21550145334, 0.009000000000000001, -0.022, 0.989, 192.0, 0.0, 0.0, 0.0, 0.0, 0.0, 0.0, 0.0, 0.0, 0.0, 1.6444973901055984E9, 0.0, 2022-02-10 23:49:50.105
162.0, -9828.620830609898, -11974.544760530564, -6027.7290377293875, -13778.82227645186, -707.1421393325495, -2050.839609007789, -2729.483274159822, -3669.5529424611263, -20841.70530339543, -15550.019210579303, -22566.142388122367, -13966.442819409707, -7232.957450504, -11330.05456090624, -5036.1385984586, -9040.07363797112, 0.009000000000000001, -0.022, 0.989, 192.0, 0.0, 0.0, 0.0, 0.0, 0.0, 0.0, 0.0, 0.0, 0.0, 1.644497390105606E9, 0.0, 2022-02-10 23:49:50.105
164.0, -9841.026048782594, -11980.602083277952, -6035.060409910729, -13780.364546819275, -718.0721423711947, -2056.8745800107217, -2730.3102887046684, -3685.757957191224, -20840.02892256128, -15551.494425713352, -22565.069504388513, -13963.604147863884, -7224.128511444153, -11335.463683064423, -5034.126941457623, -9043.761675806247, 0.0115, -0.023, 0.9904999999999999, 192.0, 0.0, 56.0, 127.5, 32.0, 15.5, 0.0, 0.0, 0.0, 0.0, 1.6444973901056132E9, 0.0, 2022-02-10 23:49:50.105
166.0, -9835.28165045758, -11978.545722788063, -6030.232433108382, -13782.264445097977, -713.1994620799378, -2040.3119373693394, -2730.511454404766, -3650.084573040554, -20834.55274516973, -15544.69949539894, -22568.623431756907, -13974.24357822461, -7221.513357342882, -11325.561860270724, -5042.33003167272, -9040.230100182307, 0.0115, -0.023, 0.9904999999999999, 192.0, 0.0, 0.0, 0.0, 0.0, 0.0, 0.0, 0.0, 0.0, 0.0, 1.6444973901056578E9, 0.0, 2022-02-10 23:49:50.105
168.0, -9840.623717382397, -11990.839182238482, -6030.81357846422, -13790.623997524262, -716.5075202593232, -2052.828914264311, -2722.330715934124, -3674.4479744968385, -20842.845242362648, -15553.886062370071, -22560.487396775174, -13958.61970885035, -7229.962316746988, -11328.802863216742, -5034.529272857818, -9039.671306570925, 0.0115, -0.023, 0.9904999999999999, 192.0, 0.0, 0.0, 0.0, 0.0, 0.0, 0.0, 0.0, 0.0, 0.0, 1.644497390105665E9, 0.0, 2022-02-10 23:49:50.105
170.0, -9842.881243572385, -11992.180286905801, -6035.5745000332, -13787.695919000616, -720.2179098389041, -2052.7171555420346, -2724.655297357476, -3670.7822884061684, -20843.98518132987, -15558.423466494498, -22574.792513226574, -13976.791677092515, -7232.555119103804, -11321.650304991044, -5044.1181712291445, -9045.50511187376, 0.0115, -0.023, 0.9904999999999999, 192.0, 0.0, 0.0, 0.0, 0.0, 0.0, 0.0, 0.0, 0.0, 0.0, 1.6444973901056728E9, 0.0, 2022-02-10 23:49:50.105
172.0, -9826.60917360892, -11973.896559941359, -6025.315049328215, -13784.92430268816, -702.157700319016, -2049.3643938737387, -2709.34435240559, -3654.018480064688, -20840.632419661575, -15552.164978047012, -22565.36007706643, -13971.404906678785, -7227.570680090271, -11308.127499595583, -5033.4340373795085, -9041.235928682796, 0.0115, -0.023, 0.9904999999999999, 192.0, 0.0, 0.0, 0.0, 0.0, 0.0, 0.0, 0.0, 0.0, 0.0, 1.64449739010568E9, 0.0, 2022-02-10 23:49:50.105
174.0, -9833.113531245415, -11954.629356220885, -6030.500654041845, -13783.560846276385, -715.18876733646, -2059.936769001099, -2733.3277742061346, -3673.0398145961544, -20837.771396371296, -15536.764626117305, -22560.308582819533, -13969.505008400085, -7228.263584168385, -11339.397590088558, -5031.511787356351, -9043.538158361693, 0.01175, -0.0225, 0.98825, 192.0, 0.0, 48.0, 127.5, 40.0, 15.0, 104.0, 0.0, 0.0, 0.0, 1.644497390105688E9, 0.0, 2022-02-10 23:49:50.105
176.0, -9818.584897349465, -11966.162856359822, -6029.226604607893, -13776.900026428704, -709.9137556450077, -2053.253597408962, -2733.73010560633, -3659.7405266452465, -20835.446814947943, -15540.02798080778, -22569.33868757948, -13979.42918293824, -7219.814624764279, -11342.280965123293, -5039.021973493334, -9047.963803763843, 0.01175, -0.0225, 0.98825, 192.0, 0.0, 0.0, 0.0, 0.0, 0.0, 0.0, 0.0, 0.0, 0.0, 1.6444973901056967E9, 0.0, 2022-02-10 23:49:50.105
178.0, -9845.541101162566, -11997.500002086164, -6031.394723820058, -13776.788267706426, -715.1664155920048, -2058.394498633683, -2725.482311902322, -3666.602512193026, -20845.61685867511, -15567.31946078771, -22560.88972817537, -13961.212511207166, -7216.2606973958855, -11319.348075312148, -5038.753752559871, -9045.46040838485, 0.01175, -0.0225, 0.98825, 192.0, 0.0, 0.0, 0.0, 0.0, 0.0, 0.0, 0.0, 0.0, 0.0, 1.6444973901057036E9, 0.0, 2022-02-10 23:49:50.105
180.0, -9849.318545975513, -11988.738118259684, -6032.422904065002, -13775.983604906036, -720.6872964724656, -2055.511123598948, -2721.749570578286, -3666.7813261486685, -20848.41082673202, -15568.79467592176, -22571.79737946956, -13972.81306657947, -7233.382133648651, -11332.6250115186, -5044.721668329438, -9048.857873542056, 0.01175, -0.0225, 0.98825, 192.0, 0.0, 0.0, 0.0, 0.0, 0.0, 0.0, 0.0, 0.0, 0.0, 1.6444973901057105E9, 0.0, 2022-02-10 23:49:50.105
182.0, -9829.939583532761, -11973.516580285619, -6021.649363237544, -13776.989433406525, -711.5677847347004, -2046.7045362835572, -2730.06441951566, -3665.5072767147158, -20845.639210419562, -15558.64698393905, -22563.348420065453, -13968.05214501049, -7224.217918421975, -11329.115787639117, -5040.385429905108, -9044.700449073369, 0.01175, -0.0225, 0.98825, 192.0, 0.0, 0.0, 0.0, 0.0, 0.0, 0.0, 0.0, 0.0, 0.0, 1.6444973901057174E9, 0.0, 2022-02-10 23:49:50.105
184.0, -9838.768522592607, -11969.023879650102, -6031.886462198075, -13781.862113697782, -719.6144127386109, -2058.036870722398, -2733.8865678175175, -3678.381881520973, -20840.364198728108, -15554.020172836803, -22562.253184587145, -13971.494313656607, -7213.4443775945165, -11317.96226715592, -5038.843159537692, -9047.717934574835, 0.009875, -0.021249999999999998, 0.989125, 192.0, 0.0, 32.0, 127.5, 48.0, 15.0, 120.0, 0.0, 0.0, 0.0, 1.6444973901057243E9, 0.0, 2022-02-10 23:49:50.105
186.0, -9832.912365545317, -11982.591388534474, -6027.885499940575, -13782.309148586888, -717.4686452709014, -2056.449896866071, -2711.1101402175595, -3667.8318581380677, -20845.952134841937, -15553.304917014233, -22573.540815537075, -13974.578854391439, -7217.110063685187, -11311.748482197343, -5039.8936915270915, -9051.383620665505, 0.009875, -0.021249999999999998, 0.989125, 192.0, 0.0, 0.0, 0.0, 0.0, 0.0, 0.0, 0.0, 0.0, 0.0, 1.6444973901057312E9, 0.0, 2022-02-10 23:49:50.105
188.0, -9849.184435508781, -11985.698281013762, -6026.924374928996, -13783.046756153914, -718.4297702824796, -2055.6899375545904, -2726.1305124915257, -3675.3867477639615, -20847.181480786978, -15552.835530380671, -22559.056885130034, -13968.230958966133, -7216.2606973958855, -11328.489938794368, -5041.324203172231, -9052.858835799556, 0.009875, -0.021249999999999998, 0.989125, 192.0, 0.0, 0.0, 0.0, 0.0, 0.0, 0.0, 0.0, 0.0, 0.0, 1.6444973901057382E9, 0.0, 2022-02-10 23:49:50.105
190.0, -9852.984232066183, -11992.627321794907, -6033.406380821036, -13779.224607852055, -727.0351918977728, -2058.8638852672443, -2733.126608506037, -3675.878486141978, -20847.31559125371, -15559.116370572612, -22566.4776642892, -13971.829589823437, -7207.3423513582175, -11335.977773186896, -5048.744982331394, -9057.284481201707, 0.009875, -0.021249999999999998, 0.989125, 192.0, 0.0, 0.0, 0.0, 0.0, 0.0, 0.0, 0.0, 0.0, 0.0, 1.6444973901057453E9, 0.0, 2022-02-10 23:49:50.105
192.0, -9837.785045836574, -11994.840144495982, -6026.589098762167, -13784.723136988061, -713.1324068465718, -2049.0738211958196, -2706.2374599263026, -3654.107887042509, -20849.103730810133, -15565.710135186928, -22561.381466553386, -13965.168769975755, -7217.870022996667, -11313.536621753767, -5042.911177028558, -9050.60130960957, 0.009875, -0.021249999999999998, 0.989125, 192.0, 0.0, 0.0, 0.0, 0.0, 0.0, 0.0, 0.0, 0.0, 0.0, 1.6444973901057518E9, 0.0, 2022-02-10 23:49:50.105
194.0, -9856.202883267748, -12001.456260854753, -6034.76983723281, -13790.042852168424, -722.1401598620606, -2064.3624144032497, -2729.5950328820986, -3675.118526830498, -20851.11538781111, -15572.080382356691, -22567.304678834043, -13973.81889507996, -7222.474482354461, -11324.824252703698, -5044.922834029536, -9056.055135256665, 0.0099375, -0.022625, 0.9905625, 192.0, 0.0, 40.0, 127.5, 32.0, 15.5, 0.0, 0.0, 0.0, 0.0, 1.644497390105759E9, 0.0, 2022-02-10 23:49:50.105
196.0, -9848.312717475024, -12003.534973089096, -6024.28686908327, -13789.64052076823, -703.4764532418792, -2055.9805102325095, -2700.2695441567357, -3671.542247717649, -20854.17757680149, -15576.617786481118, -22570.56803352452, -13984.39127020732, -7212.036217693832, -11305.221772816394, -5046.062772996756, -9060.056097514165, 0.0099375, -0.022625, 0.9905625, 192.0, 0.0, 0.0, 0.0, 0.0, 0.0, 0.0, 0.0, 0.0, 0.0, 1.6444973901057656E9, 0.0, 2022-02-10 23:49:50.105
198.0, -9863.735421149186, -12015.47080462823, -6023.370447560603, -13782.3538520758, -711.8807091570746, -2052.6724520531243, -2719.380285666023, -3663.7414889027464, -20853.708190167927, -15572.84034166817, -22558.83336768548, -13973.148342746299, -7213.198508405508, -11331.373313829103, -5036.406819392064, -9054.065830000143, 0.0099375, -0.022625, 0.9905625, 192.0, 0.0, 0.0, 0.0, 0.0, 0.0, 0.0, 0.0, 0.0, 0.0, 1.644497390105776E9, 0.0, 2022-02-10 23:49:50.105
200.0, -9893.999683141672, -12034.46978741524, -6026.253822595337, -13781.459782297587, -716.9322034039741, -2053.231245664507, -2716.452207142378, -3669.642349438948, -20860.503120482343, -15578.718850459916, -22576.401838827354, -13987.38640396433, -7212.438549094028, -11335.91071795353, -5043.1793979620215, -9054.870492800534, 0.0099375, -0.022625, 0.9905625, 192.0, 0.0, 0.0, 0.0, 0.0, 0.0, 0.0, 0.0, 0.0, 0.0, 1.6444973901057827E9, 0.0, 2022-02-10 23:49:50.105
202.0, -9931.640020804409, -12067.617424442462, -6030.768874975309, -13784.499619543509, -704.9740201203848, -2044.7152310270349, -2710.260773928258, -3669.888218627956, -20873.198911332955, -15582.026908639302, -22577.31826035002, -13981.418488194764, -7209.421063592561, -11326.411226560025, -5035.445694380485, -9052.434152654905, 0.0099375, -0.022625, 0.9905625, 192.0, 0.0, 0.0, 0.0, 0.0, 0.0, 0.0, 0.0, 0.0, 0.0, 1.6444973901057894E9, 0.0, 2022-02-10 23:49:50.105
204.0, -9998.516440214687, -12135.1643961864, -6045.409267593535, -13795.250808626512, -719.6591162275215, -2060.964949246043, -2725.34820143559, -3675.5879134640595, -20906.19008614899, -15607.79846999627, -22608.208371187255, -14006.117165817877, -7214.338447372729, -11332.893232452063, -5035.110418213656, -9056.993908523787, 0.01096875, -0.0203125, 0.99128125, 192.0, 0.0, 48.0, 127.5, 56.0, 15.5, 0.0, 0.0, 0.0, 0.0, 1.6444973901057966E9, 0.0, 2022-02-10 23:49:50.105
206.0, -10018.297734057634, -12165.003975034235, -6038.8825582125855, -13795.407270837697, -705.4657584984016, -2046.995108961476, -2718.2850501877133, -3673.576256463082, -20917.053033954267, -15629.971400495935, -22627.363816185454, -14028.670075973283, -7210.9186304710665, -11323.237278847371, -5034.864549024648, -9060.503132403272, 0.01096875, -0.0203125, 0.99128125, 192.0, 0.0, 0.0, 0.0, 0.0, 0.0, 0.0, 0.0, 0.0, 0.0, 1.6444973901058035E9, 0.0, 2022-02-10 23:49:50.105
208.0, -10070.690223060874, -12214.736606447294, -6042.257671625337, -13795.541381304429, -703.9234881309853, -2033.8746349662108, -2690.814756252141, -3642.1944072478304, -20930.62054283864, -15631.290153418799, -22625.2404004622, -14029.362980051397, -7209.532822314838, -11320.510366023824, -5023.822787263726, -9052.702373588369, 0.01096875, -0.0203125, 0.99128125, 192.0, 0.0, 0.0, 0.0, 0.0, 0.0, 0.0, 0.0, 0.0, 0.0, 1.6444973901058104E9, 0.0, 2022-02-10 23:49:50.105
210.0, -10087.610493613542, -12221.866812928536, -6048.918491473019, -13787.15947713369, -700.3248572736809, -2033.002916932454, -2691.0829771856042, -3641.1662270028864, -20943.316333689254, -15633.502976119875, -22652.241307764212, -14034.168605109287, -7202.827298978245, -11319.772758456798, -5023.509862841352, -9044.49928337327, 0.01096875, -0.0203125, 0.99128125, 192.0, 0.0, 0.0, 0.0, 0.0, 0.0, 0.0, 0.0, 0.0, 0.0, 1.6444973901058173E9, 0.0, 2022-02-10 23:49:50.105
212.0, -10084.123621478513, -12198.799812650659, -6044.314032115225, -13781.124506130756, -689.0372263237508, -2023.1010941387528, -2681.2035061363586, -3633.7007443548137, -20940.500013887886, -15626.797452783281, -22645.736950127717, -14036.962573166202, -7215.880717740145, -11315.682389221476, -5019.218327905933, -9040.118341460031, 0.01096875, -0.0203125, 0.99128125, 192.0, 0.0, 0.0, 0.0, 0.0, 0.0, 0.0, 0.0, 0.0, 0.0, 1.644497390105824E9, 0.0, 2022-02-10 23:49:50.105
214.0, -10113.359703226055, -12244.263260872754, -6047.756200761342, -13784.723136988061, -708.9749823778848, -2048.962062473543, -2700.2695441567357, -3665.2390557812523, -20954.15692975008, -15624.94225799349, -22638.56204015756, -14037.387256310853, -7215.724255528958, -11327.126482382595, -5021.587612818195, -9046.935623518899, 0.007484375, -0.01815625, 0.9906406249999999, 192.0, 0.0, 16.0, 127.5, 64.0, 15.0, 120.0, 0.0, 0.0, 0.0, 1.644497390105831E9, 0.0, 2022-02-10 23:49:50.105
216.0, -10095.411252428443, -12234.607307268061, -6045.5210263158115, -13782.756183475994, -692.2335257808597, -2037.897948968166, -2704.2705064142356, -3649.2575584957076, -20952.212327982466, -15636.1404819656, -22644.1946797603, -14030.30175331852, -7212.349142116206, -11316.911735166519, -5023.263993652344, -9049.818998553634, 0.007484375, -0.01815625, 0.9906406249999999, 192.0, 0.0, 0.0, 0.0, 0.0, 0.0, 0.0, 0.0, 0.0, 0.0, 1.6444973901058395E9, 0.0, 2022-02-10 23:49:50.105
218.0, -10070.109077705036, -12202.867830141526, -6049.074953684206, -13789.841686468326, -684.2316012658598, -2031.4382948205823, -2685.4279858384116, -3641.0321165361547, -20947.406702924574, -15637.213365699456, -22638.00324654618, -14026.099625360923, -7208.370531603162, -11301.489031492358, -5013.049246436268, -9046.041553740688, 0.007484375, -0.01815625, 0.9906406249999999, 192.0, 0.0, 0.0, 0.0, 0.0, 0.0, 0.0, 0.0, 0.0, 0.0, 1.6444973901058464E9, 0.0, 2022-02-10 23:49:50.105
220.0, -10060.52017933371, -12174.16819026091, -6051.287776385281, -13785.907779444193, -683.4939936988346, -2034.7016495110572, -2686.255000383258, -3639.892177568934, -20931.849888783683, -15628.205612683967, -22636.125700011933, -14033.520404520084, -7203.788423989824, -11290.335511009158, -5010.210574890444, -9047.203844452362, 0.007484375, -0.01815625, 0.9906406249999999, 192.0, 0.0, 0.0, 0.0, 0.0, 0.0, 0.0, 0.0, 0.0, 0.0, 1.6444973901058536E9, 0.0, 2022-02-10 23:49:50.105
222.0, -10024.288001571656, -12153.31401268411, -6044.381087348591, -13776.341232817322, -677.3696157180806, -2030.5889285312808, -2685.9867794497945, -3633.7007443548137, -20921.41162412305, -15621.008350969358, -22618.914856781346, -14011.883915887347, -7201.173269888553, -11327.417055060514, -5007.796586489271, -9041.12416996052, 0.007484375, -0.01815625, 0.9906406249999999, 192.0, 0.0, 0.0, 0.0, 0.0, 0.0, 0.0, 0.0, 0.0, 0.0, 1.6444973901058605E9, 0.0, 2022-02-10 23:49:50.105
224.0, -10015.615524722996, -12145.78147480267, -6048.493808328368, -13781.839761953326, -691.6300286805664, -2035.930995456099, -2698.839032511596, -3647.536474172649, -20915.801336264773, -15617.52147883433, -22618.959560270257, -14007.078290829455, -7198.446357065005, -11313.626028731589, -5008.08715916719, -9039.939527504388, 0.006, -0.012, 0.992, 192.0, 0.0, 24.0, 127.5, 80.0, 15.5, 0.0, 0.0, 0.0, 0.0, 1.6444973901058671E9, 0.0, 2022-02-10 23:49:50.105
226.0, -9982.870219095972, -12110.979808685757, -6038.927261701497, -13772.139104859723, -682.2869994982481, -2026.5209110404148, -2691.3064946301574, -3640.965061302789, -20903.597283792173, -15603.484583316396, -22616.36675791344, -14011.503936231606, -7205.7553775018905, -11317.515232266813, -5011.216403390933, -9039.090161215086, 0.006, -0.012, 0.992, 192.0, 0.0, 0.0, 0.0, 0.0, 0.0, 0.0, 0.0, 0.0, 0.0, 1.6444973901058748E9, 0.0, 2022-02-10 23:49:50.105
228.0, -9963.714774097774, -12103.134346381945, -6038.010840178828, -13766.350003045798, -688.321970501181, -2037.540321056881, -2703.3987883804784, -3651.8056573636127, -20897.42820232251, -15590.341757576676, -22594.037365202592, -13986.291168486021, -7202.939057700522, -11313.42486303149, -5008.444787078475, -9039.805417037656, 0.006, -0.012, 0.992, 192.0, 0.0, 0.0, 0.0, 0.0, 0.0, 0.0, 0.0, 0.0, 0.0, 1.6444973901058815E9, 0.0, 2022-02-10 23:49:50.105
230.0, -9966.77696308815, -12098.663997490883, -6046.660965283033, -13768.182846091135, -697.3297235166698, -2036.0427541783756, -2697.587334822099, -3649.1010962845203, -20887.36991731762, -15599.103641403157, -22599.670004805328, -13997.265875013576, -7206.2247641354525, -11316.442348532957, -5019.665362795039, -9049.975460764821, 0.006, -0.012, 0.992, 192.0, 0.0, 0.0, 0.0, 0.0, 0.0, 0.0, 0.0, 0.0, 0.0, 1.6444973901058905E9, 0.0, 2022-02-10 23:49:50.105
232.0, -9927.192023657803, -12063.884683118426, -6027.997258662851, -13767.177017590646, -675.4920691838347, -2020.7318092264902, -2689.518355073733, -3637.075857767565, -20876.551673001253, -15583.546827262262, -22582.32505110801, -13986.984072564135, -7195.987665174922, -11301.354921025626, -5011.261106879843, -9040.543024604682, 0.006, -0.012, 0.992, 192.0, 0.0, 0.0, 0.0, 0.0, 0.0, 0.0, 0.0, 0.0, 0.0, 1.6444973901058972E9, 0.0, 2022-02-10 23:49:50.105
234.0, -9927.080264935526, -12053.267604502154, -6035.887424455575, -13775.58127350584, -684.678636154966, -2028.420809319116, -2675.257942111247, -3644.116657270987, -20865.93459438498, -15587.972472664414, -22578.882882461894, -13991.29795924401, -7183.649502235592, -11301.444328003447, -4999.36997882962, -9037.637297825491, 0.008, -0.018000000000000002, 0.994, 192.0, 0.0, 32.0, 127.5, 56.0, 15.5, 8.0, 0.0, 0.0, 0.0, 1.644497390105905E9, 0.0, 2022-02-10 23:49:50.105
236.0, -9912.037540917105, -12054.273433002643, -6034.680430254988, -13768.33930830232, -679.0683482966839, -2027.1691116296188, -2687.171421905926, -3650.0622212960984, -20872.93069039949, -15592.934559933492, -22595.17730416981, -13996.640026168827, -7192.500793039893, -11307.658112962023, -5006.477833566408, -9040.185396693398, 0.008, -0.018000000000000002, 0.994, 192.0, 0.0, 0.0, 0.0, 0.0, 0.0, 0.0, 0.0, 0.0, 0.0, 1.644497390105912E9, 0.0, 2022-02-10 23:49:50.105
238.0, -9911.702264750274, -12046.897357332393, -6030.612412764122, -13770.328613558844, -684.0527873102174, -2032.0864954097863, -2690.1442039184817, -3645.301299727118, -20866.716905440917, -15579.03177488229, -22565.78476021108, -13972.611900879372, -7193.148993629097, -11297.33160702367, -5001.158118386044, -9042.711143816847, 0.008, -0.018000000000000002, 0.994, 192.0, 0.0, 0.0, 0.0, 0.0, 0.0, 0.0, 0.0, 0.0, 0.0, 1.644497390105919E9, 0.0, 2022-02-10 23:49:50.105
240.0, -9921.4923288217, -12036.593203138496, -6031.104151142139, -13765.902968156692, -689.3725024905805, -2027.1467598851634, -2677.9848549347944, -3633.3654681879843, -20871.187254331977, -15583.03273713979, -22588.04709768857, -13990.046261554511, -7198.80398497629, -11311.077929863684, -5004.980266687902, -9044.231062439807, 0.008, -0.018000000000000002, 0.994, 192.0, 0.0, 0.0, 0.0, 0.0, 0.0, 0.0, 0.0, 0.0, 0.0, 1.6444973905854523E9, 0.0, 2022-02-10 23:49:50.585
242.0, -9900.52639252262, -12048.618441655452, -6020.2188515924045, -13762.259633810478, -673.5027639273125, -2008.3489427982502, -2664.059718139138, -3627.330497185051, -20867.56627173022, -15584.865580185126, -22569.159873623834, -13972.008403779078, -7197.820508220257, -11319.057502634229, -5000.50991779684, -9032.161120433942, 0.008, -0.018000000000000002, 0.994, 192.0, 0.0, 0.0, 0.0, 0.0, 0.0, 0.0, 0.0, 0.0, 0.0, 1.6444973905856407E9, 0.0, 2022-02-10 23:49:50.585
244.0, -9908.573020526532, -12041.734104363217, -6034.009877921329, -13773.167285104668, -691.0041798358178, -2028.2419953634735, -2687.6631602839425, -3653.1914655198416, -20867.879196152593, -15596.220266368422, -22572.110303891935, -13979.42918293824, -7189.013920904866, -11313.178993842483, -5001.046359663768, -9039.470140870826, 0.006, -0.02, 0.994, 192.0, 0.0, 24.0, 127.5, 48.0, 15.5, 8.0, 0.0, 0.0, 0.0, 1.644497390585648E9, 0.0, 2022-02-10 23:49:50.585
246.0, -9886.71301444924, -12013.70501681626, -6025.538566772767, -13769.859226925282, -678.5542581742118, -2017.3343440692836, -2681.069395669627, -3654.286700998152, -20863.74412342836, -15596.399080324065, -22582.727382508205, -13990.694462143716, -7190.556191272282, -11321.00210440184, -5009.56237430124, -9047.60617585256, 0.006, -0.02, 0.994, 192.0, 0.0, 0.0, 0.0, 0.0, 0.0, 0.0, 0.0, 0.0, 0.0, 1.6444973905856552E9, 0.0, 2022-02-10 23:49:50.585
248.0, -9877.660557944842, -12009.569944092029, -6021.872880682097, -13764.33834604482, -675.0226825502733, -2021.1341406266858, -2686.3891108499897, -3649.369317217984, -20857.865614636616, -15580.328176060699, -22560.375638052898, -13967.873331054847, -7187.114022626165, -11310.630894974578, -5006.947220199969, -9042.308812416652, 0.006, -0.02, 0.994, 192.0, 0.0, 0.0, 0.0, 0.0, 0.0, 0.0, 0.0, 0.0, 0.0, 1.644497390585662E9, 0.0, 2022-02-10 23:49:50.585
250.0, -9877.19117131128, -12001.27744689911, -6021.783473704276, -13757.118732585757, -684.2316012658598, -2017.06612313582, -2702.862346513551, -3661.3275005015735, -20850.444835477454, -15573.13091434609, -22566.254146844643, -13968.029793266034, -7179.246208577897, -11290.916656364996, -5008.9588772009465, -9045.46040838485, 0.006, -0.02, 0.994, 192.0, 0.0, 0.0, 0.0, 0.0, 0.0, 0.0, 0.0, 0.0, 0.0, 1.6444973905856688E9, 0.0, 2022-02-10 23:49:50.585
252.0, -9860.315604247524, -11993.007301450647, -6017.156662602028, -13760.516197742963, -667.4230894354689, -2011.1205591107082, -2679.5941805355765, -3642.4402764368388, -20842.50996619582, -15568.3252892882, -22554.810053683526, -13958.61970885035, -7175.826391676234, -11293.062423832705, -5002.588630031184, -9038.777236792712, 0.006, -0.02, 0.994, 192.0, 0.0, 0.0, 0.0, 0.0, 0.0, 0.0, 0.0, 0.0, 0.0, 1.6444973905856757E9, 0.0, 2022-02-10 23:49:50.585
254.0, -9880.968616124228, -11994.214295651234, -6030.053619152739, -13768.96515714707, -685.5056506998123, -2033.159379143641, -2721.123721733537, -3660.142858045442, -20851.98710584487, -15575.366088791621, -22562.2755363316, -13965.414639164763, -7173.635920719615, -11314.967133398906, -5001.359284086142, -9044.856911284556, 0.006, -0.016, 0.992, 192.0, 0.0, 24.0, 127.5, 64.0, 15.5, 0.0, 0.0, 0.0, 0.0, 1.6444973905856824E9, 0.0, 2022-02-10 23:49:50.585
0.0, -9862.304909504046, -11984.915969957825, -6020.241203336859, -13771.781476948438, -667.1548685020052, -2020.1059603817416, -2685.2715236272247, -3660.6569481679144, -20851.852995378136, -15579.367051049121, -22572.289117847577, -13985.95589231919, -7176.787516687813, -11308.66394146251, -5008.9588772009465, -9048.991984008788, 0.006, -0.016, 0.992, 192.0, 0.0, 0.0, 0.0, 0.0, 0.0, 0.0, 0.0, 0.0, 0.0, 1.6444973905856893E9, 0.0, 2022-02-10 23:49:50.585
2.0, -9863.176627537803, -11991.04034793858, -6021.850528937642, -13770.775648447949, -671.6922726264326, -2033.5617105438366, -2677.783689234697, -3654.0631835535987, -20849.059027321226, -15574.203798079945, -22557.13463510688, -13968.298014199498, -7175.155839342576, -11299.365615769102, -4996.978342172903, -9044.186358950898, 0.006, -0.016, 0.992, 192.0, 0.0, 0.0, 0.0, 0.0, 0.0, 0.0, 0.0, 0.0, 0.0, 1.6444973905856965E9, 0.0, 2022-02-10 23:49:50.585
4.0, -9862.550778693054, -12000.428080609809, -6029.271308096803, -13759.085686097824, -679.3365692301476, -2028.1525883856523, -2698.3919976224897, -3658.265311511196, -20851.80829188923, -15583.077440628702, -22565.494187533164, -13964.833493808925, -7181.839010934712, -11333.787302230276, -5004.197955631967, -9046.332126418607, 0.006, -0.016, 0.992, 192.0, 0.0, 0.0, 0.0, 0.0, 0.0, 0.0, 0.0, 0.0, 0.0, 1.644497390585703E9, 0.0, 2022-02-10 23:49:50.585
6.0, -9842.85889182793, -11970.677908739795, -6016.955496901929, -13755.86703489626, -666.8195923351756, -2008.7289224539904, -2698.5037563447663, -3658.667642911392, -20840.677123150483, -15557.663507183017, -22551.010257126127, -13950.99776399109, -7170.37256602914, -11300.974941369885, -4999.8617172076365, -9037.994925736777, 0.006, -0.016, 0.992, 192.0, 0.0, 0.0, 0.0, 0.0, 0.0, 0.0, 0.0, 0.0, 0.0, 1.6444973905857177E9, 0.0, 2022-02-10 23:49:50.585
8.0, -9870.664461930332, -11988.715766515228, -6026.991430162362, -13761.745543688005, -680.8117843641978, -2023.1681493721187, -2712.25007918478, -3654.890198098445, -20846.712094153416, -15578.51768475982, -22550.250297814644, -13954.395229148296, -7172.630092219126, -11315.928258410486, -4997.93946718448, -9037.682001314402, 0.01, -0.018000000000000002, 0.99, 192.0, 0.0, 40.0, 127.5, 56.0, 15.0, 120.0, 0.0, 0.0, 0.0, 1.6444973905857244E9, 0.0, 2022-02-10 23:49:50.585
10.0, -9851.486665187676, -11981.764373989627, -6023.661020238522, -13761.633784965728, -669.3676912030807, -2012.7298847114903, -2677.1801921344036, -3654.107887042509, -20843.806367374225, -15579.635271982585, -22561.26970783111, -13963.112409485866, -7170.573731729238, -11304.730034438377, -4996.508955539341, -9042.286460672196, 0.01, -0.018000000000000002, 0.99, 192.0, 0.0, 0.0, 0.0, 0.0, 0.0, 0.0, 0.0, 0.0, 0.0, 1.644497390585731E9, 0.0, 2022-02-10 23:49:50.585
12.0, -9847.172778507804, -11978.501019299152, -6024.644496994555, -13767.601700735297, -669.032415036251, -2016.5967365022584, -2690.412424851945, -3657.214779521797, -20843.024056318292, -15571.387478278575, -22541.84604189945, -13952.04829598049, -7174.664100964559, -11291.833077887664, -4994.229077604899, -9041.995887994277, 0.01, -0.018000000000000002, 0.99, 192.0, 0.0, 0.0, 0.0, 0.0, 0.0, 0.0, 0.0, 0.0, 0.0, 1.6444973905857377E9, 0.0, 2022-02-10 23:49:50.585
14.0, -9858.929796091294, -11961.89367316886, -6031.5735377757, -13771.066221125868, -677.7048918849101, -2023.6151842612248, -2697.743797033286, -3663.8755993694786, -20846.667390664505, -15571.70040270095, -22555.36884729491, -13963.805313563982, -7175.334653298218, -11280.32192949318, -5003.326237598209, -9045.058076984653, 0.01, -0.018000000000000002, 0.99, 192.0, 0.0, 0.0, 0.0, 0.0, 0.0, 0.0, 0.0, 0.0, 0.0, 1.6444973905857456E9, 0.0, 2022-02-10 23:49:50.585
16.0, -9836.533348147077, -11963.36888830291, -6019.011857391818, -13758.169264575155, -665.7914120902315, -2010.1817858435854, -2695.665084798942, -3648.0729160395763, -20840.386550472565, -15563.832588652682, -22547.210460568724, -13956.406886149274, -7184.118888869154, -11306.831098417175, -5000.107586396645, -9037.83846352559, 0.01, -0.018000000000000002, 0.99, 192.0, 0.0, 0.0, 0.0, 0.0, 0.0, 0.0, 0.0, 0.0, 0.0, 1.6444973905857527E9, 0.0, 2022-02-10 23:49:50.585
18.0, -9854.19122626677, -11979.193923377266, -6028.757217974332, -13765.612395478773, -668.5183249137789, -2033.5617105438366, -2700.738930790297, -3666.6472156819364, -20840.74417838385, -15571.141609089567, -22546.0705216015, -13952.361220402863, -7178.441545777506, -11310.161508341016, -4994.720815982916, -9041.191225193885, 0.008, -0.01, 0.986, 192.0, 0.0, 32.0, 127.5, 88.0, 15.0, 104.0, 0.0, 0.0, 0.0, 1.64449739058576E9, 0.0, 2022-02-10 23:49:50.585
20.0, -9845.339935462467, -11970.74496397316, -6032.4899592983675, -13766.260596067978, -667.579551646656, -2023.4363703055824, -2698.7496255337746, -3652.8338376085567, -20841.973524328892, -15571.61099572313, -22561.157949108834, -13959.08909548391, -7181.995473145899, -11293.822383144186, -5002.700388753461, -9044.722800817824, 0.008, -0.01, 0.986, 192.0, 0.0, 0.0, 0.0, 0.0, 0.0, 0.0, 0.0, 0.0, 0.0, 1.6444973905857666E9, 0.0, 2022-02-10 23:49:50.585
22.0, -9848.133903519381, -11969.090934883468, -6030.835930208676, -13764.360697789276, -675.7379383728431, -2026.5879662737807, -2710.260773928258, -3661.506314457216, -20836.92203008199, -15575.32138530271, -22542.94127737776, -13952.920014014247, -7177.905103910578, -11311.122633352594, -5000.018179418824, -9042.55468160566, 0.008, -0.01, 0.986, 192.0, 0.0, 0.0, 0.0, 0.0, 0.0, 0.0, 0.0, 0.0, 0.0, 1.6444973905857732E9, 0.0, 2022-02-10 23:49:50.585
24.0, -9865.277691516601, -11967.660423238329, -6034.747485488354, -13768.58517749133, -687.2267350228709, -2038.6355565351912, -2718.2403466988026, -3670.692881428347, -20851.74123665586, -15584.396193551565, -22567.192920111767, -13979.00449979359, -7185.594104003204, -11318.275191578292, -5010.009409190347, -9048.07556248612, 0.008, -0.01, 0.986, 192.0, 0.0, 0.0, 0.0, 0.0, 0.0, 0.0, 0.0, 0.0, 0.0, 1.6444973905857923E9, 0.0, 2022-02-10 23:49:50.585
26.0, -9855.867607100918, -11976.064679153524, -6032.825235465198, -13770.44037228112, -675.0450342947286, -2027.6384982631803, -2700.448358112378, -3658.1982562778303, -20853.59643144565, -15574.472019013408, -22555.257088572635, -13972.120162501356, -7191.182040117031, -11293.934141866463, -5009.070635923224, -9044.655745584458, 0.008, -0.01, 0.986, 192.0, 0.0, 0.0, 0.0, 0.0, 0.0, 0.0, 0.0, 0.0, 0.0, 1.6444973905857987E9, 0.0, 2022-02-10 23:49:50.585
28.0, -9866.641147928376, -11987.173496147812, -6041.497712313857, -13771.53560775943, -688.0984530566279, -2034.2099111330406, -2715.1111024750594, -3672.1680965623973, -20862.492425738863, -15594.588589023184, -22562.32023982051, -13963.224168208144, -7192.120813384154, -11298.33743552416, -5008.735359756393, -9047.717934574835, 0.006, -0.008, 0.99, 192.0, 0.0, 24.0, 127.5, 96.0, 15.0, 120.0, 0.0, 0.0, 0.0, 1.6444973905858057E9, 0.0, 2022-02-10 23:49:50.585
30.0, -9847.619813396908, -11975.37177507541, -6033.2499186098485, -13763.734848944528, -679.5377349302453, -2025.6268412622026, -2717.100407731582, -3663.5850266915595, -20848.969620343403, -15590.542923276775, -22556.218213584212, -13970.667299111761, -7177.681586466025, -11321.940877668963, -5013.719798769927, -9049.908405531456, 0.006, -0.008, 0.99, 192.0, 0.0, 0.0, 0.0, 0.0, 0.0, 0.0, 0.0, 0.0, 0.0, 1.644497390585812E9, 0.0, 2022-02-10 23:49:50.585
32.0, -9853.833598355484, -11973.158952374335, -6035.753313988843, -13771.759125203984, -676.2520284953151, -2029.4042860751495, -2700.3142476456464, -3658.0864975555537, -20851.875347122594, -15579.724678960405, -22547.299867546542, -13960.229034451133, -7179.179153344531, -11316.934086910975, -5005.13672889909, -9045.54981536267, 0.006, -0.008, 0.99, 192.0, 0.0, 0.0, 0.0, 0.0, 0.0, 0.0, 0.0, 0.0, 0.0, 1.6444973905858185E9, 0.0, 2022-02-10 23:49:50.585
34.0, -9860.784990881086, -11981.56320828953, -6040.558939046734, -13765.031250122936, -675.4026622060135, -2038.9261292131102, -2703.734064547308, -3673.1292215739754, -20854.89283262406, -15583.345661562165, -22562.61081249843, -13977.171656748254, -7187.426947048539, -11315.5706304992, -5006.097853910667, -9049.55077762017, 0.006, -0.008, 0.99, 192.0, 0.0, 0.0, 0.0, 0.0, 0.0, 0.0, 0.0, 0.0, 0.0, 1.6444973905858252E9, 0.0, 2022-02-10 23:49:50.585
36.0, -9848.603290152943, -11963.257129580634, -6031.975869175896, -13766.551168745897, -666.4396126794354, -2023.1681493721187, -2685.249171882769, -3660.9922243347437, -20853.931707612483, -15592.264007599833, -22556.50878626213, -13965.10171474239, -7182.151935357087, -11310.094453107651, -4998.833536962693, -9047.896748530478, 0.006, -0.008, 0.99, 192.0, 0.0, 0.0, 0.0, 0.0, 0.0, 0.0, 0.0, 0.0, 0.0, 1.6444973905858316E9, 0.0, 2022-02-10 23:49:50.585
38.0, -9861.835522870484, -11972.019013407114, -6039.284889612782, -13772.228511837544, -681.7282058868655, -2031.3712395872165, -2694.972180720828, -3663.830895880568, -20856.45745473593, -15594.208609367444, -22552.08314085998, -13966.95690953218, -7176.921627154545, -11309.826232174186, -4999.727606740905, -9048.544949119681, 0.006, -0.016, 0.99, 192.0, 0.0, 24.0, 127.5, 64.0, 15.0, 120.0, 0.0, 0.0, 0.0, 1.6444973905858397E9, 0.0, 2022-02-10 23:49:50.585
40.0, -9853.52067393311, -11966.833408693483, -6037.899081456552, -13770.641537981217, -677.257856995804, -2027.3032220963505, -2689.4960033292778, -3655.7172126432915, -20853.439969234463, -15585.625539496607, -22561.046190386558, -13978.043374782012, -7174.865266664657, -11308.485127506869, -5004.533231798796, -9049.506074131259, 0.006, -0.016, 0.99, 192.0, 0.0, 0.0, 0.0, 0.0, 0.0, 0.0, 0.0, 0.0, 0.0, 1.6444973905858464E9, 0.0, 2022-02-10 23:49:50.585
42.0, -9844.4235139398, -11965.760524959627, -6038.457875067935, -13765.612395478773, -670.6193888925778, -2013.4004370451496, -2684.600971293565, -3652.34209923054, -20851.852995378136, -15581.55752200574, -22548.99860012515, -13953.367048903352, -7172.808906174768, -11300.483202991869, -4999.638199763084, -9045.996850251777, 0.006, -0.016, 0.99, 192.0, 0.0, 0.0, 0.0, 0.0, 0.0, 0.0, 0.0, 0.0, 0.0, 1.644497390585853E9, 0.0, 2022-02-10 23:49:50.585
44.0, -9854.615909411421, -11955.925757399293, -6041.117732658116, -13762.281985554933, -675.5814761616559, -2018.9883731589764, -2692.9158202309395, -3652.275043997174, -20848.924916854492, -15584.709117973938, -22562.253184587145, -13961.212511207166, -7160.22487404643, -11308.887458907064, -4999.347627085165, -9042.778199050212, 0.006, -0.016, 0.99, 192.0, 0.0, 0.0, 0.0, 0.0, 0.0, 0.0, 0.0, 0.0, 0.0, 1.6444973905858595E9, 0.0, 2022-02-10 23:49:50.585
46.0, -9837.42741792529, -11955.143446343356, -6029.04779065225, -13766.774686190449, -664.6514731230108, -2007.0301898753871, -2670.3629100755347, -3643.58021540406, -20845.259230763822, -15580.484638271886, -22551.881975159882, -13963.224168208144, -7151.775914642324, -11284.94874059543, -4995.681940994495, -9043.493454872782, 0.007, -0.019, 0.989, 192.0, 0.0, 32.0, 127.5, 40.0, 15.0, 112.0, 0.0, 0.0, 0.0, 1.6444973905858662E9, 0.0, 2022-02-10 23:49:50.585
48.0, -9847.642165141364, -11963.726516214194, -6037.608508778633, -13766.886444912727, -686.6232379225777, -2016.1497016131523, -2686.880849228007, -3665.82020113709, -20846.39916973104, -15578.94236790447, -22545.243507056657, -13964.14058973081, -7174.3511765421845, -11304.752386182832, -4993.022083404313, -9046.17566420742, 0.007, -0.019, 0.989, 192.0, 0.0, 0.0, 0.0, 0.0, 0.0, 0.0, 0.0, 0.0, 0.0, 1.644497390585873E9, 0.0, 2022-02-10 23:49:50.585
50.0, -9829.649010854842, -11951.678925952785, -6034.993354677362, -13766.72998270154, -678.0178163072844, -2008.6395154761692, -2684.1092329155485, -3666.691919170847, -20845.013361574813, -15583.300958073254, -22561.604983997942, -13969.795581078004, -7168.584426472715, -11284.702871406422, -5001.806318975248, -9048.097914230575, 0.007, -0.019, 0.989, 192.0, 0.0, 0.0, 0.0, 0.0, 0.0, 0.0, 0.0, 0.0, 0.0, 1.6444973905858798E9, 0.0, 2022-02-10 23:49:50.585
52.0, -9826.966801520206, -11964.821751692505, -6035.350982588647, -13772.854360682293, -675.4697174393795, -2010.964096899521, -2675.81673572263, -3638.5734246460706, -20846.823852875692, -15580.216417338423, -22552.88780366037, -13958.731467572627, -7170.573731729238, -11296.214019800904, -4996.151327628056, -9042.107646716553, 0.007, -0.019, 0.989, 192.0, 0.0, 0.0, 0.0, 0.0, 0.0, 0.0, 0.0, 0.0, 0.0, 1.6444973905859008E9, 0.0, 2022-02-10 23:49:50.585
54.0, -9861.187322281281, -11964.553530759042, -6045.38691584908, -13773.211988593577, -684.7903948772425, -2023.7269429835014, -2673.3356920880906, -3646.3294799720625, -20853.283507023276, -15585.1785046075, -22568.735190479183, -13985.039470796522, -7166.975100871933, -11317.649342733544, -5000.174641630011, -9046.533292118704, 0.007, -0.019, 0.989, 192.0, 0.0, 0.0, 0.0, 0.0, 0.0, 0.0, 0.0, 0.0, 0.0, 1.6444973905859075E9, 0.0, 2022-02-10 23:49:50.585
56.0, -9850.346726220456, -11965.715821470718, -6034.680430254988, -13774.195465349612, -674.1733162609717, -2015.5685562573144, -2683.1704596484255, -3649.3022619846183, -20856.815082647216, -15589.179466865, -22558.386332796377, -13973.90830205778, -7176.809868432269, -11317.179956099983, -4998.721778240416, -9051.718896832335, 0.0085, -0.0195, 0.9875, 192.0, 0.0, 40.0, 127.5, 48.0, 15.0, 104.0, 0.0, 0.0, 0.0, 1.6444973905859144E9, 0.0, 2022-02-10 23:49:50.585
58.0, -9862.148447292859, -11938.804321146526, -6046.191578649471, -13778.86697994077, -681.1694122754827, -2023.995163916965, -2691.9323434749062, -3653.2361690087523, -20861.330135027187, -15592.42046981102, -22557.067579873514, -13983.296034729008, -7173.345348041696, -11315.548278754744, -5000.3311038411985, -9052.07652474362, 0.0085, -0.0195, 0.9875, 192.0, 0.0, 0.0, 0.0, 0.0, 0.0, 0.0, 0.0, 0.0, 0.0, 1.644497390585921E9, 0.0, 2022-02-10 23:49:50.585
60.0, -9853.364211721922, -11974.857684952938, -6044.425790837502, -13772.832008937838, -679.51538318579, -2022.3634865717277, -2680.287084613691, -3654.286700998152, -20861.173672816, -15587.190161608478, -22566.075332889002, -13987.72168013116, -7176.787516687813, -11309.267438562803, -5010.054112679257, -9053.149408477475, 0.0085, -0.0195, 0.9875, 192.0, 0.0, 0.0, 0.0, 0.0, 0.0, 0.0, 0.0, 0.0, 0.0, 1.644497390585928E9, 0.0, 2022-02-10 23:49:50.585
62.0, -9858.482761202189, -11990.906237471849, -6047.666793783521, -13775.268349083466, -688.0984530566279, -2025.515082539926, -2685.740910260786, -3658.1982562778303, -20861.196024560457, -15609.474850830418, -22556.218213584212, -13970.019098522556, -7174.686452709014, -11305.020607116296, -5009.964705701435, -9050.422495653927, 0.0085, -0.0195, 0.9875, 192.0, 0.0, 0.0, 0.0, 0.0, 0.0, 0.0, 0.0, 0.0, 0.0, 1.6444973905859349E9, 0.0, 2022-02-10 23:49:50.585
64.0, -9865.009470583138, -11976.84699020946, -6051.4442385964685, -13779.001090407502, -693.7534444038206, -2028.420809319116, -2699.5989918230766, -3664.702613914325, -20870.248481064857, -15605.116260661634, -22574.166664381824, -13981.61965389486, -7185.258827836375, -11318.498709022846, -5019.218327905933, -9057.910330046456, 0.0085, -0.0195, 0.9875, 192.0, 0.0, 0.0, 0.0, 0.0, 0.0, 0.0, 0.0, 0.0, 0.0, 1.644497390585942E9, 0.0, 2022-02-10 23:49:50.585
66.0, -9840.04257202656, -11960.619623734907, -6037.027363422795, -13782.219741609068, -674.9332755724521, -2013.1992713450518, -2687.3278841171127, -3656.4548202103165, -20860.056085593234, -15601.718795504428, -22561.18030085329, -13983.00546205109, -7172.272464307841, -11295.722281422888, -5009.003580689858, -9055.004603267265, 0.009250000000000001, -0.02275, 0.98775, 192.0, 0.0, 40.0, 127.5, 24.0, 15.0, 112.0, 0.0, 0.0, 0.0, 1.644497390585949E9, 0.0, 2022-02-10 23:49:50.585
68.0, -9850.838464598473, -11960.261995823623, -6043.889348970574, -13776.073011883856, -685.7291681443654, -2031.4606465650377, -2691.2617911412467, -3666.9377883598554, -20861.576004216196, -15595.057975656746, -22555.681771717285, -13970.756706089582, -7180.3414440562065, -11321.583249757678, -5001.202821874956, -9049.55077762017, 0.009250000000000001, -0.02275, 0.98775, 192.0, 0.0, 0.0, 0.0, 0.0, 0.0, 0.0, 0.0, 0.0, 0.0, 1.644497390585956E9, 0.0, 2022-02-10 23:49:50.585
70.0, -9833.873490556894, -11946.22510030569, -6045.073991426706, -13775.24599733901, -679.5600866747006, -2023.5704807723143, -2686.232648638803, -3663.6744336693805, -20859.474940237396, -15593.783926222794, -22574.636051015386, -13986.514685930573, -7180.587313245215, -11324.488976536868, -5008.757711500849, -9056.278652701218, 0.009250000000000001, -0.02275, 0.98775, 192.0, 0.0, 0.0, 0.0, 0.0, 0.0, 0.0, 0.0, 0.0, 0.0, 1.6444973905859656E9, 0.0, 2022-02-10 23:49:50.585
72.0, -9841.60719413843, -11955.970460888204, -6039.6425175240665, -13776.92237817316, -677.5931331626336, -2015.25563183494, -2685.4726893273223, -3652.409154463906, -20851.070684322203, -15597.740184991382, -22553.379542038387, -13963.782961819526, -7170.014938117855, -11319.370427056603, -4999.817013718726, -9050.914234031945, 0.009250000000000001, -0.02275, 0.98775, 192.0, 0.0, 0.0, 0.0, 0.0, 0.0, 0.0, 0.0, 0.0, 0.0, 1.6444973905859728E9, 0.0, 2022-02-10 23:49:50.585
74.0, -9864.4283252273, -11969.537969772575, -6046.929186216496, -13778.01761365147, -682.3093512427034, -2024.3974953171607, -2684.511564315744, -3659.472305711783, -20847.784977887273, -15606.010330439847, -22553.737169949673, -13967.582758376928, -7171.8924846521, -11322.231450346882, -5003.102720153656, -9053.082353244108, 0.009250000000000001, -0.02275, 0.98775, 192.0, 0.0, 0.0, 0.0, 0.0, 0.0, 0.0, 0.0, 0.0, 0.0, 1.6444973905859802E9, 0.0, 2022-02-10 23:49:50.585
76.0, -9850.19026400927, -11955.970460888204, -6040.849511724653, -13776.005956650491, -668.7641941027873, -2009.3324195542837, -2660.8857704264847, -3654.1302387869646, -20873.645946222063, -15598.500144302863, -22561.537928764574, -13964.833493808925, -7175.08878410921, -11305.28882804976, -4999.973475929914, -9049.573129364626, 0.007625000000000001, -0.024375, 0.9878750000000001, 192.0, 0.0, 24.0, 127.5, 24.0, 15.0, 112.0, 0.0, 0.0, 0.0, 1.644497390585987E9, 0.0, 2022-02-10 23:49:50.585
78.0, -9863.511903704632, -11953.26589980911, -6051.310128129737, -13778.844628196315, -676.5202494287788, -2018.3625243142278, -2671.3910903204787, -3651.2021602633195, -20868.549748486254, -15597.829591969205, -22555.972344395203, -13967.180426976733, -7169.165571828553, -11312.463738019913, -4996.46425205043, -9049.014335753243, 0.007625000000000001, -0.024375, 0.9878750000000001, 192.0, 0.0, 0.0, 0.0, 0.0, 0.0, 0.0, 0.0, 0.0, 0.0, 1.644497390585994E9, 0.0, 2022-02-10 23:49:50.585
80.0, -9850.927871576294, -11964.84410343696, -6050.125485673605, -13776.900026428704, -671.2675894817817, -2011.2546695774402, -2671.167572875926, -3642.4626281812943, -20873.288318310777, -15613.498164832374, -22578.79347548407, -13987.29699698651, -7176.452240520984, -11303.85831640462, -5000.018179418824, -9052.612966610548, 0.007625000000000001, -0.024375, 0.9878750000000001, 192.0, 0.0, 0.0, 0.0, 0.0, 0.0, 0.0, 0.0, 0.0, 0.0, 1.6444973905860014E9, 0.0, 2022-02-10 23:49:50.586
82.0, -9858.326298991002, -11967.123981371402, -6050.952500218452, -13778.82227645186, -674.4415371944353, -2016.1497016131523, -2679.415366579934, -3650.106924785009, -20864.638193206574, -15605.675054273017, -22562.856681687437, -13966.420467665252, -7177.234551576919, -11315.592982243656, -4995.257257849844, -9050.757771820758, 0.007625000000000001, -0.024375, 0.9878750000000001, 192.0, 0.0, 0.0, 0.0, 0.0, 0.0, 0.0, 0.0, 0.0, 0.0, 1.6444973905860083E9, 0.0, 2022-02-10 23:49:50.586
84.0, -9866.19411303927, -11975.46118205323, -6057.970947977418, -13778.375241562753, -685.0809675551615, -2021.581175515792, -2691.8876399859955, -3658.600587678026, -20871.969565387913, -15613.14053692109, -22573.496112048164, -13975.294110214008, -7166.729231682924, -11327.752331227342, -5003.9073829540475, -9055.74221083429, 0.007625000000000001, -0.024375, 0.9878750000000001, 192.0, 0.0, 0.0, 0.0, 0.0, 0.0, 0.0, 0.0, 0.0, 0.0, 1.6444973905860274E9, 0.0, 2022-02-10 23:49:50.586
86.0, -9849.966746564716, -11970.856722695438, -6047.309165872236, -13775.53657001693, -676.7884703622426, -2008.9524398985434, -2682.991645692783, -3666.5801604485705, -20872.88598691058, -15606.65853102905, -22564.823635199504, -13971.851941567891, -7177.502772510383, -11322.410264302525, -5003.303885853754, -9051.31656543214, 0.0058125, -0.0231875, 0.9889375, 192.0, 0.0, 16.0, 127.5, 40.0, 15.0, 120.0, 0.0, 0.0, 0.0, 1.6444973905860343E9, 0.0, 2022-02-10 23:49:50.586
88.0, -9864.361269993935, -11979.126868143901, -6057.747430532865, -13783.426735809653, -692.8593746256083, -2022.1846726160852, -2683.349273604068, -3648.184674761853, -20873.13185609959, -15621.321275391732, -22560.867376430917, -13976.14347650331, -7169.634958462115, -11322.05263639124, -5003.728568998405, -9053.708202088857, 0.0058125, -0.0231875, 0.9889375, 192.0, 0.0, 0.0, 0.0, 0.0, 0.0, 0.0, 0.0, 0.0, 0.0, 1.6444973905860412E9, 0.0, 2022-02-10 23:49:50.586
90.0, -9857.275767001602, -11958.339745800466, -6055.288738642781, -13784.365509076777, -690.1548135465162, -2007.7230939535016, -2690.680645785409, -3650.3304422295623, -20872.528358999298, -15622.550621336773, -22577.31826035002, -13982.647834139805, -7174.217066075453, -11326.970020171408, -5009.048284178768, -9057.262129457251, 0.0058125, -0.0231875, 0.9889375, 192.0, 0.0, 0.0, 0.0, 0.0, 0.0, 0.0, 0.0, 0.0, 0.0, 1.6444973905860484E9, 0.0, 2022-02-10 23:49:50.586
92.0, -9862.796647882062, -11978.612778021428, -6059.915549745029, -13788.321767845366, -694.7592729043095, -2022.4305418050938, -2694.547497576177, -3654.8678463539895, -20875.83641717868, -15612.559391565252, -22564.018972399113, -13964.341755430909, -7173.077127108232, -11311.122633352594, -5006.701351010961, -9054.110533489053, 0.0058125, -0.0231875, 0.9889375, 192.0, 0.0, 0.0, 0.0, 0.0, 0.0, 0.0, 0.0, 0.0, 0.0, 1.6444973905860555E9, 0.0, 2022-02-10 23:49:50.586
94.0, -9878.599331211964, -11987.978158948203, -6067.090459715183, -13788.344119589821, -709.9137556450077, -2032.9135099546327, -2709.970201250339, -3665.6190354369924, -20887.034641150793, -15630.574897596229, -22578.838178972983, -13985.330043474441, -7177.927455655034, -11335.061351664228, -5016.022028448824, -9065.532274905716, 0.0058125, -0.0231875, 0.9889375, 192.0, 0.0, 0.0, 0.0, 0.0, 0.0, 0.0, 0.0, 0.0, 0.0, 1.6444973905860627E9, 0.0, 2022-02-10 23:49:50.586
96.0, -9853.4759704442, -11949.130827084879, -6052.874750241608, -13789.305244601399, -692.0547118252173, -2022.6987627385574, -2701.096558701582, -3656.633634165959, -20883.86069343814, -15624.316409148743, -22573.4290568148, -13985.084174285434, -7185.884676681123, -11310.832060674675, -5017.787816260793, -9062.559492893159, 0.00590625, -0.02259375, 0.99146875, 192.0, 0.0, 24.0, 127.5, 40.0, 15.5, 8.0, 0.0, 0.0, 0.0, 1.644497390586069E9, 0.0, 2022-02-10 23:49:50.586
98.0, -9868.697508418263, -11975.014147164125, -6061.43546836799, -13785.39368932172, -703.6776189419769, -2034.8134082333338, -2715.513433875255, -3677.532515231671, -20876.66343172353, -15617.007388711858, -22560.353286308444, -13979.786810849526, -7176.586350987715, -11335.53073829779, -5018.972458716924, -9063.386507438005, 0.00590625, -0.02259375, 0.99146875, 192.0, 0.0, 0.0, 0.0, 0.0, 0.0, 0.0, 0.0, 0.0, 0.0, 1.6444973905860755E9, 0.0, 2022-02-10 23:49:50.586
100.0, -9870.70916541924, -11982.814905979027, -6062.709517801943, -13781.884465442237, -694.8039763932201, -2029.06900990832, -2684.3103986156466, -3668.792983149646, -20877.557501501742, -15621.701255047472, -22576.08891440498, -13973.617729379861, -7179.2238568334415, -11326.500633537846, -5021.498205840374, -9062.470085915338, 0.00590625, -0.02259375, 0.99146875, 192.0, 0.0, 0.0, 0.0, 0.0, 0.0, 0.0, 0.0, 0.0, 0.0, 1.6444973905860827E9, 0.0, 2022-02-10 23:49:50.586
102.0, -9868.161066551336, -11985.810039736038, -6060.451991611957, -13786.198352122112, -692.6582089255106, -2032.5558820433478, -2686.322055616624, -3667.2954162711403, -20887.191103361976, -15620.360150380153, -22569.115170134923, -13969.460304911174, -7187.51635402636, -11333.854357463642, -5015.0609034372455, -9060.391373680994, 0.00590625, -0.02259375, 0.99146875, 192.0, 0.0, 0.0, 0.0, 0.0, 0.0, 0.0, 0.0, 0.0, 0.0, 1.6444973905860913E9, 0.0, 2022-02-10 23:49:50.586
104.0, -9878.264055045134, -11982.904312956849, -6063.357718391147, -13780.29749158591, -702.7164939303988, -2044.8269897493112, -2698.190831922392, -3658.6452911669367, -20886.31938532822, -15624.539926593296, -22575.23954811568, -13981.597302150405, -7186.666987737059, -11340.515177311323, -5018.167795916534, -9066.113420261552, 0.00590625, -0.02259375, 0.99146875, 192.0, 0.0, 0.0, 0.0, 0.0, 0.0, 0.0, 0.0, 0.0, 0.0, 1.6444973910641563E9, 0.0, 2022-02-10 23:49:51.064
106.0, -9857.4769327017, -11966.542836015564, -6052.047735696761, -13778.509352029485, -689.0595780682062, -2032.9582134435432, -2683.7292532598085, -3658.4441254668386, -20883.23484459339, -15613.252295643366, -22565.538891022075, -13969.639118866817, -7185.147069114098, -11355.49084609638, -5016.290249382288, -9064.928777805422, 0.004953125, -0.023296875, 0.994734375, 192.0, 0.0, 16.0, 127.5, 32.0, 15.5, 24.0, 0.0, 0.0, 0.0, 1.6444973910642982E9, 0.0, 2022-02-10 23:49:51.064
108.0, -9867.3787554954, -11968.50978952763, -6058.3732793776135, -13780.051622396903, -698.0449793392396, -2037.093286167775, -2684.7127300158418, -3666.468401726294, -20876.104638112145, -15632.76536855285, -22551.434940270778, -13966.174598476244, -7179.290912066807, -11328.400531816547, -5007.930696956003, -9064.928777805422, 0.004953125, -0.023296875, 0.994734375, 192.0, 0.0, 0.0, 0.0, 0.0, 0.0, 0.0, 0.0, 0.0, 0.0, 1.6444973910643597E9, 0.0, 2022-02-10 23:49:51.064
110.0, -9869.90450261885, -11979.350385588454, -6065.682299814499, -13775.514218272474, -690.1101100576055, -2028.7337337414901, -2677.873096212518, -3662.0204045796877, -20885.917053928024, -15630.865470274148, -22575.597176026964, -13970.868464811858, -7178.642711477603, -11325.539508526268, -5015.932621471003, -9064.705260360868, 0.004953125, -0.023296875, 0.994734375, 192.0, 0.0, 0.0, 0.0, 0.0, 0.0, 0.0, 0.0, 0.0, 0.0, 1.6444973910643663E9, 0.0, 2022-02-10 23:49:51.064
112.0, -9839.03674352607, -11958.719725456205, -6061.211950923437, -13770.865055425771, -686.355016989114, -2023.995163916965, -2678.454241568356, -3651.0680497965873, -20883.2795480823, -15616.51565033384, -22562.297888076057, -13960.161979217766, -7184.6776824805365, -11323.10316838064, -5004.220307376422, -9056.256300956762, 0.004953125, -0.023296875, 0.994734375, 192.0, 0.0, 0.0, 0.0, 0.0, 0.0, 0.0, 0.0, 0.0, 0.0, 1.6444973910643744E9, 0.0, 2022-02-10 23:49:51.064
114.0, -9851.598423909954, -11976.601121020452, -6069.660910327543, -13775.514218272474, -696.7262264163764, -2036.9591757010433, -2694.3016283871684, -3663.540323202649, -20880.08324862519, -15622.774138781328, -22571.663269002827, -13966.822799065447, -7185.549400514294, -11328.556994027735, -5007.796586489271, -9060.436077169905, 0.004953125, -0.023296875, 0.994734375, 192.0, 0.0, 0.0, 0.0, 0.0, 0.0, 0.0, 0.0, 0.0, 0.0, 1.644497391064381E9, 0.0, 2022-02-10 23:49:51.064
116.0, -9847.28453723008, -11968.263920338622, -6060.161418934038, -13779.314014829877, -677.1908017624381, -2017.8260824473005, -2686.6796835279088, -3653.280872497663, -20877.66926022402, -15615.174545666523, -22563.348420065453, -13962.397153663296, -7175.334653298218, -11311.457909519424, -5005.94139169948, -9061.151332992475, 0.012, -0.024, 0.99, 192.0, 0.0, 48.0, 127.5, 32.0, 15.0, 120.0, 0.0, 0.0, 0.0, 1.6444973910643873E9, 0.0, 2022-02-10 23:49:51.064
118.0, -9872.76552590913, -11967.973347660703, -6062.240131168382, -13779.716346230072, -682.2646477537928, -2018.675448736602, -2680.778822991708, -3658.8464568670342, -20875.389382289577, -15614.36988286613, -22554.407722283333, -13970.667299111761, -7180.117926611653, -11312.553144997733, -4999.638199763084, -9055.831617812111, 0.012, -0.024, 0.99, 192.0, 0.0, 0.0, 0.0, 0.0, 0.0, 0.0, 0.0, 0.0, 0.0, 1.644497391064395E9, 0.0, 2022-02-10 23:49:51.064
120.0, -9871.71499391973, -11981.853780967449, -6062.351889890658, -13776.140067117223, -680.0518250527174, -2025.5597860288367, -2677.8507444680627, -3657.2594830107073, -20886.833475450694, -15621.611848069651, -22569.2269288572, -13973.148342746299, -7168.115039839154, -11323.214927102916, -5000.711083496939, -9056.345707934584, 0.012, -0.024, 0.99, 192.0, 0.0, 0.0, 0.0, 0.0, 0.0, 0.0, 0.0, 0.0, 0.0, 1.6444973910644016E9, 0.0, 2022-02-10 23:49:51.064
122.0, -9839.506130159632, -11949.019068362602, -6056.451029354457, -13779.269311340966, -680.0071215638068, -2022.2964313383618, -2685.4950410717775, -3657.9970905777327, -20890.61092026364, -15616.247429400377, -22558.341629307466, -13963.402982163785, -7177.905103910578, -11306.85345016163, -4990.853964192148, -9052.07652474362, 0.012, -0.024, 0.99, 192.0, 0.0, 0.0, 0.0, 0.0, 0.0, 0.0, 0.0, 0.0, 0.0, 1.6444973910644083E9, 0.0, 2022-02-10 23:49:51.064
124.0, -9869.4798194742, -11968.330975571987, -6068.386860893591, -13771.24503508151, -702.1129968301054, -2038.993184446476, -2702.795291280185, -3673.956236118822, -20890.342699330176, -15612.961722965447, -22562.029667142593, -13976.724621859148, -7175.13348759812, -11338.5258720548, -4995.994865416868, -9059.921987047434, 0.012, -0.024, 0.99, 192.0, 0.0, 0.0, 0.0, 0.0, 0.0, 0.0, 0.0, 0.0, 0.0, 1.6444973910644152E9, 0.0, 2022-02-10 23:49:51.064
126.0, -9859.600348424954, -11982.211408878733, -6058.775610777809, -13777.503523528996, -685.9079821000079, -2028.6890302525796, -2694.994532465283, -3664.076765069576, -20891.482638297395, -15615.37571136662, -22564.60011775495, -13953.992897748101, -7183.761260957869, -11349.09824718216, -5006.388426588586, -9062.738306848802, 0.008, -0.024, 0.99, 192.0, 0.0, 32.0, 127.5, 32.0, 15.0, 120.0, 0.0, 0.0, 0.0, 1.6444973910644217E9, 0.0, 2022-02-10 23:49:51.064
128.0, -9870.28448227459, -11982.904312956849, -6065.190561436482, -13786.82420096686, -688.5454879457341, -2039.5519780578588, -2696.7826720217076, -3669.8211633945903, -20893.89662669857, -15621.723606791928, -22561.2250043422, -13964.185293219722, -7184.923551669544, -11334.234337119382, -4997.783004973293, -9062.537141148703, 0.008, -0.024, 0.99, 192.0, 0.0, 0.0, 0.0, 0.0, 0.0, 0.0, 0.0, 0.0, 0.0, 1.644497391064428E9, 0.0, 2022-02-10 23:49:51.064
