%OpenBCI Raw EEG Data
%Number of channels = 16
%Sample Rate = 125 Hz
%Board = OpenBCI_GUI$BoardCytonSerialDaisy
Sample Index, EXG Channel 0, EXG Channel 1, EXG Channel 2, EXG Channel 3, EXG Channel 4, EXG Channel 5, EXG Channel 6, EXG Channel 7, EXG Channel 8, EXG Channel 9, EXG Channel 10, EXG Channel 11, EXG Channel 12, EXG Channel 13, EXG Channel 14, EXG Channel 15, Accel Channel 0, Accel Channel 1, Accel Channel 2, Other, Other, Other, Other, Other, Other, Other, Analog Channel 0, Analog Channel 1, Analog Channel 2, Timestamp, Other, Timestamp (Formatted)
0.0, -10639.765636892991, -12707.123185053253, -7643.581347892446, -15413.472403701831, -942.8859881026731, -2159.670252760679, -2489.514945687645, -4527.323487677991, 0.0, 0.0, 0.0, 0.0, 0.0, 0.0, 0.0, 0.0, 0.0, 0.0, 0.0, 192.0, 0.0, 0.0, 0.0, 0.0, 0.0, 0.0, 0.0, 0.0, 0.0, 1.6444977200999696E9, 0.0, 2022-02-10 23:55:20.099
6.0, -10639.67622991517, -12700.082385549831, -7633.835987309932, -15419.037988071203, -946.2834532598798, -2159.8490667163214, -2494.4099777233578, -4534.297231948046, -20472.678002438308, -17868.47625595048, -23076.745638459404, -13610.111309303202, -7901.520478906689, -12696.640216903714, -6670.2746355861, -9360.32943252676, 0.001, -0.012, 0.497, 192.0, 0.0, 8.0, 127.5, 32.0, 15.5, 8.0, 0.0, 0.0, 0.0, 1.6444977200999787E9, 0.0, 2022-02-10 23:55:20.099
8.0, -10660.373945280784, -12709.604228687791, -7644.117789759373, -15419.753243893772, -953.5701219523099, -2171.248456388528, -2505.2952772730923, -4547.752982110141, -20478.310642041048, -17879.808590389322, -23092.14599038911, -13631.636039213663, -7897.027778271173, -12716.689731680124, -6676.376661822398, -9369.42659252007, 0.001, -0.012, 0.497, 192.0, 0.0, 0.0, 0.0, 0.0, 0.0, 0.0, 0.0, 0.0, 0.0, 1.6444977200999856E9, 0.0, 2022-02-10 23:55:20.099
10.0, -10638.022200825477, -12698.785984371423, -7630.483225641636, -15414.210011268857, -933.341793220257, -2158.954996938109, -2486.4304049528128, -4528.530481878577, -20479.115304841438, -17879.003927588932, -23082.244167595407, -13627.903297889627, -7895.954894537318, -12718.075539836353, -6670.498153030652, -9370.074793109274, 0.001, -0.012, 0.497, 192.0, 0.0, 0.0, 0.0, 0.0, 0.0, 0.0, 0.0, 0.0, 0.0, 1.6444977200999932E9, 0.0, 2022-02-10 23:55:20.099
12.0, -10646.024125340477, -12695.299112236395, -7640.385048435337, -15409.739662377795, -954.3524330082456, -2160.609026027802, -2509.944440119796, -4529.223385956691, -20476.164874573336, -17879.942700856056, -23078.779647204836, -13618.64967568513, -7883.907304275907, -12706.117356552764, -6663.122077360401, -9361.961109871998, 0.001, -0.012, 0.497, 192.0, 0.0, 0.0, 0.0, 0.0, 0.0, 0.0, 0.0, 0.0, 0.0, 1.6444977201000004E9, 0.0, 2022-02-10 23:55:20.100
14.0, -10627.71804663158, -12688.571237155347, -7635.490016399624, -15409.158517021957, -947.6692614161088, -2140.827732184855, -2494.7005504012764, -4516.080560216971, -20474.332031528, -17874.8688548647, -23093.442391567518, -13625.22108855499, -7893.786775325153, -12699.545943682902, -6673.426231554298, -9359.882397637653, 0.001, -0.012, 0.497, 192.0, 0.0, 0.0, 0.0, 0.0, 0.0, 0.0, 0.0, 0.0, 0.0, 1.6444977201000073E9, 0.0, 2022-02-10 23:55:20.100
16.0, -10631.741360633536, -12677.328309694329, -7634.730057088144, -15409.560848422152, -937.4545142000335, -2154.797572469422, -2463.944550030774, -4525.334182421468, -20470.95691811525, -17865.995212315942, -23073.28111806883, -13619.074358829781, -7890.545772379133, -12694.114469780263, -6658.562321491519, -9359.100086581719, 0.004, -0.026000000000000002, 0.992, 192.0, 0.0, 16.0, 127.5, 24.0, 15.5, 0.0, 0.0, 0.0, 0.0, 1.644497720100014E9, 0.0, 2022-02-10 23:55:20.100
18.0, -10644.906538117712, -12687.163077254663, -7640.921490302264, -15405.090499531092, -951.9607963515278, -2148.8073049553996, -2478.2943699710813, -4516.348781150435, -20471.873339637918, -17871.78431412987, -23083.249996095896, -13621.644809442141, -7883.773193809176, -12706.251467019496, -6662.630338982384, -9362.318737783282, 0.004, -0.026000000000000002, 0.992, 192.0, 0.0, 0.0, 0.0, 0.0, 0.0, 0.0, 0.0, 0.0, 0.0, 1.644497720100021E9, 0.0, 2022-02-10 23:55:20.100
20.0, -10632.635430411749, -12677.46242016106, -7623.911812771776, -15406.632769898508, -941.1425520351592, -2137.452618772104, -2472.7064338572545, -4504.2117839112025, -20468.38646750289, -17850.43839817505, -23075.248071580896, -13611.944152348537, -7881.202743196815, -12673.953196281576, -6661.423344781798, -9352.171045800573, 0.004, -0.026000000000000002, 0.992, 192.0, 0.0, 0.0, 0.0, 0.0, 0.0, 0.0, 0.0, 0.0, 0.0, 1.644497720100028E9, 0.0, 2022-02-10 23:55:20.100
22.0, -10645.308869517907, -12688.973568555542, -7632.383123920336, -15399.413156439443, -948.4292207275893, -2149.991947411531, -2482.8988293288744, -4516.348781150435, -20467.023011091114, -17864.29647973734, -23068.967231388957, -13602.914047588594, -7879.951045507318, -12711.794699644412, -6658.227045324689, -9357.535464469847, 0.004, -0.026000000000000002, 0.992, 192.0, 0.0, 0.0, 0.0, 0.0, 0.0, 0.0, 0.0, 0.0, 0.0, 1.644497720100036E9, 0.0, 2022-02-10 23:55:20.100
24.0, -10625.728741375058, -12677.149495738686, -7627.376333162348, -15394.316958703634, -930.0784385297821, -2135.485665260037, -2459.8094773065422, -4506.715179290197, -20462.19503428877, -17858.954412812524, -23076.209196592474, -13600.790631865339, -7872.239693670237, -12702.474022206548, -6658.405859280331, -9356.172008058073, 0.004, -0.026000000000000002, 0.992, 192.0, 0.0, 0.0, 0.0, 0.0, 0.0, 0.0, 0.0, 0.0, 0.0, 1.644497720100043E9, 0.0, 2022-02-10 23:55:20.100
26.0, -10637.463407214094, -12681.865713818755, -7626.370504661859, -15401.357758207056, -932.7159443755085, -2133.585766981336, -2465.44211690928, -4503.004789710616, -20461.077447066004, -17855.33343021076, -23065.435655765017, -13598.398995208621, -7874.541923349134, -12692.996882557498, -6649.1745888202895, -9351.768714400378, 0.006, -0.022, 0.99, 192.0, 0.0, 24.0, 127.5, 40.0, 15.0, 120.0, 0.0, 0.0, 0.0, 1.6444977201000497E9, 0.0, 2022-02-10 23:55:20.100
28.0, -10635.764674635491, -12664.74427756599, -7631.042019253018, -15403.816450097138, -933.1629792646146, -2130.27770880195, -2477.5791141485115, -4516.393484639345, -20462.70912441124, -17858.797950601336, -23085.731039730435, -13621.533050719865, -7875.32423440507, -12693.265103490961, -6655.187208078767, -9358.340127270238, 0.006, -0.022, 0.99, 192.0, 0.0, 0.0, 0.0, 0.0, 0.0, 0.0, 0.0, 0.0, 0.0, 1.644497720100258E9, 0.0, 2022-02-10 23:55:20.100
30.0, -10615.849270325813, -12664.118428721242, -7619.866147025365, -15400.441336684387, -917.8296825682739, -2134.1669123371735, -2472.4382129237906, -4495.181679151258, -20453.410798717832, -17852.740627853946, -23066.88851915461, -13610.781861636862, -7863.790734266131, -12682.93859755261, -6647.609966708418, -9354.249758034915, 0.006, -0.022, 0.99, 192.0, 0.0, 0.0, 0.0, 0.0, 0.0, 0.0, 0.0, 0.0, 0.0, 1.6444977201002672E9, 0.0, 2022-02-10 23:55:20.100
32.0, -10646.15823580721, -12687.431298188127, -7633.165434976272, -15400.731909362306, -926.1892349945588, -2139.2631100729836, -2471.924122801319, -4507.788063024052, -20459.088141809483, -17870.040878062355, -23067.268498810354, -13605.97623657897, -7866.1153156894825, -12687.677167377135, -6646.246510296644, -9355.367345257682, 0.006, -0.022, 0.99, 192.0, 0.0, 0.0, 0.0, 0.0, 0.0, 0.0, 0.0, 0.0, 0.0, 1.644497720100274E9, 0.0, 2022-02-10 23:55:20.100
34.0, -10629.662648399193, -12670.64513810219, -7616.133405701328, -15392.461763913843, -910.7441795759415, -2125.740304677523, -2468.1690297328273, -4514.806510783018, -20458.842272620474, -17861.949546569533, -23072.72232445745, -13604.210448767, -7866.495295345223, -12686.648987132192, -6652.996737122147, -9355.412048746592, 0.006, -0.022, 0.99, 192.0, 0.0, 0.0, 0.0, 0.0, 0.0, 0.0, 0.0, 0.0, 0.0, 1.6444977201002812E9, 0.0, 2022-02-10 23:55:20.100
36.0, -10616.542174403927, -12661.302108919872, -7621.788397048521, -15395.769822093229, -917.8967378016398, -2128.0425343564193, -2482.7647188621427, -4499.227344897669, -20456.27182200811, -17841.96708702649, -23055.444425993493, -13588.698338115018, -7859.566254564078, -12682.8938940637, -6642.133789316868, -9350.829941133254, 0.008, -0.02, 0.99, 192.0, 0.0, 32.0, 127.5, 48.0, 15.0, 120.0, 0.0, 0.0, 0.0, 1.6444977201003153E9, 0.0, 2022-02-10 23:55:20.100
38.0, -10650.449770742629, -12680.122277751241, -7638.194577478716, -15401.983607051803, -927.731505361975, -2144.2699008309723, -2480.306026972059, -4508.458615357711, -20459.848101120962, -17862.687154136558, -23079.785475705325, -13616.54861170633, -7880.576894352066, -12707.369054242261, -6653.354365033432, -9363.972766872976, 0.008, -0.02, 0.99, 192.0, 0.0, 0.0, 0.0, 0.0, 0.0, 0.0, 0.0, 0.0, 0.0, 1.6444977201003227E9, 0.0, 2022-02-10 23:55:20.100
40.0, -10642.559604949905, -12674.355527681771, -7623.263612182572, -15397.848534327572, -913.0017057659276, -2130.031839612942, -2458.4236691503133, -4500.456690842711, -20466.82184539102, -17866.62106116069, -23073.9963738914, -13618.180289051568, -7881.582722852555, -12684.525571408936, -6651.3427080324545, -9359.167141815084, 0.008, -0.02, 0.99, 192.0, 0.0, 0.0, 0.0, 0.0, 0.0, 0.0, 0.0, 0.0, 0.0, 1.6444977201003299E9, 0.0, 2022-02-10 23:55:20.100
42.0, -10654.674250444681, -12684.7937923424, -7629.767969819066, -15400.061357028648, -927.4185809396006, -2141.5653397518804, -2484.01641655164, -4517.3546096509235, -20473.549720472067, -17873.05836356382, -23069.43661802252, -13601.21531500999, -7880.867467029985, -12687.476001677038, -6649.956899876225, -9359.100086581719, 0.008, -0.02, 0.99, 192.0, 0.0, 0.0, 0.0, 0.0, 0.0, 0.0, 0.0, 0.0, 0.0, 1.6444977201003368E9, 0.0, 2022-02-10 23:55:20.100
44.0, -10639.028029325966, -12682.044527774398, -7634.8418158104205, -15401.961255307348, -922.27767971488, -2131.0376681134308, -2475.232180980704, -4494.444071584234, -20474.421438505822, -17877.595767688246, -23086.155722875086, -13612.681759915562, -7885.22605719877, -12703.23398151803, -6660.752792448139, -9362.944586628031, 0.008, -0.02, 0.99, 192.0, 0.0, 0.0, 0.0, 0.0, 0.0, 0.0, 0.0, 0.0, 0.0, 1.6444977201003437E9, 0.0, 2022-02-10 23:55:20.100
46.0, -10628.366247220785, -12672.835609058811, -7629.611507607879, -15402.609455896552, -921.9200518035951, -2144.1804938531513, -2470.1583349893494, -4498.757958264107, -20471.068676837527, -17867.11279953871, -23071.18005409003, -13601.572942921275, -7884.354339165014, -12695.388519214215, -6653.443772011254, -9357.267243536382, 0.008, -0.026000000000000002, 0.994, 192.0, 0.0, 32.0, 127.5, 24.0, 15.5, 8.0, 0.0, 0.0, 0.0, 1.6444977201003504E9, 0.0, 2022-02-10 23:55:20.100
48.0, -10649.846273642335, -12684.525571408936, -7635.981754777641, -15403.458822185854, -922.3000314593353, -2147.0638688878857, -2479.881343827408, -4516.348781150435, -20472.454484993756, -17864.095314037244, -23087.832103709236, -13619.767262907895, -7882.722661819776, -12705.871487363755, -6658.115286602412, -9366.90084539662, 0.008, -0.026000000000000002, 0.994, 192.0, 0.0, 0.0, 0.0, 0.0, 0.0, 0.0, 0.0, 0.0, 0.0, 1.6444977201003575E9, 0.0, 2022-02-10 23:55:20.100
50.0, -10649.421590497685, -12681.664548118657, -7628.60567910739, -15402.05066228517, -912.375856921179, -2132.08820010283, -2467.587884376989, -4499.4508623422225, -20475.5837292175, -17863.648279148136, -23077.505597770883, -13612.659408171106, -7882.029757741661, -12713.649894434202, -6652.504998744131, -9361.447019749525, 0.008, -0.026000000000000002, 0.994, 192.0, 0.0, 0.0, 0.0, 0.0, 0.0, 0.0, 0.0, 0.0, 0.0, 1.6444977201003642E9, 0.0, 2022-02-10 23:55:20.100
52.0, -10659.479875502573, -12689.688824378112, -7643.201368236705, -15408.018578054736, -925.8092553388185, -2146.4827235320477, -2480.753061861165, -4511.65491481482, -20478.601214718965, -17879.83094213378, -23077.080914626233, -13602.578771421764, -7883.0802897310605, -12701.423490217148, -6651.834446410471, -9362.765772672388, 0.008, -0.026000000000000002, 0.994, 192.0, 0.0, 0.0, 0.0, 0.0, 0.0, 0.0, 0.0, 0.0, 0.0, 1.644497720100371E9, 0.0, 2022-02-10 23:55:20.100
54.0, -10640.167968293186, -12675.540170137903, -7637.479321656147, -15403.078842530114, -912.3535051767237, -2129.964784379576, -2473.980483291207, -4502.133071676859, -20473.57207221652, -17870.130285040177, -23084.00995540738, -13608.859611613705, -7884.980188009762, -12697.221362259552, -6657.444734268754, -9365.626795962668, 0.008, -0.026000000000000002, 0.994, 192.0, 0.0, 0.0, 0.0, 0.0, 0.0, 0.0, 0.0, 0.0, 0.0, 1.6444977201003776E9, 0.0, 2022-02-10 23:55:20.100
56.0, -10634.82590136837, -12676.523646893937, -7638.46279841218, -15403.771746608229, -913.3816854216678, -2132.2670140584723, -2479.5684194050336, -4497.506260574611, -20474.063810594536, -17869.54913968434, -23074.57751924724, -13599.561285920297, -7887.103603733016, -12693.756841868979, -6655.902463901337, -9357.624871447668, 0.008, -0.024, 0.994, 192.0, 0.0, 32.0, 127.5, 32.0, 15.5, 8.0, 0.0, 0.0, 0.0, 1.6444977201003845E9, 0.0, 2022-02-10 23:55:20.100
58.0, -10636.14465429123, -12662.777324053923, -7650.331574717949, -15407.52683967672, -916.890909301151, -2130.344764035316, -2495.035826568106, -4516.348781150435, -20472.163912315835, -17868.140979783653, -23086.46864729746, -13608.658445913607, -7877.93938850634, -12688.280664477428, -6663.74792620515, -9368.107839597207, 0.008, -0.024, 0.994, 192.0, 0.0, 0.0, 0.0, 0.0, 0.0, 0.0, 0.0, 0.0, 0.0, 1.6444977201003911E9, 0.0, 2022-02-10 23:55:20.100
60.0, -10645.375924751273, -12673.8414375593, -7634.819464065965, -15406.230438498313, -905.2456504399361, -2118.7889121519224, -2474.8074978360532, -4496.299266374024, -20471.739229171184, -17848.38203768516, -23076.36565880366, -13603.428137711066, -7889.651702600921, -12678.46824866155, -6661.356289548432, -9362.206979061006, 0.008, -0.024, 0.994, 192.0, 0.0, 0.0, 0.0, 0.0, 0.0, 0.0, 0.0, 0.0, 0.0, 1.644497720100398E9, 0.0, 2022-02-10 23:55:20.100
62.0, -10660.038669113956, -12681.195161485097, -7644.743638604122, -15402.452993685365, -922.27767971488, -2131.37294428026, -2480.9542275612625, -4511.99019098165, -20481.77516243162, -17876.277014765386, -23071.314164556763, -13593.593370150731, -7885.516629876689, -12692.281626734928, -6658.405859280331, -9362.385793016649, 0.008, -0.024, 0.994, 192.0, 0.0, 0.0, 0.0, 0.0, 0.0, 0.0, 0.0, 0.0, 0.0, 1.644497720100405E9, 0.0, 2022-02-10 23:55:20.100
64.0, -10646.001773596023, -12669.058164245864, -7640.1838827352385, -15395.412194181943, -914.9910110224499, -2121.6499354422017, -2483.9046578293633, -4495.740472762642, -20474.95788037275, -17865.615232660202, -23088.301490342797, -13598.398995208621, -7887.394176410935, -12700.75293788349, -6664.217312838711, -9360.32943252676, 0.008, -0.024, 0.994, 192.0, 0.0, 0.0, 0.0, 0.0, 0.0, 0.0, 0.0, 0.0, 0.0, 1.644497720100412E9, 0.0, 2022-02-10 23:55:20.100
66.0, -10635.96584033559, -12667.046507244886, -7639.938013546231, -15404.308188475155, -913.1581679771148, -2119.8841476302323, -2493.784128878609, -4495.248734384624, -20473.974403616718, -17859.893186079644, -23071.112998856664, -13594.956826562504, -7885.002539754217, -12693.153344768685, -6658.607024980429, -9357.356650514204, 0.004, -0.026000000000000002, 0.988, 192.0, 0.0, 16.0, 127.5, 24.0, 15.0, 112.0, 0.0, 0.0, 0.0, 1.6444977201004534E9, 0.0, 2022-02-10 23:55:20.100
68.0, -10655.277747544975, -12681.999824285487, -7647.425847938758, -15407.415080954443, -923.8646535712069, -2131.8870344027323, -2492.5994864224776, -4501.84249899894, -20473.505016983156, -17869.05740130632, -23089.77670547685, -13602.846992355227, -7886.790679310642, -12686.045490031898, -6668.262978585122, -9360.597653460223, 0.004, -0.026000000000000002, 0.988, 192.0, 0.0, 0.0, 0.0, 0.0, 0.0, 0.0, 0.0, 0.0, 0.0, 1.6444977201004632E9, 0.0, 2022-02-10 23:55:20.100
70.0, -10639.67622991517, -12673.550864881381, -7638.351039689904, -15403.056490785659, -908.5090051304109, -2116.41962723966, -2473.578151891011, -4498.17681290827, -20471.649822193365, -17854.417008688095, -23075.963327403468, -13603.204620266513, -7874.474868115768, -12688.437126688616, -6660.439868025765, -9357.446057492025, 0.004, -0.026000000000000002, 0.988, 192.0, 0.0, 0.0, 0.0, 0.0, 0.0, 0.0, 0.0, 0.0, 0.0, 1.64449772010047E9, 0.0, 2022-02-10 23:55:20.100
72.0, -10646.426456740674, -12675.093135248797, -7652.030307296552, -15410.231400755813, -927.37387745069, -2124.5556622213917, -2487.4362334533016, -4499.003827453116, -20479.51763624163, -17875.651165920637, -23078.399667549096, -13601.282370243356, -7885.114298476494, -12677.529475394425, -6662.943263404759, -9357.04372609183, 0.004, -0.026000000000000002, 0.988, 192.0, 0.0, 0.0, 0.0, 0.0, 0.0, 0.0, 0.0, 0.0, 0.0, 1.6444977201005087E9, 0.0, 2022-02-10 23:55:20.100
74.0, -10634.490625201539, -12658.888120518699, -7651.784438107543, -15400.798964595673, -913.0911127437488, -2121.9181563756656, -2487.011550308651, -4500.590801309443, -20474.57790071701, -17864.25177624843, -23089.933167688032, -13608.613742424697, -7880.621597840977, -12687.744222610501, -6668.888827429871, -9362.56460697229, 0.004, -0.026000000000000002, 0.988, 192.0, 0.0, 0.0, 0.0, 0.0, 0.0, 0.0, 0.0, 0.0, 0.0, 1.6444977201005163E9, 0.0, 2022-02-10 23:55:20.100
76.0, -10647.275823029975, -12672.947367781087, -7647.381144449848, -15403.99526405278, -912.9346505325617, -2122.521653475959, -2490.4760706992233, -4501.350760620923, -20472.76740941613, -17867.358668727717, -23078.176150104544, -13600.477707442966, -7877.89468501743, -12686.067841776354, -6662.138600604368, -9360.7094121825, 0.004, -0.022, 0.984, 192.0, 0.0, 16.0, 127.5, 40.0, 15.0, 96.0, 0.0, 0.0, 0.0, 1.6444977201005232E9, 0.0, 2022-02-10 23:55:20.100
78.0, -10658.809323168913, -12662.240882186996, -7656.143028276329, -15403.99526405278, -922.0094587814164, -2118.632449940735, -2490.520774188134, -4507.27397290158, -20480.746982186676, -17872.119590296697, -23086.513350786372, -13604.165745278091, -7884.600208354022, -12690.426431945138, -6665.647824483851, -9365.313871540293, 0.004, -0.022, 0.984, 192.0, 0.0, 0.0, 0.0, 0.0, 0.0, 0.0, 0.0, 0.0, 0.0, 1.64449772010053E9, 0.0, 2022-02-10 23:55:20.100
80.0, -10630.020276310477, -12661.525626364426, -7640.049772268507, -15403.883505330505, -902.8763655276734, -2108.0824265578303, -2479.1213845159277, -4492.2312488831585, -20470.264014037137, -17857.255680233917, -23078.444371038007, -13604.702187145018, -7878.162905950893, -12674.087306748308, -6659.36698429191, -9361.201150560517, 0.004, -0.022, 0.984, 192.0, 0.0, 0.0, 0.0, 0.0, 0.0, 0.0, 0.0, 0.0, 0.0, 1.6444977201005368E9, 0.0, 2022-02-10 23:55:20.100
82.0, -10644.437151484151, -12668.70053633458, -7651.091534029429, -15409.158517021957, -914.4769208999778, -2119.7276854190454, -2490.140794532394, -4502.066016443493, -20473.661479194343, -17863.044782047844, -23078.62318499365, -13608.703149402518, -7877.738222806242, -12675.137838737708, -6657.824713924493, -9364.285691295348, 0.004, -0.022, 0.984, 192.0, 0.0, 0.0, 0.0, 0.0, 0.0, 0.0, 0.0, 0.0, 0.0, 1.6444977201005442E9, 0.0, 2022-02-10 23:55:20.100
84.0, -10637.418703725185, -12670.399268913183, -7649.124580517362, -15401.245999484778, -906.0950167292377, -2105.4896242010145, -2483.1223467734276, -4497.349798363423, -20473.974403616718, -17871.33727924076, -23089.799057221302, -13614.581658194264, -7871.9267692478625, -12688.727699366535, -6662.898559915849, -9361.737592427444, 0.005, -0.025, 0.984, 192.0, 0.0, 24.0, 127.5, 16.0, 15.0, 96.0, 0.0, 0.0, 0.0, 1.644497720100551E9, 0.0, 2022-02-10 23:55:20.100
86.0, -10636.837558369347, -12657.323498406828, -7647.604661894401, -15403.771746608229, -904.0610079838048, -2102.002752065987, -2487.235067753204, -4502.98243796616, -20471.582766959997, -17854.953450555022, -23072.968193646455, -13590.240608482434, -7870.563312836089, -12683.65385337518, -6659.724612203195, -9359.99415635993, 0.005, -0.025, 0.984, 192.0, 0.0, 0.0, 0.0, 0.0, 0.0, 0.0, 0.0, 0.0, 0.0, 1.6444977201005578E9, 0.0, 2022-02-10 23:55:20.100
88.0, -10636.703447902615, -12657.971698996033, -7655.159551520294, -15405.604589653563, -922.6800111150756, -2112.2398510265175, -2498.656809169866, -4492.186545394247, -20474.510845483645, -17858.105046523222, -23091.296624099807, -13601.483535943455, -7881.247446685726, -12681.284568462917, -6667.1900948512675, -9356.976670858463, 0.005, -0.025, 0.984, 192.0, 0.0, 0.0, 0.0, 0.0, 0.0, 0.0, 0.0, 0.0, 0.0, 1.6444977201005647E9, 0.0, 2022-02-10 23:55:20.100
90.0, -10633.283631000952, -12662.710268820558, -7638.1275222453505, -15398.340272705589, -907.503176629922, -2100.0134468094643, -2479.8366403384975, -4502.021312954583, -20472.76740941613, -17840.71538933699, -23081.014821650366, -13602.444660955032, -7888.914095033896, -12698.338949482317, -6669.447621041253, -9355.412048746592, 0.005, -0.025, 0.984, 192.0, 0.0, 0.0, 0.0, 0.0, 0.0, 0.0, 0.0, 0.0, 0.0, 1.6444977201005716E9, 0.0, 2022-02-10 23:55:20.100
92.0, -10656.30592778992, -12674.959024782065, -7650.152760762306, -15404.889333830994, -922.1882727370588, -2112.0386853264195, -2487.257419497659, -4495.695769273731, -20477.260110051648, -17874.041840319853, -23073.95167040249, -13589.055966026302, -7878.9675687512845, -12681.686899863113, -6666.877170428893, -9355.322641768771, 0.005, -0.025, 0.984, 192.0, 0.0, 0.0, 0.0, 0.0, 0.0, 0.0, 0.0, 0.0, 0.0, 1.6444977201005783E9, 0.0, 2022-02-10 23:55:20.100
94.0, -10647.34287826334, -12665.615995599746, -7652.589100907934, -15402.631807641008, -917.762627334908, -2105.310810245372, -2488.598524164978, -4491.426586082767, -20478.780028674606, -17876.031145576377, -23092.525970044848, -13611.40771048161, -7873.312577404092, -12678.311786450362, -6672.50981003163, -9360.620005204679, 0.006500000000000001, -0.0235, 0.985, 192.0, 0.0, 32.0, 127.5, 40.0, 15.0, 104.0, 0.0, 0.0, 0.0, 1.6444977201005852E9, 0.0, 2022-02-10 23:55:20.100
96.0, -10631.24962225552, -12648.583966324803, -7651.404458451803, -15403.436470441398, -911.6606010986092, -2095.833670596322, -2462.826962808009, -4487.760899992097, -20476.701316440263, -17866.889282094155, -23080.56778676126, -13600.276541742867, -7873.759612293198, -12682.044527774398, -6665.3125483170215, -9356.015545846885, 0.006500000000000001, -0.0235, 0.985, 192.0, 0.0, 0.0, 0.0, 0.0, 0.0, 0.0, 0.0, 0.0, 0.0, 1.6444977201005924E9, 0.0, 2022-02-10 23:55:20.100
98.0, -10640.413837482196, -12654.104847205264, -7658.065278299485, -15401.022482040225, -919.5731186357879, -2097.219478752551, -2478.495535671179, -4491.784213994052, -20472.72270592722, -17858.99911630143, -23100.61730153767, -13609.060777313804, -7880.554542607611, -12674.154361981675, -6667.927702418292, -9356.104952824708, 0.006500000000000001, -0.0235, 0.985, 192.0, 0.0, 0.0, 0.0, 0.0, 0.0, 0.0, 0.0, 0.0, 0.0, 1.6444977201005993E9, 0.0, 2022-02-10 23:55:20.100
100.0, -10634.803549623914, -12660.944481008588, -7649.839836339932, -15393.467592414332, -907.7713975633858, -2095.096063029297, -2469.979521033707, -4492.275952372069, -20466.508920968645, -17856.13809301115, -23080.90306292809, -13590.59823639372, -7869.043394213128, -12681.93276905212, -6666.765411706617, -9352.975708600963, 0.006500000000000001, -0.0235, 0.985, 192.0, 0.0, 0.0, 0.0, 0.0, 0.0, 0.0, 0.0, 0.0, 0.0, 1.6444977201006093E9, 0.0, 2022-02-10 23:55:20.100
102.0, -10649.756866664513, -12677.015385271954, -7666.402478981314, -15396.57448489362, -928.6479268846425, -2105.7578451344784, -2487.7715096201314, -4497.662722785798, -20475.784894917597, -17861.43545644706, -23080.72424897245, -13588.385413692644, -7878.364071650991, -12673.103829992275, -6670.699318730751, -9354.585034201746, 0.006500000000000001, -0.0235, 0.985, 192.0, 0.0, 0.0, 0.0, 0.0, 0.0, 0.0, 0.0, 0.0, 0.0, 1.6444977201006162E9, 0.0, 2022-02-10 23:55:20.100
104.0, -10636.837558369347, -12653.814274527345, -7658.154685277305, -15397.826182583116, -917.2708889568912, -2095.230173496029, -2477.176782748316, -4480.451879555211, -20475.29315653958, -17875.360593242716, -23092.347156089207, -13612.301780259822, -7878.3193681620805, -12675.249597459984, -6676.421365311309, -9352.148694056117, 0.00725, -0.02175, 0.9875, 192.0, 0.0, 32.0, 127.5, 48.0, 15.0, 120.0, 0.0, 0.0, 0.0, 1.6444977201006236E9, 0.0, 2022-02-10 23:55:20.100
106.0, -10640.503244460017, -12660.899777519677, -7658.42290621077, -15401.290702973689, -902.2058131940142, -2098.3370659753164, -2476.4168234368353, -4496.589839051943, -20477.6847931963, -17861.77073261389, -23086.312185086274, -13600.477707442966, -7872.552618092611, -12677.373013183238, -6661.55745524853, -9353.489798723436, 0.00725, -0.02175, 0.9875, 192.0, 0.0, 0.0, 0.0, 0.0, 0.0, 0.0, 0.0, 0.0, 0.0, 1.6444977201006305E9, 0.0, 2022-02-10 23:55:20.100
108.0, -10659.05519235792, -12666.599472355781, -7666.000147581119, -15404.352891964067, -921.8082930813185, -2106.7860253794224, -2504.557669706067, -4513.711275304709, -20480.14348508638, -17871.024354818386, -23100.371432348664, -13608.83725986925, -7870.429202369357, -12689.532362166925, -6672.84508619846, -9361.37996451616, 0.00725, -0.02175, 0.9875, 192.0, 0.0, 0.0, 0.0, 0.0, 0.0, 0.0, 0.0, 0.0, 0.0, 1.6444977201006444E9, 0.0, 2022-02-10 23:55:20.100
110.0, -10641.039686326943, -12668.387611912205, -7658.0876300439395, -15407.48213618781, -913.7393133329527, -2094.090234528808, -2487.011550308651, -4483.3129028454905, -20477.014240862638, -17869.325622239783, -23089.396725821105, -13599.941265576037, -7873.8043157821085, -12676.724812594035, -6671.727498975694, -9359.167141815084, 0.00725, -0.02175, 0.9875, 192.0, 0.0, 0.0, 0.0, 0.0, 0.0, 0.0, 0.0, 0.0, 0.0, 1.6444977201006525E9, 0.0, 2022-02-10 23:55:20.100
112.0, -10657.781142923968, -12675.98720502701, -7667.095383059429, -15415.439357213898, -925.0269442828828, -2107.7471503910006, -2482.4741461842236, -4491.851269227418, -20479.785857175095, -17867.336316983263, -23094.22470262345, -13600.880038843161, -7877.112373961494, -12676.881274805222, -6664.686699472273, -9358.071906336774, 0.00725, -0.02175, 0.9875, 192.0, 0.0, 0.0, 0.0, 0.0, 0.0, 0.0, 0.0, 0.0, 0.0, 1.6444977201006608E9, 0.0, 2022-02-10 23:55:20.100
114.0, -10653.064924843899, -12666.64417584469, -7662.334461490448, -15411.438394956398, -921.1153890032041, -2107.0765980573415, -2484.8210793520307, -4499.942600720239, -20485.418496777835, -17867.984517572466, -23103.455973083495, -13615.073396572281, -7877.112373961494, -12691.70048137909, -6671.0122431531245, -9361.581130216256, 0.006625000000000001, -0.019875, 0.98875, 192.0, 0.0, 24.0, 127.5, 56.0, 15.0, 120.0, 0.0, 0.0, 0.0, 1.6444977201006684E9, 0.0, 2022-02-10 23:55:20.100
116.0, -10638.469235714583, -12667.940577023099, -7661.216874267683, -15411.147822278479, -919.0143250244051, -2097.800624108389, -2494.365274234447, -4500.948429220728, -20474.108514083448, -17874.220654275498, -23073.57169074675, -13598.60016090872, -7870.898589002918, -12674.444934659594, -6663.949091905248, -9362.542255227836, 0.006625000000000001, -0.019875, 0.98875, 192.0, 0.0, 0.0, 0.0, 0.0, 0.0, 0.0, 0.0, 0.0, 0.0, 1.6444977201006753E9, 0.0, 2022-02-10 23:55:20.100
118.0, -10659.792799924946, -12666.778286311423, -7670.448144727725, -15412.846554857082, -933.1406275201592, -2106.60721142378, -2499.528527203623, -4500.814318753996, -20477.371868773924, -17874.26535776441, -23096.1022491577, -13609.776033136373, -7880.576894352066, -12683.810315586366, -6671.168705364312, -9364.777429673366, 0.006625000000000001, -0.019875, 0.98875, 192.0, 0.0, 0.0, 0.0, 0.0, 0.0, 0.0, 0.0, 0.0, 0.0, 1.6444977201006825E9, 0.0, 2022-02-10 23:55:20.100
120.0, -10647.25347128552, -12657.614071084747, -7659.048755055518, -15408.152688521468, -907.7713975633858, -2091.519783916448, -2471.4100326788466, -4483.782289479052, -20477.371868773924, -17857.56860465629, -23094.448220068007, -13601.2600184989, -7872.329100648058, -12694.852077347288, -6667.279501829088, -9360.821170904777, 0.006625000000000001, -0.019875, 0.98875, 192.0, 0.0, 0.0, 0.0, 0.0, 0.0, 0.0, 0.0, 0.0, 0.0, 1.6444977201006892E9, 0.0, 2022-02-10 23:55:20.100
122.0, -10654.473084744583, -12677.775344583433, -7663.094420801929, -15411.885429845504, -915.795673822841, -2095.476042685037, -2483.7034921292657, -4495.829879740462, -20479.651746708365, -17873.77361938639, -23086.826275208747, -13592.565189905787, -7870.853885514008, -12665.146608966186, -6662.6750424712955, -9355.90378712461, 0.006625000000000001, -0.019875, 0.98875, 192.0, 0.0, 0.0, 0.0, 0.0, 0.0, 0.0, 0.0, 0.0, 0.0, 1.644497720100696E9, 0.0, 2022-02-10 23:55:20.100
124.0, -10643.565433450394, -12670.600434613281, -7664.636691169345, -15407.795060610184, -914.2534034554247, -2099.5217084314477, -2482.9211810733295, -4493.862926228396, -20478.221235063225, -17883.586035202272, -23097.219836380464, -13603.338730733245, -7877.604112339511, -12674.869617804245, -6672.867437942915, -9360.731763926955, 0.0063125, -0.0199375, 0.990375, 192.0, 0.0, 24.0, 127.5, 48.0, 15.5, 0.0, 0.0, 0.0, 0.0, 1.6444977201007035E9, 0.0, 2022-02-10 23:55:20.100
126.0, -10627.673343142671, -12650.081533203309, -7657.841760854932, -15409.3373309776, -905.4021126511232, -2098.9405630756096, -2479.657826382855, -4495.1146239178925, -20466.441865735276, -17857.166273256098, -23080.791304205814, -13605.752719134418, -7876.553580350111, -12683.65385337518, -6665.17843785029, -9356.440228991536, 0.0063125, -0.0199375, 0.990375, 192.0, 0.0, 0.0, 0.0, 0.0, 0.0, 0.0, 0.0, 0.0, 0.0, 1.6444977201007104E9, 0.0, 2022-02-10 23:55:20.100
0.0, -5409.300972139951, -6800.294733082621, -3929.5931374541688, -7793.539201443101, -629.2463099058044, -1419.0452002340794, -1290.388559149332, -2414.234270362171, -10242.441027455454, -8941.636555389949, -11546.598261189254, -6796.673750480861, -3936.4104195130376, -6345.906120050683, -3335.7966942544813, -4679.047129040615, 0.012, -0.024, 0.992, 192.0, 0.0, 48.0, 127.5, 32.0, 15.5, 0.0, 0.0, 0.0, 0.0, 1.6444977206737995E9, 0.0, 2022-02-10 23:55:20.673
2.0, -10827.833214739945, -13595.78384110735, -7863.164885421382, -15588.531266275797, -1266.3380821154217, -2845.779400560785, -2593.517612638189, -4839.733819929817, -20445.833557347483, -18074.961671228608, -23343.20078411112, -14070.043154960056, -8137.979583499383, -13376.401469278511, -6776.333663026531, -9589.635978893755, 0.012, -0.024, 0.992, 192.0, 0.0, 0.0, 0.0, 0.0, 0.0, 0.0, 0.0, 0.0, 0.0, 1.6444977206739905E9, 0.0, 2022-02-10 23:55:20.673
4.0, -10810.220040109163, -13576.87426529816, -7860.326213875558, -15586.206684852445, -1252.0329656640251, -2831.0719527091924, -2575.166830440382, -4823.461749966354, -20441.184394500782, -18066.19978740213, -23350.19688012563, -14077.799210286048, -8125.306144393224, -13362.521035971766, -6779.686424694828, -9589.054833537917, 0.012, -0.024, 0.992, 192.0, 0.0, 0.0, 0.0, 0.0, 0.0, 0.0, 0.0, 0.0, 0.0, 1.644497720674018E9, 0.0, 2022-02-10 23:55:20.674
6.0, -10806.263781340574, -13584.183285735046, -7855.453533584301, -15592.308711088743, -1255.8551139658825, -2828.836778263662, -2562.6275018009546, -4821.561851687652, -20439.70917936673, -18057.504958809015, -23333.47777527306, -14059.02374494359, -8127.2060426719245, -13346.718352641863, -6769.471677478752, -9580.024728777973, 0.012, -0.024, 0.992, 192.0, 0.0, 0.0, 0.0, 0.0, 0.0, 0.0, 0.0, 0.0, 0.0, 1.6444977206740255E9, 0.0, 2022-02-10 23:55:20.674
8.0, -10819.764234991579, -13592.900466072615, -7868.685766301843, -15589.60415000965, -1265.4663640816646, -2841.4878656253654, -2578.3407781530354, -4827.507415712764, -20442.34668521246, -18055.493301808037, -23348.229926613563, -14076.145181196354, -8138.1807491994805, -13373.808666921695, -6774.880799636937, -9584.09274626884, 0.008, -0.024, 0.99, 192.0, 0.0, 32.0, 127.5, 32.0, 15.0, 120.0, 0.0, 0.0, 0.0, 1.6444977206740324E9, 0.0, 2022-02-10 23:55:20.674
10.0, -10806.800223207501, -13587.491343914431, -7856.481713829246, -15591.235827354889, -1246.1768086167347, -2826.0428102067485, -2571.0988129495163, -4822.254755765767, -20446.839385847972, -18070.08899093735, -23345.81593821239, -14082.202503943743, -8139.387743400067, -13373.808666921695, -6775.327834526042, -9582.550475901422, 0.008, -0.024, 0.99, 192.0, 0.0, 0.0, 0.0, 0.0, 0.0, 0.0, 0.0, 0.0, 0.0, 1.6444977206740391E9, 0.0, 2022-02-10 23:55:20.674
12.0, -10813.930429688744, -13585.569093891276, -7860.147399919916, -15589.961777920937, -1252.0329656640251, -2837.2633859233124, -2580.397138642924, -4836.537520472708, -20446.459406192233, -18070.692488037646, -23338.752786964513, -14067.629166558883, -8129.284754906268, -13362.141056316026, -6770.522209468152, -9583.779821846465, 0.008, -0.024, 0.99, 192.0, 0.0, 0.0, 0.0, 0.0, 0.0, 0.0, 0.0, 0.0, 0.0, 1.644497720674046E9, 0.0, 2022-02-10 23:55:20.674
14.0, -10808.968342419666, -13571.554550117798, -7861.153228420405, -15591.079365143702, -1241.2147213476565, -2823.7629322723074, -2571.8364205165412, -4824.512281955753, -20444.55950791353, -18065.99862170203, -23350.107473147807, -14072.188922427766, -8126.401379871533, -13374.970957633372, -6777.29478803811, -9582.997510790528, 0.008, -0.024, 0.99, 192.0, 0.0, 0.0, 0.0, 0.0, 0.0, 0.0, 0.0, 0.0, 0.0, 1.6444977206740527E9, 0.0, 2022-02-10 23:55:20.674
16.0, -10812.544621532516, -13581.255207211401, -7863.857789499497, -15591.794620966271, -1237.0572968789693, -2826.445141606944, -2578.8995717644184, -4827.686229668407, -20444.17952825779, -18061.52827281097, -23335.064749129386, -14068.433829359274, -8125.127330437581, -13363.795085405718, -6770.835133890526, -9576.448449665124, 0.006, -0.022, 0.987, 192.0, 0.0, 16.0, 127.5, 48.0, 15.0, 96.0, 0.0, 0.0, 0.0, 1.64449772067406E9, 0.0, 2022-02-10 23:55:20.674
18.0, -10826.849737983912, -13581.054041511303, -7865.1765424223595, -15593.225132611411, -1251.876503452838, -2832.122484698592, -2597.630333617966, -4836.314003028155, -20453.410798717832, -18075.43105786217, -23353.996676683033, -14088.349233668952, -8125.46260660441, -13372.713431443386, -6783.396814274409, -9588.026653292973, 0.006, -0.022, 0.987, 192.0, 0.0, 0.0, 0.0, 0.0, 0.0, 0.0, 0.0, 0.0, 0.0, 1.644497720674079E9, 0.0, 2022-02-10 23:55:20.674
20.0, -10803.55922026148, -13572.78389606284, -7851.810199238086, -15585.871408685614, -1235.6714887227404, -2817.2362228913576, -2568.640121059432, -4823.148825543979, -20447.800510859553, -18064.76927575699, -23342.172603866173, -14076.949843996746, -8129.485920606366, -13364.420934250467, -6779.440555505819, -9580.851743322819, 0.006, -0.022, 0.987, 192.0, 0.0, 0.0, 0.0, 0.0, 0.0, 0.0, 0.0, 0.0, 0.0, 1.6444977206740856E9, 0.0, 2022-02-10 23:55:20.674
22.0, -10798.507726014583, -13562.882073269138, -7856.526417318156, -15591.951083177459, -1244.4110208047655, -2823.4053043610224, -2581.738243310242, -4842.8407124091045, -20445.14065326937, -18059.24839487653, -23340.38446430975, -14070.73605903817, -8127.22839441638, -13346.606593919587, -6777.540657227119, -9583.779821846465, 0.006, -0.022, 0.987, 192.0, 0.0, 0.0, 0.0, 0.0, 0.0, 0.0, 0.0, 0.0, 0.0, 1.6444977206740923E9, 0.0, 2022-02-10 23:55:20.674
24.0, -10782.481525240128, -13540.619735791654, -7851.832550982542, -15590.520571532319, -1232.1175613543464, -2822.3994758605336, -2568.550714081611, -4826.702752912373, -20422.81126055852, -18039.578859755857, -23336.6070194968, -14075.36287014042, -8118.287696634257, -13352.507454455788, -6783.039186363124, -9587.400804448223, 0.006, -0.022, 0.987, 192.0, 0.0, 0.0, 0.0, 0.0, 0.0, 0.0, 0.0, 0.0, 0.0, 1.6444977206740987E9, 0.0, 2022-02-10 23:55:20.674
26.0, -10816.031493667542, -13579.847047310717, -7867.277606401159, -15592.934559933492, -1240.3430033138995, -2826.534548584765, -2583.951066011318, -4842.684250197917, -20455.48951095218, -18074.715802039602, -23339.512746275992, -14071.496018349651, -8126.244917660346, -13377.116725101081, -6780.491087495218, -9586.909066070208, 0.005, -0.022, 0.9864999999999999, 192.0, 0.0, 16.0, 127.5, 40.0, 15.0, 104.0, 0.0, 0.0, 0.0, 1.6444977206741054E9, 0.0, 2022-02-10 23:55:20.674
28.0, -10810.287095342528, -13554.67898305404, -7865.958853478295, -15587.145458119567, -1248.2778725955336, -2831.2284149203797, -2576.329121152058, -4847.489875255808, -20459.177548787302, -18075.743982284544, -23352.074426659874, -14081.39784114335, -8128.65890606152, -13371.908768642996, -6784.626160219451, -9589.568923660388, 0.005, -0.022, 0.9864999999999999, 192.0, 0.0, 0.0, 0.0, 0.0, 0.0, 0.0, 0.0, 0.0, 0.0, 1.6444977206741266E9, 0.0, 2022-02-10 23:55:20.674
30.0, -10787.08598459792, -13540.48562532492, -7852.704269016299, -15579.523513260308, -1228.362468285855, -2813.3693711005894, -2558.6712430323655, -4829.76494190275, -20449.745112627163, -18065.037496690453, -23338.86454568679, -14077.151009696843, -8130.2011764289355, -13362.342222016123, -6781.251046806699, -9584.785650346954, 0.005, -0.022, 0.9864999999999999, 192.0, 0.0, 0.0, 0.0, 0.0, 0.0, 0.0, 0.0, 0.0, 0.0, 1.6444977206741335E9, 0.0, 2022-02-10 23:55:20.674
32.0, -10785.029624108032, -13534.495357810898, -7862.136705176438, -15576.170751592012, -1233.905700910771, -2811.0894931661483, -2571.9258274943627, -4827.57447094613, -20437.786929343572, -18055.694467508136, -23326.9063624032, -14064.388163612863, -8113.415016343, -13348.685306153931, -6771.885665879926, -9579.980025289062, 0.005, -0.022, 0.9864999999999999, 192.0, 0.0, 0.0, 0.0, 0.0, 0.0, 0.0, 0.0, 0.0, 0.0, 1.6444977206741405E9, 0.0, 2022-02-10 23:55:20.674
34.0, -10779.8440193944, -13523.25243034988, -7855.855864984497, -15572.773286434805, -1221.6345932048075, -2804.2498593628243, -2556.45842033129, -4825.42870347842, -20437.76457759912, -18047.71489473759, -23340.607981754303, -14067.293890392053, -8114.6443622880415, -13347.59007067562, -6778.412375260875, -9579.577693888867, 0.005, -0.022, 0.9864999999999999, 192.0, 0.0, 0.0, 0.0, 0.0, 0.0, 0.0, 0.0, 0.0, 0.0, 1.6444977206741471E9, 0.0, 2022-02-10 23:55:20.674
36.0, -10783.062670595966, -13517.932715169516, -7854.425353339358, -15577.020117881313, -1216.069008835436, -2807.60262103112, -2543.6955742473097, -4814.275182995222, -20438.524536910598, -18046.61965925928, -23320.58081872235, -14057.436771087263, -8104.65313251652, -13350.40639047699, -6764.934273354325, -9573.766240330488, 0.0015, -0.022, 0.98725, 192.0, 127.5, 120.0, 127.5, 40.0, 15.0, 112.0, 0.0, 0.0, 0.0, 1.644497720674159E9, 0.0, 2022-02-10 23:55:20.674
38.0, -10786.795411920002, -13522.96185767196, -7860.7732487646645, -15577.735373703883, -1229.301241552978, -2813.3917228450446, -2558.26891163217, -4822.5900319325965, -20438.099853765947, -18051.492339550536, -23332.874278172767, -14076.413402129818, -8106.3071616062125, -13353.647393423009, -6768.264683278166, -9576.89548455423, 0.0015, -0.022, 0.98725, 192.0, 0.0, 0.0, 0.0, 0.0, 0.0, 0.0, 0.0, 0.0, 0.0, 1.644497720674166E9, 0.0, 2022-02-10 23:55:20.674
40.0, -10770.948025101188, -13516.032816890815, -7845.50700730169, -15576.37191729211, -1220.293488537489, -2794.5268505247655, -2552.5021615627006, -4811.749435871772, -20435.015313031116, -18048.206633115606, -23328.739205448535, -14057.615585042906, -8098.416995813489, -13333.799044346697, -6767.325910011043, -9573.118039741283, 0.0015, -0.022, 0.98725, 192.0, 0.0, 0.0, 0.0, 0.0, 0.0, 0.0, 0.0, 0.0, 0.0, 1.6444977206741729E9, 0.0, 2022-02-10 23:55:20.674
42.0, -10774.32313851394, -13518.022122147337, -7846.758704991187, -15578.741202204372, -1230.776456687028, -2796.516155781288, -2559.006519199195, -4822.165348787946, -20436.17760374279, -18048.34074358234, -23323.86652515728, -14055.82744548648, -8110.442234330444, -13312.363721414056, -6761.067421563557, -9568.915911783686, 0.0015, -0.022, 0.98725, 192.0, 0.0, 0.0, 0.0, 0.0, 0.0, 0.0, 0.0, 0.0, 0.0, 1.644497720674192E9, 0.0, 2022-02-10 23:55:20.674
44.0, -10780.782792661525, -13511.204840088469, -7841.416638066368, -15573.46619051292, -1226.6637357072516, -2802.9087546955056, -2557.2183796427703, -4829.6308314360185, -20433.562449641522, -18055.09097040784, -23335.221211340573, -14072.300681150042, -8104.273152860779, -13356.396657991012, -6770.343395512509, -9580.002377033517, 0.0015, -0.022, 0.98725, 192.0, 0.0, 0.0, 0.0, 0.0, 0.0, 0.0, 0.0, 0.0, 0.0, 1.6444977206741989E9, 0.0, 2022-02-10 23:55:20.674
46.0, -10775.731298414625, -13505.616903974642, -7839.2261671097485, -15568.1241235881, -1223.4003810167767, -2798.9748476713717, -2553.1727138963597, -4833.00594484877, -20433.4730426637, -18043.088083635343, -23310.366071506272, -14048.943108194246, -8098.1487748800255, -13347.634774164531, -6767.057689077579, -9578.437754921646, 0.00275, -0.022, 0.987625, 192.0, 0.0, 16.0, 127.5, 40.0, 15.0, 112.0, 0.0, 0.0, 0.0, 1.6444977206742053E9, 0.0, 2022-02-10 23:55:20.674
48.0, -10780.46986823915, -13503.895819651583, -7846.132856146438, -15560.770399662306, -1237.0349451345141, -2800.3383040831454, -2565.8014495136085, -4832.603613448574, -20433.6742083638, -18041.791682456933, -23326.28051355845, -14053.480512318672, -8094.997178911827, -13343.745570629308, -6771.930369368836, -9578.214237477094, 0.00275, -0.022, 0.987625, 192.0, 0.0, 0.0, 0.0, 0.0, 0.0, 0.0, 0.0, 0.0, 0.0, 1.6444977206742125E9, 0.0, 2022-02-10 23:55:20.674
50.0, -10761.001498818578, -13477.744278638875, -7833.906451929385, -15562.513835729818, -1227.0884188519024, -2781.4063765295004, -2554.357356352491, -4819.639601664496, -20425.113490237414, -18032.51570850798, -23316.199876809107, -14060.677774033282, -8098.707568491408, -13328.032294277227, -6770.902189123892, -9569.340594928337, 0.00275, -0.022, 0.987625, 192.0, 0.0, 0.0, 0.0, 0.0, 0.0, 0.0, 0.0, 0.0, 0.0, 1.6444977206742191E9, 0.0, 2022-02-10 23:55:20.674
52.0, -10780.603978705882, -13501.839459161694, -7851.385516093435, -15567.878254399093, -1242.7346399706173, -2803.5569552847096, -2555.3408331085247, -4827.2391947793, -20428.868583305906, -18037.969534155076, -23313.696481430114, -14052.273518118087, -8099.422824313978, -13330.133358256026, -6768.130572811434, -9574.481496153057, 0.00275, -0.022, 0.987625, 192.0, 0.0, 0.0, 0.0, 0.0, 0.0, 0.0, 0.0, 0.0, 0.0, 1.644497720674226E9, 0.0, 2022-02-10 23:55:20.674
54.0, -10777.452382737683, -13506.53332549731, -7854.715926017276, -15562.55853921873, -1243.5169510265532, -2793.051635390715, -2562.8286675010527, -4826.5239389567305, -20437.250487476646, -18056.074447163875, -23336.76348170799, -14060.364849610907, -8102.976751682371, -13344.282012496235, -6779.395852016909, -9579.532990399955, 0.00275, -0.022, 0.987625, 192.0, 0.0, 0.0, 0.0, 0.0, 0.0, 0.0, 0.0, 0.0, 0.0, 1.6444977206742325E9, 0.0, 2022-02-10 23:55:20.674
56.0, -10774.434897236217, -13491.334139267701, -7847.988050936228, -15566.090114842667, -1227.2225293186343, -2788.782452199752, -2541.7733242241534, -4817.270316752233, -20432.80249033004, -18041.61286850129, -23316.64691169821, -14039.86829994539, -8105.301333105724, -13313.369549914545, -6768.555255956085, -9571.978100774062, 0.003375, -0.022, 0.9908125, 192.0, 0.0, 16.0, 127.5, 40.0, 15.5, 8.0, 0.0, 0.0, 0.0, 1.644497720674239E9, 0.0, 2022-02-10 23:55:20.674
58.0, -10780.603978705882, -13475.933787337994, -7855.140609161927, -15565.866597398115, -1234.0845148664137, -2803.467548306888, -2555.631405786444, -4822.14299704349, -20438.301019466046, -18050.508862794504, -23329.47681301556, -14057.97321295419, -8105.03311217226, -13336.905936825984, -6765.649529176895, -9573.028632763462, 0.003375, -0.022, 0.9908125, 192.0, 0.0, 0.0, 0.0, 0.0, 0.0, 0.0, 0.0, 0.0, 0.0, 1.644497720674262E9, 0.0, 2022-02-10 23:55:20.674
60.0, -10762.387306974806, -13481.901703107562, -7853.799504494608, -15568.235882310377, -1216.2478227910785, -2790.9058679230056, -2557.3748418539576, -4829.027334335725, -20433.76361534162, -18047.33491508185, -23322.123089089764, -14051.290041362054, -8101.255667359313, -13331.832090834629, -6765.67188092135, -9576.537856642944, 0.003375, -0.022, 0.9908125, 192.0, 0.0, 0.0, 0.0, 0.0, 0.0, 0.0, 0.0, 0.0, 0.0, 1.6444977206742687E9, 0.0, 2022-02-10 23:55:20.674
62.0, -10791.42222302225, -13495.469211991933, -7856.392306851424, -15575.70136495845, -1229.7259246976287, -2802.5958302731315, -2565.8685047469744, -4829.139093058002, -20438.524536910598, -18049.57008952738, -23325.76642343598, -14051.558262295517, -8104.988408683349, -13336.190681003414, -6765.157790798878, -9578.437754921646, 0.003375, -0.022, 0.9908125, 192.0, 0.0, 0.0, 0.0, 0.0, 0.0, 0.0, 0.0, 0.0, 0.0, 1.6444977206742876E9, 0.0, 2022-02-10 23:55:20.674
64.0, -10775.060746080964, -13453.023249271304, -7849.463266070279, -15566.60420496514, -1214.616145445841, -2793.766891213285, -2551.9880714402284, -4820.913651098448, -20436.781100843087, -18048.117226137787, -23336.405853796703, -14069.014974715112, -8104.921353449983, -13356.128437057549, -6769.315215267565, -9579.018900277484, 0.003375, -0.022, 0.9908125, 192.0, 0.0, 0.0, 0.0, 0.0, 0.0, 0.0, 0.0, 0.0, 0.0, 1.644497720674294E9, 0.0, 2022-02-10 23:55:20.674
66.0, -10761.917920341244, -13478.101906550159, -7840.857844454986, -15566.850074154148, -1201.9874098285925, -2774.097356092615, -2552.8374377295304, -4819.214918519845, -20422.00659775813, -18039.154176611206, -23304.71108015908, -14047.803169227025, -8083.150754350514, -13318.935134283916, -6753.713697637761, -9565.741964071032, 0.0026875, -0.023, 0.9884062499999999, 192.0, 0.0, 8.0, 127.5, 32.0, 15.0, 104.0, 0.0, 0.0, 0.0, 1.644497720674301E9, 0.0, 2022-02-10 23:55:20.674
68.0, -10783.822629907445, -13483.511028708343, -7850.402039337402, -15565.531321231285, -1218.035962347503, -2784.602675986609, -2560.1241064219603, -4827.19449129039, -20423.86179254792, -18041.590516756834, -23312.623597696256, -14042.148177879833, -8095.175992867469, -13313.838936548107, -6759.5251511961405, -9572.581597874356, 0.0026875, -0.023, 0.9884062499999999, 192.0, 0.0, 0.0, 0.0, 0.0, 0.0, 0.0, 0.0, 0.0, 0.0, 1.644497720674311E9, 0.0, 2022-02-10 23:55:20.674
70.0, -10765.896530854288, -13461.38280169759, -7842.333059589036, -15563.184388063479, -1204.4013982297658, -2776.287827049235, -2560.0346994441393, -4809.938944570893, -20425.71698733771, -18041.009371400996, -23313.47296398556, -14041.656439501816, -8094.483088789355, -13328.814605333162, -6760.441572718808, -9566.881903038253, 0.0026875, -0.023, 0.9884062499999999, 192.0, 0.0, 0.0, 0.0, 0.0, 0.0, 0.0, 0.0, 0.0, 0.0, 1.6444977206743176E9, 0.0, 2022-02-10 23:55:20.674
72.0, -10775.552484458982, -13470.792886113273, -7851.631385282444, -15562.357373518631, -1215.554918712964, -2779.4617747618886, -2554.8267429860525, -4822.277107510222, -20424.889972792862, -18047.603136015314, -23311.103679073298, -14042.885785446857, -8094.371330067079, -13324.67953260893, -6758.76519188466, -9564.020879747974, 0.0026875, -0.023, 0.9884062499999999, 192.0, 0.0, 0.0, 0.0, 0.0, 0.0, 0.0, 0.0, 0.0, 0.0, 1.644497720674324E9, 0.0, 2022-02-10 23:55:20.674
74.0, -10771.260949523563, -13464.243824987869, -7847.161036391382, -15559.384591506076, -1212.4033227447658, -2776.3995857715113, -2558.5371325656333, -4828.356782002065, -20429.360321683922, -18053.61575527379, -23327.7557286925, -14055.268651875098, -8098.84167895814, -13326.333561698624, -6762.564988442063, -9566.591330360334, 0.0026875, -0.023, 0.9884062499999999, 192.0, 0.0, 0.0, 0.0, 0.0, 0.0, 0.0, 0.0, 0.0, 0.0, 1.6444977206743307E9, 0.0, 2022-02-10 23:55:20.674
76.0, -10765.27068200954, -13451.302164948245, -7842.914204944874, -15558.915204872514, -1205.3848749857993, -2766.3636525110787, -2549.708193505787, -4808.888412581493, -20421.291341935557, -18043.915098180187, -23307.43799298263, -14041.142349379345, -8093.007873655305, -13311.4920033803, -6755.1442092829, -9563.953824514607, 0.0053437499999999995, -0.0215, 0.989203125, 192.0, 0.0, 32.0, 127.5, 48.0, 15.0, 120.0, 0.0, 0.0, 0.0, 1.6444977206743371E9, 0.0, 2022-02-10 23:55:20.674
78.0, -10785.789583419513, -13471.061107046737, -7855.9005684734075, -15560.591585706663, -1220.7405234265952, -2777.718338694375, -2571.165868182882, -4816.353895229566, -20432.556621141033, -18056.744999497532, -23322.57012397887, -14050.217157628198, -8090.415071298489, -13316.834070305118, -6760.262758763166, -9562.433905891647, 0.0053437499999999995, -0.0215, 0.989203125, 192.0, 0.0, 0.0, 0.0, 0.0, 0.0, 0.0, 0.0, 0.0, 0.0, 1.6444977206743438E9, 0.0, 2022-02-10 23:55:20.674
80.0, -10770.858618123368, -13462.142761009069, -7845.93169044634, -15558.870501383604, -1207.3965319867768, -2765.648396688509, -2552.032774929139, -4808.553136414664, -20428.645065861354, -18052.6099267733, -23318.166830321174, -14045.590346525949, -8092.851411444118, -13315.135337726515, -6760.732145396727, -9562.433905891647, 0.0053437499999999995, -0.0215, 0.989203125, 192.0, 0.0, 0.0, 0.0, 0.0, 0.0, 0.0, 0.0, 0.0, 0.0, 1.6444977206743505E9, 0.0, 2022-02-10 23:55:20.674
82.0, -10784.649644452293, -13463.95325230995, -7856.660527784888, -15562.89381538556, -1217.1865960582013, -2768.665882189975, -2562.8286675010527, -4825.6969244118845, -20432.37780718539, -18055.113322152298, -23316.71396693158, -14034.280363831564, -8096.047710901226, -13301.5901805866, -6757.692308150806, -9559.729344812555, 0.0053437499999999995, -0.0215, 0.989203125, 192.0, 0.0, 0.0, 0.0, 0.0, 0.0, 0.0, 0.0, 0.0, 0.0, 1.6444977206743567E9, 0.0, 2022-02-10 23:55:20.674
84.0, -10782.056842095477, -13451.413923670521, -7850.737315504231, -15561.306841529233, -1215.3984565017768, -2772.823306658662, -2558.872408732463, -4814.297534739678, -20431.595496129456, -18054.33101109636, -23334.975342151563, -14057.369715853896, -8096.204173112414, -13312.944866769894, -6767.124744310945, -9563.015051247485, 0.0053437499999999995, -0.0215, 0.989203125, 192.0, 0.0, 0.0, 0.0, 0.0, 0.0, 0.0, 0.0, 0.0, 0.0, 1.6444977206743636E9, 0.0, 2022-02-10 23:55:20.674
86.0, -10765.13657154281, -13442.987316010871, -7842.288356100125, -15560.949213617947, -1198.5899446713859, -2760.0381088302265, -2557.9559872097957, -4823.8193778776385, -20432.08723450747, -18049.43597906065, -23316.311635531383, -14050.083047161466, -8092.493783532833, -13304.987645743806, -6756.775886628138, -9556.622452333266, 0.004, -0.026000000000000002, 0.986, 192.0, 0.0, 16.0, 127.5, 24.0, 15.0, 104.0, 0.0, 0.0, 0.0, 1.6444977206743703E9, 0.0, 2022-02-10 23:55:20.674
88.0, -10787.868295653856, -13446.764760823819, -7850.402039337402, -15565.978356120391, -1207.7318081536066, -2768.0400333452267, -2569.713004793287, -4816.108026040558, -20426.588705371465, -18052.565223284393, -23326.32521704736, -14051.759427995614, -8083.754251450808, -13306.082881222115, -6754.00427031568, -9561.472780880069, 0.004, -0.026000000000000002, 0.986, 192.0, 0.0, 0.0, 0.0, 0.0, 0.0, 0.0, 0.0, 0.0, 0.0, 1.6444977206743772E9, 0.0, 2022-02-10 23:55:20.674
90.0, -10774.971339103144, -13443.322592177701, -7840.544920032611, -15563.586719463674, -1190.1409852672798, -2755.835980872629, -2555.385536597435, -4817.4267789634205, -20426.812222816017, -18054.263955862996, -23319.776155921958, -14036.336724321452, -8091.1079753766035, -13306.127584711026, -6750.830322603027, -9561.204559946604, 0.004, -0.026000000000000002, 0.986, 192.0, 0.0, 0.0, 0.0, 0.0, 0.0, 0.0, 0.0, 0.0, 0.0, 1.644497720674384E9, 0.0, 2022-02-10 23:55:20.674
92.0, -10785.968397375154, -13450.251632958847, -7858.806295252597, -15570.091077100167, -1203.23910751809, -2760.3957367415114, -2567.656644303399, -4822.522976699231, -20430.299094951046, -18053.325182595872, -23324.112394346284, -14040.181224367765, -8094.773661467274, -13294.728195038819, -6752.730220881727, -9566.636033849243, 0.004, -0.026000000000000002, 0.986, 192.0, 0.0, 0.0, 0.0, 0.0, 0.0, 0.0, 0.0, 0.0, 0.0, 1.6444977206743903E9, 0.0, 2022-02-10 23:55:20.674
94.0, -10782.973263618143, -13438.584022353176, -7856.302899873603, -15562.826760152193, -1202.590906928886, -2757.199437284403, -2550.781077239642, -4811.57062191613, -20434.009484530627, -18047.178452870663, -23332.27078107247, -14052.318221606998, -8096.114766134592, -13290.660177547954, -6763.950796598291, -9566.479571638058, 0.004, -0.026000000000000002, 0.986, 192.0, 0.0, 0.0, 0.0, 0.0, 0.0, 0.0, 0.0, 0.0, 0.0, 1.6444977206743977E9, 0.0, 2022-02-10 23:55:20.674
96.0, -10774.948987358688, -13430.783263538273, -7849.306803859092, -15558.2223007944, -1196.5782876704084, -2760.127515808048, -2547.4059638268905, -4817.4267789634205, -20429.785004828573, -18051.090008150342, -23318.14447857672, -14046.886747704357, -8092.069100388182, -13316.096462738093, -6752.864331348459, -9563.104458225305, 0.002, -0.022, 0.99, 192.0, 0.0, 8.0, 127.5, 40.0, 15.0, 120.0, 0.0, 0.0, 0.0, 1.6444977206744044E9, 0.0, 2022-02-10 23:55:20.674
98.0, -10790.729318944135, -13440.863900287617, -7855.341774862025, -15559.809274650726, -1209.9893343435924, -2768.509419978788, -2565.712042535787, -4831.620136692541, -20438.65864737733, -18062.779970500465, -23326.459327514094, -14049.859529716914, -8092.247914343824, -13315.045930748694, -6761.179180285833, -9574.436792664146, 0.002, -0.022, 0.99, 192.0, 0.0, 0.0, 0.0, 0.0, 0.0, 0.0, 0.0, 0.0, 0.0, 1.644497720674411E9, 0.0, 2022-02-10 23:55:20.674
100.0, -10770.523341956537, -13420.501461088832, -7841.818969466564, -15553.886062370071, -1186.654113132252, -2747.454076701889, -2543.6061672694887, -4809.693075381884, -20433.160118241325, -18054.7109907521, -23320.42435651116, -14041.432922057264, -8084.201286339914, -13309.100366723582, -6756.038279061113, -9566.747792571521, 0.002, -0.022, 0.99, 192.0, 0.0, 0.0, 0.0, 0.0, 0.0, 0.0, 0.0, 0.0, 0.0, 1.6444977206744208E9, 0.0, 2022-02-10 23:55:20.674
102.0, -10776.960644359666, -13417.70749303192, -7848.189216636327, -15560.680992684483, -1197.651171404263, -2749.085754047126, -2560.9511209668067, -4816.420950462932, -20434.90355430884, -18052.05113316192, -23313.13768781873, -14042.863433702403, -8084.98359739585, -13295.130526439016, -6747.47756093473, -9566.881903038253, 0.002, -0.022, 0.99, 192.0, 0.0, 0.0, 0.0, 0.0, 0.0, 0.0, 0.0, 0.0, 0.0, 1.6444977206744275E9, 0.0, 2022-02-10 23:55:20.674
104.0, -10768.198760533185, -13428.682199559475, -7854.291242872625, -15557.261175782822, -1192.1302905238022, -2748.996347069305, -2537.5041410331896, -4811.034180049202, -20436.37876944289, -18056.253261119517, -23334.23773458454, -14057.213253642709, -8088.604579997609, -13289.028500202716, -6755.85946510547, -9565.786667559942, 0.002, -0.022, 0.99, 192.0, 0.0, 0.0, 0.0, 0.0, 0.0, 0.0, 0.0, 0.0, 0.0, 1.6444977206744344E9, 0.0, 2022-02-10 23:55:20.674
106.0, -10770.232769278618, -13423.429539612478, -7839.516739787668, -15554.958946103925, -1182.362578196833, -2738.8486550865955, -2540.320460834558, -4803.814566590138, -20433.160118241325, -18044.898574936222, -23316.311635531383, -14040.315334834497, -8087.956379408405, -13297.745680540285, -6745.421200444842, -9559.215254690082, 0.01, -0.028, 0.992, 192.0, 0.0, 40.0, 127.5, 16.0, 15.5, 0.0, 0.0, 0.0, 0.0, 1.6444977206744409E9, 0.0, 2022-02-10 23:55:20.674
108.0, -10780.93925487271, -13417.059292442715, -7849.418562581368, -15552.232033280377, -1198.2546685045563, -2740.4579806873776, -2554.938501708329, -4805.088616024091, -20434.23300197518, -18055.426246574672, -23326.079347858355, -14039.667134245294, -8079.619178726576, -13291.420136859435, -6751.724392381238, -9557.628280833755, 0.01, -0.028, 0.992, 192.0, 0.0, 0.0, 0.0, 0.0, 0.0, 0.0, 0.0, 0.0, 0.0, 1.6444977206744485E9, 0.0, 2022-02-10 23:55:20.674
110.0, -10758.095772039387, -13400.608408523609, -7837.236861853226, -15545.951193088436, -1179.7697758400175, -2726.309326447168, -2544.3214230920585, -4810.207165504356, -20426.5216501381, -18045.43501680315, -23318.010368109986, -14035.576765009971, -8061.73778316233, -13273.62814827301, -6751.545578425596, -9553.359097642791, 0.01, -0.028, 0.992, 192.0, 0.0, 0.0, 0.0, 0.0, 0.0, 0.0, 0.0, 0.0, 0.0, 1.6444977206744552E9, 0.0, 2022-02-10 23:55:20.674
112.0, -10774.770173403045, -13400.183725378958, -7841.193120621815, -15545.459454710419, -1188.2410869885787, -2735.093562018104, -2561.040527944628, -4803.680456123407, -20429.695597850754, -18043.42335980217, -23310.433126739637, -14030.368808551886, -8077.4287077699555, -13284.938130967395, -6747.298746979088, -9554.521388354467, 0.01, -0.028, 0.992, 192.0, 0.0, 0.0, 0.0, 0.0, 0.0, 0.0, 0.0, 0.0, 0.0, 1.6444977206744623E9, 0.0, 2022-02-10 23:55:20.674
114.0, -10768.645795422291, -13405.27992311477, -7844.702344501298, -15544.185405276467, -1183.9272003087044, -2729.0585910151713, -2543.941443436318, -4798.651313620962, -20429.38267342838, -18049.61479301629, -23328.962722893088, -14041.92466043528, -8076.735803691841, -13291.375433370524, -6754.026622060135, -9559.259958178993, 0.01, -0.028, 0.992, 192.0, 0.0, 0.0, 0.0, 0.0, 0.0, 0.0, 0.0, 0.0, 0.0, 1.6444977206744688E9, 0.0, 2022-02-10 23:55:20.674
116.0, -10751.770228358535, -13405.503440559321, -7836.543957775111, -15543.291335498256, -1177.1769734832017, -2725.8175880691515, -2533.078495631039, -4798.360740943043, -20422.632446602875, -18037.52249926597, -23313.718833174567, -14030.592325996438, -8071.036108855737, -13280.557189054154, -6742.023735287636, -9549.201673174104, 0.014, -0.026000000000000002, 0.994, 192.0, 0.0, 56.0, 127.5, 24.0, 15.5, 8.0, 0.0, 0.0, 0.0, 1.644497720674476E9, 0.0, 2022-02-10 23:55:20.674
118.0, -10788.47179275415, -13413.214792396402, -7848.591548036522, -15547.180539033478, -1195.2818864920005, -2738.2675097307574, -2550.110524905983, -4801.5793921446075, -20432.556621141033, -18051.20176687262, -23318.34564427682, -14041.790549968548, -8068.666823943476, -13290.14608742548, -6748.170465012845, -9556.108362210794, 0.014, -0.026000000000000002, 0.994, 192.0, 0.0, 0.0, 0.0, 0.0, 0.0, 0.0, 0.0, 0.0, 0.0, 1.6444977206744823E9, 0.0, 2022-02-10 23:55:20.674
120.0, -10773.362013502361, -13389.611350251598, -7840.656678754888, -15544.341867487654, -1180.3509211958553, -2716.541614120199, -2531.580928752533, -4783.4968308802645, -20437.339894454468, -18039.08712137784, -23314.970530864066, -14042.63991625785, -8067.996271609816, -13283.351157111068, -6752.439648203808, -9553.090876709328, 0.014, -0.026000000000000002, 0.994, 192.0, 0.0, 0.0, 0.0, 0.0, 0.0, 0.0, 0.0, 0.0, 0.0, 1.644497720674489E9, 0.0, 2022-02-10 23:55:20.674
122.0, -10769.18223728922, -13383.241103081835, -7841.796617722109, -15545.861786110616, -1176.5064211495426, -2726.935175291917, -2546.176617881849, -4805.289781724189, -20433.741263597163, -18045.05503714741, -23309.47200172806, -14027.39602653933, -8074.366518779579, -13268.777819726209, -6741.263775976155, -9552.956766242596, 0.014, -0.026000000000000002, 0.994, 192.0, 0.0, 0.0, 0.0, 0.0, 0.0, 0.0, 0.0, 0.0, 0.0, 1.6444977211542192E9, 0.0, 2022-02-10 23:55:21.154
124.0, -10771.462115223661, -13388.493763028833, -7842.064838655572, -15543.134873287068, -1166.0011012555483, -2711.311305917657, -2548.83647547203, -4799.858307821549, -20431.975475785195, -18052.22994711756, -23326.28051355845, -14035.956744665713, -8079.105088604104, -13282.568846055132, -6750.562101669562, -9557.807094789398, 0.014, -0.026000000000000002, 0.994, 192.0, 0.0, 0.0, 0.0, 0.0, 0.0, 0.0, 0.0, 0.0, 0.0, 1.6444977211542375E9, 0.0, 2022-02-10 23:55:21.154
126.0, -10762.096734296887, -13384.559856004698, -7839.516739787668, -15547.225242522389, -1163.6318163432857, -2707.9138407604505, -2537.459437544279, -4802.249944478267, -20432.109586251925, -18054.398066329726, -23309.963740106075, -14020.310523546998, -8069.918521632972, -13264.732153979798, -6745.175331255834, -9550.542777841423, 0.01, -0.028, 0.998, 192.0, 0.0, 40.0, 127.5, 16.0, 15.5, 24.0, 0.0, 0.0, 0.0, 1.6444977211542451E9, 0.0, 2022-02-10 23:55:21.154
128.0, -10780.380461261328, -13401.45777481291, -7853.911263216885, -15548.029905322779, -1182.9884270415816, -2723.5600618791655, -2549.976414439251, -4798.383092687499, -20438.770406099607, -18060.05305767692, -23327.174583336662, -14042.371695324386, -8079.619178726576, -13283.842895489086, -6749.936252824814, -9552.576786586857, 0.01, -0.028, 0.998, 192.0, 0.0, 0.0, 0.0, 0.0, 0.0, 0.0, 0.0, 0.0, 0.0, 1.6444977211542535E9, 0.0, 2022-02-10 23:55:21.154
130.0, -10781.118068828353, -13389.83486769615, -7837.706248486787, -15543.939536087459, -1169.7338425795845, -2703.8905267584955, -2545.0590306590834, -4792.124604240013, -20441.005580545137, -18038.148348110717, -23315.03758609743, -14032.983962653158, -8074.679443201953, -13290.950750225873, -6752.596110414996, -9551.682716808644, 0.01, -0.028, 0.998, 192.0, 0.0, 0.0, 0.0, 0.0, 0.0, 0.0, 0.0, 0.0, 0.0, 1.6444977211542606E9, 0.0, 2022-02-10 23:55:21.154
132.0, -10788.874124154345, -13378.770754190775, -7848.882120714441, -15549.773341390293, -1178.9874647840816, -2707.5338611047105, -2564.5274000796558, -4801.557040400153, -20445.654743391842, -18048.363095326793, -23313.025929096453, -14034.235660342654, -8078.948626392917, -13271.683546505397, -6747.388153956909, -9550.498074352512, 0.01, -0.028, 0.998, 192.0, 0.0, 0.0, 0.0, 0.0, 0.0, 0.0, 0.0, 0.0, 0.0, 1.6444977211542776E9, 0.0, 2022-02-10 23:55:21.154
134.0, -10775.530132714526, -13372.042879109727, -7852.570158549566, -15548.119312300601, -1176.8416973163721, -2700.6718755569314, -2562.64985354541, -4797.287857209189, -20440.625600889398, -18050.061827905396, -23331.868449672278, -14049.144273894344, -8077.227542069858, -13267.324956336613, -6757.580549428529, -9557.717687811577, 0.01, -0.028, 0.998, 192.0, 0.0, 0.0, 0.0, 0.0, 0.0, 0.0, 0.0, 0.0, 0.0, 1.644497721154291E9, 0.0, 2022-02-10 23:55:21.154
136.0, -10763.750763386579, -13381.140039103037, -7845.305841601592, -15544.520681443297, -1163.8329820433835, -2687.841974239585, -2539.001707911695, -4789.867078050027, -20437.04932177655, -18053.012258173498, -23313.875295385755, -14021.785738681048, -8077.875742659062, -13262.966366167828, -6747.81283710156, -9546.541815583923, 0.01, -0.022, 0.992, 192.0, 0.0, 40.0, 127.5, 40.0, 15.5, 0.0, 0.0, 0.0, 0.0, 1.6444977211542976E9, 0.0, 2022-02-10 23:55:21.154
138.0, -10787.890647398312, -13389.946626418428, -7856.481713829246, -15548.208719278422, -1176.9311042941933, -2704.874003514529, -2540.968661423762, -4801.71350261134, -20443.263106735125, -18057.14733089773, -23319.060900099386, -14032.849852186424, -8069.985576866338, -13260.597081255566, -6742.560177154563, -9547.212367917582, 0.01, -0.022, 0.992, 192.0, 0.0, 0.0, 0.0, 0.0, 0.0, 0.0, 0.0, 0.0, 0.0, 1.6444977211543057E9, 0.0, 2022-02-10 23:55:21.154
140.0, -10768.355222744372, -13372.244044809824, -7850.290280615125, -15545.88413785507, -1161.75426980904, -2686.1208899165263, -2530.6421554854105, -4776.634845332485, -20441.005580545137, -18054.66628726319, -23318.99384486602, -14040.91883193479, -8067.996271609816, -13264.24041560178, -6744.772999855638, -9543.010239959984, 0.01, -0.022, 0.992, 192.0, 0.0, 0.0, 0.0, 0.0, 0.0, 0.0, 0.0, 0.0, 0.0, 1.644497721154313E9, 0.0, 2022-02-10 23:55:21.154
142.0, -10774.70311816968, -13364.376230761556, -7850.133818403938, -15547.426408222487, -1181.557915396442, -2696.1121196880486, -2553.329176107547, -4792.571639129119, -20441.85494683444, -18039.265935333486, -23308.71204241658, -14023.707988704204, -8061.000175595305, -13265.402706313456, -6746.829360345526, -9539.255146891493, 0.01, -0.022, 0.992, 192.0, 0.0, 0.0, 0.0, 0.0, 0.0, 0.0, 0.0, 0.0, 0.0, 1.6444977211543205E9, 0.0, 2022-02-10 23:55:21.154
144.0, -10781.006310106077, -13375.93208264495, -7855.453533584301, -15536.854033095127, -1177.04286301647, -2698.235535411303, -2558.2465598877147, -4800.305342710655, -20447.889917837372, -18060.18716814365, -23331.376711294262, -14038.661305744805, -8078.658053714998, -13277.606758786054, -6757.111162794968, -9543.993716716019, 0.01, -0.022, 0.992, 192.0, 0.0, 0.0, 0.0, 0.0, 0.0, 0.0, 0.0, 0.0, 0.0, 1.6444977211543272E9, 0.0, 2022-02-10 23:55:21.154
146.0, -10765.22597852063, -13353.088599811626, -7847.608071280489, -15542.30785874222, -1163.7659268100176, -2681.9858171922942, -2549.5740830390555, -4793.108080996047, -20439.128034010893, -18047.133749381752, -23304.487562714527, -14025.853756171913, -8071.460792000389, -13263.323994079114, -6747.09758127899, -9542.876129493252, 0.01, -0.026000000000000002, 0.99, 192.0, 0.0, 40.0, 127.5, 24.0, 15.0, 120.0, 0.0, 0.0, 0.0, 1.6444977211543355E9, 0.0, 2022-02-10 23:55:21.154
148.0, -10776.93829261521, -13370.83588490914, -7861.287338887137, -15545.101826799135, -1176.2158484716235, -2689.3171893736353, -2556.5031238202005, -4795.1197379970245, -20443.5760311575, -18052.654630262212, -23317.27276054296, -14022.657456714805, -8073.36069027909, -13251.321107306614, -6750.070363291546, -9546.340649883825, 0.01, -0.026000000000000002, 0.99, 192.0, 0.0, 0.0, 0.0, 0.0, 0.0, 0.0, 0.0, 0.0, 0.0, 1.6444977211543424E9, 0.0, 2022-02-10 23:55:21.154
150.0, -10767.148228543787, -13356.419009735468, -7850.0891149150275, -15535.200004005434, -1164.9282175216936, -2674.3415205885794, -2554.625577285955, -4790.671740850418, -20439.48566192218, -18055.33683959685, -23312.489487229526, -14018.187107823744, -8066.521056475766, -13247.834235171586, -6751.657337147873, -9547.525292339957, 0.01, -0.026000000000000002, 0.99, 192.0, 0.0, 0.0, 0.0, 0.0, 0.0, 0.0, 0.0, 0.0, 0.0, 1.6444977211543496E9, 0.0, 2022-02-10 23:55:21.154
152.0, -10766.745897143592, -13353.557986445188, -7859.230978397248, -15538.50806218482, -1173.1983629701572, -2679.840049724585, -2547.4730190602563, -4795.477365908309, -20439.84328983346, -18047.111397637298, -23300.531303945936, -14011.72745367616, -8065.761097164285, -13243.073313602605, -6741.442589931798, -9543.613737060277, 0.01, -0.026000000000000002, 0.99, 192.0, 0.0, 0.0, 0.0, 0.0, 0.0, 0.0, 0.0, 0.0, 0.0, 1.6444977211543567E9, 0.0, 2022-02-10 23:55:21.154
154.0, -10772.020908835044, -13333.217898990859, -7852.704269016299, -15531.556669659218, -1163.005967498537, -2669.29002634168, -2549.7305452502424, -4788.190697215879, -20438.680999121785, -18048.184281371152, -23314.925827375155, -14024.043264871034, -8066.252835542302, -13246.247261315259, -6745.756476611671, -9545.021896960961, 0.009000000000000001, -0.026000000000000002, 0.99, 192.0, 0.0, 32.0, 127.5, 24.0, 15.0, 120.0, 0.0, 0.0, 0.0, 1.6444977211543636E9, 0.0, 2022-02-10 23:55:21.154
156.0, -10758.788676117501, -13331.921497812451, -7848.748010247709, -15530.997876047835, -1150.6678045592075, -2657.7341744582864, -2533.8608066869747, -4776.813659288127, -20430.81318507352, -18029.788795684435, -23296.105658543787, -14006.050110584512, -8057.155675548992, -13237.015990855216, -6733.2842032056105, -9536.058847434384, 0.009000000000000001, -0.026000000000000002, 0.99, 192.0, 0.0, 0.0, 0.0, 0.0, 0.0, 0.0, 0.0, 0.0, 0.0, 1.6444977211543715E9, 0.0, 2022-02-10 23:55:21.154
158.0, -10761.672051152236, -13328.635791377521, -7859.298033630614, -15534.395341205043, -1163.520057621009, -2660.103459370549, -2549.3058621055916, -4787.386034415488, -20432.2213449742, -18029.05118811741, -23311.930693618142, -14015.884878144847, -8056.708640659886, -13223.649647670944, -6734.647659617384, -9535.097722422806, 0.009000000000000001, -0.026000000000000002, 0.99, 192.0, 0.0, 0.0, 0.0, 0.0, 0.0, 0.0, 0.0, 0.0, 0.0, 1.6444977211543784E9, 0.0, 2022-02-10 23:55:21.154
160.0, -10759.839208106901, -13312.609590603066, -7847.9209957028625, -15529.120329513591, -1146.4209731126994, -2639.383392260479, -2533.50317877569, -4754.238397388268, -20422.3195221805, -18034.61677248678, -23305.672205170657, -14010.431052497752, -8045.935099832428, -13229.32699076259, -6736.502854407175, -9529.554489797889, 0.009000000000000001, -0.026000000000000002, 0.99, 192.0, 0.0, 0.0, 0.0, 0.0, 0.0, 0.0, 0.0, 0.0, 0.0, 1.6444977211543856E9, 0.0, 2022-02-10 23:55:21.154
162.0, -10768.534036700015, -13332.21207049037, -7859.946234219818, -15536.138777272557, -1157.820362784906, -2646.737116186275, -2549.328213850047, -4773.438545875376, -20429.09210075046, -18034.81793818688, -23293.870484098254, -13993.935465089735, -8041.30828873018, -13222.397949981447, -6733.865348561448, -9525.330010095837, 0.009000000000000001, -0.026000000000000002, 0.99, 192.0, 0.0, 0.0, 0.0, 0.0, 0.0, 0.0, 0.0, 0.0, 0.0, 1.6444977211543934E9, 0.0, 2022-02-10 23:55:21.154
164.0, -10769.405754733772, -13328.188756488415, -7858.023984196661, -15535.468224938897, -1157.6639005737186, -2646.491246997267, -2530.8656729299632, -4766.263635905223, -20435.99878978715, -18041.791682456933, -23318.77032742147, -14014.700235688715, -8057.535655204732, -13234.04320884266, -6745.33179346702, -9529.912117709175, 0.009500000000000001, -0.026000000000000002, 0.991, 192.0, 0.0, 40.0, 127.5, 24.0, 15.5, 0.0, 0.0, 0.0, 0.0, 1.6444977211544032E9, 0.0, 2022-02-10 23:55:21.154
166.0, -10753.13368477031, -13319.11394823956, -7852.4360480828345, -15538.150434273533, -1149.9078452477272, -2648.3687935315124, -2534.106675875983, -4780.99343550127, -20431.304923451535, -18036.404912043206, -23298.899626600698, -14006.854773384903, -8054.607576681087, -13229.572859951599, -6737.151054996379, -9522.200765872094, 0.009500000000000001, -0.026000000000000002, 0.991, 192.0, 0.0, 0.0, 0.0, 0.0, 0.0, 0.0, 0.0, 0.0, 0.0, 1.64449772115441E9, 0.0, 2022-02-10 23:55:21.154
168.0, -10774.569007702949, -13323.919573297451, -7856.749934762709, -15540.385608719065, -1158.5132668630204, -2650.782781932686, -2541.303937590592, -4774.08674646458, -20436.155251998338, -18041.590516756834, -23307.974434849555, -14013.716758932682, -8056.596881937609, -13229.32699076259, -6738.872139319437, -9528.839233975319, 0.009500000000000001, -0.026000000000000002, 0.991, 192.0, 0.0, 0.0, 0.0, 0.0, 0.0, 0.0, 0.0, 0.0, 0.0, 1.6444977211544163E9, 0.0, 2022-02-10 23:55:21.154
170.0, -10759.995670318089, -13302.953636998373, -7845.842283468519, -15534.708265627416, -1147.4044498687329, -2626.486435709767, -2541.16982712386, -4777.037176732681, -20432.646028118852, -18029.14059509523, -23304.532266203438, -14022.188070081243, -8038.268451484258, -13210.529173675677, -6741.308479465066, -9525.754693240488, 0.009500000000000001, -0.026000000000000002, 0.991, 192.0, 0.0, 0.0, 0.0, 0.0, 0.0, 0.0, 0.0, 0.0, 0.0, 1.6444977211544244E9, 0.0, 2022-02-10 23:55:21.154
172.0, -10763.013155819555, -13291.286026392703, -7848.636251525432, -15527.332189957166, -1158.5356186074757, -2635.069505580605, -2539.7616672231757, -4772.946807497359, -20427.683940849776, -18011.99680709801, -23289.869521840756, -13989.375709220853, -8044.750457376297, -13221.325066247591, -6737.128703251923, -9523.541870539411, 0.009500000000000001, -0.026000000000000002, 0.991, 192.0, 0.0, 0.0, 0.0, 0.0, 0.0, 0.0, 0.0, 0.0, 0.0, 1.644497721154431E9, 0.0, 2022-02-10 23:55:21.154
174.0, -10755.41356270475, -13299.265599163247, -7852.391344593924, -15532.517794670797, -1149.527865591987, -2627.9840025882727, -2543.226187613748, -4782.446298890865, -20431.349626940446, -18032.53806025244, -23310.72369941756, -13994.069575556467, -8040.905957329984, -13220.430996469378, -6743.767171355149, -9525.866451962764, 0.010750000000000001, -0.022000000000000002, 0.9915, 192.0, 0.0, 48.0, 127.5, 56.0, 15.5, 0.0, 0.0, 0.0, 0.0, 1.644497721154438E9, 0.0, 2022-02-10 23:55:21.154
176.0, -10758.632213906314, -13302.596009087089, -7842.377763077947, -15533.434216193464, -1134.395734595744, -2618.70802863932, -2539.4040393118908, -4765.570731827108, -20429.248562961646, -18028.224173572562, -23296.016251565965, -13990.537999932529, -8029.327753702135, -13205.589438151055, -6734.357086939465, -9523.072483905851, 0.010750000000000001, -0.022000000000000002, 0.9915, 192.0, 0.0, 0.0, 0.0, 0.0, 0.0, 0.0, 0.0, 0.0, 0.0, 1.6444977211544452E9, 0.0, 2022-02-10 23:55:21.154
178.0, -10771.41741173475, -13302.350139898079, -7855.855864984497, -15533.680085382473, -1149.8407900143611, -2623.781874630675, -2541.4827515462343, -4773.7514702977505, -20432.24369671866, -18035.37673179826, -23305.269873770463, -13998.33875874743, -8034.334544460124, -13210.238600997758, -6730.311421193054, -9526.40289382969, 0.010750000000000001, -0.022000000000000002, 0.9915, 192.0, 0.0, 0.0, 0.0, 0.0, 0.0, 0.0, 0.0, 0.0, 0.0, 1.644497721154452E9, 0.0, 2022-02-10 23:55:21.154
180.0, -10754.519492926538, -13285.496924578778, -7845.50700730169, -15531.042579536746, -1133.009926439515, -2603.0171040316945, -2535.201911354293, -4764.073164948602, -20430.053225762036, -18028.6041532283, -23307.482696471536, -14002.607941938395, -8035.742704360808, -13202.571952649589, -6734.848825317482, -9524.994733929007, 0.010750000000000001, -0.022000000000000002, 0.9915, 192.0, 0.0, 0.0, 0.0, 0.0, 0.0, 0.0, 0.0, 0.0, 0.0, 1.6444977211544592E9, 0.0, 2022-02-10 23:55:21.154
182.0, -10756.665260394248, -13297.745680540285, -7850.580853293044, -15534.797672605238, -1132.071153172392, -2607.9568395563174, -2530.3068793185807, -4767.984720228282, -20428.4215484168, -18021.675112447156, -23296.664452155168, -13995.030700568046, -8032.814625837163, -13174.341699402536, -6728.255060703166, -9525.285306606926, 0.010750000000000001, -0.022000000000000002, 0.9915, 192.0, 0.0, 0.0, 0.0, 0.0, 0.0, 0.0, 0.0, 0.0, 0.0, 1.644497721154466E9, 0.0, 2022-02-10 23:55:21.154
184.0, -10763.594301175393, -13292.336558382101, -7857.062859185084, -15533.993009804846, -1133.725182262085, -2609.677923879376, -2533.592585753511, -4762.061507947625, -20431.3719786849, -18032.53806025244, -23313.338853518828, -14004.753709406104, -8041.420047452456, -13202.527249160677, -6737.2181102297445, -9528.571013041856, 0.010375, -0.019000000000000003, 0.99075, 192.0, 0.0, 40.0, 127.5, 64.0, 15.0, 120.0, 0.0, 0.0, 0.0, 1.6444977211544728E9, 0.0, 2022-02-10 23:55:21.154
186.0, -10752.530187670016, -13269.537779037688, -7855.4311818398455, -15537.211661006411, -1121.878757700772, -2605.878127321974, -2524.1154461044607, -4763.51437133722, -20429.583839128478, -18024.84906015981, -23305.18046679264, -14003.72552916116, -8036.390904950012, -13215.290095244658, -6732.90422354987, -9528.16868164166, 0.010375, -0.019000000000000003, 0.99075, 192.0, 0.0, 0.0, 0.0, 0.0, 0.0, 0.0, 0.0, 0.0, 0.0, 1.6444977211544795E9, 0.0, 2022-02-10 23:55:21.154
188.0, -10777.430030993228, -13303.959465498861, -7865.2883011446365, -15540.050332552235, -1141.9729759660931, -2618.0151245612055, -2547.0259841711504, -4770.175191184901, -20438.390426443868, -18021.60805721379, -23318.367996021272, -14005.714834417682, -8037.553195661688, -13223.984923837772, -6738.112180007956, -9535.343591611814, 0.010375, -0.019000000000000003, 0.99075, 192.0, 0.0, 0.0, 0.0, 0.0, 0.0, 0.0, 0.0, 0.0, 0.0, 1.644497721154487E9, 0.0, 2022-02-10 23:55:21.154
190.0, -10767.75172564408, -13302.171325942438, -7857.398135351913, -15537.569288917697, -1129.0983711598362, -2605.4981476662338, -2525.4341990273238, -4758.105249179036, -20443.553679413042, -18043.870394691276, -23316.71396693158, -14010.967494364679, -8042.492931186311, -13211.110319031515, -6743.744819610694, -9535.187129400627, 0.010375, -0.019000000000000003, 0.99075, 192.0, 0.0, 0.0, 0.0, 0.0, 0.0, 0.0, 0.0, 0.0, 0.0, 1.6444977211544936E9, 0.0, 2022-02-10 23:55:21.154
192.0, -10779.531094972026, -13301.947808497884, -7864.014251710684, -15543.134873287068, -1142.2188451551015, -2608.5603366566106, -2539.6052050119883, -4764.810772515628, -20447.800510859553, -18046.642011003736, -23303.548789447403, -14000.305712259498, -8049.287861500724, -13208.76338586371, -6742.783694599116, -9535.812978245376, 0.010375, -0.019000000000000003, 0.99075, 192.0, 0.0, 0.0, 0.0, 0.0, 0.0, 0.0, 0.0, 0.0, 0.0, 1.6444977211545005E9, 0.0, 2022-02-10 23:55:21.154
194.0, -10774.501952469582, -13287.463878090844, -7867.277606401159, -15537.993972062348, -1144.4093161117216, -2607.0180662891944, -2548.747068494209, -4772.119792952513, -20443.888955579874, -18035.9578771541, -23319.9549698776, -14011.570991464972, -8044.973974820849, -13211.982037065272, -6752.596110414996, -9540.283327136436, 0.009187500000000001, -0.0175, 0.989375, 192.0, 0.0, 32.0, 127.5, 64.0, 15.0, 112.0, 0.0, 0.0, 0.0, 1.6444977211545072E9, 0.0, 2022-02-10 23:55:21.154
196.0, -10765.360088987361, -13281.831238488108, -7865.1765424223595, -15537.59164066215, -1132.5405398059536, -2593.2270399602703, -2529.815140940564, -4755.758316011228, -20441.72083636771, -18030.571106740368, -23309.159077305685, -13995.47773545715, -8044.68340214293, -13193.251275211725, -6742.157845754367, -9534.762446255976, 0.009187500000000001, -0.0175, 0.989375, 192.0, 0.0, 0.0, 0.0, 0.0, 0.0, 0.0, 0.0, 0.0, 0.0, 1.6444977211545165E9, 0.0, 2022-02-10 23:55:21.154
198.0, -10791.75749918908, -13285.519276323233, -7875.9724349942735, -15544.274812254289, -1149.3266998918891, -2610.773159357686, -2559.7217750217646, -4780.322883167611, -20449.14161552687, -18036.315505065384, -23316.781022164945, -14004.373729750363, -8044.59399516511, -13208.830441097074, -6748.997479557691, -9541.780894014943, 0.009187500000000001, -0.0175, 0.989375, 192.0, 0.0, 0.0, 0.0, 0.0, 0.0, 0.0, 0.0, 0.0, 0.0, 1.6444977211545231E9, 0.0, 2022-02-10 23:55:21.154
200.0, -10775.619539692349, -13294.012939216249, -7877.291187917136, -15543.134873287068, -1133.4122578397105, -2599.5078801522113, -2535.514835776667, -4755.445391588854, -20457.72468539771, -18042.37282781277, -23327.12987984775, -14015.996636867123, -8048.5502539336985, -13210.529173675677, -6755.792409872104, -9541.199748659104, 0.009187500000000001, -0.0175, 0.989375, 192.0, 0.0, 0.0, 0.0, 0.0, 0.0, 0.0, 0.0, 0.0, 0.0, 1.64449772115453E9, 0.0, 2022-02-10 23:55:21.154
202.0, -10795.37848179084, -13306.887544022507, -7885.091946732038, -15550.13096930158, -1146.0856969458696, -2618.0151245612055, -2548.0541644160944, -4773.147973197458, -20466.017182590625, -18054.442769818637, -23324.09004260183, -14013.359131021398, -8071.818419911674, -13216.13946153396, -6751.322060981043, -9538.383428857736, 0.009187500000000001, -0.0175, 0.989375, 192.0, 0.0, 0.0, 0.0, 0.0, 0.0, 0.0, 0.0, 0.0, 0.0, 1.6444977211545372E9, 0.0, 2022-02-10 23:55:21.154
204.0, -10794.305598056984, -13298.39388112949, -7881.359205408002, -15547.337001244665, -1142.4200108551993, -2613.7906448591525, -2557.3077866205917, -4775.047871476158, -20468.4311709918, -18056.253261119517, -23338.439862542138, -14018.455328757207, -8069.35972802159, -13228.90230761794, -6756.842941861504, -9545.960670228085, 0.005593750000000001, -0.01975, 0.9896875, 192.0, 0.0, 8.0, 127.5, 40.0, 15.0, 120.0, 0.0, 0.0, 0.0, 1.644497721154544E9, 0.0, 2022-02-10 23:55:21.154
206.0, -10778.659376938269, -13276.91385470794, -7875.458344871801, -15552.589661191663, -1127.5337490479649, -2601.7877580866525, -2539.6052050119883, -4761.882693991983, -20459.736342398686, -18049.212461616095, -23324.29120830193, -14016.577782222961, -8062.900073874006, -13209.90332483093, -6748.684555135317, -9537.84698699081, 0.005593750000000001, -0.01975, 0.9896875, 192.0, 0.0, 0.0, 0.0, 0.0, 0.0, 0.0, 0.0, 0.0, 0.0, 1.6444977211545508E9, 0.0, 2022-02-10 23:55:21.154
208.0, -10796.607827735881, -13296.136354939505, -7896.468984659789, -15553.997821092347, -1144.811647511917, -2615.1093977820155, -2555.586702297533, -4783.340368669077, -20466.37481050191, -18054.04043841844, -23338.372807308773, -14021.048131114023, -8058.07209707166, -13206.148231762438, -6751.210302258766, -9545.893614994719, 0.005593750000000001, -0.01975, 0.9896875, 192.0, 0.0, 0.0, 0.0, 0.0, 0.0, 0.0, 0.0, 0.0, 0.0, 1.6444977211545575E9, 0.0, 2022-02-10 23:55:21.154
210.0, -10785.409603763772, -13281.428907087911, -7875.145420449427, -15547.35935298912, -1133.591071795353, -2583.638141588943, -2544.1202573919604, -4757.077068934092, -20464.452560478756, -18046.172624370174, -23339.155118364706, -14020.087006102445, -8061.246044784313, -13216.47473770079, -6752.3055377370765, -9544.016068460473, 0.005593750000000001, -0.01975, 0.9896875, 192.0, 0.0, 0.0, 0.0, 0.0, 0.0, 0.0, 0.0, 0.0, 0.0, 1.644497721154564E9, 0.0, 2022-02-10 23:55:21.154
212.0, -10782.995615362599, -13281.898293721473, -7883.0802897310605, -15542.397265720043, -1135.1556939072245, -2587.974380013273, -2547.6071295269885, -4764.542551582164, -20468.587633202987, -18047.312563337393, -23324.00063562401, -13998.428165725252, -8060.754306406297, -13206.192935251349, -6740.012078286658, -9531.543795054413, 0.005593750000000001, -0.01975, 0.9896875, 192.0, 0.0, 0.0, 0.0, 0.0, 0.0, 0.0, 0.0, 0.0, 0.0, 1.644497721154571E9, 0.0, 2022-02-10 23:55:21.154
214.0, -10781.542751973004, -13267.347308081069, -7880.487487374246, -15546.755855888827, -1133.74753400654, -2588.779042813664, -2546.6683562598655, -4760.452182346843, -20462.463255222232, -18040.987019656543, -23335.690597974135, -14005.424261739763, -8052.685326657931, -13200.247371226236, -6745.398848700386, -9535.924736967652, 0.005796875, -0.020874999999999998, 0.98984375, 192.0, 0.0, 24.0, 127.5, 40.0, 15.0, 120.0, 0.0, 0.0, 0.0, 1.644497721154578E9, 0.0, 2022-02-10 23:55:21.154
216.0, -10774.904283869779, -13261.312337078136, -7874.452516371312, -15546.2194140219, -1125.0303536689703, -2588.3543596690133, -2547.0259841711504, -4757.188827656368, -20459.088141809483, -18033.99092364203, -23317.540981476424, -14000.350415748408, -8054.898149359006, -13197.967493291795, -6736.838130574004, -9528.571013041856, 0.005796875, -0.020874999999999998, 0.98984375, 192.0, 0.0, 0.0, 0.0, 0.0, 0.0, 0.0, 0.0, 0.0, 0.0, 1.6444977211545851E9, 0.0, 2022-02-10 23:55:21.154
218.0, -10790.528153244037, -13265.849741202563, -7885.091946732038, -15551.382666991076, -1142.5988248108417, -2594.9034207944183, -2568.1930861703263, -4773.684415064385, -20461.636240677388, -18048.38544707125, -23320.893743144723, -14011.794508909525, -8050.584262679132, -13194.391214178946, -6739.587395142007, -9535.678867778644, 0.005796875, -0.020874999999999998, 0.98984375, 192.0, 0.0, 0.0, 0.0, 0.0, 0.0, 0.0, 0.0, 0.0, 0.0, 1.644497721154592E9, 0.0, 2022-02-10 23:55:21.154
220.0, -10776.267740281552, -13263.480456290301, -7876.039490227639, -15546.711152399917, -1124.5833187798642, -2580.352435154013, -2549.082344661039, -4770.264598162723, -20460.831577876997, -18045.367961569784, -23326.884010658745, -14014.588476966439, -8047.097390544104, -13189.004443765218, -6742.403714943375, -9536.50588232349, 0.005796875, -0.020874999999999998, 0.98984375, 192.0, 0.0, 0.0, 0.0, 0.0, 0.0, 0.0, 0.0, 0.0, 0.0, 1.6444977211545987E9, 0.0, 2022-02-10 23:55:21.154
222.0, -10788.8964758988, -13274.410459328945, -7878.65464432891, -15548.454588467432, -1127.17612113668, -2581.782946799153, -2557.039565687128, -4753.74665901025, -20461.56918544402, -18045.61383075879, -23315.86460064228, -13994.114279045378, -8050.763076634775, -13188.065670498094, -6734.446493917286, -9529.129806653238, 0.005796875, -0.020874999999999998, 0.98984375, 192.0, 0.0, 0.0, 0.0, 0.0, 0.0, 0.0, 0.0, 0.0, 0.0, 1.6444977211546056E9, 0.0, 2022-02-10 23:55:21.154
224.0, -10794.015025379065, -13264.285119090691, -7880.912170518896, -15548.231071022878, -1129.008964182015, -2570.4282606158567, -2537.414734055368, -4749.946862452849, -20470.06284833704, -18045.52442378097, -23339.1104148758, -14015.840174655936, -8049.645489412009, -13181.963644261796, -6739.989726542202, -9527.36401884127, 0.004, -0.022, 0.994, 192.0, 0.0, 16.0, 127.5, 40.0, 15.5, 8.0, 0.0, 0.0, 0.0, 1.6444977211546123E9, 0.0, 2022-02-10 23:55:21.154
226.0, -10779.106411827375, -13271.214159871837, -7876.531228605656, -15546.84526286665, -1117.0284291539704, -2569.713004793287, -2535.5371875211226, -4757.457048589832, -20463.647897678366, -18039.556508011403, -23319.9549698776, -13998.96460759218, -8048.527902189244, -13185.808144308108, -6731.47371190473, -9523.184242628127, 0.004, -0.022, 0.994, 192.0, 0.0, 0.0, 0.0, 0.0, 0.0, 0.0, 0.0, 0.0, 0.0, 1.644497721154621E9, 0.0, 2022-02-10 23:55:21.154
228.0, -10793.635045723326, -13271.191808127382, -7886.32129267708, -15546.420579721998, -1128.4725223150876, -2579.74893805372, -2551.0269464286503, -4754.350156110544, -20466.419513990822, -18055.47095006358, -23330.549696749415, -14002.049148327013, -8045.845692854607, -13173.738202302242, -6733.2842032056105, -9527.162853141172, 0.004, -0.022, 0.994, 192.0, 0.0, 0.0, 0.0, 0.0, 0.0, 0.0, 0.0, 0.0, 0.0, 1.64449772115463E9, 0.0, 2022-02-10 23:55:21.154
230.0, -10770.098658811887, -13248.23656657178, -7881.605074597011, -15544.475977954386, -1116.6484494982303, -2566.8519815030077, -2544.7908097256195, -4752.114981665013, -20464.38550524539, -18035.890821920733, -23329.879144415754, -14006.29597977352, -8040.63773639652, -13166.853865010007, -6735.497025906686, -9524.860623462275, 0.004, -0.022, 0.994, 192.0, 0.0, 0.0, 0.0, 0.0, 0.0, 0.0, 0.0, 0.0, 0.0, 1.6444977211546369E9, 0.0, 2022-02-10 23:55:21.154
232.0, -10784.113202585364, -13265.089781891082, -7886.902438032918, -15552.232033280377, -1131.333545605367, -2568.9306937373512, -2559.1182779214714, -4756.518275322709, -20462.06092382204, -18031.219307329575, -23315.574027964358, -13993.44372671172, -8031.518224658755, -13171.145399945426, -6733.842996816993, -9525.26295486247, 0.004, -0.022, 0.994, 192.0, 0.0, 0.0, 0.0, 0.0, 0.0, 0.0, 0.0, 0.0, 0.0, 1.6444977211546435E9, 0.0, 2022-02-10 23:55:21.154
234.0, -10790.170525332753, -13272.264691861235, -7893.2279817137705, -15547.493463455852, -1139.1343044202692, -2568.7965832706195, -2564.1474204239157, -4759.222836401801, -20467.917080869327, -18043.17749061316, -23335.064749129386, -14008.620561196873, -8051.1877597794255, -13176.375708147969, -6750.807970858571, -9532.303754365892, 0.006, -0.02, 0.992, 192.0, 0.0, 24.0, 127.5, 48.0, 15.5, 0.0, 0.0, 0.0, 0.0, 1.6444977211546502E9, 0.0, 2022-02-10 23:55:21.154
236.0, -10781.095717083897, -13255.187959097382, -7881.448612385823, -15548.745161145349, -1121.3870193227554, -2566.4943535917228, -2558.783001754642, -4762.665005047918, -20464.34080175648, -18039.66826673368, -23325.967589136075, -13998.24935176961, -8056.172198792959, -13175.012251736194, -6748.103409779479, -9530.672077020656, 0.006, -0.02, 0.992, 192.0, 0.0, 0.0, 0.0, 0.0, 0.0, 0.0, 0.0, 0.0, 0.0, 1.644497721154657E9, 0.0, 2022-02-10 23:55:21.154
238.0, -10805.23560109563, -13271.012994171739, -7891.328083435069, -15552.902585614036, -1132.0935049168475, -2579.4360136313458, -2568.5060105927005, -4773.885580764482, -20473.594423960974, -18049.078351149365, -23331.577876994357, -14002.764404149582, -8044.6163469095645, -13184.08705998505, -6745.644717889395, -9536.416475345668, 0.006, -0.02, 0.992, 192.0, 0.0, 0.0, 0.0, 0.0, 0.0, 0.0, 0.0, 0.0, 0.0, 1.6444977211546636E9, 0.0, 2022-02-10 23:55:21.154
240.0, -10795.557295746481, -13264.57569176861, -7886.455403143812, -15551.472073968896, -1128.3160601039006, -2564.5050483352006, -2565.712042535787, -4764.967234726815, -20477.215406562736, -18062.802322244923, -23338.573973008868, -14002.630293682849, -8045.465713198867, -13173.984071491252, -6753.065497048557, -9537.265841634971, 0.006, -0.02, 0.992, 192.0, 0.0, 0.0, 0.0, 0.0, 0.0, 0.0, 0.0, 0.0, 0.0, 1.6444977211546705E9, 0.0, 2022-02-10 23:55:21.154
242.0, -10795.981978891132, -13263.323994079114, -7891.439842157346, -15557.21647229391, -1134.5074933180206, -2568.1260309369604, -2573.0210629726726, -4767.3588713835325, -20476.209578062248, -18055.917984952688, -23326.28051355845, -13991.968511577668, -8037.419085194956, -13179.884932027451, -6749.690383635805, -9533.086065421829, 0.006, -0.02, 0.992, 192.0, 0.0, 0.0, 0.0, 0.0, 0.0, 0.0, 0.0, 0.0, 0.0, 1.64449772163421E9, 0.0, 2022-02-10 23:55:21.634
244.0, -10801.838135938422, -13261.982889411795, -7900.201725983826, -15564.458437497431, -1136.005060196526, -2570.584722827044, -2567.097850692016, -4754.037231688169, -20483.29508105458, -18049.32422033837, -23354.08608366085, -14015.594305466928, -8053.177065035948, -13175.526341858667, -6755.457133705275, -9540.193920158616, 0.006, -0.02, 0.988, 192.0, 0.0, 24.0, 127.5, 48.0, 15.0, 112.0, 0.0, 0.0, 0.0, 1.6444977216342208E9, 0.0, 2022-02-10 23:55:21.634
246.0, -10786.70600494218, -13249.108284605538, -7889.852868301019, -15562.044449096258, -1119.9565076776157, -2557.196027898315, -2554.782039497142, -4740.067391403602, -20479.562339730543, -18059.516615809993, -23333.56718225088, -14012.800337410014, -8044.728105631842, -13161.5565015741, -6746.359973711965, -9532.370809599259, 0.006, -0.02, 0.988, 192.0, 0.0, 0.0, 0.0, 0.0, 0.0, 0.0, 0.0, 0.0, 0.0, 1.644497721634228E9, 0.0, 2022-02-10 23:55:21.634
248.0, -10803.738034217124, -13261.558206267144, -7901.632237628965, -15561.46330374042, -1136.005060196526, -2576.9773217412617, -2575.5021066072118, -4772.030385974692, -20478.936490885793, -18061.125941410774, -23330.683807216144, -14001.937389604735, -8036.726181116842, -13176.487466870245, -6749.891549335904, -9536.572937556855, 0.006, -0.02, 0.988, 192.0, 0.0, 0.0, 0.0, 0.0, 0.0, 0.0, 0.0, 0.0, 0.0, 1.6444977216342351E9, 0.0, 2022-02-10 23:55:21.634
250.0, -10799.111223114876, -13253.645688729965, -7889.405833411913, -15549.192196034455, -1121.3423158338446, -2554.5138185636783, -2576.5079351077006, -4749.65628977493, -20483.652708965863, -18059.561319298904, -23346.0618074014, -14009.179354808255, -8043.252890497791, -13174.073478469072, -6756.977052328236, -9539.188091658127, 0.006, -0.02, 0.988, 192.0, 0.0, 0.0, 0.0, 0.0, 0.0, 0.0, 0.0, 0.0, 0.0, 1.6444977216342425E9, 0.0, 2022-02-10 23:55:21.634
252.0, -10796.674882969248, -13248.571842738611, -7895.083176503561, -15550.086265812668, -1119.7776937219733, -2551.2728156176586, -2543.270891102659, -4742.704897249329, -20477.081296096003, -18052.47581630657, -23330.19206883813, -13994.76247963458, -8029.305401957679, -13150.581795046544, -6741.755514354171, -9529.554489797889, 0.006, -0.02, 0.988, 192.0, 0.0, 0.0, 0.0, 0.0, 0.0, 0.0, 0.0, 0.0, 0.0, 1.6444977216342497E9, 0.0, 2022-02-10 23:55:21.634
254.0, -10802.70985397218, -13245.263784559225, -7892.356263680013, -15548.342829745154, -1128.7407432485513, -2545.0366789146283, -2545.2825481036366, -4738.055734402626, -20480.165836830838, -18042.75280746851, -23349.705141747614, -14010.140479819833, -8043.118780031059, -13174.65462382491, -6748.57279641304, -9531.342629354314, 0.008, -0.022, 0.99, 192.0, 0.0, 32.0, 127.5, 40.0, 15.0, 120.0, 0.0, 0.0, 0.0, 1.6444977216342568E9, 0.0, 2022-02-10 23:55:21.634
0.0, -10788.270627054051, -13238.468854244811, -7887.260065944203, -15545.682972154973, -1115.7320279755627, -2538.0852863890277, -2541.035716657128, -4737.921623935893, -20475.516673984133, -18059.29309836544, -23325.94523739162, -13993.331967989441, -8037.910823572973, -13141.059951908584, -6745.935290567314, -9523.944201939608, 0.008, -0.022, 0.99, 192.0, 0.0, 0.0, 0.0, 0.0, 0.0, 0.0, 0.0, 0.0, 0.0, 1.644497721634264E9, 0.0, 2022-02-10 23:55:21.634
2.0, -10806.37554006285, -13243.877976402997, -7902.593362640544, -15552.209681535922, -1124.0915804018475, -2555.921978464363, -2571.0988129495163, -4760.899217235949, -20479.852912408463, -18062.623508289278, -23332.51665026148, -13995.969473835168, -8036.837939839118, -13149.441856079324, -6750.986784814213, -9528.995696186506, 0.008, -0.022, 0.99, 192.0, 0.0, 0.0, 0.0, 0.0, 0.0, 0.0, 0.0, 0.0, 0.0, 1.644497721634271E9, 0.0, 2022-02-10 23:55:21.634
4.0, -10791.109298599875, -13233.52911872019, -7892.266856702192, -15546.375876233087, -1103.1703475916802, -2547.428315571346, -2544.544940536611, -4739.352135581033, -20474.39908676137, -18058.57784254287, -23341.077368387865, -13997.802316880503, -8031.205300236381, -13157.80140850561, -6755.881816849926, -9534.427170089146, 0.008, -0.022, 0.99, 192.0, 0.0, 0.0, 0.0, 0.0, 0.0, 0.0, 0.0, 0.0, 0.0, 1.644497721634287E9, 0.0, 2022-02-10 23:55:21.634
6.0, -10786.214266564164, -13230.66809542991, -7892.490374146745, -15551.583832691174, -1100.7116557015963, -2550.3787458394463, -2548.0318126716393, -4744.336574594567, -20473.795589661073, -18052.72168549558, -23331.28730431644, -13988.928674331746, -8023.561003632665, -13147.117274655971, -6749.712735380261, -9528.950992697597, 0.008, -0.022, 0.99, 192.0, 0.0, 0.0, 0.0, 0.0, 0.0, 0.0, 0.0, 0.0, 0.0, 1.6444977216342945E9, 0.0, 2022-02-10 23:55:21.634
8.0, -10790.304635799484, -13231.428054741391, -7893.160926480405, -15552.589661191663, -1103.9750103920712, -2547.6965365048095, -2552.591568540522, -4734.568862267597, -20464.832540134496, -18058.533139053958, -23335.57883925186, -14006.58655245144, -8021.795215820696, -13154.292184626125, -6754.719526138249, -9531.007353187484, 0.008, -0.02, 0.992, 192.0, 0.0, 32.0, 127.5, 48.0, 15.5, 0.0, 0.0, 0.0, 0.0, 1.6444977216343012E9, 0.0, 2022-02-10 23:55:21.634
10.0, -10780.603978705882, -13218.128766790482, -7886.522458377178, -15551.36031524662, -1098.856460911806, -2543.293242847114, -2558.9841674547397, -4747.354060096033, -20470.599290203965, -18055.426246574672, -23323.91122864619, -13998.159944791789, -8033.127550259537, -13160.014231206684, -6752.663165648361, -9530.31444910937, 0.008, -0.02, 0.992, 192.0, 0.0, 0.0, 0.0, 0.0, 0.0, 0.0, 0.0, 0.0, 0.0, 1.644497721634308E9, 0.0, 2022-02-10 23:55:21.634
12.0, -10797.99363589211, -13221.168604036404, -7901.051092273127, -15549.013382078814, -1121.3646675783, -2550.6693185173654, -2588.868449791485, -4747.108190907024, -20473.43796174979, -18043.24454584653, -23325.6546647137, -13999.00931108109, -8027.3608001900675, -13148.480731067746, -6758.541674440107, -9532.79549274391, 0.008, -0.02, 0.992, 192.0, 0.0, 0.0, 0.0, 0.0, 0.0, 0.0, 0.0, 0.0, 0.0, 1.6444977216343148E9, 0.0, 2022-02-10 23:55:21.634
14.0, -10785.56606597496, -13214.105452788526, -7892.199801468826, -15543.425445964987, -1107.5065860160096, -2535.2466148432036, -2548.009460927184, -4733.071295389092, -20475.404915261857, -18049.480682549558, -23338.797490453424, -13992.951988333702, -8029.037181024216, -13154.068667181573, -6760.128648296434, -9527.766350241465, 0.008, -0.02, 0.992, 192.0, 0.0, 0.0, 0.0, 0.0, 0.0, 0.0, 0.0, 0.0, 0.0, 1.6444977216343217E9, 0.0, 2022-02-10 23:55:21.634
16.0, -10785.677824697235, -13212.920810332396, -7893.630313113966, -15551.159149546524, -1112.200452351624, -2524.8977571603964, -2544.8355132145302, -4729.405609298421, -20477.505979240654, -18051.492339550536, -23327.688673459135, -13990.001558065602, -8025.393846678001, -13138.154225129394, -6748.148113268389, -9516.679884991632, 0.008, -0.02, 0.992, 192.0, 0.0, 0.0, 0.0, 0.0, 0.0, 0.0, 0.0, 0.0, 0.0, 1.6444977216343284E9, 0.0, 2022-02-10 23:55:21.634
18.0, -10784.292016541007, -13211.535002176166, -7897.251295715725, -15546.2194140219, -1105.3161150593896, -2524.7636466936647, -2542.0862486465276, -4733.406571555922, -20475.539025728587, -18045.882051692253, -23348.34168533584, -13995.455383712697, -8018.867137297051, -13132.856861693486, -6751.456171447775, -9515.808166957875, 0.01, -0.022, 0.992, 192.0, 0.0, 40.0, 127.5, 40.0, 15.5, 0.0, 0.0, 0.0, 0.0, 1.644497721634337E9, 0.0, 2022-02-10 23:55:21.634
20.0, -10775.03839433651, -13211.780871365176, -7881.090984474538, -15542.106693042124, -1092.039178852937, -2511.7996349095865, -2532.9890886532176, -4718.855585915517, -20471.29219428208, -18047.111397637298, -23326.436975769637, -13981.127915516845, -8032.21112873687, -13115.109576595973, -6746.605842900974, -9509.482623277025, 0.01, -0.022, 0.992, 192.0, 0.0, 0.0, 0.0, 0.0, 0.0, 0.0, 0.0, 0.0, 0.0, 1.6444977216343436E9, 0.0, 2022-02-10 23:55:21.634
22.0, -10791.511630000072, -13202.884877071963, -7888.645874100433, -15541.570251175197, -1106.210184837602, -2521.813216425564, -2556.3466616090136, -4732.132522121969, -20466.75479015765, -18055.00156343002, -23320.826687911354, -13987.408755708786, -8022.4434164099, -13126.754835457186, -6744.460075433264, -9512.187184356117, 0.01, -0.022, 0.992, 192.0, 0.0, 0.0, 0.0, 0.0, 0.0, 0.0, 0.0, 0.0, 0.0, 1.6444977216343503E9, 0.0, 2022-02-10 23:55:21.634
24.0, -10775.172504803242, -13182.343623917535, -7877.134725705949, -15536.831681350672, -1085.2442485385238, -2504.490614472701, -2546.221321370759, -4721.940126650349, -20466.084237823994, -18036.09198762083, -23320.871391400266, -13992.370842977864, -8010.284067426213, -13127.403036046391, -6747.1422847679005, -9512.701274478588, 0.01, -0.022, 0.992, 192.0, 0.0, 0.0, 0.0, 0.0, 0.0, 0.0, 0.0, 0.0, 0.0, 1.6444977216343572E9, 0.0, 2022-02-10 23:55:21.634
26.0, -10782.168600817753, -13193.720661845287, -7893.205629969315, -15537.45753019542, -1095.9954376215264, -2511.2184895537484, -2555.2067226417926, -4731.12669362148, -20465.57014770152, -18036.583725998848, -23305.649853426203, -13975.987014292125, -8006.260753424258, -13128.475919780245, -6740.615575386951, -9509.415568043658, 0.01, -0.022, 0.992, 192.0, 0.0, 0.0, 0.0, 0.0, 0.0, 0.0, 0.0, 0.0, 0.0, 1.6444977216343644E9, 0.0, 2022-02-10 23:55:21.634
28.0, -10784.157906074275, -13206.28234222917, -7899.03943527215, -15541.547899430741, -1104.6008592368198, -2513.1854430658154, -2567.813106514586, -4735.46293204581, -20472.432133249302, -18046.127920881263, -23333.120147361773, -13986.291168486021, -8009.255887181269, -13130.64403899241, -6752.149075525889, -9517.708065236577, 0.012, -0.022, 0.988, 192.0, 0.0, 48.0, 127.5, 40.0, 15.0, 112.0, 0.0, 0.0, 0.0, 1.6444977216343713E9, 0.0, 2022-02-10 23:55:21.634
30.0, -10763.70605989767, -13178.163847704393, -7883.683786831354, -15537.278716239778, -1083.210239793091, -2486.4751084417235, -2546.0201556706616, -4721.940126650349, -20464.363153500934, -18042.037551645943, -23318.926789632653, -13969.706174100182, -8014.642657594998, -13117.568268486057, -6747.09758127899, -9513.416530301158, 0.012, -0.022, 0.988, 192.0, 0.0, 0.0, 0.0, 0.0, 0.0, 0.0, 0.0, 0.0, 0.0, 1.644497721634379E9, 0.0, 2022-02-10 23:55:21.634
32.0, -10780.738089172613, -13185.808144308108, -7887.327121177569, -15531.73548361486, -1096.397769021722, -2497.785091136109, -2558.559484310089, -4730.634955243463, -20458.23877552018, -18036.024932387463, -23312.71300467408, -13966.62163336535, -8014.3297331726235, -13121.904506910385, -6743.454246932775, -9510.130823866228, 0.012, -0.022, 0.988, 192.0, 0.0, 0.0, 0.0, 0.0, 0.0, 0.0, 0.0, 0.0, 0.0, 1.644497721634386E9, 0.0, 2022-02-10 23:55:21.634
34.0, -10763.393135475295, -13162.808199263598, -7880.308673418603, -15527.242782979345, -1075.074204811359, -2480.4848409277015, -2545.617824270466, -4721.582498739064, -20460.898633110362, -18025.47490900456, -23321.38548152274, -13978.177485248743, -8010.440529637401, -13112.673236450344, -6749.131590024423, -9506.956876153574, 0.012, -0.022, 0.988, 192.0, 0.0, 0.0, 0.0, 0.0, 0.0, 0.0, 0.0, 0.0, 0.0, 1.6444977216343927E9, 0.0, 2022-02-10 23:55:21.634
36.0, -10767.572911688438, -13170.854827267507, -7881.515667619189, -15529.813233591705, -1075.431832722644, -2488.4420619537905, -2546.4001353264016, -4725.628164485474, -20459.848101120962, -18027.061882860886, -23306.521571459958, -13960.206682706677, -8000.58341033261, -13106.347692769492, -6744.460075433264, -9503.849983674287, 0.01, -0.024, 0.988, 192.0, 0.0, 32.0, 127.5, 24.0, 15.0, 112.0, 0.0, 0.0, 0.0, 1.6444977216344016E9, 0.0, 2022-02-10 23:55:21.634
38.0, -10762.499065697082, -13171.480676112256, -7880.889818774441, -15525.611105634107, -1075.0518530669037, -2488.889096842897, -2546.578949282044, -4727.684524975362, -20448.67222889331, -18021.697464191613, -23317.71979543207, -13962.307746685476, -7991.776823017219, -13108.828736404032, -6749.4892179357075, -9510.846079688798, 0.01, -0.024, 0.988, 192.0, 0.0, 0.0, 0.0, 0.0, 0.0, 0.0, 0.0, 0.0, 0.0, 1.6444977216344085E9, 0.0, 2022-02-10 23:55:21.634
40.0, -10773.429068735728, -13184.981129763262, -7876.397118138924, -15529.1650330025, -1055.9634633020717, -2474.271055969126, -2533.3020130755917, -4707.679713687863, -20453.768426629118, -18034.23679283104, -23310.99192035102, -13966.53222638753, -7992.134450928504, -13101.810288645065, -6742.493121921197, -9505.16873659715, 0.01, -0.024, 0.988, 192.0, 0.0, 0.0, 0.0, 0.0, 0.0, 0.0, 0.0, 0.0, 0.0, 1.6444977216344151E9, 0.0, 2022-02-10 23:55:21.634
42.0, -10782.637987451315, -13186.970435019784, -7879.526362362667, -15529.142681258045, -1065.0382715509263, -2478.562590904545, -2546.467190559768, -4706.182146809358, -20458.931679598296, -18040.182356856152, -23317.496277987513, -13973.662432868772, -7989.094613682582, -13088.175724527327, -6741.464941676252, -9505.369902297247, 0.01, -0.024, 0.988, 192.0, 0.0, 0.0, 0.0, 0.0, 0.0, 0.0, 0.0, 0.0, 0.0, 1.6444977216344223E9, 0.0, 2022-02-10 23:55:21.634
44.0, -10786.303673541985, -13193.608903123011, -7878.364071650991, -15527.555707401718, -1057.1257540137476, -2469.756003589154, -2520.6956292027985, -4699.543678706131, -20465.52544421261, -18034.862641675787, -23323.106565845796, -13978.982148049136, -7998.035311464705, -13104.492497979702, -6740.57087189804, -9503.268838318449, 0.01, -0.024, 0.988, 192.0, 0.0, 0.0, 0.0, 0.0, 0.0, 0.0, 0.0, 0.0, 0.0, 1.644497721634429E9, 0.0, 2022-02-10 23:55:21.634
46.0, -10807.47077554116, -13209.970380064295, -7883.728490320264, -15531.422559192486, -1060.3444052153118, -2471.208866978749, -2528.3175740620586, -4706.383312509455, -20477.86360715194, -18039.802377200413, -23317.27276054296, -13978.490409671118, -7996.649503308476, -13105.654788691378, -6737.799255585583, -9503.917038907652, 0.009000000000000001, -0.025, 0.988, 192.0, 0.0, 32.0, 127.5, 24.0, 15.0, 112.0, 0.0, 0.0, 0.0, 1.644497721634478E9, 0.0, 2022-02-10 23:55:21.634
48.0, -10801.636970238325, -13193.832420567564, -7886.3659961659905, -15526.013437034302, -1065.0606232953814, -2475.522753658623, -2540.4322195568348, -4713.446463757332, -20479.89761589737, -18047.804301715412, -23339.803318953913, -13985.397098707808, -7994.146107929481, -13107.957018370274, -6744.415371944353, -9506.733358709022, 0.009000000000000001, -0.025, 0.988, 192.0, 0.0, 0.0, 0.0, 0.0, 0.0, 0.0, 0.0, 0.0, 0.0, 1.6444977216344855E9, 0.0, 2022-02-10 23:55:21.634
50.0, -10788.270627054051, -13186.74691757523, -7876.017138483184, -15523.510041655309, -1046.821599819851, -2461.2846924405926, -2533.16790260886, -4705.936277620349, -20468.162950058337, -18037.366037054784, -23316.33398727584, -13968.029793266034, -7981.763241501241, -13087.728689638221, -6740.302650964577, -9504.297018563393, 0.009000000000000001, -0.025, 0.988, 192.0, 0.0, 0.0, 0.0, 0.0, 0.0, 0.0, 0.0, 0.0, 0.0, 1.6444977216344924E9, 0.0, 2022-02-10 23:55:21.634
52.0, -10798.32891205894, -13184.355280918513, -7894.502031147723, -15531.668428381496, -1061.819620349362, -2477.82498333752, -2539.582853267533, -4717.6932952038405, -20469.839330892486, -18033.38742654174, -23319.32912103285, -13973.729488102137, -7991.218029405836, -13087.505172193667, -6740.660278875862, -9507.716835465055, 0.009000000000000001, -0.025, 0.988, 192.0, 0.0, 0.0, 0.0, 0.0, 0.0, 0.0, 0.0, 0.0, 0.0, 1.6444977216344993E9, 0.0, 2022-02-10 23:55:21.634
54.0, -10783.219132807151, -13175.235769180748, -7876.620635583477, -15522.012474776802, -1046.3969166752001, -2456.881398782897, -2524.718943204754, -4693.97809433676, -20469.459351236743, -18032.694522463622, -23327.666321714678, -13976.47875267014, -7991.843878250585, -13091.416727473346, -6743.141322510401, -9507.046283131396, 0.009000000000000001, -0.025, 0.988, 192.0, 0.0, 0.0, 0.0, 0.0, 0.0, 0.0, 0.0, 0.0, 0.0, 1.6444977216345065E9, 0.0, 2022-02-10 23:55:21.634
56.0, -10781.60980720637, -13176.152190703415, -7878.475830373268, -15525.342884700643, -1047.5815591313315, -2459.1165732284276, -2522.461417014768, -4704.461062486299, -20464.631374434397, -18024.178507826153, -23308.108545316285, -13958.37383966134, -7992.603837562066, -13067.299195206071, -6731.80898807156, -9497.613846971255, 0.006500000000000001, -0.025500000000000002, 0.987, 192.0, 0.0, 16.0, 127.5, 24.0, 15.0, 104.0, 0.0, 0.0, 0.0, 1.644497721634513E9, 0.0, 2022-02-10 23:55:21.634
58.0, -10797.27838006954, -13185.830496052564, -7887.483583388756, -15525.968733545393, -1054.0188615344598, -2471.231218723204, -2537.2582718441813, -4712.798263168128, -20458.886976109385, -18048.877185449266, -23324.738243191034, -13980.77028760556, -7993.408500362457, -13080.4867244347, -6742.0907905210015, -9507.046283131396, 0.006500000000000001, -0.025500000000000002, 0.987, 192.0, 0.0, 0.0, 0.0, 0.0, 0.0, 0.0, 0.0, 0.0, 0.0, 1.6444977216345198E9, 0.0, 2022-02-10 23:55:21.634
60.0, -10775.731298414625, -13164.573987075566, -7875.391289638435, -15515.865745051593, -1048.050945764893, -2463.497515141668, -2535.2913183321143, -4703.879917130461, -20466.441865735276, -18041.210537101095, -23313.38355700774, -13968.365069432864, -7989.184020660404, -13091.796707129086, -6740.57087189804, -9503.984094141018, 0.006500000000000001, -0.025500000000000002, 0.987, 192.0, 0.0, 0.0, 0.0, 0.0, 0.0, 0.0, 0.0, 0.0, 0.0, 1.6444977216345265E9, 0.0, 2022-02-10 23:55:21.634
62.0, -10790.528153244037, -13170.698365056322, -7889.271722945181, -15521.297218954232, -1066.982873318538, -2470.4489076672685, -2544.6790510033434, -4699.45427172831, -20465.972479101718, -18032.694522463622, -23309.539056961425, -13971.024927023045, -7982.076165923616, -13089.181553027816, -6741.084962020513, -9501.435995273114, 0.006500000000000001, -0.025500000000000002, 0.987, 192.0, 0.0, 0.0, 0.0, 0.0, 0.0, 0.0, 0.0, 0.0, 0.0, 1.6444977216345332E9, 0.0, 2022-02-10 23:55:21.634
64.0, -10770.232769278618, -13169.871350511474, -7882.163868208393, -15515.418710162487, -1055.1588005016806, -2452.366346402925, -2533.2573095866815, -4701.309466518101, -20467.112418068937, -18042.596345257323, -23325.05116761341, -13964.028831008534, -7994.615494563043, -13075.703451121266, -6751.545578425596, -9499.625503972233, 0.006500000000000001, -0.025500000000000002, 0.987, 192.0, 0.0, 0.0, 0.0, 0.0, 0.0, 0.0, 0.0, 0.0, 0.0, 1.6444977216345403E9, 0.0, 2022-02-10 23:55:21.634
66.0, -10776.960644359666, -13162.539978330135, -7882.856772286507, -15518.88323055306, -1057.6398441362196, -2455.4508871377575, -2538.3088038335804, -4714.496995746732, -20465.10076106796, -18033.834461430844, -23304.46521097007, -13950.014287235057, -7994.883715496507, -13070.741363852188, -6743.364839954954, -9496.473908004034, 0.00825, -0.02375, 0.9875, 192.0, 0.0, 40.0, 127.5, 40.0, 15.0, 112.0, 0.0, 0.0, 0.0, 1.6444977216345472E9, 0.0, 2022-02-10 23:55:21.634
68.0, -10784.85081015239, -13161.690612040831, -7887.528286877667, -15515.999855518325, -1066.6699488961635, -2460.7035470847545, -2550.714022006276, -4720.330801049567, -20468.878205880905, -18033.007446885997, -23327.28634205894, -13968.208607221677, -7994.906067240962, -13069.221445229226, -6751.545578425596, -9504.431129030125, 0.00825, -0.02375, 0.9875, 192.0, 0.0, 0.0, 0.0, 0.0, 0.0, 0.0, 0.0, 0.0, 0.0, 1.644497721634556E9, 0.0, 2022-02-10 23:55:21.634
70.0, -10773.764344902558, -13162.025888207661, -7876.911208261396, -15518.235029963857, -1055.270559223957, -2454.3780034039028, -2535.045449143106, -4701.778853151662, -20466.486569224187, -18029.43116777315, -23311.550713962402, -13952.137702958311, -7989.362834616046, -13059.118456735428, -6745.108276022467, -9495.959817881563, 0.00825, -0.02375, 0.9875, 192.0, 0.0, 0.0, 0.0, 0.0, 0.0, 0.0, 0.0, 0.0, 0.0, 1.6444977216345627E9, 0.0, 2022-02-10 23:55:21.634
72.0, -10788.605903220881, -13168.977280733263, -7892.80329856912, -15520.537259642751, -1073.4425274661216, -2461.5752651185117, -2546.0425074151167, -4708.529079977165, -20473.75088617216, -18041.970496412578, -23318.94914137711, -13963.045354252501, -8009.725273814831, -13080.956111068263, -6744.884758577915, -9502.665341218155, 0.00825, -0.02375, 0.9875, 192.0, 0.0, 0.0, 0.0, 0.0, 0.0, 0.0, 0.0, 0.0, 0.0, 1.6444977216345696E9, 0.0, 2022-02-10 23:55:21.634
74.0, -10771.573873945938, -13147.921937456364, -7890.098737490027, -15510.367215915587, -1064.0547947948928, -2443.6715178098107, -2538.4429143003126, -4695.922696104371, -20466.95595585775, -18029.721740451067, -23326.973417636564, -13962.777133319038, -8013.390959905501, -13072.194227241782, -6752.707869137272, -9499.916076650152, 0.00825, -0.02375, 0.9875, 192.0, 0.0, 0.0, 0.0, 0.0, 0.0, 0.0, 0.0, 0.0, 0.0, 1.6444977216345763E9, 0.0, 2022-02-10 23:55:21.634
76.0, -10768.779905889023, -13147.966640945273, -7878.855810029007, -15512.244762449833, -1056.7457743580073, -2451.852256280453, -2540.5663300235665, -4702.561164207597, -20458.39523773137, -18020.579876968848, -23307.303882515895, -13939.464263852153, -8000.739872543797, -13074.071773776028, -6739.09565676399, -9497.859716160265, 0.007125, -0.020875, 0.98875, 192.0, 0.0, 24.0, 127.5, 56.0, 15.0, 120.0, 0.0, 0.0, 0.0, 1.6444977216345837E9, 0.0, 2022-02-10 23:55:21.634
78.0, -10781.028661850532, -13151.31940261357, -7887.215362455293, -15510.724843826873, -1060.4114604486776, -2445.9960992331626, -2547.0483359156055, -4705.556297964608, -20462.329144755502, -18030.928734651654, -23316.91513263168, -13956.742162316104, -7994.727253285319, -13067.723878350722, -6740.90614806487, -9500.541925494901, 0.007125, -0.020875, 0.98875, 192.0, 0.0, 0.0, 0.0, 0.0, 0.0, 0.0, 0.0, 0.0, 0.0, 1.6444977216345901E9, 0.0, 2022-02-10 23:55:21.634
80.0, -10765.024812820533, -13131.716922726266, -7879.414603640391, -15504.533410612752, -1048.721498098552, -2424.627831533889, -2537.4370857998238, -4696.235620526746, -20462.44090347778, -18017.450632745105, -23307.03566158243, -13947.779112789525, -7985.048947936171, -13039.91830824832, -6738.313345708054, -9493.769346924943, 0.007125, -0.020875, 0.98875, 192.0, 0.0, 0.0, 0.0, 0.0, 0.0, 0.0, 0.0, 0.0, 0.0, 1.6444977216345973E9, 0.0, 2022-02-10 23:55:21.634
82.0, -10784.292016541007, -13154.426295092857, -7888.623522355977, -15509.11551822609, -1068.3239779858563, -2432.0933141819614, -2543.8967399474072, -4694.246315270223, -20465.503092468156, -18024.13380433724, -23311.170734306663, -13942.258231909065, -7997.208296919859, -13037.929002991797, -6744.370668455443, -9492.092966090795, 0.007125, -0.020875, 0.98875, 192.0, 0.0, 0.0, 0.0, 0.0, 0.0, 0.0, 0.0, 0.0, 0.0, 1.644497721634604E9, 0.0, 2022-02-10 23:55:21.634
84.0, -10776.75947865957, -13151.900547969408, -7882.633254841955, -15511.753024071817, -1055.9858150465268, -2423.756113500132, -2528.2505188286923, -4692.145251291425, -20466.844197135473, -18036.874298676765, -23323.441842012628, -13959.759647817571, -7998.0129597202495, -13052.144712465371, -6745.689421378305, -9493.657588202666, 0.007125, -0.020875, 0.98875, 192.0, 0.0, 0.0, 0.0, 0.0, 0.0, 0.0, 0.0, 0.0, 0.0, 1.644497721634611E9, 0.0, 2022-02-10 23:55:21.634
86.0, -10764.913054098255, -13126.576021501545, -7889.897571789929, -15515.798689818228, -1047.246282964502, -2427.5112065686235, -2525.7918269386087, -4697.956704849805, -20464.184339545292, -18026.123109593762, -23311.52836221795, -13952.316516913954, -7984.534857813699, -13033.324543634004, -6736.704020107272, -9494.819878914343, 0.006562500000000001, -0.0224375, 0.989375, 192.0, 0.0, 24.0, 127.5, 32.0, 15.0, 120.0, 0.0, 0.0, 0.0, 1.6444977216346176E9, 0.0, 2022-02-10 23:55:21.634
88.0, -10785.074327596943, -13150.648850279911, -7892.982112524762, -15508.69083508144, -1059.2938732259124, -2435.2896136390705, -2543.8967399474072, -4699.387216494944, -20464.407856989845, -18024.178507826153, -23321.072557100364, -13957.90445302778, -7987.418232848434, -13057.196206712271, -6747.902244079381, -9501.145422595195, 0.006562500000000001, -0.0224375, 0.989375, 192.0, 0.0, 0.0, 0.0, 0.0, 0.0, 0.0, 0.0, 0.0, 0.0, 1.6444977216346245E9, 0.0, 2022-02-10 23:55:21.634
90.0, -10774.546655958493, -13139.338867585526, -7884.823725798575, -15504.645169335028, -1050.9119690551722, -2423.689058266766, -2537.8394172000194, -4699.521326961676, -20467.20182504676, -18020.356359524296, -23308.063841827374, -13933.965734716146, -7989.34048287159, -13047.96493625223, -6751.165598769856, -9497.747957437989, 0.006562500000000001, -0.0224375, 0.989375, 192.0, 0.0, 0.0, 0.0, 0.0, 0.0, 0.0, 0.0, 0.0, 0.0, 1.6444977216346314E9, 0.0, 2022-02-10 23:55:21.634
92.0, -10777.206513548674, -13140.389399574924, -7895.843135815041, -15505.338073413144, -1064.4571261950882, -2431.9592037152297, -2538.0852863890277, -4697.844946127528, -20468.721743669717, -18032.873336419267, -23313.294150029917, -13939.106635940867, -7983.707843268853, -13042.980497238696, -6749.913901080358, -9496.11628009275, 0.006562500000000001, -0.0224375, 0.989375, 192.0, 0.0, 0.0, 0.0, 0.0, 0.0, 0.0, 0.0, 0.0, 0.0, 1.6444977216346383E9, 0.0, 2022-02-10 23:55:21.634
94.0, -10762.36495523035, -13137.50602454019, -7887.841211300041, -15507.439137391942, -1048.6991463540967, -2413.563718028512, -2536.3418503215134, -4694.268667014679, -20467.00065934666, -18037.120167865774, -23329.208592082097, -13942.638211564805, -7985.160706658448, -13033.570412823012, -6755.680651149828, -9494.97634112553, 0.006562500000000001, -0.0224375, 0.989375, 192.0, 0.0, 0.0, 0.0, 0.0, 0.0, 0.0, 0.0, 0.0, 0.0, 1.6444977216346447E9, 0.0, 2022-02-10 23:55:21.634
96.0, -10769.98690008961, -13129.191175602815, -7882.365033908491, -15504.39930014602, -1045.815771319362, -2409.2274796041825, -2523.6684112153544, -4686.870239599972, -20466.061886079537, -18019.12701357925, -23303.70525165859, -13939.71013304116, -7974.163648386437, -13047.92023276332, -6744.1918544998, -9491.645931201689, 0.01028125, -0.02221875, 0.9886874999999999, 192.0, 0.0, 56.0, 127.5, 40.0, 15.0, 112.0, 0.0, 0.0, 0.0, 1.6444977216346517E9, 0.0, 2022-02-10 23:55:21.634
98.0, -10781.743917673102, -13133.639172749421, -7876.888856516941, -15500.845372777627, -1052.9683295450604, -2406.6793807362774, -2527.1776350948376, -4685.506783188198, -20462.776179644607, -18020.51282173548, -23308.08619357183, -13945.096903454889, -7980.332729856102, -13029.05536044304, -6745.443552189297, -9490.014253856452, 0.01028125, -0.02221875, 0.9886874999999999, 192.0, 0.0, 0.0, 0.0, 0.0, 0.0, 0.0, 0.0, 0.0, 0.0, 1.6444977216346583E9, 0.0, 2022-02-10 23:55:21.634
100.0, -10758.475751695127, -13113.030864361628, -7870.831533769552, -15490.45181160591, -1039.7808003164293, -2389.624999716878, -2517.6334402124216, -4674.062690027081, -20462.642069177877, -18004.732490150036, -23301.157152790685, -13925.80734798996, -7977.650520521465, -13019.287648116071, -6745.197683000289, -9483.174620053127, 0.01028125, -0.02221875, 0.9886874999999999, 192.0, 0.0, 0.0, 0.0, 0.0, 0.0, 0.0, 0.0, 0.0, 0.0, 1.6444977216346667E9, 0.0, 2022-02-10 23:55:21.634
102.0, -10770.590397189904, -13125.458434278778, -7876.665339072388, -15493.603407574108, -1044.0946869963036, -2398.565697499001, -2517.9687163792514, -4673.325082460056, -20461.502130210654, -18005.313635505874, -23303.012347580476, -13925.360313100853, -7975.392994331479, -13022.774520251098, -6739.252118975177, -9480.850038629775, 0.01028125, -0.02221875, 0.9886874999999999, 192.0, 0.0, 0.0, 0.0, 0.0, 0.0, 0.0, 0.0, 0.0, 0.0, 1.6444977216346736E9, 0.0, 2022-02-10 23:55:21.634
104.0, -10763.616652919847, -13123.804405189087, -7873.670205315377, -15493.156372685002, -1026.950898999083, -2384.394691514336, -2508.715094174754, -4667.312463201579, -20462.016220333127, -18023.507955492492, -23308.89085637222, -13927.193156146188, -7958.807999945641, -13008.111775888417, -6738.447456174786, -9481.475887474524, 0.01028125, -0.02221875, 0.9886874999999999, 192.0, 0.0, 0.0, 0.0, 0.0, 0.0, 0.0, 0.0, 0.0, 0.0, 1.6444977216346805E9, 0.0, 2022-02-10 23:55:21.634
106.0, -10761.269719752041, -13134.756759972188, -7876.195952438826, -15499.794840788227, -1033.2987944243903, -2386.339293281948, -2514.526547733134, -4679.06948078507, -20465.32427851251, -18022.345664780816, -23296.664452155168, -13917.336036841398, -7968.709822739342, -13003.149688619338, -6732.010153771657, -9478.190181039594, 0.008, -0.018000000000000002, 0.992, 192.0, 0.0, 32.0, 127.5, 56.0, 15.5, 0.0, 0.0, 0.0, 0.0, 1.6444977221138167E9, 0.0, 2022-02-10 23:55:22.113
108.0, -10792.316292800462, -13137.662486751376, -7894.099699747527, -15500.510096610797, -1045.592253874809, -2394.341217796948, -2510.1232540754386, -4673.9062278158935, -20479.16000833035, -18035.108510864797, -23321.05020535591, -13939.956002230168, -7980.846819978574, -13015.24198236966, -6744.281261477621, -9487.153230566171, 0.008, -0.018000000000000002, 0.992, 192.0, 0.0, 0.0, 0.0, 0.0, 0.0, 0.0, 0.0, 0.0, 0.0, 1.6444977221138265E9, 0.0, 2022-02-10 23:55:22.113
110.0, -10775.127801314331, -13128.006533146685, -7873.200818681815, -15493.916331996481, -1025.0733524648372, -2373.3529297534146, -2495.326399246025, -4661.5233613876535, -20475.33786002849, -18023.999693870508, -23309.069670327863, -13929.89771722528, -7973.716613497331, -13015.86783121441, -6743.633060888417, -9478.324291506326, 0.008, -0.018000000000000002, 0.992, 192.0, 0.0, 0.0, 0.0, 0.0, 0.0, 0.0, 0.0, 0.0, 0.0, 1.644497722113834E9, 0.0, 2022-02-10 23:55:22.113
112.0, -10795.914923657767, -13144.144492643416, -7880.576894352066, -15497.045576220224, -1029.4766461225327, -2375.18577279875, -2514.2806785441257, -4666.977187034749, -20477.461275751743, -18024.29026654843, -23307.482696471536, -13930.881193981313, -7970.788534973685, -13004.267275842105, -6736.346392195987, -9477.184352539105, 0.008, -0.018000000000000002, 0.992, 192.0, 0.0, 0.0, 0.0, 0.0, 0.0, 0.0, 0.0, 0.0, 0.0, 1.6444977221138413E9, 0.0, 2022-02-10 23:55:22.113
114.0, -10803.022778394554, -13156.616766049478, -7875.726565805265, -15495.59271283063, -1015.3726953712339, -2367.5861796839454, -2501.651942926877, -4656.136590973925, -20486.357270044955, -18034.57206899787, -23326.19110658063, -13947.823816278436, -7970.3638518290345, -13002.85911594142, -6739.296822464088, -9475.999710082973, 0.008, -0.018000000000000002, 0.992, 192.0, 0.0, 0.0, 0.0, 0.0, 0.0, 0.0, 0.0, 0.0, 0.0, 1.6444977221138484E9, 0.0, 2022-02-10 23:55:22.113
116.0, -10828.816691495978, -13174.699327313821, -7875.234827427248, -15497.380852387054, -1015.9314889826167, -2360.143048780328, -2505.943477862296, -4656.918902029861, -20494.046270137584, -18030.571106740368, -23318.546809976913, -13939.218394663143, -7975.862380965041, -12992.71142395871, -6733.1724444833335, -9472.244617014483, 0.006, -0.018000000000000002, 0.992, 192.0, 0.0, 24.0, 127.5, 56.0, 15.5, 0.0, 0.0, 0.0, 0.0, 1.6444977221138556E9, 0.0, 2022-02-10 23:55:22.113
118.0, -10873.788401340056, -13208.85279284153, -7884.5108013762, -15502.521753611774, -1026.5038641099768, -2367.9438075952303, -2515.3982657668907, -4665.770192834162, -20505.892694698894, -18043.088083635343, -23344.161909122697, -13964.229996708633, -7977.1140786545375, -12979.970929619185, -6738.559214897063, -9476.178524038616, 0.006, -0.018000000000000002, 0.992, 192.0, 0.0, 0.0, 0.0, 0.0, 0.0, 0.0, 0.0, 0.0, 0.0, 1.6444977221138625E9, 0.0, 2022-02-10 23:55:22.113
120.0, -10895.603703928437, -13236.479548988289, -7880.398080396424, -15497.91729425398, -1009.8071110018625, -2364.792211627032, -2495.393454479391, -4649.989861248715, -20516.91210471536, -18064.054019934418, -23347.313505090893, -13961.011345507068, -7972.420212318923, -13003.57437176399, -6736.122874751434, -9474.345680993281, 0.006, -0.018000000000000002, 0.992, 192.0, 0.0, 0.0, 0.0, 0.0, 0.0, 0.0, 0.0, 0.0, 0.0, 1.6444977221138694E9, 0.0, 2022-02-10 23:55:22.113
122.0, -10932.30526832405, -13276.869151219029, -7886.008368254706, -15500.107765210601, -1020.4241896181334, -2376.5492292105237, -2505.6752569288324, -4664.920826544861, -20532.133642689427, -18062.824673989377, -23356.72358950658, -13957.94915651669, -7973.269578608225, -13001.294493829548, -6737.754552096671, -9475.195047282583, 0.006, -0.018000000000000002, 0.992, 192.0, 0.0, 0.0, 0.0, 0.0, 0.0, 0.0, 0.0, 0.0, 0.0, 1.6444977221138763E9, 0.0, 2022-02-10 23:55:22.113
124.0, -10922.224631574707, -13273.024651172716, -7881.068632730083, -15497.11263145359, -1009.7624075129519, -2355.0021475556073, -2509.7656261641537, -4647.911149014371, -20536.469881113753, -18069.597252559335, -23375.85668276032, -13970.332022944931, -7968.1286773835045, -12998.433470539268, -6743.387191699409, -9477.87725661722, 0.006, -0.018000000000000002, 0.992, 192.0, 0.0, 0.0, 0.0, 0.0, 0.0, 0.0, 0.0, 0.0, 0.0, 1.6444977221138835E9, 0.0, 2022-02-10 23:55:22.113
126.0, -10916.25671580514, -13243.162720580427, -7878.118202461983, -15493.514000596286, -1009.1142069237479, -2351.9623103096856, -2504.4459109837903, -4644.87131176845, -20523.282351885122, -18056.76735124199, -23347.626429513268, -13969.9967467781, -7962.049002891661, -12988.553999490023, -6731.160787482356, -9468.243654756983, 0.006, -0.02, 0.99, 192.0, 0.0, 24.0, 127.5, 48.0, 15.0, 120.0, 0.0, 0.0, 0.0, 1.6444977221138904E9, 0.0, 2022-02-10 23:55:22.113
