%OpenBCI Raw EEG Data
%Number of channels = 16
%Sample Rate = 125 Hz
%Board = OpenBCI_GUI$BoardCytonSerialDaisy
Sample Index, EXG Channel 0, EXG Channel 1, EXG Channel 2, EXG Channel 3, EXG Channel 4, EXG Channel 5, EXG Channel 6, EXG Channel 7, EXG Channel 8, EXG Channel 9, EXG Channel 10, EXG Channel 11, EXG Channel 12, EXG Channel 13, EXG Channel 14, EXG Channel 15, Accel Channel 0, Accel Channel 1, Accel Channel 2, Other, Other, Other, Other, Other, Other, Other, Analog Channel 0, Analog Channel 1, Analog Channel 2, Timestamp, Other, Timestamp (Formatted)
52.0, -9613.395883249746, -11478.648958045122, -5916.663219530967, -13713.018740775437, -22.66466887768136, -1231.6705264652403, -1978.3081982503174, -2876.021310808815, -20620.959475154814, -16717.182602546527, -22315.758146734017, -12842.440645985682, -7103.898478019057, -11654.087800274827, -4823.975840088826, -8514.271201404477, 0.0, 0.0, 0.0, 192.0, 0.0, 0.0, 0.0, 0.0, 0.0, 0.0, 0.0, 0.0, 0.0, 1.644497465481113E9, 0.0, 2022-02-10 23:51:05.481
54.0, -9606.399787235236, -11470.848199230219, -5908.527184549235, -13711.364711685743, -12.628735617248491, -1216.3372297688998, -1968.5851894122588, -2862.2302844798905, -20628.201440358334, -16712.958122844473, -22320.876696214284, -12854.130608335807, -7102.579725096193, -11664.235492257536, -4823.57350868863, -8513.108910692801, 0.007, -0.007, 0.496, 192.0, 0.0, 56.0, 127.5, 72.0, 15.5, 0.0, 0.0, 0.0, 0.0, 1.6444974654811237E9, 0.0, 2022-02-10 23:51:05.481
56.0, -9602.689397655655, -11461.371059581168, -5911.365856095059, -13718.76313910045, -13.455750162094851, -1221.455779249165, -1976.5871139272588, -2867.8405723381725, -20629.631952003474, -16717.339064757714, -22315.22170486709, -12842.59710819687, -7104.993713497367, -11625.656381327675, -4814.744569628784, -8510.873736247271, 0.007, -0.007, 0.496, 192.0, 0.0, 0.0, 0.0, 0.0, 0.0, 0.0, 0.0, 0.0, 0.0, 1.6444974654811325E9, 0.0, 2022-02-10 23:51:05.481
58.0, -9600.633037165766, -11455.425495556057, -5904.973257180841, -13711.454118663565, -12.651087361703798, -1214.5267384680199, -1980.6327796736693, -2867.0806130266924, -20624.17812635638, -16717.853154880184, -22323.268332871, -12847.760361166045, -7099.673998317004, -11640.810864068373, -4818.879642353016, -8512.505413592507, 0.007, -0.007, 0.496, 192.0, 0.0, 0.0, 0.0, 0.0, 0.0, 0.0, 0.0, 0.0, 0.0, 1.6444974654811397E9, 0.0, 2022-02-10 23:51:05.481
60.0, -9595.290970240947, -11458.867664202175, -5900.525260034235, -13714.516307653941, -1.2964011784078096, -1212.5821367004082, -1970.0604045463092, -2861.5820838906866, -20617.807879186617, -16709.851230365184, -22305.02930939547, -12838.283221516995, -7096.477698859894, -11642.576651880343, -4811.011828304748, -8506.291628633931, 0.007, -0.007, 0.496, 192.0, 0.0, 0.0, 0.0, 0.0, 0.0, 0.0, 0.0, 0.0, 0.0, 1.6444974654811463E9, 0.0, 2022-02-10 23:51:05.481
62.0, -9617.37449376279, -11464.299138104814, -5909.175385138439, -13715.499784409974, -17.009677530488673, -1224.942651384193, -1985.3042942648285, -2870.209857250435, -20623.84285018955, -16715.97560834594, -22320.60847528082, -12847.514491977036, -7103.78671929678, -11635.692314588108, -4813.090540539091, -8510.381997869254, 0.007, -0.007, 0.496, 192.0, 0.0, 0.0, 0.0, 0.0, 0.0, 0.0, 0.0, 0.0, 0.0, 1.644497465481154E9, 0.0, 2022-02-10 23:51:05.481
64.0, -9603.069377311394, -11464.07562066026, -5902.246344357293, -13711.454118663565, -3.553927368393823, -1213.6103169453522, -1962.7066806205132, -2862.342043202167, -20624.714568223306, -16697.848343592686, -22330.152670163236, -12853.370649024326, -7105.708969319937, -11636.027590754939, -4813.04583705018, -8509.622038557773, 0.0085, -0.0125, 0.742, 192.0, 0.0, 40.0, 127.5, 56.0, 15.0, 112.0, 0.0, 0.0, 0.0, 1.6444974654811609E9, 0.0, 2022-02-10 23:51:05.481
66.0, -9600.52127844349, -11465.528484049855, -5902.961600179863, -13707.1849354726, -12.56168038388257, -1221.2099100601567, -1979.2469715174404, -2881.966874833927, -20622.144117610947, -16711.192335032505, -22315.4675740561, -12844.944041364675, -7104.12199546361, -11640.319125690357, -4807.077921280614, -8508.817375757382, 0.0085, -0.0125, 0.742, 192.0, 0.0, 0.0, 0.0, 0.0, 0.0, 0.0, 0.0, 0.0, 0.0, 1.6444974654811676E9, 0.0, 2022-02-10 23:51:05.481
68.0, -9603.672874411688, -11454.12909437765, -5909.153033393984, -13704.61448486024, -9.387732671228965, -1211.1069215663579, -1975.2013057710299, -2861.112697257125, -20622.814669944604, -16717.607285691178, -22322.620132281798, -12853.482407746604, -7099.115204705621, -11636.362866921767, -4815.146901028979, -8509.845556002327, 0.0085, -0.0125, 0.742, 192.0, 0.0, 0.0, 0.0, 0.0, 0.0, 0.0, 0.0, 0.0, 0.0, 1.6444974654811745E9, 0.0, 2022-02-10 23:51:05.481
70.0, -9587.266693981492, -11452.609175754687, -5897.641884999501, -13705.776775571916, -0.8717180337569754, -1207.2847732645005, -1950.0332415143541, -2852.4178686640107, -20617.114975108503, -16697.82599184823, -22307.935036174662, -12841.34541050737, -7101.3280274066965, -11634.373561665245, -4809.357799215055, -8503.251791388011, 0.0085, -0.0125, 0.742, 192.0, 0.0, 0.0, 0.0, 0.0, 0.0, 0.0, 0.0, 0.0, 0.0, 1.6444974654811833E9, 0.0, 2022-02-10 23:51:05.481
72.0, -9600.923609843685, -11466.579016039255, -5909.354199094081, -13710.09066225179, -15.422703674161873, -1219.9805641151147, -1969.903942335122, -2863.1020025136477, -20619.104280365023, -16705.02325356284, -22313.3665100773, -12838.082055816896, -7102.579725096193, -11648.231643227535, -4806.720293369329, -8505.598724555817, 0.0085, -0.0125, 0.742, 192.0, 0.0, 0.0, 0.0, 0.0, 0.0, 0.0, 0.0, 0.0, 0.0, 1.6444974654811897E9, 0.0, 2022-02-10 23:51:05.481
74.0, -9606.511545957512, -11465.55083579431, -5912.461091573369, -13716.684426866106, -11.555851883393752, -1214.2585175345562, -1955.5541223948148, -2866.633578137586, -20622.457042033322, -16721.98822760442, -22337.260524900023, -12859.763247938545, -7099.9198675060115, -11642.107265246781, -4813.872851595027, -8507.63273330125, 0.01025, -0.01625, 0.864, 192.0, 0.0, 48.0, 127.5, 48.0, 15.0, 104.0, 0.0, 0.0, 0.0, 1.6444974654811966E9, 0.0, 2022-02-10 23:51:05.481
76.0, -9619.900240886242, -11462.17572238156, -5913.6233822850445, -13718.629028633719, -21.591785143826623, -1231.2234915761342, -1967.1099742782087, -2879.5305346882983, -20629.855469448026, -16720.401253748092, -22319.870867713795, -12860.098524105373, -7119.656457860048, -11643.314259447368, -4813.537575428197, -8509.35381762431, 0.01025, -0.01625, 0.864, 192.0, 0.0, 0.0, 0.0, 0.0, 0.0, 0.0, 0.0, 0.0, 0.0, 1.6444974654812033E9, 0.0, 2022-02-10 23:51:05.481
78.0, -9618.246211796548, -11459.26999560237, -5913.981010196329, -13713.868107064738, -27.649107891214836, -1230.1953113311902, -1975.067195304298, -2878.6811683989968, -20634.102300894538, -16720.06597758126, -22329.99620795205, -12863.004250884564, -7120.841100316179, -11653.081971774338, -4817.806758619161, -8513.757111282004, 0.01025, -0.01625, 0.864, 192.0, 0.0, 0.0, 0.0, 0.0, 0.0, 0.0, 0.0, 0.0, 0.0, 1.6444974654812095E9, 0.0, 2022-02-10 23:51:05.481
80.0, -9606.578601190879, -11464.477952060457, -5906.739044992811, -13712.214077975044, -13.098122250809938, -1224.2720990505338, -1956.7834683398569, -2868.667586883019, -20633.387045071966, -16719.55188745879, -22317.635693268265, -12851.984840868097, -7115.45432990245, -11640.341477434813, -4814.990438817792, -8508.68326529065, 0.01025, -0.01625, 0.864, 192.0, 0.0, 0.0, 0.0, 0.0, 0.0, 0.0, 0.0, 0.0, 0.0, 1.6444974654812164E9, 0.0, 2022-02-10 23:51:05.481
82.0, -9617.866232140808, -11464.50030380491, -5914.539803807713, -13713.443423920087, -26.33035496835172, -1224.227395561623, -1972.0050063139208, -2877.2059532649464, -20637.142138140458, -16726.92796312904, -22328.40923409572, -12857.349259537372, -7110.64870484456, -11637.949840778094, -4812.218822505334, -8515.411140371698, 0.01025, -0.01625, 0.864, 192.0, 0.0, 0.0, 0.0, 0.0, 0.0, 0.0, 0.0, 0.0, 0.0, 1.644497465481223E9, 0.0, 2022-02-10 23:51:05.481
84.0, -9598.800194120431, -11453.749114721908, -5902.4698618018465, -13707.788432572894, -14.30511645139652, -1214.169110556735, -1970.7980121133344, -2866.7676886043178, -20629.877821192484, -16715.997960090393, -22327.17988815068, -12848.050933843962, -7103.227925685397, -11629.612640096264, -4813.559927172652, -8508.482099590552, 0.007125, -0.020125, 0.9259999999999999, 192.0, 0.0, 16.0, 127.5, 32.0, 15.0, 112.0, 0.0, 0.0, 0.0, 1.6444974654812367E9, 0.0, 2022-02-10 23:51:05.481
86.0, -9607.919705858196, -11466.489609061433, -5904.392111825003, -13712.728168097517, -15.556814140893716, -1223.7356571836065, -1967.2440847449404, -2876.110717786636, -20628.335550825068, -16717.4955269689, -22315.109946144814, -12851.135474578796, -7108.793510054768, -11648.030477527438, -4808.687246881395, -8507.96800946808, 0.007125, -0.020125, 0.9259999999999999, 192.0, 0.0, 0.0, 0.0, 0.0, 0.0, 0.0, 0.0, 0.0, 0.0, 1.6444974654812436E9, 0.0, 2022-02-10 23:51:05.481
88.0, -9614.960505361618, -11472.479876575457, -5914.070417174151, -13709.308351195856, -22.105875266298685, -1230.0164973755477, -1979.358730239717, -2881.318674244723, -20635.644571261953, -16726.83855615122, -22330.66676028571, -12857.438666515192, -7102.222097184908, -11658.312279976879, -4813.068188794636, -8512.058378703401, 0.007125, -0.020125, 0.9259999999999999, 192.0, 0.0, 0.0, 0.0, 0.0, 0.0, 0.0, 0.0, 0.0, 0.0, 1.64449746548125E9, 0.0, 2022-02-10 23:51:05.481
90.0, -9597.772013875487, -11459.69467874702, -5905.800271725688, -13712.705816353062, -12.293459450418885, -1218.8182734034388, -1962.907846320611, -2863.5937408916643, -20633.87878344998, -16720.043625836806, -22321.03315842547, -12846.106332076351, -7104.904306519546, -11651.517349662465, -4808.351970714566, -8503.654122788206, 0.007125, -0.020125, 0.9259999999999999, 192.0, 0.0, 0.0, 0.0, 0.0, 0.0, 0.0, 0.0, 0.0, 0.0, 1.6444974654812567E9, 0.0, 2022-02-10 23:51:05.481
92.0, -9609.506679714523, -11461.728687492454, -5909.577716538634, -13718.941953056092, -21.055343276899254, -1241.1029626253799, -1981.4374424740604, -2874.6578543970413, -20631.330684582077, -16725.4974514839, -22323.804774737928, -12859.204454327162, -7104.658437330537, -11651.025611284449, -4803.412235189943, -8510.896087991725, 0.007125, -0.020125, 0.9259999999999999, 192.0, 0.0, 0.0, 0.0, 0.0, 0.0, 0.0, 0.0, 0.0, 0.0, 1.6444974654812636E9, 0.0, 2022-02-10 23:51:05.481
94.0, -9595.89446734124, -11449.815207697775, -5897.26190534376, -13711.968208786036, -18.3507821978071, -1230.5752909869304, -1994.8708408917, -2881.832764367195, -20625.496879279242, -16714.321579256248, -22312.494792043544, -12860.143227594284, -7097.461175615928, -11651.092666517814, -4808.351970714566, -8516.014637471992, 0.007125, -0.020125, 0.9259999999999999, 192.0, 0.0, 0.0, 127.5, 16.0, 15.0, 96.0, 0.0, 0.0, 0.0, 1.6444974654812703E9, 0.0, 2022-02-10 23:51:05.481
96.0, -9594.75452837402, -11456.565434523278, -5906.202603125883, -13714.404548931665, -29.258433491996946, -1216.650154191274, -1965.6347591441584, -2862.3643949466223, -20622.725262966786, -16717.02614033534, -22311.332501331868, -12846.933346621197, -7096.924733749001, -11649.997431039505, -4801.422929933421, -8512.818338014882, 0.007125, -0.020125, 0.9259999999999999, 192.0, 0.0, 0.0, 0.0, 0.0, 0.0, 0.0, 0.0, 0.0, 0.0, 1.6444974654813008E9, 0.0, 2022-02-10 23:51:05.481
98.0, -9603.941095345152, -11456.36426882318, -5908.728350249333, -13709.822441318327, -30.66659339268129, -1221.455779249165, -1957.744593351435, -2864.7783833477956, -20629.56489677011, -16721.027102592838, -22335.628847554788, -12862.624271228824, -7105.954838508945, -11651.047963028905, -4808.508432925753, -8508.929134479658, 0.007125, -0.020125, 0.9259999999999999, 192.0, 0.0, 0.0, 0.0, 0.0, 0.0, 0.0, 0.0, 0.0, 0.0, 1.6444974654813075E9, 0.0, 2022-02-10 23:51:05.481
100.0, -9609.260810525515, -11463.896806704619, -5900.234687356316, -13707.274342450422, -15.936793796633935, -1221.1875583157014, -1957.6775381180692, -2860.464496667921, -20623.284056578166, -16721.205916548482, -22310.304321086922, -12848.900300133266, -7088.319312133707, -11657.64172764322, -4798.450147920865, -8507.029236200957, 0.007125, -0.020125, 0.9259999999999999, 192.0, 0.0, 0.0, 0.0, 0.0, 0.0, 0.0, 0.0, 0.0, 0.0, 1.6444974654813144E9, 0.0, 2022-02-10 23:51:05.481
102.0, -9618.872060641297, -11464.343841593723, -5908.661295015967, -13709.66597910714, -25.324526467862903, -1227.133122340813, -1975.648340660136, -2871.4615549399323, -20623.865201934004, -16720.155384559082, -22312.56184727691, -12854.756457180556, -7096.231829670886, -11654.288965974923, -4795.455014163854, -8508.459747846096, 0.007125, -0.020125, 0.9259999999999999, 192.0, 0.0, 0.0, 0.0, 0.0, 0.0, 0.0, 0.0, 0.0, 0.0, 1.6444974654813216E9, 0.0, 2022-02-10 23:51:05.481
104.0, -9600.074243554383, -11453.88322518864, -5906.470824059346, -13710.448290163076, -23.916366567178557, -1215.3761047573216, -1966.8641050892004, -2868.511124671832, -20620.423033287887, -16713.94159960051, -22323.782422993474, -12857.997460126575, -7099.182259938987, -11646.711724604575, -4801.4005781889655, -8508.929134479658, 0.007125, -0.020125, 0.9259999999999999, 192.0, 0.0, 0.0, 127.5, 16.0, 15.0, 112.0, 0.0, 0.0, 0.0, 1.6444974654813285E9, 0.0, 2022-02-10 23:51:05.481
106.0, -9605.32690350138, -11452.542120521322, -5912.706960762377, -13715.94681929908, -29.705468381103085, -1216.6948576801847, -1954.8835700611558, -2871.5509619177537, -20623.59698100054, -16713.248695522394, -22317.74745199054, -12861.126704350318, -7103.6749605745035, -11646.801131582395, -4800.081825266102, -8512.483061848052, 0.007125, -0.020125, 0.9259999999999999, 192.0, 0.0, 0.0, 0.0, 0.0, 0.0, 0.0, 0.0, 0.0, 0.0, 1.6444974654813352E9, 0.0, 2022-02-10 23:51:05.481
108.0, -9610.780729148475, -11464.679117760554, -5914.696266018899, -13711.699987852573, -39.94256734163372, -1216.3148780244444, -1966.8194016002897, -2868.7569938608403, -20623.149946111436, -16713.91924785605, -22329.549173062944, -12868.614538742846, -7098.981094238889, -11653.037268285427, -4808.731950370307, -8517.40044562822, 0.007125, -0.020125, 0.9259999999999999, 192.0, 0.0, 0.0, 0.0, 0.0, 0.0, 0.0, 0.0, 0.0, 0.0, 1.644497465481342E9, 0.0, 2022-02-10 23:51:05.481
110.0, -9606.422138979691, -11472.591635297733, -5907.83428047112, -13708.95072328457, -23.178759000153423, -1214.0126483455479, -1968.3169684787952, -2865.4265839369996, -20627.352074069033, -16720.91534387056, -22321.346082847846, -12855.002326369564, -7104.859603030634, -11647.87401531625, -4804.485118923798, -8514.20414617111, 0.007125, -0.020125, 0.9259999999999999, 192.0, 0.0, 0.0, 0.0, 0.0, 0.0, 0.0, 0.0, 0.0, 0.0, 1.6444974654813495E9, 0.0, 2022-02-10 23:51:05.481
112.0, -9620.056703097427, -11481.55468482431, -5918.049027687196, -13713.175202986624, -32.41002946019524, -1217.5442239694862, -1976.520058693893, -2878.4800026988987, -20626.547411268642, -16729.31959978576, -22317.70274850163, -12853.013021113042, -7102.847946029658, -11635.289983187913, -4805.37918870201, -8520.373227640775, 0.007125, -0.020125, 0.9259999999999999, 192.0, 0.0, 0.0, 0.0, 0.0, 0.0, 0.0, 0.0, 0.0, 0.0, 1.6444974654813564E9, 0.0, 2022-02-10 23:51:05.481
114.0, -9602.599990677832, -11462.041611914829, -5911.343504350603, -13704.100394737769, -31.247738748519275, -1217.0524855914696, -1964.4948201769378, -2868.309958971734, -20621.674730977385, -16721.675303182044, -22323.84947822684, -12856.902224648265, -7097.5729343382045, -11662.179131767647, -4804.015732290236, -8521.244945674533, 0.002, -0.018000000000000002, 0.988, 192.0, 0.0, 8.0, 127.5, 56.0, 15.0, 112.0, 0.0, 0.0, 0.0, 1.644497465481364E9, 0.0, 2022-02-10 23:51:05.481
116.0, -9608.344389002847, -11474.290367876336, -5915.523280563746, -13708.347226184276, -42.46831446508342, -1222.4169042607432, -1974.061366803809, -2871.5509619177537, -20622.389986799953, -16714.701558911987, -22317.50158280153, -12856.991631626086, -7109.4864141328835, -11659.094591032816, -4805.088616024091, -8518.898012506725, 0.002, -0.018000000000000002, 0.988, 192.0, 0.0, 0.0, 0.0, 0.0, 0.0, 0.0, 0.0, 0.0, 0.0, 1.6444974654813745E9, 0.0, 2022-02-10 23:51:05.481
118.0, -9626.918688645208, -11473.84333298723, -5919.166614909961, -13711.029435518914, -42.58007318735996, -1226.7084391961623, -1985.77368089839, -2880.1116800441364, -20628.469661291798, -16727.598515462698, -22338.04283595596, -12868.88275967631, -7113.9791147684, -11671.41040222769, -4812.419988205432, -8523.614230586796, 0.002, -0.018000000000000002, 0.988, 192.0, 0.0, 0.0, 0.0, 0.0, 0.0, 0.0, 0.0, 0.0, 0.0, 1.644497465481381E9, 0.0, 2022-02-10 23:51:05.481
120.0, -9611.205412293126, -11444.093161117216, -5915.366818352559, -13710.04595876288, -25.659802634692507, -1215.1749390572238, -1959.3092154633066, -2865.8736188261055, -20626.88268743547, -16725.050416594793, -22331.985513208572, -12863.898320662776, -7112.839175801179, -11653.819579341362, -4807.547307914175, -8521.870794519282, 0.002, -0.018000000000000002, 0.988, 192.0, 0.0, 0.0, 0.0, 0.0, 0.0, 0.0, 0.0, 0.0, 0.0, 1.6444974654813879E9, 0.0, 2022-02-10 23:51:05.481
122.0, -9621.643676953754, -11482.962844724994, -5919.144263165505, -13713.2869617089, -40.92604409766723, -1230.8658636648493, -1968.5851894122588, -2885.1408225465802, -20627.08385313557, -16722.658779938076, -22323.4694985711, -12857.349259537372, -7102.870297774112, -11657.529968920942, -4806.161499757945, -8525.49177712104, 0.002, -0.018000000000000002, 0.988, 192.0, 0.0, 0.0, 0.0, 0.0, 0.0, 0.0, 0.0, 0.0, 0.0, 1.6444974654813948E9, 0.0, 2022-02-10 23:51:05.481
124.0, -9606.332732001869, -11470.848199230219, -5912.88577471802, -13712.86227856425, -29.124323025265102, -1208.5364709539977, -1945.808761812301, -2860.5762553901977, -20624.625161245487, -16725.318637528257, -22323.402443337734, -12861.64079447279, -7114.873184546613, -11661.93326257864, -4808.575488159119, -8526.698771321628, 0.008, -0.018000000000000002, 0.986, 192.0, 0.0, 32.0, 127.5, 56.0, 15.0, 104.0, 0.0, 0.0, 0.0, 1.6444974654814017E9, 0.0, 2022-02-10 23:51:05.481
126.0, -9609.394920992247, -11457.347745579213, -5913.288106118215, -13712.839926819794, -27.49264568002769, -1214.3702762568328, -1948.28980544684, -2867.549999660254, -20618.03139663117, -16714.20982053397, -22305.811620451408, -12850.844901900877, -7109.553469366249, -11631.579593608332, -4804.954505557359, -8519.2109369291, 0.008, -0.018000000000000002, 0.986, 192.0, 0.0, 0.0, 0.0, 0.0, 0.0, 0.0, 0.0, 0.0, 0.0, 1.6444974654814084E9, 0.0, 2022-02-10 23:51:05.481
128.0, -9618.492080985556, -11474.826809743263, -5917.60199279809, -13713.577534386819, -45.21757903308619, -1224.8308926619163, -1958.10222126272, -2873.786136363284, -20621.965303655303, -16717.115547313162, -22322.128393903782, -12858.288032804494, -7113.397969412562, -11651.651460129198, -4814.208127761856, -8523.390713142242, 0.008, -0.018000000000000002, 0.986, 192.0, 0.0, 0.0, 0.0, 0.0, 0.0, 0.0, 0.0, 0.0, 0.0, 1.6444974654814153E9, 0.0, 2022-02-10 23:51:05.481
130.0, -9604.5669441899, -11471.98813819744, -5910.762358994765, -13709.956551785059, -33.572320171871205, -1218.9523838701707, -1960.4491544305272, -2873.0038253073485, -20614.835097174062, -16712.824012377743, -22313.61237926631, -12850.01788735603, -7121.936335794489, -11676.730117408051, -4812.196470760879, -8523.97185849808, 0.008, -0.018000000000000002, 0.986, 192.0, 0.0, 0.0, 0.0, 0.0, 0.0, 0.0, 0.0, 0.0, 0.0, 1.6444974654814224E9, 0.0, 2022-02-10 23:51:05.481
132.0, -9615.787519906464, -11467.942472451028, -5919.479539332336, -13711.968208786036, -42.55772144290465, -1223.0427531054918, -1979.3140267508063, -2889.8123371377396, -20620.13246060997, -16726.413873006568, -22323.067167170902, -12854.488236247093, -7116.013123513833, -11667.275329503456, -4813.358761472555, -8528.956297511613, 0.008, -0.018000000000000002, 0.986, 192.0, 0.0, 0.0, 0.0, 0.0, 0.0, 0.0, 0.0, 0.0, 0.0, 1.6444974654814296E9, 0.0, 2022-02-10 23:51:05.481
134.0, -9591.781746361465, -11459.471161302466, -5913.1539956514835, -13705.03916800489, -27.447942191117072, -1217.231299547112, -1967.5570091673148, -2871.1039270286474, -20617.629065230976, -16718.83663163622, -22323.625960782287, -12855.494064747581, -7114.3590944241405, -11646.73407634903, -4817.158558029957, -8526.274088176977, 0.008, -0.024, 0.986, 192.0, 0.0, 32.0, 127.5, 32.0, 15.0, 104.0, 0.0, 0.0, 0.0, 1.6444974654814365E9, 0.0, 2022-02-10 23:51:05.481
136.0, -9606.489194213056, -11461.639280514632, -5902.849841457587, -13706.514383138941, -15.266241462974724, -1219.6452879482852, -1961.6114451422031, -2882.3021510007566, -20615.438594274354, -16716.914381613064, -22310.37137632029, -12840.6301546848, -7110.02285599981, -11646.845835071306, -4811.257697493756, -8523.837748031348, 0.008, -0.024, 0.986, 192.0, 0.0, 0.0, 0.0, 0.0, 0.0, 0.0, 0.0, 0.0, 0.0, 1.6444974654814432E9, 0.0, 2022-02-10 23:51:05.481
138.0, -9614.580525705878, -11467.853065473208, -5905.599106025589, -13709.71068259605, -25.972727057066805, -1226.2837560515113, -1961.0750032752758, -2877.8541538541504, -20617.83023093107, -16715.886201368117, -22318.216838624103, -12856.432838014704, -7097.975265738401, -11651.025611284449, -4813.425816705921, -8524.262431176, 0.008, -0.024, 0.986, 192.0, 0.0, 0.0, 0.0, 0.0, 0.0, 0.0, 0.0, 0.0, 0.0, 1.64449746548145E9, 0.0, 2022-02-10 23:51:05.481
140.0, -9607.249153524537, -11463.561530537789, -5898.871230944542, -13707.073176750324, -19.490721165027757, -1206.5471656974753, -1948.9156542915887, -2872.1991625069577, -20611.862315161507, -16711.706425154975, -22304.470515784087, -12852.320117034928, -7104.367864652618, -11601.985883949505, -4808.173156758923, -8516.819300272382, 0.008, -0.024, 0.986, 192.0, 0.0, 0.0, 0.0, 0.0, 0.0, 0.0, 0.0, 0.0, 0.0, 1.6444974654814568E9, 0.0, 2022-02-10 23:51:05.481
142.0, -9616.994514107051, -11445.344858806713, -5908.303667104682, -13705.732072083007, -31.784180615446644, -1220.3158402819445, -1966.551180666826, -2868.0417380382705, -20615.684463463363, -16714.5450967008, -22311.019576909493, -12849.548500722469, -7096.477698859894, -11634.485320387521, -4806.206203246857, -8513.667704304184, 0.008, -0.024, 0.986, 192.0, 0.0, 0.0, 0.0, 0.0, 0.0, 0.0, 0.0, 0.0, 0.0, 1.6444974654814637E9, 0.0, 2022-02-10 23:51:05.481
144.0, -9606.846822124342, -11460.588748525233, -5903.542745535701, -13695.740842311483, -29.928985825656156, -1214.2361657901008, -1950.1226484921754, -2864.957197303438, -20616.153850096925, -16701.938712828007, -22321.70371075913, -12854.331774035905, -7103.6749605745035, -11662.201483512103, -4811.548270171675, -8517.221631672577, 0.01, -0.026000000000000002, 0.986, 192.0, 0.0, 40.0, 127.5, 24.0, 15.0, 104.0, 0.0, 0.0, 0.0, 1.6444974654814703E9, 0.0, 2022-02-10 23:51:05.481
146.0, -9616.770996662497, -11484.572170325777, -5908.348370593592, -13703.675711593118, -35.807494617401915, -1216.6054507023634, -1957.6775381180692, -2856.0164995213154, -20614.812745429605, -16714.031006578327, -22307.622111752287, -12842.172425052218, -7111.900402534056, -11678.562960453388, -4808.419025947932, -8512.125433936768, 0.01, -0.026000000000000002, 0.986, 192.0, 0.0, 0.0, 0.0, 0.0, 0.0, 0.0, 0.0, 0.0, 0.0, 1.6444974654814775E9, 0.0, 2022-02-10 23:51:05.481
148.0, -9629.265621813014, -11484.6615773036, -5912.259925873271, -13705.977941272015, -40.25549176400802, -1223.3109740389555, -1952.5589886378038, -2865.4936391703654, -20626.83798394656, -16727.419701507057, -22332.790176008963, -12858.466846760137, -7112.16862346752, -11652.143198507214, -4815.750398129273, -8514.382960126753, 0.01, -0.026000000000000002, 0.986, 192.0, 0.0, 0.0, 0.0, 0.0, 0.0, 0.0, 0.0, 0.0, 0.0, 1.6444974654814866E9, 0.0, 2022-02-10 23:51:05.481
150.0, -9605.773938390486, -11468.657728273598, -5905.97908568133, -13708.302522695367, -24.94454681212268, -1209.7881686434948, -1945.2723199453737, -2859.637482123075, -20621.898248421938, -16724.513974727866, -22327.291646872956, -12848.386210010793, -7107.228887942897, -11645.25886121498, -4810.587145160097, -8511.097253691823, 0.01, -0.026000000000000002, 0.986, 192.0, 0.0, 0.0, 0.0, 0.0, 0.0, 0.0, 0.0, 0.0, 0.0, 1.6444974654814935E9, 0.0, 2022-02-10 23:51:05.481
152.0, -9622.917726387706, -11466.824885228263, -5911.499966561791, -13716.460909421554, -30.912462581689667, -1230.262366564556, -1956.5599508953037, -2879.8211073662173, -20623.574629256087, -16727.374998018146, -22326.889315472763, -12858.82447467142, -7103.2055739409425, -11644.16362573667, -4812.084712038602, -8515.388788627242, 0.01, -0.026000000000000002, 0.986, 192.0, 0.0, 0.0, 0.0, 0.0, 0.0, 0.0, 0.0, 0.0, 0.0, 1.6444974654815004E9, 0.0, 2022-02-10 23:51:05.481
154.0, -9611.071301826394, -11463.516827048878, -5902.335751335115, -13712.795223330882, -20.38479094324004, -1219.0864943369024, -1952.0896020042424, -2859.413964678522, -20621.965303655303, -16723.441090994012, -22326.486984072566, -12859.383268282803, -7111.185146711487, -11630.171433707648, -4812.576450416619, -8518.339218895342, 0.004, -0.024, 0.988, 192.0, 0.0, 16.0, 127.5, 32.0, 15.0, 112.0, 0.0, 0.0, 0.0, 1.6444974654815073E9, 0.0, 2022-02-10 23:51:05.481
156.0, -9611.5183367155, -11460.544045036322, -5905.442643814403, -13711.588229130297, -28.856102091801418, -1219.5335292260086, -1964.0477852878316, -2877.3624154761333, -20613.382233784465, -16719.283666525327, -22311.958350176617, -12851.537805978991, -7103.3843878965845, -11636.765198321962, -4807.122624769524, -8513.667704304184, 0.004, -0.024, 0.988, 192.0, 0.0, 0.0, 0.0, 0.0, 0.0, 0.0, 0.0, 0.0, 0.0, 1.644497465481514E9, 0.0, 2022-02-10 23:51:05.481
158.0, -9625.510528744522, -11481.107649935204, -5910.494138061302, -13709.889496551694, -38.55675918540468, -1229.7259246976287, -1968.808706856812, -2870.2322089948907, -20626.90503917993, -16726.45857649548, -22331.89610623075, -12865.6864602192, -7105.038416986277, -11666.560073680886, -4812.576450416619, -8517.691018306139, 0.004, -0.024, 0.988, 192.0, 0.0, 0.0, 0.0, 0.0, 0.0, 0.0, 0.0, 0.0, 0.0, 1.6444974654815211E9, 0.0, 2022-02-10 23:51:05.481
160.0, -9611.13835705976, -11491.635321573654, -5899.228858855827, -13711.208249474555, -19.446017676117144, -1218.5947559588858, -1960.4044509416165, -2866.0747845262035, -20623.060539133614, -16720.535364214822, -22316.27223685649, -12857.863349659843, -7098.534059349783, -11649.192768239114, -4805.982685802303, -8515.724064794073, 0.004, -0.024, 0.988, 192.0, 0.0, 0.0, 0.0, 0.0, 0.0, 0.0, 0.0, 0.0, 0.0, 1.644497465481528E9, 0.0, 2022-02-10 23:51:05.481
162.0, -9625.421121766702, -11464.634414271643, -5907.878983960031, -13711.387063430198, -27.045610790921547, -1225.903776395771, -1963.0643085317981, -2864.666624625519, -20621.74178621075, -16722.077634582238, -22314.998187422538, -12861.014945628041, -7107.228887942897, -11645.907061804184, -4799.545383399175, -8516.372265383276, 0.004, -0.023, 0.988, 192.0, 0.0, 16.0, 127.5, 40.0, 15.0, 112.0, 0.0, 0.0, 0.0, 1.6444974654815357E9, 0.0, 2022-02-10 23:51:05.481
164.0, -9616.256906540026, -11465.863760216685, -5902.626324013034, -13708.190763973089, -17.277898463952358, -1222.8862908943047, -1963.3548812097172, -2866.0747845262035, -20618.925466409382, -16723.910477627574, -22320.295550858445, -12855.181140325207, -7100.210440183931, -11642.040210013416, -4803.702807867862, -8514.964105482592, 0.004, -0.023, 0.988, 192.0, 0.0, 0.0, 0.0, 0.0, 0.0, 0.0, 0.0, 0.0, 0.0, 1.6444974654815423E9, 0.0, 2022-02-10 23:51:05.481
166.0, -9613.865269883308, -11469.328280607258, -5902.089882146106, -13706.134403483202, -23.268165977974654, -1215.8901948797936, -1968.5404859233483, -2867.885275827083, -20614.075137862583, -16712.622846677645, -22305.208123351113, -12837.836186627888, -7095.4048151260395, -11639.559166378876, -4798.181926987401, -8512.281896147955, 0.004, -0.023, 0.988, 192.0, 0.0, 0.0, 0.0, 0.0, 0.0, 0.0, 0.0, 0.0, 0.0, 1.6444974654815493E9, 0.0, 2022-02-10 23:51:05.481
168.0, -9616.23455479557, -11468.568321295777, -5909.644771772, -13705.128574982713, -21.815302588379694, -1221.1875583157014, -1969.456907446016, -2866.5218194153094, -20617.22673383078, -16714.656855423076, -22325.414100338712, -12850.800198411966, -7101.64095182907, -11654.423076441655, -4803.367531701032, -8515.120567693779, 0.004, -0.023, 0.988, 192.0, 0.0, 0.0, 0.0, 0.0, 0.0, 0.0, 0.0, 0.0, 0.0, 1.644497465481556E9, 0.0, 2022-02-10 23:51:05.481
170.0, -9607.18209829117, -11469.976481196461, -5903.4086350689695, -13707.877839550716, -16.60734613029315, -1207.3518284978663, -1945.361726923195, -2855.9494442879495, -20617.785527442164, -16709.337140242715, -22316.22753336758, -12845.927518120709, -7097.930562249489, -11637.234584955524, -4798.5842583875965, -8508.102119934812, 0.004, -0.023, 0.988, 192.0, 0.0, 0.0, 0.0, 0.0, 0.0, 0.0, 0.0, 0.0, 0.0, 1.6444974654815629E9, 0.0, 2022-02-10 23:51:05.481
172.0, -9606.220973279593, -11465.640242772131, -5914.964486952364, -13713.421072175632, -33.05823004939914, -1220.2487850485784, -1955.8670468171892, -2855.1671332320134, -20622.725262966786, -16719.395425247603, -22321.27902761448, -12856.902224648265, -7110.179318210998, -11623.734131304518, -4803.300476467666, -8513.48889034854, 0.003, -0.0205, 0.988, 192.0, 0.0, 8.0, 127.5, 56.0, 15.0, 112.0, 0.0, 0.0, 0.0, 1.6444974654815695E9, 0.0, 2022-02-10 23:51:05.481
0.0, -4829.295555269188, -5761.229188588762, -2994.530259910853, -6918.334295551097, 29.52665442546063, -560.0229573277185, -937.342755477757, -1458.026642564135, -10310.390330599586, -8361.675842008095, -11162.461180980346, -6430.485121069565, -3552.787429426602, -5834.520558657713, -2401.8290521894755, -4256.688565813132, 0.004, -0.024, 0.988, 192.0, 0.0, 16.0, 127.5, 32.0, 15.0, 112.0, 0.0, 0.0, 0.0, 1.644497466033062E9, 0.0, 2022-02-10 23:51:06.033
2.0, -9667.978843209607, -11529.47682493649, -5988.658188421511, -13837.853233558326, 63.14367808624245, -1112.0216383959817, -1867.689414941003, -2886.794851636273, -20710.277045998224, -16798.699414575032, -22371.928080550206, -12799.949979776142, -7134.676830134014, -11710.101271879825, -4977.957007641436, -8506.671608289673, 0.004, -0.024, 0.988, 192.0, 0.0, 0.0, 0.0, 0.0, 0.0, 0.0, 0.0, 0.0, 0.0, 1.6444974660330749E9, 0.0, 2022-02-10 23:51:06.033
4.0, -9661.094505917372, -11529.096845280748, -5985.953627342418, -13834.947506779135, 72.06202412390996, -1110.434664539655, -1865.878923640123, -2886.772499891818, -20711.059357054157, -16797.157144207617, -22356.907708276238, -12785.086069713363, -7130.050019031766, -11705.765033455496, -4974.7383564398715, -8503.251791388011, 0.004, -0.024, 0.988, 192.0, 0.0, 0.0, 0.0, 0.0, 0.0, 0.0, 0.0, 0.0, 0.0, 1.6444974660330837E9, 0.0, 2022-02-10 23:51:06.033
6.0, -9680.205247426658, -11539.266889007913, -5996.011912347307, -13833.78521606746, 60.439117007150294, -1114.7261994750738, -1870.684548698014, -2893.634485439597, -20725.3421217611, -16799.32526341978, -22366.4295514142, -12788.885866270766, -7125.199690484964, -11734.039990191459, -4979.767498942316, -8504.861116988792, 0.004, -0.024, 0.988, 192.0, 0.0, 0.0, 0.0, 0.0, 0.0, 0.0, 0.0, 0.0, 0.0, 1.6444974660330956E9, 0.0, 2022-02-10 23:51:06.033
8.0, -9662.681479773699, -11519.932630054072, -5988.389967488047, -13830.54421312144, 68.93277990016698, -1099.4152545231884, -1870.684548698014, -2885.9678370914266, -20722.592857193096, -16798.341786663746, -22365.04374325797, -12791.43396513867, -7133.335725466696, -11728.452054077632, -4981.175658843, -8498.602628541306, 0.004, -0.02, 0.992, 192.0, 0.0, 16.0, 127.5, 48.0, 15.5, 0.0, 0.0, 0.0, 0.0, 1.6444974660331025E9, 0.0, 2022-02-10 23:51:06.033
10.0, -9662.837941984886, -11541.032676819883, -5993.106185568116, -13839.328448692377, 57.10870708330955, -1103.1926993361353, -1871.84683940969, -2886.861906869639, -20715.842630367595, -16804.98025476697, -22360.394580411266, -12782.67208131219, -7130.228832987408, -11688.017748357983, -4976.168868085011, -8496.2556953735, 0.004, -0.02, 0.992, 192.0, 0.0, 0.0, 0.0, 0.0, 0.0, 0.0, 0.0, 0.0, 0.0, 1.644497466033109E9, 0.0, 2022-02-10 23:51:06.033
12.0, -9666.458924586645, -11538.953964585538, -6001.421034505491, -13836.825053313381, 54.605311704315156, -1104.8690801702835, -1849.0257083208214, -2877.5859329206864, -20723.509278715763, -16810.61289436971, -22380.309984720945, -12799.681758842678, -7138.141350524587, -11701.987588642549, -4972.279664549788, -8497.641503529729, 0.004, -0.02, 0.992, 192.0, 0.0, 0.0, 0.0, 0.0, 0.0, 0.0, 0.0, 0.0, 0.0, 1.6444974660331156E9, 0.0, 2022-02-10 23:51:06.033
14.0, -9662.167389651226, -11532.874290093696, -5990.647493678033, -13835.215727712599, 65.8258874208793, -1101.0245801239705, -1860.6933189264917, -2883.3750347346113, -20720.38003449202, -16793.42440288358, -22360.305173433444, -12784.10259295733, -7130.519405665327, -11735.872833236794, -4970.044490104257, -8494.624018028262, 0.004, -0.02, 0.992, 192.0, 0.0, 0.0, 0.0, 0.0, 0.0, 0.0, 0.0, 0.0, 0.0, 1.6444974660331223E9, 0.0, 2022-02-10 23:51:06.033
16.0, -9678.774735781519, -11542.686705909575, -5999.856412393619, -13841.205995226623, 50.89492212473418, -1114.2568128415123, -1875.1772493335307, -2895.869659885128, -20725.00684559427, -16808.824754813286, -22371.212824727634, -12791.121040716296, -7137.828426102213, -11724.451091820132, -4973.397251772553, -8501.597762298317, 0.007, -0.022, 0.99, 192.0, 0.0, 40.0, 127.5, 32.0, 15.0, 112.0, 0.0, 0.0, 0.0, 1.6444974660331295E9, 0.0, 2022-02-10 23:51:06.033
18.0, -9656.53475004849, -11528.403941202634, -5993.5085169683125, -13840.200166726134, 68.82102117789044, -1110.6805337286632, -1856.7147084134472, -2888.9182673595274, -20722.503450215274, -16810.3670251807, -22371.346935194368, -12804.979122278586, -7131.7934550992795, -11709.386016057255, -4976.45944076293, -8504.2576198885, 0.007, -0.022, 0.99, 192.0, 0.0, 0.0, 0.0, 0.0, 0.0, 0.0, 0.0, 0.0, 0.0, 1.6444974660331361E9, 0.0, 2022-02-10 23:51:06.033
20.0, -9676.763078780543, -11536.338810484269, -5996.771871658787, -13837.607364369318, 63.23308506406368, -1114.7709029639846, -1864.783688161813, -2894.215630795435, -20722.704615915372, -16804.264998944403, -22360.439283900178, -12787.522409858992, -7128.038362030788, -11727.647391277242, -4969.306882537232, -8507.29745713442, 0.007, -0.022, 0.99, 192.0, 0.0, 0.0, 0.0, 0.0, 0.0, 0.0, 0.0, 0.0, 0.0, 1.644497466033143E9, 0.0, 2022-02-10 23:51:06.033
22.0, -9675.354918879857, -11535.981182572983, -5996.7942234032425, -13833.964030023102, 58.5392187284492, -1105.0255423814706, -1872.785612676813, -2897.903668630561, -20722.257581026268, -16805.270827444892, -22382.791028355485, -12803.749776333545, -7136.912004579545, -11716.851498705328, -4976.057109362735, -8507.990361212536, 0.007, -0.022, 0.99, 192.0, 0.0, 0.0, 0.0, 0.0, 0.0, 0.0, 0.0, 0.0, 0.0, 1.6444974660331495E9, 0.0, 2022-02-10 23:51:06.033
24.0, -9666.637738542287, -11532.293144737858, -5995.497822224835, -13834.344009678844, 60.550875729426835, -1099.8622894122946, -1861.6320921936147, -2885.6772644135076, -20719.19539203589, -16801.94041752105, -22363.412065912733, -12789.198790693139, -7133.291021977785, -11710.615362002298, -4973.419603517009, -8500.882506475748, 0.007, -0.022, 0.99, 192.0, 0.0, 0.0, 0.0, 0.0, 0.0, 0.0, 0.0, 0.0, 0.0, 1.6444974660331564E9, 0.0, 2022-02-10 23:51:06.033
26.0, -9685.234389929103, -11542.574947187299, -6001.264572294303, -13843.2176522276, 48.19036104564203, -1102.4774435135655, -1860.872132882134, -2887.443052225477, -20726.549115961687, -16815.776147338885, -22378.454789931155, -12802.7215960886, -7143.46106570495, -11711.08474863586, -4978.448746019452, -8502.670646032173, 0.006500000000000001, -0.027, 0.99, 192.0, 0.0, 24.0, 127.5, 0.0, 15.0, 120.0, 0.0, 0.0, 0.0, 1.6444974660331633E9, 0.0, 2022-02-10 23:51:06.033
28.0, -9669.632872299298, -11527.554574913333, -5987.786470387754, -13833.181718967167, 70.07271886738764, -1095.2354783100461, -1852.199656033475, -2873.8755433411056, -20726.95144736188, -16791.546856349334, -22377.068981774926, -12808.86832581381, -7139.817731358735, -11712.582315514364, -4979.678091964494, -8497.507393062997, 0.006500000000000001, -0.027, 0.99, 192.0, 0.0, 0.0, 0.0, 0.0, 0.0, 0.0, 0.0, 0.0, 0.0, 1.64449746603317E9, 0.0, 2022-02-10 23:51:06.033
30.0, -9670.951625222162, -11540.965621586516, -5989.194630288438, -13830.857137543815, 66.02705312097706, -1103.237402825046, -1872.1597638320643, -2881.6763021560078, -20721.47526997033, -16800.50990587591, -22364.104969990847, -12785.019014479998, -7136.1967487569755, -11710.816527702395, -4967.027004602791, -8492.567657538373, 0.006500000000000001, -0.027, 0.99, 192.0, 0.0, 0.0, 0.0, 0.0, 0.0, 0.0, 0.0, 0.0, 0.0, 1.644497466033177E9, 0.0, 2022-02-10 23:51:06.033
32.0, -9671.242197900081, -11532.494310437956, -5992.122708812083, -13823.63752408475, 63.88128565326758, -1101.1810423351578, -1854.2783682678187, -2869.516953172321, -20721.072938570134, -16815.865554316708, -22373.939737551183, -12798.273598941994, -7127.121940508121, -11712.895239936739, -4971.340891282665, -8492.701768005105, 0.006500000000000001, -0.027, 0.99, 192.0, 0.0, 0.0, 0.0, 0.0, 0.0, 0.0, 0.0, 0.0, 0.0, 1.6444974660331836E9, 0.0, 2022-02-10 23:51:06.033
34.0, -9661.943872206673, -11532.293144737858, -5982.176182529472, -13824.576297351874, 67.16699208819772, -1095.2578300545015, -1848.8245426207236, -2866.56652290422, -20714.81445012265, -16808.84710655774, -22358.18175771019, -12792.931532017175, -7136.621431901626, -11718.773748728485, -4965.976472613392, -8488.00790166949, 0.006500000000000001, -0.027, 0.99, 192.0, 0.0, 0.0, 0.0, 0.0, 0.0, 0.0, 0.0, 0.0, 0.0, 1.6444974660331905E9, 0.0, 2022-02-10 23:51:06.033
36.0, -9677.366575880835, -11531.957868571028, -5991.921543111986, -13826.49854737503, 51.43136399166155, -1112.2228040960795, -1876.9653888899552, -2897.0095988523485, -20718.614246680052, -16807.260132701413, -22365.155501980247, -12800.329959431883, -7135.682658634503, -11719.310190595412, -4970.402118015542, -8497.01565468498, 0.00725, -0.0275, 0.991, 192.0, 0.0, 32.0, 127.5, 16.0, 15.5, 0.0, 0.0, 0.0, 0.0, 1.6444974660331972E9, 0.0, 2022-02-10 23:51:06.033
38.0, -9669.007023454551, -11534.170691272104, -5985.931275597964, -13829.985419510058, 58.40510826171735, -1100.8904696572388, -1867.7341184299135, -2882.1680405340244, -20714.702691400373, -16802.119231476692, -22362.070961245416, -12795.747851818545, -7135.302678978763, -11711.218859102592, -4970.938559882469, -8503.274143132467, 0.00725, -0.0275, 0.991, 192.0, 0.0, 0.0, 0.0, 0.0, 0.0, 0.0, 0.0, 0.0, 0.0, 1.6444974660332065E9, 0.0, 2022-02-10 23:51:06.033
40.0, -9669.811686254941, -11544.743066399464, -5985.998330831329, -13832.734684078061, 58.15923907270898, -1108.3559523053113, -1865.811868406757, -2877.697691642963, -20721.967008348347, -16820.201792741038, -22362.227423456603, -12790.271674426995, -7135.928527823512, -11693.203353071613, -4966.4011557580425, -8499.54140180843, 0.00725, -0.0275, 0.991, 192.0, 0.0, 0.0, 0.0, 0.0, 0.0, 0.0, 0.0, 0.0, 0.0, 1.6444974660332136E9, 0.0, 2022-02-10 23:51:06.033
42.0, -9674.684366546198, -11537.47874945149, -5991.3403977561475, -13832.153538722223, 71.5255822569826, -1109.786463950451, -1845.3153187412404, -2878.6811683989968, -20715.28383675621, -16817.676045617587, -22376.264318974536, -12799.525296631491, -7125.579670140704, -11706.145013111236, -4967.36228076962, -8500.793099497927, 0.00725, -0.0275, 0.991, 192.0, 0.0, 0.0, 0.0, 0.0, 0.0, 0.0, 0.0, 0.0, 0.0, 1.6444974660332205E9, 0.0, 2022-02-10 23:51:06.033
44.0, -9669.856389743853, -11527.241650490958, -5986.512420953801, -13831.438282899653, 71.57028574589322, -1105.561984248398, -1859.754545659369, -2872.5567904182426, -20714.881505356017, -16815.619685127698, -22360.685153089187, -12793.199752950639, -7126.585498641193, -11716.60562951632, -4963.786001656771, -8500.614285542284, 0.00725, -0.0275, 0.991, 192.0, 0.0, 0.0, 0.0, 0.0, 0.0, 0.0, 0.0, 0.0, 0.0, 1.6444974660332277E9, 0.0, 2022-02-10 23:51:06.033
46.0, -9679.489991604089, -11536.383513973178, -6001.219868805393, -13838.83671031436, 51.185494802653174, -1116.2014146091242, -1861.3415195156956, -2884.604380679653, -20722.05641532617, -16813.965656038006, -22369.737609593583, -12805.113232745318, -7140.845911603679, -11734.956411714127, -4973.374900028098, -8502.782404754449, 0.006625000000000001, -0.02775, 0.9884999999999999, 192.0, 0.0, 24.0, 127.5, 16.0, 15.0, 104.0, 0.0, 0.0, 0.0, 1.6444974660332348E9, 0.0, 2022-02-10 23:51:06.033
48.0, -9675.980767724606, -11541.233842519981, -5998.403549004024, -13838.523785891985, 59.232122806563716, -1109.495891272532, -1860.0227665928326, -2873.47321194091, -20719.463612969354, -16812.84806881524, -22376.91251956374, -12816.311456717427, -7137.023763301821, -11724.540498797955, -4968.03283310328, -8501.955390209603, 0.006625000000000001, -0.02775, 0.9884999999999999, 192.0, 0.0, 0.0, 0.0, 0.0, 0.0, 0.0, 0.0, 0.0, 0.0, 1.6444974660332415E9, 0.0, 2022-02-10 23:51:06.033
50.0, -9688.900076019774, -11548.788732145875, -6001.085758338661, -13845.296364461943, 53.86770413729002, -1125.6114990248084, -1871.1762870760308, -2891.153441805058, -20724.358645005064, -16819.218315985003, -22363.94850777966, -12792.708014572623, -7146.433847717506, -11714.482213793066, -4965.328272024188, -8502.022445442968, 0.006625000000000001, -0.02775, 0.9884999999999999, 192.0, 0.0, 0.0, 0.0, 0.0, 0.0, 0.0, 0.0, 0.0, 0.0, 1.644497466033249E9, 0.0, 2022-02-10 23:51:06.033
52.0, -9692.878686532818, -11542.887871609673, -6010.540546243256, -13847.93387030767, 44.47997146606105, -1118.6601064992078, -1876.9877406344106, -2896.853136641161, -20728.4937177293, -16829.455414945533, -22384.04272604498, -12814.545668905457, -7146.5232546953275, -11720.830109218372, -4975.7888884292715, -8512.34895138132, 0.006625000000000001, -0.02775, 0.9884999999999999, 192.0, 0.0, 0.0, 0.0, 0.0, 0.0, 0.0, 0.0, 0.0, 0.0, 1.6444974660332558E9, 0.0, 2022-02-10 23:51:06.033
54.0, -9677.813610769941, -11536.42821746209, -6001.085758338661, -13852.180701754178, 63.925989142178196, -1102.365684791289, -1862.682624183014, -2883.0844620566922, -20725.16330780546, -16818.81598458481, -22370.698734605165, -12807.080186257386, -7140.398876714573, -11702.50167876502, -4971.162077327022, -8506.716311778584, 0.006625000000000001, -0.02775, 0.9884999999999999, 192.0, 0.0, 0.0, 0.0, 0.0, 0.0, 0.0, 0.0, 0.0, 0.0, 1.6444974660332637E9, 0.0, 2022-02-10 23:51:06.033
56.0, -9684.943817251184, -11537.299935495847, -6007.545412486245, -13841.653030115729, 52.79482040343528, -1117.7660367209955, -1878.8429354242012, -2896.6743226855187, -20724.15747930497, -16796.08426047376, -22377.448961430666, -12800.195848965152, -7134.386257456095, -11727.110949410315, -4965.954120868936, -8508.68326529065, 0.0053125, -0.025875000000000002, 0.98925, 192.0, 0.0, 16.0, 127.5, 32.0, 15.0, 120.0, 0.0, 0.0, 0.0, 1.6444974660332704E9, 0.0, 2022-02-10 23:51:06.033
58.0, -9678.52886659251, -11528.33688596927, -6006.070197352195, -13837.227384713577, 62.85310540832346, -1110.8369959398503, -1863.979025361422, -2875.753089875351, -20717.317845501646, -16818.74892935144, -22376.75605735255, -12803.705072844634, -7125.400856185062, -11741.438417606167, -4971.4526500049415, -8504.838765244338, 0.0053125, -0.025875000000000002, 0.98925, 192.0, 0.0, 0.0, 0.0, 0.0, 0.0, 0.0, 0.0, 0.0, 0.0, 1.6444974660332773E9, 0.0, 2022-02-10 23:51:06.033
60.0, -9676.092526446882, -11533.634249405177, -6008.975924131385, -13840.580146381873, 46.71514591159176, -1117.1178361317916, -1889.8623454406675, -2890.706406915952, -20723.33046476012, -16817.98897003996, -22366.965993281126, -12798.9217995312, -7139.817731358735, -11724.026408675481, -4969.105716837134, -8506.001055956014, 0.0053125, -0.025875000000000002, 0.98925, 192.0, 0.0, 0.0, 0.0, 0.0, 0.0, 0.0, 0.0, 0.0, 0.0, 1.644497466033284E9, 0.0, 2022-02-10 23:51:06.033
62.0, -9689.436517886701, -11546.464150722522, -6024.532738272279, -13846.682172618172, 32.34297422682932, -1128.9866124375596, -1889.8846971851228, -2896.2943430297787, -20733.232287553823, -16822.05698753083, -22386.054383045957, -12805.694378101156, -7147.417324473539, -11730.553118056432, -4986.249504834354, -8508.929134479658, 0.0053125, -0.025875000000000002, 0.98925, 192.0, 0.0, 0.0, 0.0, 0.0, 0.0, 0.0, 0.0, 0.0, 0.0, 1.6444974660332909E9, 0.0, 2022-02-10 23:51:06.033
64.0, -9677.72420379212, -11536.830548862285, -6010.853470665631, -13845.83280632887, 52.75011691452467, -1123.8904147017497, -1886.7107494724692, -2901.703465187963, -20730.885354386017, -16816.6702171171, -22374.163254995736, -12800.508773387524, -7145.942109339489, -11735.448150092143, -4979.9016094090475, -8512.237192659044, 0.0053125, -0.025875000000000002, 0.98925, 192.0, 0.0, 0.0, 0.0, 0.0, 0.0, 0.0, 0.0, 0.0, 0.0, 1.6444974660332975E9, 0.0, 2022-02-10 23:51:06.033
66.0, -9683.803878283963, -11532.76253137142, -6020.107092870127, -13848.380905196776, 43.720012154580616, -1137.167350908202, -1897.5736972777484, -2908.6772094580188, -20729.119566574045, -16819.598295640742, -22380.62290914332, -12805.604971123335, -7142.4775889489165, -11732.721237268595, -4982.092080365668, -8516.506375850007, 0.00765625, -0.0229375, 0.989625, 192.0, 0.0, 40.0, 127.5, 48.0, 15.0, 120.0, 0.0, 0.0, 0.0, 1.6444974660333052E9, 0.0, 2022-02-10 23:51:06.033
68.0, -9672.985633967595, -11535.064761050317, -6011.278153810282, -13843.17294873869, 56.54991347192687, -1123.689249001652, -1872.293874298796, -2897.903668630561, -20727.130261317525, -16814.61385662721, -22379.81824634293, -12811.237610726073, -7141.471760448428, -11718.12554813928, -4985.735414711883, -8521.379056141264, 0.00765625, -0.0229375, 0.989625, 192.0, 0.0, 0.0, 0.0, 0.0, 0.0, 0.0, 0.0, 0.0, 0.0, 1.6444974660333133E9, 0.0, 2022-02-10 23:51:06.033
70.0, -9677.634796814298, -11539.602165174743, -6010.071159609694, -13840.40133242623, 50.42553549117273, -1131.4229525831881, -1889.102386129187, -2902.95516287746, -20726.794985150693, -16798.341786663746, -22369.51409214903, -12797.401880908237, -7133.022801044322, -11743.874757751795, -4983.634350733084, -8516.864003761293, 0.00765625, -0.0229375, 0.989625, 192.0, 0.0, 0.0, 0.0, 0.0, 0.0, 0.0, 0.0, 0.0, 0.0, 1.6444974660333235E9, 0.0, 2022-02-10 23:51:06.033
72.0, -9684.429727128712, -11552.119142069716, -6016.508462012824, -13838.50143414753, 51.61017794730401, -1122.3704960787888, -1885.6378657386144, -2891.8686976276276, -20727.599647951087, -16816.357292694724, -22379.684135876196, -12812.690474115667, -7129.334763209196, -11737.146882670748, -4988.663493235528, -8516.126396194268, 0.00765625, -0.0229375, 0.989625, 192.0, 0.0, 0.0, 0.0, 0.0, 0.0, 0.0, 0.0, 0.0, 0.0, 1.6444974660333304E9, 0.0, 2022-02-10 23:51:06.033
74.0, -9671.353956622357, -11539.311592496824, -6006.09254909665, -13838.769655080994, 59.00860536201065, -1112.1110453738029, -1876.3842435341173, -2889.3205987597225, -20722.86107812656, -16808.33301643527, -22370.117589249327, -12800.95580827663, -7138.118998780132, -11701.69701596463, -4980.035719875779, -8508.616210057284, 0.00765625, -0.0229375, 0.989625, 192.0, 0.0, 0.0, 0.0, 0.0, 0.0, 0.0, 0.0, 0.0, 0.0, 1.644497466033337E9, 0.0, 2022-02-10 23:51:06.033
76.0, -9690.06236673145, -11548.587566445776, -6017.804863191231, -13836.199204468634, 42.04363132043258, -1124.1809873796687, -1903.4522060694942, -2895.4226249960216, -20733.58991546511, -16805.203772211527, -22379.19239749818, -12802.587485621869, -7138.655440647059, -11706.301475322423, -4981.9579698989355, -8509.040893201935, 0.004828125, -0.02346875, 0.9928125, 192.0, 0.0, 8.0, 127.5, 32.0, 15.5, 16.0, 0.0, 0.0, 0.0, 1.6444974660333445E9, 0.0, 2022-02-10 23:51:06.033
78.0, -9677.612445069844, -11541.166787286615, -6018.922450413997, -13834.411064912209, 50.82786689136826, -1121.2752606004788, -1892.0304646528323, -2889.6782266710075, -20732.874659642537, -16817.98897003996, -22377.80658934195, -12800.620532109802, -7139.013068558344, -11740.3208303834, -4987.076519379201, -8512.483061848052, 0.004828125, -0.02346875, 0.9928125, 192.0, 0.0, 0.0, 0.0, 0.0, 0.0, 0.0, 0.0, 0.0, 0.0, 1.6444974660333512E9, 0.0, 2022-02-10 23:51:06.033
80.0, -9692.5881138549, -11545.5253774554, -6012.865127666608, -13841.965954538102, 40.54606444192701, -1127.9584321926156, -1890.6223047521478, -2897.6577994415525, -20737.836746911617, -16816.200830483536, -22373.224481728612, -12791.948055261142, -7147.551434940271, -11738.108007682325, -4983.053205377246, -8512.371303125776, 0.004828125, -0.02346875, 0.9928125, 192.0, 0.0, 0.0, 0.0, 0.0, 0.0, 0.0, 0.0, 0.0, 0.0, 1.644497466033358E9, 0.0, 2022-02-10 23:51:06.033
82.0, -9698.44427090219, -11556.701249683054, -6026.522043528801, -13841.563623137907, 27.716163124580756, -1131.9817461945709, -1897.6631042555696, -2900.116491331636, -20746.308058060178, -16819.106557262727, -22390.14475228128, -12814.925648561199, -7151.507693708861, -11745.148807185748, -4991.859792692637, -8520.507338107507, 0.004828125, -0.02346875, 0.9928125, 192.0, 0.0, 0.0, 0.0, 0.0, 0.0, 0.0, 0.0, 0.0, 0.0, 1.6444974660333648E9, 0.0, 2022-02-10 23:51:06.033
84.0, -9682.976863739117, -11550.979203102494, -6020.062389381217, -13839.842538814848, 33.304099238407524, -1127.9584321926156, -1885.7943279498015, -2883.4644417124323, -20741.413026024464, -16803.035652999362, -22379.035935286993, -12816.043235783964, -7148.221987273931, -11739.449112349643, -4989.781080458293, -8517.78042528396, 0.004828125, -0.02346875, 0.9928125, 192.0, 0.0, 0.0, 0.0, 0.0, 0.0, 0.0, 0.0, 0.0, 0.0, 1.644497466033372E9, 0.0, 2022-02-10 23:51:06.033
86.0, -9695.359730167358, -11561.283357296392, -6025.04682839475, -13837.205032969123, 23.20111074460873, -1127.2655281145012, -1903.4075025805835, -2889.7452819043738, -20740.451901012886, -16825.99089455496, -22384.37800221181, -12804.107404244829, -7164.18113281502, -11718.594934772842, -4992.306827581743, -8515.478195605063, 0.008, -0.022, 0.994, 192.0, 0.0, 32.0, 127.5, 40.0, 15.5, 8.0, 0.0, 0.0, 0.0, 1.644497466033379E9, 0.0, 2022-02-10 23:51:06.033
88.0, -9686.262570174047, -11532.740179626964, -6021.783473704276, -13831.661800344205, 48.16800930118672, -1128.6960397596408, -1871.4445080094945, -2886.6830929139965, -20738.127319589534, -16826.415577699612, -22387.484894691097, -12806.074357756897, -7153.541702454294, -11715.331580082368, -4992.485641537385, -8509.800852513416, 0.008, -0.022, 0.994, 192.0, 0.0, 0.0, 0.0, 0.0, 0.0, 0.0, 0.0, 0.0, 0.0, 1.6444974660333855E9, 0.0, 2022-02-10 23:51:06.033
90.0, -9694.577419111421, -11547.827607134297, -6020.934107414974, -13833.986381767558, 42.22244527607504, -1132.1829118946687, -1883.5591535042709, -2890.438185982488, -20736.160366077467, -16817.251362472936, -22374.252661973558, -12802.38631992177, -7149.294871007785, -11736.901013481738, -4977.621731474606, -8504.570544310875, 0.008, -0.022, 0.994, 192.0, 0.0, 0.0, 0.0, 0.0, 0.0, 0.0, 0.0, 0.0, 0.0, 1.6444974660333927E9, 0.0, 2022-02-10 23:51:06.033
92.0, -9690.889381276296, -11555.717772927019, -6028.265479596314, -13835.796873068437, 28.565529413882427, -1129.0983711598362, -1890.1529181185865, -2899.445938997977, -20740.094273101604, -16825.052121287838, -22387.417839457732, -12815.819718339411, -7152.357059998162, -11736.409275103722, -4986.495374023363, -8509.68909379114, 0.008, -0.022, 0.994, 192.0, 0.0, 0.0, 0.0, 0.0, 0.0, 0.0, 0.0, 0.0, 0.0, 1.6444974660333993E9, 0.0, 2022-02-10 23:51:06.033
94.0, -9676.472506102624, -11547.358220500735, -6019.794168447754, -13826.83382354186, 43.20592203210855, -1118.6601064992078, -1875.6466359670922, -2879.083499799192, -20735.288648043712, -16811.171687981092, -22372.37511543931, -12810.768224092511, -7154.435772232506, -11709.587181757353, -4982.27089432131, -8501.553058809408, 0.008, -0.022, 0.994, 192.0, 0.0, 0.0, 0.0, 0.0, 0.0, 0.0, 0.0, 0.0, 0.0, 1.6444974660334065E9, 0.0, 2022-02-10 23:51:06.033
96.0, -9692.25283768807, -11560.09871484026, -6027.52787202929, -13826.565602608396, 34.66755565018126, -1126.5502722919314, -1885.615513994159, -2883.2632760123347, -20738.30613354518, -16819.933571807574, -22374.81145558494, -12805.113232745318, -7146.053868061766, -11741.28195539498, -4980.750975698349, -8500.63663728674, 0.012, -0.024, 0.99, 192.0, 0.0, 48.0, 127.5, 32.0, 15.0, 120.0, 0.0, 0.0, 0.0, 1.6444974660334132E9, 0.0, 2022-02-10 23:51:06.033
98.0, -9689.503573120068, -11555.85188339375, -6023.862185938619, -13828.443149142642, 37.41682021818402, -1115.8884901867498, -1877.6582929680699, -2886.861906869639, -20735.02042711025, -16810.232914713968, -22385.13796152329, -12800.642883854258, -7142.209368015453, -11742.556004828932, -4985.780118200793, -8501.240134387033, 0.012, -0.024, 0.99, 192.0, 0.0, 0.0, 0.0, 0.0, 0.0, 0.0, 0.0, 0.0, 0.0, 1.64449746603342E9, 0.0, 2022-02-10 23:51:06.033
100.0, -9700.791204069998, -11569.754668444952, -6030.2547848528375, -13838.83671031436, 25.145712512220445, -1131.0876764163586, -1888.387130306617, -2905.3020960452673, -20744.43051152593, -16836.295048748856, -22379.348859709367, -12804.77795657849, -7164.918740382045, -11741.527824583987, -4984.5954757446625, -8507.364512367787, 0.012, -0.024, 0.99, 192.0, 0.0, 0.0, 0.0, 0.0, 0.0, 0.0, 0.0, 0.0, 0.0, 1.6444974660334268E9, 0.0, 2022-02-10 23:51:06.033
102.0, -9698.980712769117, -11569.061764366837, -6032.087627898172, -13834.232250956566, 21.07769502135456, -1129.4783508155765, -1901.038217668321, -2902.1952035659797, -20745.838671426616, -16836.563269682323, -22393.922197094227, -12820.602991652846, -7164.22583630393, -11751.988440989071, -4987.36709205712, -8517.691018306139, 0.012, -0.024, 0.99, 192.0, 0.0, 0.0, 0.0, 0.0, 0.0, 0.0, 0.0, 0.0, 0.0, 1.6444974660334356E9, 0.0, 2022-02-10 23:51:06.033
104.0, -9672.717413034132, -11555.494255482467, -6025.493863283857, -13829.605439854318, 38.73557314104714, -1121.5434815339424, -1875.713691200458, -2898.6189244531306, -20735.556868977175, -16823.554554409333, -22379.482970176097, -12802.38631992177, -7162.057717091766, -11733.190623902157, -4980.393347787064, -8507.766843767982, 0.012, -0.024, 0.99, 192.0, 0.0, 0.0, 0.0, 0.0, 0.0, 0.0, 0.0, 0.0, 0.0, 1.6444974660334425E9, 0.0, 2022-02-10 23:51:06.033
106.0, -9706.960285539662, -11564.144380586671, -6031.886462198075, -13835.282782945966, 23.312869466885267, -1132.3840775947665, -1892.298685586296, -2887.152479547558, -20733.58991546511, -16827.57786841129, -22379.95235680966, -12805.984950779075, -7156.268615277841, -11725.971010443094, -4978.202876830444, -8506.82807050086, 0.006, -0.026000000000000002, 0.99, 192.0, 0.0, 24.0, 127.5, 24.0, 15.0, 120.0, 0.0, 0.0, 0.0, 1.6444974660334492E9, 0.0, 2022-02-10 23:51:06.033
108.0, -9682.909808505752, -11549.99572634646, -6023.079874882684, -13828.644314842739, 44.27880576596329, -1122.2587373565123, -1892.0304646528323, -2884.2020492794572, -20736.473290499842, -16813.04923451534, -22387.462542946643, -12813.182212493684, -7151.1053623086655, -11732.520071568499, -4984.014330388824, -8505.732835022549, 0.006, -0.026000000000000002, 0.99, 192.0, 0.0, 0.0, 0.0, 0.0, 0.0, 0.0, 0.0, 0.0, 0.0, 1.644497466033456E9, 0.0, 2022-02-10 23:51:06.033
110.0, -9679.534695093, -11560.121066584716, -6025.784435961776, -13829.560736365407, 45.508151711005176, -1126.9973071810375, -1871.5339149873157, -2892.628656939108, -20726.99615085079, -16808.936513535562, -22371.14576949427, -12789.601122093336, -7145.070391305732, -11715.041007404448, -4973.397251772553, -8504.279971632955, 0.006, -0.026000000000000002, 0.99, 192.0, 0.0, 0.0, 0.0, 0.0, 0.0, 0.0, 0.0, 0.0, 0.0, 1.6444974660334628E9, 0.0, 2022-02-10 23:51:06.033
112.0, -9686.35197715187, -11555.360145015735, -6029.651287752544, -13824.486890374052, 37.68504115164771, -1133.9039962177274, -1877.9488656459887, -2899.9153256315385, -20727.264371784255, -16822.61578114221, -22389.071868547424, -12805.381453678781, -7155.396897244084, -11736.163405914713, -4973.598417472651, -8511.879564747758, 0.006, -0.026000000000000002, 0.99, 192.0, 0.0, 0.0, 0.0, 0.0, 0.0, 0.0, 0.0, 0.0, 0.0, 1.6444974660335116E9, 0.0, 2022-02-10 23:51:06.033
114.0, -9685.435555629201, -11564.412601520135, -6022.655191738033, -13822.341122906342, 38.646166163225914, -1121.4764263005766, -1876.138374345109, -2882.927999845505, -20728.136089818014, -16815.28440896087, -22372.464522417133, -12794.406747151226, -7152.5135222093495, -11744.969993230105, -4970.066841848712, -8501.44130008713, 0.006, -0.026000000000000002, 0.99, 192.0, 0.0, 0.0, 0.0, 0.0, 0.0, 0.0, 0.0, 0.0, 0.0, 1.6444974660335188E9, 0.0, 2022-02-10 23:51:06.033
116.0, -9706.043864016994, -11582.696328484575, -6034.76983723281, -13838.054399258424, 21.412971188184166, -1138.5978625533419, -1896.2549443548853, -2904.095101844681, -20739.758996934772, -16821.744063108454, -22378.678307375707, -12798.519468131002, -7150.658327419559, -11709.564830012898, -4981.041548376268, -8506.939829223136, 0.008, -0.024, 0.99, 192.0, 0.0, 32.0, 127.5, 32.0, 15.0, 120.0, 0.0, 0.0, 0.0, 1.6444974660335264E9, 0.0, 2022-02-10 23:51:06.033
118.0, -9704.658055860766, -11575.029680136406, -6029.807749963731, -13834.187547467656, 29.101971280809796, -1137.1226474192915, -1889.3482553181955, -2905.5479652342756, -20746.755092949283, -16827.890792833663, -22393.676327905217, -12814.165689249718, -7162.772972914336, -11744.455903107633, -4982.7179292104165, -8511.097253691823, 0.008, -0.024, 0.99, 192.0, 0.0, 0.0, 0.0, 0.0, 0.0, 0.0, 0.0, 0.0, 0.0, 1.6444974660335333E9, 0.0, 2022-02-10 23:51:06.033
120.0, -9717.39855020029, -11586.652587253164, -6031.3723720756025, -13842.524748149484, 27.582052657848916, -1148.879665002783, -1895.4502815544943, -2908.967782135938, -20746.129244104533, -16836.138586537672, -22379.75119110956, -12805.806136823432, -7157.65442343407, -11742.265432151013, -4977.331158796687, -8509.331465879854, 0.008, -0.024, 0.99, 192.0, 0.0, 0.0, 0.0, 0.0, 0.0, 0.0, 0.0, 0.0, 0.0, 1.6444974665131087E9, 0.0, 2022-02-10 23:51:06.513
122.0, -9733.02241957455, -11595.906209457662, -6044.381087348591, -13842.703562105127, 20.943584554622717, -1152.6571098157299, -1899.0265606673433, -2916.9697066509375, -20756.522805276254, -16844.788711641875, -22401.790011142497, -12826.705017889146, -7169.634958462115, -11759.722144570607, -4990.786908958782, -8518.11570145079, 0.008, -0.024, 0.99, 192.0, 0.0, 0.0, 0.0, 0.0, 0.0, 0.0, 0.0, 0.0, 0.0, 1.6444974665132532E9, 0.0, 2022-02-10 23:51:06.513
124.0, -9734.944669597706, -11605.718625273541, -6036.8261977226975, -13837.249736458032, 34.84636960582371, -1129.5454060489424, -1887.2918948283072, -2901.8822791436055, -20758.333296577133, -16842.732351151986, -22396.38088898431, -12816.691436373167, -7163.823504903735, -11749.663859565719, -4985.2436763338665, -8510.717274036084, 0.008, -0.024, 0.99, 192.0, 0.0, 0.0, 0.0, 0.0, 0.0, 0.0, 0.0, 0.0, 0.0, 1.64449746651326E9, 0.0, 2022-02-10 23:51:06.513
126.0, -9762.59377748892, -11631.579593608332, -6050.0360786957835, -13843.642335372251, 21.256508976997015, -1133.9486997066379, -1895.226764109941, -2901.6364099545967, -20761.5519477787, -16848.275583776904, -22404.405165243767, -12818.792500351967, -7159.531969968316, -11717.969085928093, -4980.952141398447, -8509.309114135398, 0.006, -0.022, 0.99, 192.0, 0.0, 24.0, 127.5, 40.0, 15.0, 120.0, 0.0, 0.0, 0.0, 1.6444974665132666E9, 0.0, 2022-02-10 23:51:06.513
128.0, -9793.282722626058, -11661.240358500525, -6052.29360488577, -13843.68703886116, 21.189453743631095, -1134.0828101733698, -1889.8623454406675, -2892.896877872572, -20771.118494405568, -16855.204624558046, -22422.82300267494, -12832.605878425346, -7158.481437978917, -11747.51809209801, -4982.561466999229, -8506.87277398977, 0.006, -0.022, 0.99, 192.0, 0.0, 0.0, 0.0, 0.0, 0.0, 0.0, 0.0, 0.0, 0.0, 1.6444974665132732E9, 0.0, 2022-02-10 23:51:06.513
130.0, -9823.971667763195, -11699.484193263555, -6047.018593194318, -13850.325506964387, 18.730761853547317, -1137.9049584752272, -1905.8661944706673, -2909.258354813857, -20796.241855173335, -16879.18804635859, -22427.53922075501, -12845.614593698336, -7174.552342242282, -11741.930155984182, -4980.885086165081, -8509.756149024504, 0.006, -0.022, 0.99, 192.0, 0.0, 0.0, 0.0, 0.0, 0.0, 0.0, 0.0, 0.0, 0.0, 1.64449746651328E9, 0.0, 2022-02-10 23:51:06.513
132.0, -9851.509016932132, -11719.667818506698, -6050.639575796077, -13842.681210360672, 18.149616497709335, -1139.4919323315542, -1887.873040184145, -2898.6412761975857, -20794.319605150176, -16888.374613329725, -22440.547936027997, -12852.186006568196, -7164.359946770662, -11733.74941751354, -4985.757766456338, -8510.516108335985, 0.006, -0.022, 0.99, 192.0, 0.0, 0.0, 0.0, 0.0, 0.0, 0.0, 0.0, 0.0, 0.0, 1.6444974665132864E9, 0.0, 2022-02-10 23:51:06.513
134.0, -9859.265072258124, -11739.963202472116, -6048.560863561734, -13842.591803382851, 27.55970091339361, -1127.399638581233, -1877.010092378866, -2882.503316700854, -20805.40607040001, -16884.463058050045, -22440.570287772454, -12844.944041364675, -7172.7642026858575, -11728.98849594456, -4975.766536684816, -8502.514183820986, 0.006, -0.022, 0.99, 192.0, 0.0, 0.0, 0.0, 0.0, 0.0, 0.0, 0.0, 0.0, 0.0, 1.6444974665133016E9, 0.0, 2022-02-10 23:51:06.513
136.0, -9886.891828404883, -11742.600708317841, -6059.848494511663, -13845.206957484123, 12.516976894971956, -1147.7620777800178, -1887.6048192506814, -2896.2943430297787, -20812.44686990343, -16892.73320349851, -22449.376875087844, -12858.556253737957, -7174.865266664657, -11751.608461333331, -4972.726699438894, -8506.425739100665, 0.012, -0.016, 0.99, 192.0, 0.0, 48.0, 127.5, 64.0, 15.0, 120.0, 0.0, 0.0, 0.0, 1.644497466513308E9, 0.0, 2022-02-10 23:51:06.513
138.0, -9878.509924234144, -11755.430609635188, -6056.406325865546, -13843.329410949877, 22.239985733030526, -1143.6046533113306, -1885.5931622497037, -2887.443052225477, -20810.03288150226, -16885.737107483998, -22456.3506193579, -12857.438666515192, -7175.357005042673, -11758.313984669923, -4975.922998896003, -8504.883468733247, 0.012, -0.016, 0.99, 192.0, 0.0, 0.0, 0.0, 0.0, 0.0, 0.0, 0.0, 0.0, 0.0, 1.6444974665133145E9, 0.0, 2022-02-10 23:51:06.513
140.0, -9874.553665465553, -11744.925289741193, -6054.394668864568, -13842.569451638396, 25.726857868058428, -1144.4093161117216, -1891.0693396412541, -2895.1097005736474, -20805.07079423318, -16890.699194753077, -22442.000799417594, -12840.741913407079, -7168.718536939447, -11754.84946427935, -4969.93273138198, -8508.124471679268, 0.012, -0.016, 0.99, 192.0, 0.0, 0.0, 0.0, 0.0, 0.0, 0.0, 0.0, 0.0, 0.0, 1.6444974665133212E9, 0.0, 2022-02-10 23:51:06.513
142.0, -9865.680022916797, -11729.614344789308, -6051.019555451818, -13837.182681224667, 16.875567063756833, -1139.9836707095708, -1890.197621607497, -2898.7083314309516, -20808.848239046125, -16880.506799281455, -22444.928877941238, -12836.15980579374, -7168.5397229838045, -11728.474405822088, -4978.091118108167, -8509.309114135398, 0.012, -0.016, 0.99, 192.0, 0.0, 0.0, 0.0, 0.0, 0.0, 0.0, 0.0, 0.0, 0.0, 1.6444974665133286E9, 0.0, 2022-02-10 23:51:06.513
144.0, -9828.084388742971, -11706.323827066879, -6043.4646658259235, -13831.59474511084, 37.640337662737096, -1133.524016561987, -1873.2549993103744, -2887.7112731589405, -20786.295328890723, -16861.95485138355, -22432.456604535175, -12829.096654545863, -7159.666080435048, -11736.65514429273, -4968.770440670305, -8499.787270997438, 0.012, -0.016, 0.99, 192.0, 0.0, 0.0, 0.0, 0.0, 0.0, 0.0, 0.0, 0.0, 0.0, 1.644497466513336E9, 0.0, 2022-02-10 23:51:06.513
146.0, -9837.13684524737, -11693.471574005078, -6047.666793783521, -13834.567527123396, 28.587881158337733, -1140.65422304323, -1875.333711544718, -2896.4508052409656, -20788.530503336253, -16871.364935799236, -22423.78412768652, -12829.521337690514, -7167.377432272128, -11736.74455127055, -4965.730603424383, -8503.63177104375, 0.012, -0.022, 0.99, 192.0, 0.0, 48.0, 127.5, 40.0, 15.0, 120.0, 0.0, 0.0, 0.0, 1.644497466513343E9, 0.0, 2022-02-10 23:51:06.513
148.0, -9811.924077501784, -11667.945881837117, -6032.221738364904, -13833.584050367363, 34.10876203879858, -1129.6348130267636, -1870.5727899757374, -2877.2059532649464, -20778.427514842453, -16867.67689796411, -22422.085395107915, -12827.82260511191, -7158.906121123568, -11719.690170251151, -4970.536228482274, -8501.195430898122, 0.012, -0.022, 0.99, 192.0, 0.0, 0.0, 0.0, 0.0, 0.0, 0.0, 0.0, 0.0, 0.0, 1.6444974665133495E9, 0.0, 2022-02-10 23:51:06.513
150.0, -9797.574257561477, -11666.962405081083, -6038.010840178828, -13837.83088181387, 39.294366752429816, -1142.7776387664842, -1875.1548975890755, -2887.2865900142897, -20770.045610671714, -16853.371781512713, -22403.287578021, -12813.58454389388, -7155.642766433092, -11727.714446510607, -4960.500295221841, -8502.91651522118, 0.012, -0.022, 0.99, 192.0, 0.0, 0.0, 0.0, 0.0, 0.0, 0.0, 0.0, 0.0, 0.0, 1.6444974665133564E9, 0.0, 2022-02-10 23:51:06.513
152.0, -9778.441164307735, -11638.575689622843, -6041.542415802767, -13835.014562012502, 27.135017768742774, -1136.1838741521685, -1888.1636128620642, -2899.736511675896, -20772.43724732843, -16840.00543832844, -22417.100956094382, -12817.473747429103, -7158.481437978917, -11728.586164544364, -4966.825838902693, -8509.644390302228, 0.012, -0.022, 0.99, 192.0, 0.0, 0.0, 0.0, 0.0, 0.0, 0.0, 0.0, 0.0, 0.0, 1.6444974665133634E9, 0.0, 2022-02-10 23:51:06.513
154.0, -9747.841626148418, -11619.934334747117, -6027.974906918395, -13824.084558973856, 35.56162542839353, -1122.3257925898781, -1876.2724848118407, -2893.5897819506863, -20749.9960958953, -16825.5215079214, -22397.92315935173, -12797.021901252498, -7154.256958276864, -11725.3675133428, -4965.015347601813, -8505.799890255916, 0.012, -0.020999999999999998, 0.994, 192.0, 0.0, 48.0, 127.5, 48.0, 15.5, 24.0, 0.0, 0.0, 0.0, 1.64449746651337E9, 0.0, 2022-02-10 23:51:06.513
156.0, -9760.291547810024, -11618.123843446238, -6041.855340225142, -13830.678323588172, 20.340087454329428, -1130.8641589718056, -1877.0324441233213, -2893.2321540394014, -20747.000962138292, -16831.020037057406, -22390.211807514646, -12786.918912758698, -7142.119961037632, -11712.068225391893, -4958.153362054034, -8504.592896055328, 0.012, -0.020999999999999998, 0.994, 192.0, 0.0, 0.0, 0.0, 0.0, 0.0, 0.0, 0.0, 0.0, 0.0, 1.6444974665133765E9, 0.0, 2022-02-10 23:51:06.513
158.0, -9744.622974946855, -11604.802203750874, -6041.944747202962, -13834.12049223429, 22.463503177583597, -1124.3821530797666, -1883.0227116373435, -2884.827898124206, -20753.572375008152, -16837.18911852707, -22404.62868268832, -12802.118098988307, -7157.095629822687, -11723.154690641724, -4967.071708091701, -8503.654122788206, 0.012, -0.020999999999999998, 0.994, 192.0, 0.0, 0.0, 0.0, 0.0, 0.0, 0.0, 0.0, 0.0, 0.0, 1.644497466513383E9, 0.0, 2022-02-10 23:51:06.513
160.0, -9727.45683520518, -11588.105450642759, -6033.786360476775, -13839.59666962584, 22.329392710851756, -1124.493911802043, -1893.9974181648993, -2898.1718895640242, -20746.196299337902, -16823.934534065073, -22382.90278707776, -12786.29306391395, -7160.426039746528, -11705.765033455496, -4959.047431832246, -8500.837802986838, 0.012, -0.020999999999999998, 0.994, 192.0, 0.0, 0.0, 0.0, 0.0, 0.0, 0.0, 0.0, 0.0, 0.0, 1.64449746651339E9, 0.0, 2022-02-10 23:51:06.513
162.0, -9724.729922381632, -11604.802203750874, -6034.635726766077, -13838.434378914164, 31.04657304842151, -1130.4171240826993, -1852.8255048782237, -2894.57325870672, -20744.743435948305, -16812.311626948314, -22395.978557584116, -12792.8197732949, -7153.988737343399, -11706.055606133415, -4960.097963821646, -8511.656047303206, 0.012, -0.020999999999999998, 0.994, 192.0, 0.0, 0.0, 0.0, 0.0, 0.0, 0.0, 0.0, 0.0, 0.0, 1.6444974665133965E9, 0.0, 2022-02-10 23:51:06.513
164.0, -9706.088567505905, -11592.307578600357, -6027.818444707209, -13835.059265501413, 35.49457019502761, -1121.4317228116658, -1859.5086764703606, -2861.0456420237592, -20734.01459860976, -16815.46322291651, -22384.802685356462, -12781.666252811701, -7149.965423341445, -11720.405426073721, -4953.347736996143, -8500.457823331097, 0.012, -0.020499999999999997, 0.994, 192.0, 0.0, 48.0, 127.5, 48.0, 15.5, 8.0, 0.0, 0.0, 0.0, 1.644497466513403E9, 0.0, 2022-02-10 23:51:06.513
166.0, -9715.319837965946, -11583.121011629226, -6034.166340132516, -13842.703562105127, 22.038820032932765, -1126.8631967143056, -1863.1520108165755, -2883.576200434709, -20730.14774681899, -16824.13569976517, -22379.95235680966, -12776.39124112025, -7148.356097740662, -11706.502641022522, -4955.784077141771, -8498.736739008038, 0.012, -0.020499999999999997, 0.994, 192.0, 0.0, 0.0, 0.0, 0.0, 0.0, 0.0, 0.0, 0.0, 0.0, 1.6444974665134115E9, 0.0, 2022-02-10 23:51:06.513
168.0, -9705.954457039174, -11562.579758474798, -6031.037095908773, -13841.1165882488, 27.649107891214836, -1131.3111938609118, -1860.9838916044107, -2884.805546379751, -20736.652104455487, -16831.131795779682, -22388.490723191586, -12792.931532017175, -7153.27348152083, -11726.619211032297, -4967.943426125458, -8505.285800133444, 0.012, -0.020499999999999997, 0.994, 192.0, 0.0, 0.0, 0.0, 0.0, 0.0, 0.0, 0.0, 0.0, 0.0, 1.644497466513418E9, 0.0, 2022-02-10 23:51:06.513
170.0, -9697.259628446058, -11568.257101566447, -6030.947688930952, -13837.964992280602, 23.82695958935733, -1137.6143857973082, -1876.5630574897598, -2896.026122096315, -20729.700711929883, -16807.349539679235, -22367.03304851449, -12786.695395314146, -7142.2987749932745, -11722.88646970826, -4967.071708091701, -8505.799890255916, 0.012, -0.020499999999999997, 0.994, 192.0, 0.0, 0.0, 0.0, 0.0, 0.0, 0.0, 0.0, 0.0, 0.0, 1.6444974665134249E9, 0.0, 2022-02-10 23:51:06.513
172.0, -9699.025416258028, -11579.075345882815, -6032.936994187474, -13835.372189923786, 10.66178210518147, -1139.55898756492, -1878.977045890933, -2903.5139564888427, -20731.622961953042, -16821.878173575184, -22395.777391884018, -12785.57780809138, -7166.505714238372, -11736.766903015006, -4980.482754764886, -8513.824166515371, 0.012, -0.020499999999999997, 0.994, 192.0, 0.0, 0.0, 0.0, 0.0, 0.0, 0.0, 0.0, 0.0, 0.0, 1.6444974665134313E9, 0.0, 2022-02-10 23:51:06.513
174.0, -9684.67559631772, -11571.743973701476, -6018.006028891329, -13832.511166633507, 32.32062248237401, -1127.4890455590541, -1872.3832812766173, -2891.444014482977, -20731.980589864324, -16818.838336329263, -22379.840598087383, -12775.363060875305, -7156.268615277841, -11726.03806567646, -4975.163039584522, -8509.599686813317, 0.01, -0.020249999999999997, 0.994, 192.0, 0.0, 32.0, 127.5, 48.0, 15.5, 8.0, 0.0, 0.0, 0.0, 1.6444974665134377E9, 0.0, 2022-02-10 23:51:06.513
176.0, -9696.745538323587, -11569.95583414505, -6026.522043528801, -13840.535442892962, 19.423665931661837, -1146.4433248571545, -1889.7952902073016, -2917.014410139848, -20729.3430840186, -16809.428251913578, -22372.263356717034, -12773.8654939968, -7150.501865208372, -11727.021542432492, -4972.525533738796, -8516.931058994658, 0.01, -0.020249999999999997, 0.994, 192.0, 0.0, 0.0, 0.0, 0.0, 0.0, 0.0, 0.0, 0.0, 0.0, 1.6444974665134444E9, 0.0, 2022-02-10 23:51:06.513
178.0, -9703.942800038196, -11573.733278957998, -6033.7193052434095, -13845.07284701739, 11.019410016466383, -1141.6153480548082, -1901.7534734908909, -2920.5459857637866, -20741.793005680207, -16821.98993229746, -22388.691888891684, -12788.997624993042, -7162.348289769685, -11716.359760327312, -4989.6469699915615, -8522.228422430566, 0.01, -0.020249999999999997, 0.994, 192.0, 0.0, 0.0, 0.0, 0.0, 0.0, 0.0, 0.0, 0.0, 0.0, 1.6444974665134509E9, 0.0, 2022-02-10 23:51:06.513
180.0, -9701.193535470193, -11573.040374879882, -6035.239223866371, -13854.125303521789, 14.059247262388142, -1148.7679062805064, -1901.1723281350528, -2912.76757869334, -20745.413988281965, -16824.783900354374, -22379.57237715392, -12782.739136545557, -7159.219045545941, -11721.120681896291, -4994.027911904802, -8525.089445720845, 0.01, -0.020249999999999997, 0.994, 192.0, 0.0, 0.0, 0.0, 0.0, 0.0, 0.0, 0.0, 0.0, 0.0, 1.6444974665134573E9, 0.0, 2022-02-10 23:51:06.513
182.0, -9707.049692517483, -11573.420354535623, -6044.515197815323, -13841.675381860183, 7.778407070446858, -1156.5463133509534, -1889.5717727627484, -2914.24279382739, -20748.990267394813, -16831.243554501958, -22395.79974362847, -12795.680796585179, -7170.37256602914, -11750.669688066208, -4994.363188071631, -8529.380980656264, 0.01, -0.020249999999999997, 0.994, 192.0, 0.0, 0.0, 0.0, 0.0, 0.0, 0.0, 0.0, 0.0, 0.0, 1.644497466513464E9, 0.0, 2022-02-10 23:51:06.513
184.0, -9681.792221282985, -11561.059839851838, -6032.7805319762865, -13837.473253902586, 25.41393344568413, -1139.044897442448, -1879.0664528687541, -2901.837575654695, -20739.513127745766, -16824.918010821108, -22391.70937439315, -12792.238627939061, -7164.963443870955, -11724.384036586767, -4984.729586211394, -8519.97089624058, 0.008, -0.021124999999999998, 0.993, 192.0, 0.0, 24.0, 127.5, 40.0, 15.5, 0.0, 0.0, 0.0, 0.0, 1.6444974665134704E9, 0.0, 2022-02-10 23:51:06.513
186.0, -9701.595866870388, -11566.714831199031, -6042.548244303256, -13840.468387659597, 9.723008838058572, -1149.1478859362467, -1890.1752698630416, -2926.2903840888007, -20739.736645190318, -16819.732406107476, -22388.177798769215, -12788.48353487057, -7162.5494554697825, -11733.078865179881, -4979.767498942316, -8521.73668405255, 0.008, -0.021124999999999998, 0.993, 192.0, 0.0, 0.0, 0.0, 0.0, 0.0, 0.0, 0.0, 0.0, 0.0, 1.644497466513477E9, 0.0, 2022-02-10 23:51:06.513
188.0, -9686.933122507706, -11569.5311510004, -6040.4695320689125, -13832.68998058915, 10.72883733854739, -1150.8242667703948, -1885.2802378273295, -2920.8812619306163, -20741.81535742466, -16820.537068907866, -22397.207903529157, -12788.394127892749, -7163.532932225816, -11758.2245776921, -4993.066786893223, -8526.318791665888, 0.008, -0.021124999999999998, 0.993, 192.0, 0.0, 0.0, 0.0, 0.0, 0.0, 0.0, 0.0, 0.0, 0.0, 1.6444974665134835E9, 0.0, 2022-02-10 23:51:06.513
190.0, -9687.06723297444, -11566.603072476753, -6038.994316934863, -13839.663724859205, 8.82893905984629, -1148.365574880311, -1873.6126272216593, -2903.312790788745, -20735.534517232718, -16814.546801393844, -22376.443132930177, -12777.173552176184, -7160.470743235439, -11755.050629979449, -4986.383615301087, -8518.20510842861, 0.008, -0.021124999999999998, 0.993, 192.0, 0.0, 0.0, 0.0, 0.0, 0.0, 0.0, 0.0, 0.0, 0.0, 1.6444974665134902E9, 0.0, 2022-02-10 23:51:06.513
192.0, -9695.940875523196, -11552.90145312565, -6050.013726951329, -13842.100065004834, -2.0340087454329425, -1142.1070864328249, -1888.7894617068127, -2919.607212496664, -20741.658895213473, -16814.926781049584, -22400.29244426399, -12798.29595068645, -7157.833237389713, -11732.453016335132, -4992.396234559565, -8520.328524151864, 0.008, -0.021124999999999998, 0.993, 192.0, 0.0, 0.0, 0.0, 0.0, 0.0, 0.0, 0.0, 0.0, 0.0, 1.6444974665134969E9, 0.0, 2022-02-10 23:51:06.513
194.0, -9678.841791014886, -11562.713868941531, -6037.161473889527, -13834.858099801315, 16.67440136365907, -1136.8991299747383, -1879.714653457958, -2905.436206511999, -20737.188546322413, -16813.876249060184, -22386.90374933526, -12789.24349418205, -7164.114077581654, -11739.493815838554, -4989.378749058098, -8512.68422754815, 0.008, -0.0215625, 0.9944999999999999, 192.0, 0.0, 32.0, 127.5, 40.0, 15.5, 16.0, 0.0, 0.0, 0.0, 1.6444974665135033E9, 0.0, 2022-02-10 23:51:06.513
196.0, -9693.549238866477, -11556.120104327216, -6047.264462383326, -13838.233213214065, -1.8328430453351792, -1152.7018133046406, -1895.5173367878601, -2921.082427630714, -20742.754130691785, -16821.47584217499, -22391.619967415332, -12784.90725575772, -7157.006222844866, -11740.164368172213, -4985.824821689704, -8513.354779881809, 0.008, -0.0215625, 0.9944999999999999, 192.0, 0.0, 0.0, 0.0, 0.0, 0.0, 0.0, 0.0, 0.0, 0.0, 1.6444974665135098E9, 0.0, 2022-02-10 23:51:06.513
198.0, -9683.133325950304, -11558.869368895217, -6044.135218159583, -13834.1651957232, 5.297363435907774, -1149.2149411696125, -1886.9342669170223, -2922.62469799813, -20741.81535742466, -16818.14543225115, -22402.661729176252, -12797.379529163782, -7169.724365439936, -11732.765940757507, -4992.597400259662, -8522.809567786404, 0.008, -0.0215625, 0.9944999999999999, 192.0, 0.0, 0.0, 0.0, 0.0, 0.0, 0.0, 0.0, 0.0, 0.0, 1.644497466513518E9, 0.0, 2022-02-10 23:51:06.513
200.0, -9691.336416165403, -11563.496179997466, -6046.325689116203, -13840.31192544841, 4.492700635516719, -1148.0973539468473, -1894.2432873539076, -2922.982325909415, -20737.233249811325, -16818.61481888471, -22383.10395277786, -12787.589465092358, -7167.332728783218, -11736.498682081543, -4985.333083311687, -8518.674495062172, 0.008, -0.0215625, 0.9944999999999999, 192.0, 0.0, 0.0, 0.0, 0.0, 0.0, 0.0, 0.0, 0.0, 0.0, 1.6444974665135248E9, 0.0, 2022-02-10 23:51:06.513
202.0, -9696.276151690025, -11572.414526035134, -6051.690107785476, -13843.68703886116, -6.750226825502733, -1150.913673748216, -1903.809833980779, -2931.6548027580743, -20746.86685167156, -16832.09292079126, -22401.275921020024, -12800.06173849842, -7172.786554430313, -11738.89031873826, -4994.027911904802, -8524.77652129847, 0.008, -0.0215625, 0.9944999999999999, 192.0, 0.0, 0.0, 0.0, 0.0, 0.0, 0.0, 0.0, 0.0, 0.0, 1.6444974665135312E9, 0.0, 2022-02-10 23:51:06.513
204.0, -9679.512343348544, -11545.927708855595, -6040.178959390993, -13838.143806236245, 8.091331492821157, -1142.7776387664842, -1870.3716242756398, -2923.697581731985, -20736.406235266477, -16815.150298494136, -22387.171970268726, -12795.703148329634, -7162.191827558498, -11743.651240307241, -4990.27281883631, -8522.518995108485, 0.007, -0.02178125, 0.99225, 192.0, 0.0, 24.0, 127.5, 40.0, 15.0, 120.0, 0.0, 0.0, 0.0, 1.6444974665135376E9, 0.0, 2022-02-10 23:51:06.513
206.0, -9696.544372623488, -11560.724563685008, -6049.030250195295, -13841.988306282557, -3.7327413240362795, -1151.4724673595986, -1901.775825235346, -2918.377866551622, -20741.3459707911, -16820.09003401876, -22387.82017085793, -12786.58363659187, -7165.477533993428, -11756.034106735482, -4983.299074566255, -8520.172061940679, 0.007, -0.02178125, 0.99225, 192.0, 0.0, 0.0, 0.0, 0.0, 0.0, 0.0, 0.0, 0.0, 0.0, 1.6444974665135443E9, 0.0, 2022-02-10 23:51:06.513
208.0, -9689.81649754244, -11547.313517011824, -6046.348040860658, -13842.614155127307, -2.793968056913383, -1138.329641619878, -1898.8030432227904, -2932.8394452142056, -20744.96695339286, -16821.56524915281, -22400.605368686363, -12797.334825674872, -7174.909970153567, -11723.467615064099, -4995.503127038852, -8526.788178299448, 0.007, -0.02178125, 0.99225, 192.0, 0.0, 0.0, 0.0, 0.0, 0.0, 0.0, 0.0, 0.0, 0.0, 1.6444974665135508E9, 0.0, 2022-02-10 23:51:06.513
210.0, -9679.042956714984, -11553.706115926041, -6043.822293737208, -13843.93290805017, -10.415912916173092, -1153.461772616121, -1876.5407057453044, -2916.9473549064824, -20745.30222955969, -16820.268847974403, -22393.050479060472, -12793.378566906282, -7180.676720223037, -11741.79604551745, -4990.563391514229, -8523.837748031348, 0.007, -0.02178125, 0.99225, 192.0, 0.0, 0.0, 0.0, 0.0, 0.0, 0.0, 0.0, 0.0, 0.0, 1.6444974665135572E9, 0.0, 2022-02-10 23:51:06.513
212.0, -9690.86702953184, -11565.977223632006, -6056.205160165448, -13843.575280138884, -16.875567063756833, -1160.7037378196405, -1886.911915172567, -2925.15044512158, -20746.419816782454, -16824.180403254082, -22405.67921467772, -12801.291084443461, -7181.883714423623, -11768.439324908177, -4990.205763602944, -8529.82801554537, 0.007, -0.02178125, 0.99225, 192.0, 0.0, 0.0, 0.0, 0.0, 0.0, 0.0, 0.0, 0.0, 0.0, 1.644497466513564E9, 0.0, 2022-02-10 23:51:06.513
214.0, -9692.29754117698, -11552.700287425552, -6045.118694915616, -13845.251660973032, 0.24586918900837768, -1142.978804466582, -1879.0664528687541, -2920.925965419527, -20745.995133637804, -16826.415577699612, -22392.62579591582, -12801.536953632469, -7188.365720315662, -11750.356763643833, -4989.378749058098, -8526.564660854896, 0.006500000000000001, -0.019890625000000002, 0.993125, 192.0, 0.0, 24.0, 127.5, 56.0, 15.5, 8.0, 0.0, 0.0, 0.0, 1.6444974665135708E9, 0.0, 2022-02-10 23:51:06.513
216.0, -9701.573515125932, -11556.835360149786, -6055.914587487529, -13848.246794730043, -11.287630949930067, -1158.1556389517355, -1896.6349240106256, -2932.3030033472783, -20747.269183071756, -16829.09778703425, -22390.614138914843, -12790.830468038377, -7185.638807492114, -11759.18570270368, -4987.7694234573155, -8528.196338200134, 0.006500000000000001, -0.019890625000000002, 0.993125, 192.0, 0.0, 0.0, 0.0, 0.0, 0.0, 0.0, 0.0, 0.0, 0.0, 1.6444974665135772E9, 0.0, 2022-02-10 23:51:06.513
218.0, -9677.813610769941, -11545.055990821838, -6050.214892651426, -13842.703562105127, -2.6822093346368474, -1154.1546766942354, -1898.8924502006116, -2925.016334654848, -20741.56948823565, -16826.437929444066, -22402.2370460316, -12799.413537909215, -7170.685490451514, -11757.889301525272, -4994.206725860444, -8526.095274221334, 0.006500000000000001, -0.019890625000000002, 0.993125, 192.0, 0.0, 0.0, 0.0, 0.0, 0.0, 0.0, 0.0, 0.0, 0.0, 1.6444974665135856E9, 0.0, 2022-02-10 23:51:06.513
220.0, -9677.880666003308, -11539.222185519004, -6046.7503722608535, -13851.040762786957, 6.8172820588686545, -1140.4754090875876, -1863.1967143054862, -2918.9366601630045, -20732.91936313145, -16811.909295548117, -22385.04855454547, -12790.249322682539, -7177.212199832464, -11740.521996083498, -4980.79567918726, -8523.390713142242, 0.006500000000000001, -0.019890625000000002, 0.993125, 192.0, 0.0, 0.0, 0.0, 0.0, 0.0, 0.0, 0.0, 0.0, 0.0, 1.644497466513608E9, 0.0, 2022-02-10 23:51:06.513
222.0, -9687.849544030374, -11549.90631936864, -6052.584177563689, -13843.552928394429, 6.951392525600497, -1149.7737347809953, -1879.5805429912261, -2925.7762939663285, -20734.305171287677, -16818.413653184612, -22398.52665645202, -12803.883886800277, -7175.066432364754, -11741.728990284086, -4979.476926264397, -8525.49177712104, 0.006500000000000001, -0.019890625000000002, 0.993125, 192.0, 0.0, 0.0, 0.0, 0.0, 0.0, 0.0, 0.0, 0.0, 0.0, 1.6444974665136268E9, 0.0, 2022-02-10 23:51:06.513
224.0, -9664.447267585667, -11532.628420904688, -6039.709572757432, -13828.68901833165, 22.619965388770748, -1137.0555921859257, -1871.6456737095923, -2912.275840315323, -20730.594781708096, -16814.077414760282, -22385.450885945666, -12779.028746965974, -7160.18017055752, -11730.843690734351, -4977.666434963517, -8515.612306071795, 0.006, -0.016, 0.996, 192.0, 0.0, 24.0, 127.5, 64.0, 15.5, 16.0, 0.0, 0.0, 0.0, 1.6444974665136335E9, 0.0, 2022-02-10 23:51:06.513
226.0, -9676.472506102624, -11541.055028564338, -6040.156607646538, -13828.241983442544, 16.58499438583784, -1145.2586824010232, -1876.5630574897598, -2930.760732979862, -20729.09721482959, -16805.337882678257, -22373.313888706434, -12770.646842795235, -7165.678699693525, -11758.47044688111, -4975.341853540165, -8513.444186859631, 0.006, -0.016, 0.996, 192.0, 0.0, 0.0, 0.0, 0.0, 0.0, 0.0, 0.0, 0.0, 0.0, 1.64449746651364E9, 0.0, 2022-02-10 23:51:06.513
228.0, -9672.426840356213, -11535.221223261504, -6038.7037442569435, -13825.671532830183, 19.960107798589206, -1133.3899060952551, -1878.909990657567, -2910.7782734368175, -20727.286723528712, -16814.792670582854, -22380.131170765304, -12789.221142437595, -7154.838103632701, -11753.41895263421, -4976.012405873824, -8515.45584386061, 0.006, -0.016, 0.996, 192.0, 0.0, 0.0, 0.0, 0.0, 0.0, 0.0, 0.0, 0.0, 0.0, 1.6444974665136466E9, 0.0, 2022-02-10 23:51:06.513
230.0, -9664.916654219229, -11529.365066214212, -6034.3675058326135, -13827.906707275713, 20.183625243142277, -1124.3374495908558, -1885.2802378273295, -2925.6421834995967, -20727.82316539564, -16807.729519334975, -22368.575318881907, -12775.631281808768, -7149.6972024079805, -11750.557929343931, -4975.69948145145, -8512.326599636865, 0.006, -0.016, 0.996, 192.0, 0.0, 0.0, 0.0, 0.0, 0.0, 0.0, 0.0, 0.0, 0.0, 1.6444974665136547E9, 0.0, 2022-02-10 23:51:06.513
232.0, -9680.875799760319, -11543.71488615452, -6048.359697861636, -13834.20989921211, 5.342066924818388, -1130.9312142051715, -1881.2792755698295, -2910.6888664589965, -20732.807604409172, -16801.068699487292, -22384.08742953389, -12791.232799438572, -7163.331766525718, -11743.114798440314, -4982.963798399424, -8511.96897172558, 0.006, -0.016, 0.996, 192.0, 0.0, 0.0, 0.0, 0.0, 0.0, 0.0, 0.0, 0.0, 0.0, 1.6444974665136614E9, 0.0, 2022-02-10 23:51:06.513
234.0, -9662.860293729342, -11547.514682711922, -6043.419962337013, -13835.64041085725, 9.544194882416116, -1118.5706995213866, -1876.3395400452066, -2904.676247200519, -20739.557831234673, -16823.442795687057, -22392.044650559983, -12787.72357555909, -7167.757411927869, -11750.669688066208, -4987.232981590389, -8512.281896147955, 0.008, -0.016, 0.992, 192.0, 0.0, 32.0, 127.5, 64.0, 15.5, 0.0, 0.0, 0.0, 0.0, 1.644497466513668E9, 0.0, 2022-02-10 23:51:06.513
236.0, -9680.205247426658, -11539.065723307816, -6051.801866507753, -13839.93194579267, -7.599593114804401, -1138.7990282534395, -1892.4327960530277, -2920.993020652893, -20739.736645190318, -16820.17944099658, -22384.422705700723, -12784.035537723963, -7169.9478828844885, -11730.664876778708, -4983.008501888336, -8513.980628726558, 0.008, -0.016, 0.992, 192.0, 0.0, 0.0, 0.0, 0.0, 0.0, 0.0, 0.0, 0.0, 0.0, 1.6444974665136745E9, 0.0, 2022-02-10 23:51:06.513
238.0, -9681.546352093977, -11546.777075144897, -6047.845607739164, -13834.142843978745, -7.599593114804401, -1144.141095178258, -1880.8992959140894, -2921.4847590309096, -20744.47521501484, -16830.416539957114, -22399.264264019046, -12801.693415843656, -7174.217066075453, -11755.005926490538, -4991.0551298922455, -8521.155538696712, 0.008, -0.016, 0.992, 192.0, 0.0, 0.0, 0.0, 0.0, 0.0, 0.0, 0.0, 0.0, 0.0, 1.644497466513681E9, 0.0, 2022-02-10 23:51:06.513
240.0, -9670.236369399592, -11528.918031325107, -6042.503540814346, -13835.215727712599, 8.650125104203834, -1137.3238131193893, -1876.9877406344106, -2921.998849153382, -20735.288648043712, -16820.738234607965, -22379.505321920555, -12787.701223814634, -7166.013975860355, -11744.455903107633, -4979.7227954534055, -8516.729893294561, 0.008, -0.016, 0.992, 192.0, 0.0, 0.0, 0.0, 0.0, 0.0, 0.0, 0.0, 0.0, 0.0, 1.6444974669924703E9, 0.0, 2022-02-10 23:51:06.992
242.0, -9675.980767724606, -11542.060857064827, -6050.706631029443, -13838.009695769513, -9.946526282611643, -1149.1925894251574, -1889.4153105515613, -2927.206805611468, -20738.976685878835, -16817.81015608432, -22383.930967322704, -12798.966503020109, -7162.482400236417, -11750.736743299574, -4987.501202523852, -8522.854271275315, 0.008, -0.016, 0.992, 192.0, 0.0, 0.0, 0.0, 0.0, 0.0, 0.0, 0.0, 0.0, 0.0, 1.6444974669926505E9, 0.0, 2022-02-10 23:51:06.992
244.0, -9679.311177648447, -11547.067647822816, -6037.586157034178, -13838.769655080994, 4.515052379972027, -1142.2411968995568, -1881.5921999922039, -2922.021200897837, -20739.893107401505, -16813.675083360085, -22389.42949645871, -12790.942226760653, -7164.114077581654, -11762.382002160788, -4992.105661881646, -8523.837748031348, 0.01, -0.018000000000000002, 0.99, 192.0, 0.0, 40.0, 127.5, 56.0, 15.0, 120.0, 0.0, 0.0, 0.0, 1.644497466992658E9, 0.0, 2022-02-10 23:51:06.992
246.0, -9686.597846340877, -11559.539921228878, -6043.509369314835, -13842.904727805226, -9.857119304790414, -1156.3898511397663, -1904.7262555034467, -2941.1319424071244, -20742.798834180696, -16833.09874929175, -22382.18753125519, -12789.33290115987, -7169.9925863734, -11766.606481862842, -4988.909362424536, -8526.743474810539, 0.01, -0.018000000000000002, 0.99, 192.0, 0.0, 0.0, 0.0, 0.0, 0.0, 0.0, 0.0, 0.0, 0.0, 1.6444974669926665E9, 0.0, 2022-02-10 23:51:06.992
248.0, -9683.110974205849, -11549.951022857551, -6046.839779238675, -13842.010658027013, -12.0252385169552, -1152.0983162043472, -1888.8341651957232, -2923.7422852208956, -20742.82118592515, -16825.74502536595, -22390.68119414821, -12806.901372301743, -7174.03825211981, -11758.828074792395, -5001.158118386044, -8527.861062033304, 0.01, -0.018000000000000002, 0.99, 192.0, 0.0, 0.0, 0.0, 0.0, 0.0, 0.0, 0.0, 0.0, 0.0, 1.6444974669926739E9, 0.0, 2022-02-10 23:51:06.992
250.0, -9677.321872391925, -11544.586604188276, -6046.392744349569, -13840.535442892962, -12.09229375032112, -1144.789295767462, -1891.292857085807, -2928.5926137676975, -20743.11175860307, -16820.4700136745, -22383.193359755678, -12796.016072752009, -7178.307435310774, -11779.011700035537, -5001.0910631526785, -8526.251736432521, 0.01, -0.018000000000000002, 0.99, 192.0, 0.0, 0.0, 0.0, 0.0, 0.0, 0.0, 0.0, 0.0, 0.0, 1.6444974669926808E9, 0.0, 2022-02-10 23:51:06.992
252.0, -9685.659073073753, -11545.078342566294, -6047.040944938773, -13845.005791784024, -20.273032220963504, -1149.8854935032718, -1911.0965026732092, -2935.409895826566, -20746.933906904927, -16831.847051602253, -22394.2351215166, -12800.464069898615, -7175.2899498093075, -11744.522958340998, -5001.0910631526785, -8526.139977710245, 0.01, -0.018000000000000002, 0.99, 192.0, 0.0, 0.0, 0.0, 0.0, 0.0, 0.0, 0.0, 0.0, 0.0, 1.6444974669926877E9, 0.0, 2022-02-10 23:51:06.992
254.0, -9655.10423840335, -11527.174595257593, -6034.993354677362, -13837.227384713577, 0.46938663356144833, -1134.5074933180206, -1877.8594586681675, -2921.685924731007, -20738.239078311814, -16821.699359619543, -22390.792952870484, -12794.853782040333, -7170.797249173791, -11736.543385570454, -4991.837440948181, -8521.49081486354, 0.004, -0.016, 0.99, 192.0, 0.0, 16.0, 127.5, 64.0, 15.0, 120.0, 0.0, 0.0, 0.0, 1.6444974669926956E9, 0.0, 2022-02-10 23:51:06.992
0.0, -9674.304386890459, -11534.505967438934, -6041.140084402572, -13837.808530069415, -6.861985547779268, -1148.2761679024898, -1897.908973444578, -2945.4234773425433, -20722.190525792903, -16810.70230134753, -22367.748304337063, -12779.095802199341, -7164.538760726305, -11726.306286609923, -4986.473022278908, -8522.317829408388, 0.004, -0.016, 0.99, 192.0, 0.0, 0.0, 0.0, 0.0, 0.0, 0.0, 0.0, 0.0, 0.0, 1.6444974669927025E9, 0.0, 2022-02-10 23:51:06.992
2.0, -9691.716395821142, -11548.654621679143, -6040.111904157628, -13837.719123091594, -1.6763808341480297, -1149.0584789584254, -1894.0868251427205, -2938.7850092393173, -20754.15352036399, -16830.28242949038, -22396.738516895595, -12805.090881000862, -7165.27636829333, -11755.251795679545, -4991.41275780353, -8525.02239048748, 0.004, -0.016, 0.99, 192.0, 0.0, 0.0, 0.0, 0.0, 0.0, 0.0, 0.0, 0.0, 0.0, 1.6444974669927099E9, 0.0, 2022-02-10 23:51:06.992
4.0, -9683.915637006241, -11552.946156614562, -6039.754276246343, -13845.83280632887, -2.2575261899860135, -1142.978804466582, -1878.9993976353883, -2919.71897121894, -20746.06218887117, -16823.66631313161, -22378.745362609072, -12795.032595995975, -7171.400746274084, -11757.464618380622, -4985.2436763338665, -8518.02629447297, 0.004, -0.016, 0.99, 192.0, 0.0, 0.0, 0.0, 0.0, 0.0, 0.0, 0.0, 0.0, 0.0, 1.6444974669927168E9, 0.0, 2022-02-10 23:51:06.992
6.0, -9705.082739005416, -11561.90920614114, -6051.5783490632, -13844.715219106105, -12.382866428240114, -1150.3101766479226, -1882.195697092497, -2929.084352145714, -20758.378000066044, -16830.885926590672, -22400.09127856389, -12820.91591607522, -7184.074185380243, -11763.65605159474, -4990.943371169969, -8524.575355598374, 0.004, -0.016, 0.99, 192.0, 0.0, 0.0, 0.0, 0.0, 0.0, 0.0, 0.0, 0.0, 0.0, 1.6444974669927354E9, 0.0, 2022-02-10 23:51:06.992
8.0, -9695.337378422902, -11570.24640682297, -6039.687221012977, -13837.674419602683, 2.481043634539084, -1146.3539178793333, -1873.7690894328464, -2916.500320017376, -20757.3498198211, -16830.818871357307, -22402.549970453976, -12803.258037955527, -7181.593141745704, -11766.51707488502, -4991.9939031593685, -8521.803739285915, 0.006, -0.018000000000000002, 0.992, 192.0, 0.0, 24.0, 127.5, 56.0, 15.5, 0.0, 0.0, 0.0, 0.0, 1.6444974669927428E9, 0.0, 2022-02-10 23:51:06.992
10.0, -9707.183802984215, -11577.555427259855, -6044.269328626315, -13845.385771439764, -6.23613670303067, -1155.719298806107, -1899.428892067539, -2945.5799395537306, -20752.92417441895, -16835.6244964152, -22390.010641814548, -12784.10259295733, -7180.475554522938, -11746.936946742171, -4986.94240891247, -8524.620059087285, 0.006, -0.018000000000000002, 0.992, 192.0, 0.0, 0.0, 0.0, 0.0, 0.0, 0.0, 0.0, 0.0, 0.0, 1.6444974669927497E9, 0.0, 2022-02-10 23:51:06.992
12.0, -9700.746500581086, -11571.922787657117, -6048.359697861636, -13843.061190016413, -3.1068924792876818, -1145.973938223593, -1882.7991941927903, -2939.924948206538, -20751.270145329258, -16839.53605169488, -22397.744345396084, -12801.6710640992, -7185.6164557476595, -11749.306231654435, -4997.380673573098, -8528.978649256069, 0.006, -0.018000000000000002, 0.992, 192.0, 0.0, 0.0, 0.0, 0.0, 0.0, 0.0, 0.0, 0.0, 0.0, 1.6444974669927566E9, 0.0, 2022-02-10 23:51:06.992
14.0, -9686.955474252161, -11552.677935681098, -6044.358735604136, -13844.938736550659, 5.47617739155023, -1138.8437317423502, -1869.9022376420783, -2924.0775613877254, -20746.86685167156, -16828.963676567517, -22383.975670811615, -12794.496154129047, -7180.050871378287, -11755.877644524295, -4992.977379915403, -8517.06516946139, 0.006, -0.018000000000000002, 0.992, 192.0, 0.0, 0.0, 0.0, 0.0, 0.0, 0.0, 0.0, 0.0, 0.0, 1.6444974669927633E9, 0.0, 2022-02-10 23:51:06.992
16.0, -9700.500631392079, -11559.226996806503, -6048.940843217474, -13843.374114438786, -3.3304099238407523, -1144.7445922785512, -1881.9498279034888, -2928.190282367502, -20747.872680172048, -16828.00255155594, -22396.80557212896, -12807.303703701939, -7173.121830597142, -11749.820321776906, -4990.161060114034, -8517.869832261782, 0.006, -0.018000000000000002, 0.992, 192.0, 0.0, 0.0, 0.0, 0.0, 0.0, 0.0, 0.0, 0.0, 0.0, 1.6444974669927702E9, 0.0, 2022-02-10 23:51:06.992
18.0, -9682.306311405458, -11557.014174105427, -6036.848549467153, -13834.008733512013, 9.298325693407739, -1133.009926439515, -1885.3696448051508, -2922.021200897837, -20745.995133637804, -16832.294086491358, -22387.86487434684, -12796.731328574579, -7178.463897521961, -11747.249871164546, -4986.920057168014, -8517.445149117131, 0.002, -0.022, 0.992, 192.0, 0.0, 8.0, 127.5, 40.0, 15.5, 0.0, 0.0, 0.0, 0.0, 1.644497466992777E9, 0.0, 2022-02-10 23:51:06.992
20.0, -9684.273264917525, -11543.245499520957, -6038.122598901105, -13837.674419602683, 3.2857064349301384, -1134.8427694848501, -1893.1480518755975, -2938.0697534167475, -20735.310999788166, -16825.409749199123, -22377.76188585304, -12786.941264503153, -7166.75158342738, -11727.870908721794, -4981.421528032009, -8514.382960126753, 0.002, -0.022, 0.992, 192.0, 0.0, 0.0, 0.0, 0.0, 0.0, 0.0, 0.0, 0.0, 0.0, 1.644497466992784E9, 0.0, 2022-02-10 23:51:06.992
22.0, -9682.01573872754, -11536.674086651097, -6033.7193052434095, -13834.813396312404, 4.7832733134357115, -1139.916615476205, -1864.6719294395364, -2921.6188694976413, -20733.165232320458, -16819.03950202936, -22392.446981960176, -12793.892657028755, -7164.762278170858, -11736.789254759462, -4985.087214122679, -8517.355742139309, 0.002, -0.022, 0.992, 192.0, 0.0, 0.0, 0.0, 0.0, 0.0, 0.0, 0.0, 0.0, 0.0, 1.644497466992791E9, 0.0, 2022-02-10 23:51:06.992
24.0, -9674.550256079467, -11538.596336674254, -6022.230508593382, -13827.683189831161, 16.875567063756833, -1137.4802753305764, -1879.1558598465754, -2919.8754334301275, -20731.15357531948, -16803.50503963292, -22371.704563105654, -12780.034575466463, -7161.9906618584, -11734.107045424826, -4975.386557029075, -8513.332428137353, 0.002, -0.022, 0.992, 192.0, 0.0, 0.0, 0.0, 0.0, 0.0, 0.0, 0.0, 0.0, 0.0, 1.6444974669927983E9, 0.0, 2022-02-10 23:51:06.992
26.0, -9674.43849735719, -11562.713868941531, -6037.161473889527, -13824.531593862963, 1.1399389672206601, -1153.8641040163166, -1893.751548975891, -2937.600366783186, -20733.09817708709, -16801.806307054318, -22383.23806324459, -12771.138581173253, -7146.724420395425, -11770.205112720147, -4978.60520823064, -8517.288686905944, 0.002, -0.022, 0.992, 192.0, 0.0, 0.0, 0.0, 0.0, 0.0, 0.0, 0.0, 0.0, 0.0, 1.644497466992806E9, 0.0, 2022-02-10 23:51:06.992
28.0, -9679.177067181716, -11549.258118779437, -6032.646421509555, -13830.477157888075, 12.226404217052963, -1137.5473305639423, -1879.9605226469664, -2916.6120787396526, -20733.81343290966, -16818.011321784415, -22388.222502258122, -12772.546741073937, -7164.337595026207, -11744.724124041097, -4984.3049030667435, -8517.959239239603, 0.008, -0.024, 0.992, 192.0, 0.0, 32.0, 127.5, 32.0, 15.5, 0.0, 0.0, 0.0, 0.0, 1.644497466992813E9, 0.0, 2022-02-10 23:51:06.992
30.0, -9687.178991696715, -11548.609918190232, -6034.255747110337, -13838.83671031436, 11.309982694385374, -1136.1838741521685, -1876.294836556296, -2928.838482956706, -20733.63461895402, -16818.659522373622, -22372.643336372774, -12777.173552176184, -7159.867246135145, -11733.056513435426, -4976.548847740752, -8516.796948527926, 0.008, -0.024, 0.992, 192.0, 0.0, 0.0, 0.0, 0.0, 0.0, 0.0, 0.0, 0.0, 0.0, 1.6444974669928205E9, 0.0, 2022-02-10 23:51:06.992
32.0, -9675.041994457484, -11525.744083612453, -6032.557014531733, -13833.204070711623, 10.997058272011074, -1129.299536859934, -1873.6573307105698, -2919.5625090077533, -20726.303246772677, -16797.090088974248, -22380.04176378748, -12788.081203470374, -7153.251129776375, -11734.241155891557, -4974.98422562888, -8517.802777028415, 0.008, -0.024, 0.992, 192.0, 0.0, 0.0, 0.0, 0.0, 0.0, 0.0, 0.0, 0.0, 0.0, 1.644497466992828E9, 0.0, 2022-02-10 23:51:06.992
34.0, -9664.916654219229, -11534.3718569722, -6022.364619060114, -13830.45480614362, 11.578203627849058, -1125.1421123912469, -1881.0557581252765, -2919.5848607522084, -20720.692958914395, -16798.878228530673, -22367.10010374786, -12767.38348810476, -7154.435772232506, -11722.618248774797, -4971.5644087272185, -8509.934962980147, 0.008, -0.024, 0.992, 192.0, 0.0, 0.0, 0.0, 0.0, 0.0, 0.0, 0.0, 0.0, 0.0, 1.6444974669928348E9, 0.0, 2022-02-10 23:51:06.992
36.0, -9676.62896831381, -11543.401961732145, -6033.361677332125, -13832.511166633507, 0.0, -1126.5502722919314, -1889.2141448514635, -2931.9453754359934, -20727.554944462176, -16811.55166763683, -22383.193359755678, -12778.984043477065, -7151.440638475495, -11708.715463723596, -4976.325330296198, -8514.785291526949, 0.008, -0.024, 0.992, 192.0, 0.0, 0.0, 0.0, 0.0, 0.0, 0.0, 0.0, 0.0, 0.0, 1.6444974669928415E9, 0.0, 2022-02-10 23:51:06.992
38.0, -9645.33652607638, -11531.823758104296, -6023.370447560603, -13824.241021185044, 29.705468381103085, -1118.3471820768336, -1854.0772025677209, -2914.868642672139, -20720.089461814103, -16814.03271127137, -22384.802685356462, -12778.402898121227, -7148.7584291408575, -11721.478309807577, -4975.587722729173, -8512.997151970525, 0.006, -0.02, 0.996, 192.0, 0.0, 24.0, 127.5, 48.0, 15.5, 16.0, 0.0, 0.0, 0.0, 1.6444974669928517E9, 0.0, 2022-02-10 23:51:06.992
40.0, -9667.084773431394, -11554.063743837327, -6028.6678109965105, -13830.901841032726, 23.89401482272325, -1132.4958363170429, -1860.8050776487682, -2921.685924731007, -20718.681301913417, -16814.166821738105, -22374.029144529002, -12763.784857247456, -7136.800245857268, -11709.02838814597, -4965.037699346269, -8509.77850076896, 0.006, -0.02, 0.996, 192.0, 0.0, 0.0, 0.0, 0.0, 0.0, 0.0, 0.0, 0.0, 0.0, 1.644497466992859E9, 0.0, 2022-02-10 23:51:06.992
42.0, -9687.357805652358, -11541.90439485364, -6031.3723720756025, -13828.241983442544, 14.238061218030598, -1129.9924409380485, -1875.8254499227346, -2920.3895235525997, -20723.084595571112, -16811.462260659013, -22375.370249196323, -12775.631281808768, -7145.428019217017, -11745.931118241682, -4975.69948145145, -8516.059340960901, 0.006, -0.02, 0.996, 192.0, 0.0, 0.0, 0.0, 0.0, 0.0, 0.0, 0.0, 0.0, 0.0, 1.6444974669928656E9, 0.0, 2022-02-10 23:51:06.992
44.0, -9671.286901388992, -11541.680877409086, -6021.917584171008, -13832.086483488856, 22.955241555600352, -1123.6445455127414, -1884.9226099160446, -2934.8063987262726, -20733.94754337639, -16809.65176935813, -22372.732743350596, -12772.345575373838, -7153.340536754195, -11741.75134202854, -4981.242714076366, -8513.757111282004, 0.006, -0.02, 0.996, 192.0, 0.0, 0.0, 0.0, 0.0, 0.0, 0.0, 0.0, 0.0, 0.0, 1.644497466992873E9, 0.0, 2022-02-10 23:51:06.992
46.0, -9681.903980005263, -11539.289240752369, -6027.237299351371, -13834.075788745378, 3.0621889903770674, -1127.332583347867, -1886.4425285390055, -2919.8977851745826, -20730.013636352258, -16797.782993052362, -22380.645260887773, -12780.682776055668, -7152.379411742618, -11723.445263319643, -4979.789850686771, -8517.109872950301, 0.006, -0.022, 0.995, 192.0, 0.0, 24.0, 127.5, 32.0, 15.5, 8.0, 0.0, 0.0, 0.0, 1.64449746699288E9, 0.0, 2022-02-10 23:51:06.992
48.0, -9670.169314166227, -11534.841243605762, -6021.135273115072, -13829.1137014763, 17.36730544177359, -1116.6037460093196, -1851.1267722996204, -2902.8657558996388, -20728.739586918306, -16795.57017035129, -22381.71814462163, -12785.264883669006, -7152.267653020341, -11723.17704238618, -4975.9677023849135, -8513.108910692801, 0.006, -0.022, 0.995, 192.0, 0.0, 0.0, 0.0, 0.0, 0.0, 0.0, 0.0, 0.0, 0.0, 1.6444974669928868E9, 0.0, 2022-02-10 23:51:06.992
50.0, -9669.945796721673, -11557.148284572158, -6026.365581317614, -13829.471329387587, 8.381904170740148, -1123.0186966679928, -1871.2433423093967, -2916.410913039555, -20730.594781708096, -16803.415632655102, -22365.580185124898, -12770.378621861772, -7142.946975582478, -11732.877699479783, -4967.652853447539, -8513.198317670622, 0.006, -0.022, 0.995, 192.0, 0.0, 0.0, 0.0, 0.0, 0.0, 0.0, 0.0, 0.0, 0.0, 1.6444974669928956E9, 0.0, 2022-02-10 23:51:06.992
52.0, -9675.5337328355, -11547.693496667564, -6026.946726673452, -13832.153538722223, 5.051494246899396, -1121.141150133747, -1888.0518541397876, -2916.8355961842058, -20733.00877010927, -16809.18238272457, -22380.958185310148, -12778.738174288055, -7155.553359455271, -11717.3655888278, -4977.152344841045, -8515.835823516349, 0.006, -0.022, 0.995, 192.0, 0.0, 0.0, 0.0, 0.0, 0.0, 0.0, 0.0, 0.0, 0.0, 1.6444974669929025E9, 0.0, 2022-02-10 23:51:06.992
54.0, -9668.403526354257, -11535.221223261504, -6020.352962059136, -13835.662762601705, 11.779369327946823, -1125.6338507692637, -1860.6039119486704, -2918.1319973626137, -20730.170098563445, -16803.728557077477, -22369.178815982203, -12778.76052603251, -7148.221987273931, -11721.83593771886, -4973.6207692171065, -8514.405311871209, 0.006, -0.022, 0.995, 192.0, 0.0, 0.0, 0.0, 0.0, 0.0, 0.0, 0.0, 0.0, 0.0, 1.64449746699291E9, 0.0, 2022-02-10 23:51:06.992
56.0, -9683.5356573505, -11550.353354257746, -6031.707648242432, -13839.060227758913, -4.4032936576954915, -1133.2110921396127, -1875.5125255003604, -2923.027029398326, -20733.52286023174, -16805.069661744794, -22383.975670811615, -12790.651654082734, -7149.428981474517, -11738.376228615789, -4975.6771297069945, -8519.59091658484, 0.005, -0.020999999999999998, 0.9935, 192.0, 0.0, 16.0, 127.5, 48.0, 15.5, 0.0, 0.0, 0.0, 0.0, 1.6444974669929185E9, 0.0, 2022-02-10 23:51:06.992
58.0, -9677.523038092022, -11558.62349970621, -6022.342267315658, -13838.233213214065, 18.596651386815477, -1123.1975106236353, -1864.783688161813, -2913.929869405016, -20735.713331188363, -16808.84710655774, -22381.405220199256, -12787.231837181072, -7152.826446631724, -11723.780539486474, -4974.783059928783, -8518.87566076227, 0.005, -0.020999999999999998, 0.9935, 192.0, 0.0, 0.0, 0.0, 0.0, 0.0, 0.0, 0.0, 0.0, 0.0, 1.6444974669929254E9, 0.0, 2022-02-10 23:51:06.992
60.0, -9676.271340402525, -11555.896586882662, -6025.963249917419, -13842.345934193843, 6.884337292234576, -1126.6620310142077, -1872.137412087609, -2923.3846573096107, -20736.20506956638, -16817.5195834064, -22377.13603700829, -12787.321244158895, -7147.506731451361, -11712.69407423664, -4967.943426125458, -8518.294515406433, 0.005, -0.020999999999999998, 0.9935, 192.0, 0.0, 0.0, 0.0, 0.0, 0.0, 0.0, 0.0, 0.0, 0.0, 1.6444974669929326E9, 0.0, 2022-02-10 23:51:06.992
62.0, -9673.276206645514, -11550.24159553547, -6028.5560522742335, -13840.982477782069, 6.683171592136811, -1130.0147926825039, -1873.1879440770083, -2921.373000308633, -20734.14870907649, -16808.154202479625, -22387.283728991002, -12787.209485436617, -7165.790458415802, -11720.584240029364, -4977.442917518963, -8522.966029997591, 0.005, -0.020999999999999998, 0.9935, 192.0, 0.0, 0.0, 0.0, 0.0, 0.0, 0.0, 0.0, 0.0, 0.0, 1.6444974669929397E9, 0.0, 2022-02-10 23:51:06.992
64.0, -9673.276206645514, -11571.498104512466, -6024.130406872083, -13845.586937139862, 5.453825647094924, -1136.139170663258, -1875.8701534116453, -2934.337012092711, -20733.165232320458, -16802.52156287689, -22376.264318974536, -12784.460220868616, -7161.297757780285, -11773.468467410621, -4970.8044494157375, -8524.150672453723, 0.005, -0.020999999999999998, 0.9935, 192.0, 0.0, 0.0, 0.0, 0.0, 0.0, 0.0, 0.0, 0.0, 0.0, 1.6444974669929469E9, 0.0, 2022-02-10 23:51:06.992
66.0, -9699.852430802874, -11577.041337137383, -6039.463703568424, -13848.515015663508, -4.33623842432957, -1154.199380183146, -1885.4814035274273, -2939.6120237841637, -20747.91738366096, -16821.297028219346, -22387.82017085793, -12796.127831474285, -7161.588330458204, -11760.392696904266, -4976.727661696394, -8536.779408070972, 0.0055, -0.0255, 0.98975, 192.0, 0.0, 24.0, 127.5, 8.0, 15.0, 104.0, 0.0, 0.0, 0.0, 1.6444974669929535E9, 0.0, 2022-02-10 23:51:06.992
68.0, -9690.911733020752, -11559.204645062047, -6032.355848831636, -13846.570413895895, 4.246831446508342, -1132.1829118946687, -1886.621342494648, -2933.2641283588564, -20748.051494127692, -16813.250400215435, -22396.403240728767, -12797.848915797344, -7165.477533993428, -11756.168217202214, -4980.572161742707, -8533.136073724756, 0.0055, -0.0255, 0.98975, 192.0, 0.0, 0.0, 0.0, 0.0, 0.0, 0.0, 0.0, 0.0, 0.0, 1.6444974669929605E9, 0.0, 2022-02-10 23:51:06.992
70.0, -9691.045843487484, -11569.061764366837, -6034.456912810435, -13845.653992373229, -0.8046628003910543, -1128.0031356815261, -1884.654388982581, -2929.53138703482, -20749.86198542857, -16816.692568861552, -22377.80658934195, -12787.522409858992, -7159.174342057031, -11727.312115110411, -4977.062937863224, -8533.650163847227, 0.0055, -0.0255, 0.98975, 192.0, 0.0, 0.0, 0.0, 0.0, 0.0, 0.0, 0.0, 0.0, 0.0, 1.6444974669929705E9, 0.0, 2022-02-10 23:51:06.992
72.0, -9685.547314351477, -11565.172560831614, -6034.412209321525, -13847.620945885295, -3.263354690474831, -1129.657164771219, -1885.6378657386144, -2918.4225700405327, -20747.29153481621, -16808.534182135365, -22391.821133115427, -12791.165744205207, -7168.383260772617, -11705.094481121836, -4986.473022278908, -8532.68903883565, 0.0055, -0.0255, 0.98975, 192.0, 0.0, 0.0, 0.0, 0.0, 0.0, 0.0, 0.0, 0.0, 0.0, 1.6444974669929771E9, 0.0, 2022-02-10 23:51:06.992
74.0, -9681.34518639388, -11576.840171437285, -6031.819406964709, -13841.340105693354, 0.6034971002932907, -1130.1489031492356, -1865.0295573508213, -2921.015372397348, -20745.05636037068, -16819.307722962825, -22377.270147475025, -12787.276540669984, -7166.461010749461, -11734.487025080565, -4974.894818651059, -8527.436378888653, 0.0055, -0.0255, 0.98975, 192.0, 0.0, 0.0, 0.0, 0.0, 0.0, 0.0, 0.0, 0.0, 0.0, 1.644497466992984E9, 0.0, 2022-02-10 23:51:06.992
76.0, -9695.896172034285, -11575.38730804769, -6045.833950738186, -13842.904727805226, -14.126302495754064, -1145.5492550789422, -1876.3395400452066, -2938.3826778391217, -20751.0466278847, -16827.66727538911, -22395.352708739367, -12796.038424496464, -7167.645653205593, -11753.262490423023, -4975.654777962539, -8537.002925515524, 0.00475, -0.02475, 0.988875, 192.0, 0.0, 16.0, 127.5, 32.0, 15.0, 112.0, 0.0, 0.0, 0.0, 1.644497466992991E9, 0.0, 2022-02-10 23:51:06.992
78.0, -9687.760137052554, -11568.19004633308, -6038.681392512488, -13839.753131837027, 5.297363435907774, -1131.6688217721967, -1868.203505063475, -2929.509035290365, -20747.559755749673, -16816.6702171171, -22399.53248495251, -12794.183229706674, -7158.056754834266, -11745.014696719016, -4971.765574427316, -8531.794969057437, 0.00475, -0.02475, 0.988875, 192.0, 0.0, 0.0, 0.0, 0.0, 0.0, 0.0, 0.0, 0.0, 0.0, 1.644497466992998E9, 0.0, 2022-02-10 23:51:06.992
80.0, -9691.001139998572, -11570.24640682297, -6039.95544194644, -13849.431437186175, -3.1515959681982957, -1140.5424643209535, -1887.6495227395922, -2933.062962658759, -20749.57141275065, -16827.600220155742, -22388.960109825148, -12782.24739816754, -7170.841952662701, -11738.152711171237, -4966.8705423916035, -8528.173986455678, 0.00475, -0.02475, 0.988875, 192.0, 0.0, 0.0, 0.0, 0.0, 0.0, 0.0, 0.0, 0.0, 0.0, 1.6444974669930053E9, 0.0, 2022-02-10 23:51:06.993
82.0, -9686.82136378543, -11557.28239503889, -6042.280023369793, -13852.672440132195, -1.2964011784078096, -1135.5803770518753, -1870.3045690422737, -2925.932756177516, -20748.453825527886, -16827.24259224446, -22403.66755767674, -12804.822660067399, -7162.70591768097, -11745.595842074854, -4969.88802789307, -8534.030143502969, 0.00475, -0.02475, 0.988875, 192.0, 0.0, 0.0, 0.0, 0.0, 0.0, 0.0, 0.0, 0.0, 0.0, 1.644497466993012E9, 0.0, 2022-02-10 23:51:06.993
84.0, -9672.87387524532, -11566.692479454576, -6035.239223866371, -13855.086428533368, -0.8046628003910543, -1121.6105367673083, -1880.362854047162, -2920.702447974974, -20740.407197523975, -16816.71492060601, -22390.994118570583, -12793.937360517664, -7172.9430166415, -11723.93700169766, -4966.624673202596, -8529.179814956167, 0.00475, -0.02475, 0.988875, 192.0, 0.0, 0.0, 0.0, 0.0, 0.0, 0.0, 0.0, 0.0, 0.0, 1.644497466993019E9, 0.0, 2022-02-10 23:51:06.993
86.0, -9703.316951193447, -11582.562218017843, -6043.352907103647, -13845.45282667313, 1.2293459450418884, -1139.4919323315542, -1876.808926678768, -2928.190282367502, -20738.663761456464, -16819.352426451736, -22387.86487434684, -12792.640959339256, -7168.517371239349, -11741.393714117256, -4968.144591825556, -8526.54230911044, 0.0063750000000000005, -0.023375, 0.9884375, 192.0, 0.0, 32.0, 127.5, 40.0, 15.0, 112.0, 0.0, 0.0, 0.0, 1.6444974669930267E9, 0.0, 2022-02-10 23:51:06.993
88.0, -9686.664901574242, -11575.364956303234, -6037.183825633982, -13844.715219106105, 12.56168038388257, -1133.2110921396127, -1863.911970128056, -2928.9949451678926, -20740.16132833497, -16817.027845028384, -22387.19432201318, -12779.587540577359, -7160.716612424447, -11734.241155891557, -4968.4575162479305, -8520.909669507702, 0.0063750000000000005, -0.023375, 0.9884375, 192.0, 0.0, 0.0, 0.0, 0.0, 0.0, 0.0, 0.0, 0.0, 0.0, 1.644497466993034E9, 0.0, 2022-02-10 23:51:06.993
90.0, -9687.424860885723, -11563.67499395311, -6041.542415802767, -13850.906652320225, 3.598630857304437, -1140.8106852544172, -1871.913894643056, -2930.984250424415, -20743.53644174772, -16825.543859665857, -22380.75701961005, -12782.269749911995, -7154.882807121612, -11735.85048149234, -4961.46142023342, -8526.408198643709, 0.0063750000000000005, -0.023375, 0.9884375, 192.0, 0.0, 0.0, 0.0, 0.0, 0.0, 0.0, 0.0, 0.0, 0.0, 1.6444974669930408E9, 0.0, 2022-02-10 23:51:06.993
92.0, -9688.877724275319, -11560.679860196098, -6045.856302482642, -13849.163216252711, -4.313886679874263, -1147.270339402001, -1887.4707087839497, -2938.561491794764, -20743.4470347699, -16827.04142654436, -22400.94064485319, -12802.051043754942, -7160.8507228911785, -11729.212013389113, -4970.178600570989, -8529.425684145175, 0.0063750000000000005, -0.023375, 0.9884375, 192.0, 0.0, 0.0, 0.0, 0.0, 0.0, 0.0, 0.0, 0.0, 0.0, 1.6444974669930477E9, 0.0, 2022-02-10 23:51:06.993
94.0, -9675.980767724606, -11563.138552086182, -6045.3422123601695, -13856.271070989498, 3.1515959681982957, -1143.4481911001435, -1878.9546941464776, -2937.8015324832836, -20744.00582838128, -16813.675083360085, -22391.932891837703, -12791.679834327679, -7161.677737436025, -11740.924327483694, -4968.569274970207, -8528.956297511613, 0.0063750000000000005, -0.023375, 0.9884375, 192.0, 0.0, 0.0, 0.0, 0.0, 0.0, 0.0, 0.0, 0.0, 0.0, 1.6444974669930546E9, 0.0, 2022-02-10 23:51:06.993
96.0, -9703.831041315918, -11600.309503115357, -6063.692994557977, -13857.701582634638, -17.926099053156264, -1145.3257376343893, -1889.0129791513657, -2939.276747617334, -20749.459654028375, -16830.03656030137, -22404.583979199408, -12802.498078644048, -7167.086859594209, -11748.054533964936, -4969.217475559411, -8532.979611513569, 0.0061875, -0.0216875, 0.98721875, 192.0, 0.0, 24.0, 127.5, 48.0, 15.0, 104.0, 0.0, 0.0, 0.0, 1.6444974669930615E9, 0.0, 2022-02-10 23:51:06.993
98.0, -9694.800936555976, -11583.210418607046, -6059.177942178005, -13847.710352863116, -7.018447758966418, -1127.0643624144034, -1879.0888046132095, -2915.248622327879, -20751.53836626272, -16836.697380149053, -22403.846371632382, -12798.854744297832, -7177.815696932757, -11736.521033825999, -4977.062937863224, -8524.888280020748, 0.0061875, -0.0216875, 0.98721875, 192.0, 0.0, 0.0, 0.0, 0.0, 0.0, 0.0, 0.0, 0.0, 0.0, 1.6444974669930687E9, 0.0, 2022-02-10 23:51:06.993
100.0, -9695.180916211715, -11583.523343029421, -6064.072974213716, -13847.397428440741, -7.756055325991551, -1131.4453043276435, -1899.3171333452624, -2926.871529444639, -20748.00679063878, -16828.04725504485, -22397.47612446262, -12786.04719472494, -7164.6058159596705, -11742.354839128833, -4973.374900028098, -8519.412102629198, 0.0061875, -0.0216875, 0.98721875, 192.0, 0.0, 0.0, 0.0, 0.0, 0.0, 0.0, 0.0, 0.0, 0.0, 1.6444974669930756E9, 0.0, 2022-02-10 23:51:06.993
102.0, -9696.879648790318, -11581.690499984086, -6064.9446922474735, -13852.672440132195, -11.377037927751294, -1129.7912752379507, -1883.5591535042709, -2929.8443114571946, -20754.131168619537, -16830.125967279193, -22407.15442981177, -12800.95580827663, -7166.170438071542, -11730.039027933959, -4978.6722634640055, -8525.82705328787, 0.0061875, -0.0216875, 0.98721875, 192.0, 0.0, 0.0, 0.0, 0.0, 0.0, 0.0, 0.0, 0.0, 0.0, 1.6444974669930851E9, 0.0, 2022-02-10 23:51:06.993
104.0, -9693.504535377568, -11573.3309475578, -6054.327613631202, -13859.668536146706, -2.6151541012709263, -1135.5356735629648, -1885.302589571785, -2928.6596690010633, -20748.096197616604, -16829.366007967714, -22391.619967415332, -12805.224991467596, -7176.586350987715, -11717.253830105523, -4971.631463960584, -8524.843576531837, 0.0061875, -0.0216875, 0.98721875, 192.0, 0.0, 0.0, 0.0, 0.0, 0.0, 0.0, 0.0, 0.0, 0.0, 1.644497467471973E9, 0.0, 2022-02-10 23:51:07.471
106.0, -9714.537526910011, -11607.35030261878, -6063.938863746985, -13859.355611724332, -16.49558740801661, -1147.2479876575455, -1883.5591535042709, -2939.3885063396106, -20751.270145329258, -16839.603106928244, -22400.38185124181, -12810.410596181226, -7170.439621262506, -11759.722144570607, -4969.195123814956, -8533.247832447032, 0.00509375, -0.02284375, 0.991609375, 192.0, 0.0, 16.0, 127.5, 32.0, 15.5, 16.0, 0.0, 0.0, 0.0, 1.6444974674721434E9, 0.0, 2022-02-10 23:51:07.472
108.0, -9690.576456853922, -11596.174430391125, -6060.519046845323, -13849.811416841916, -1.6316773452374156, -1129.7689234934955, -1893.460976297972, -2920.9036136750715, -20752.34302906311, -16836.540917937866, -22411.088336835903, -12801.827526310388, -7175.915798654056, -11759.2751096815, -4967.116411580612, -8522.988381742047, 0.00509375, -0.02284375, 0.991609375, 192.0, 0.0, 0.0, 0.0, 0.0, 0.0, 0.0, 0.0, 0.0, 0.0, 1.6444974674721515E9, 0.0, 2022-02-10 23:51:07.472
110.0, -9697.036111001506, -11578.494200526977, -6063.156552691049, -13857.545120423452, 4.358590168784877, -1133.4346095841659, -1891.8963541861003, -2924.882224188116, -20739.78134867923, -16830.03656030137, -22398.996043085583, -12800.86640129881, -7173.859438164168, -11756.592900346865, -4965.529437724285, -8522.1613671972, 0.00509375, -0.02284375, 0.991609375, 192.0, 0.0, 0.0, 0.0, 0.0, 0.0, 0.0, 0.0, 0.0, 0.0, 1.6444974674721591E9, 0.0, 2022-02-10 23:51:07.472
112.0, -9697.930180779718, -11575.275549325414, -6060.4296398675015, -13853.521806421497, 6.99609601451111, -1127.7572664925178, -1892.6563134975809, -2932.6829830030183, -20745.168119092956, -16834.059874303326, -22407.646168189785, -12816.467918928614, -7162.683565936514, -11719.55605978442, -4970.849152904649, -8521.177890441168, 0.00509375, -0.02284375, 0.991609375, 192.0, 0.0, 0.0, 0.0, 0.0, 0.0, 0.0, 0.0, 0.0, 0.0, 1.644497467472168E9, 0.0, 2022-02-10 23:51:07.472
114.0, -9682.909808505752, -11573.263892324436, -6053.813523508731, -13851.621908142795, 12.338162939329498, -1123.331621090367, -1889.32590357374, -2919.0707706297367, -20739.602534723585, -16804.823792555784, -22389.72006913663, -12806.476689157093, -7178.620359733148, -11732.497719824043, -4966.959949369425, -8521.580221841363, 0.00509375, -0.02284375, 0.991609375, 192.0, 0.0, 0.0, 0.0, 0.0, 0.0, 0.0, 0.0, 0.0, 0.0, 1.6444974674721756E9, 0.0, 2022-02-10 23:51:07.472
116.0, -9701.34999768138, -11597.068500169338, -6068.811544038242, -13847.755056352027, 3.0398372459217606, -1133.5463683064424, -1885.0790721272317, -2937.4662563164543, -20741.100101602093, -16841.592412184764, -22392.871665104827, -12809.315360702916, -7176.184019587519, -11742.131321684281, -4968.971606370403, -8524.374189898275, 0.004, -0.02, 0.986, 192.0, 0.0, 16.0, 127.5, 48.0, 15.0, 104.0, 0.0, 0.0, 0.0, 1.6444974674721837E9, 0.0, 2022-02-10 23:51:07.472
118.0, -9680.786392782496, -11585.15502037466, -6050.416058351524, -13840.69190510415, 8.314848937374228, -1131.6464700277413, -1884.3861680491173, -2936.7957039827947, -20731.935886375417, -16841.055970317837, -22404.71808966614, -12803.72742458909, -7172.451278263483, -11745.998173475049, -4971.206780815934, -8524.30713466491, 0.004, -0.02, 0.986, 192.0, 0.0, 0.0, 0.0, 0.0, 0.0, 0.0, 0.0, 0.0, 0.0, 1.6444974674721916E9, 0.0, 2022-02-10 23:51:07.472
120.0, -9684.832058528908, -11574.04620338037, -6052.6735845415105, -13843.128245249778, 8.203090215097692, -1132.3617258503111, -1882.2180488369524, -2932.8841487031164, -20727.53259271772, -16829.85774634573, -22381.114647521335, -12789.690529071157, -7156.7380019114025, -11749.015658976516, -4965.6411964465615, -8524.329486409366, 0.004, -0.02, 0.986, 192.0, 0.0, 0.0, 0.0, 0.0, 0.0, 0.0, 0.0, 0.0, 0.0, 1.6444974674721992E9, 0.0, 2022-02-10 23:51:07.472
122.0, -9694.86799178934, -11565.932520143095, -6057.2556921548485, -13837.160329480212, 1.8551947897904861, -1122.594013523342, -1891.426967552539, -2940.3719830956443, -20735.2439445548, -16834.283391747882, -22398.414897729745, -12803.526258888991, -7168.785592172813, -11732.251850635035, -4967.630501703084, -8523.278954419966, 0.004, -0.02, 0.986, 192.0, 0.0, 0.0, 0.0, 0.0, 0.0, 0.0, 0.0, 0.0, 0.0, 1.644497467472206E9, 0.0, 2022-02-10 23:51:07.472
124.0, -9676.874837502819, -11562.892682897173, -6048.739677517376, -13838.032047513969, 15.020372273966347, -1111.7981209514287, -1887.8506884396897, -2918.3331630627113, -20733.254639298277, -16815.70909210552, -22389.340089480887, -12793.110345972818, -7168.942054384, -11740.164368172213, -4964.121277823601, -8515.679361305161, 0.004, -0.02, 0.986, 192.0, 0.0, 0.0, 0.0, 0.0, 0.0, 0.0, 0.0, 0.0, 0.0, 1.6444974674722147E9, 0.0, 2022-02-10 23:51:07.472
126.0, -9682.842753272385, -11573.912092913639, -6049.209064150938, -13845.162253995211, -3.620982601759744, -1126.885548458761, -1896.1878891215194, -2933.5547010367754, -20731.310037530668, -16817.877211317686, -22394.86097036135, -12788.639997081757, -7170.618435218148, -11730.88839422326, -4965.618844702107, -8521.244945674533, 0.002, -0.02, 0.992, 192.0, 0.0, 8.0, 127.5, 48.0, 15.5, 0.0, 0.0, 0.0, 0.0, 1.6444974674722223E9, 0.0, 2022-02-10 23:51:07.472
128.0, -9665.363689108335, -11550.196892046559, -6039.486055312879, -13840.982477782069, 7.845462303812779, -1109.5405947614427, -1889.0576826402764, -2932.1688928805465, -20723.129299060023, -16817.430176428577, -22387.82017085793, -12788.237665681561, -7163.689394437003, -11716.806795216418, -4969.038661603769, -8520.753207296517, 0.002, -0.02, 0.992, 192.0, 0.0, 0.0, 0.0, 0.0, 0.0, 0.0, 0.0, 0.0, 0.0, 1.64449746747223E9, 0.0, 2022-02-10 23:51:07.472
130.0, -9666.4812763311, -11583.948026174072, -6049.119657173116, -13843.441169672153, -0.4246831446508342, -1119.3530105773225, -1882.1286418591312, -2933.375887081133, -20720.983531592316, -16812.870420559695, -22371.19047298318, -12783.47674411258, -7162.638862447604, -11723.020580174993, -4969.217475559411, -8518.808605528904, 0.002, -0.02, 0.992, 192.0, 0.0, 0.0, 0.0, 0.0, 0.0, 0.0, 0.0, 0.0, 0.0, 1.6444974674722369E9, 0.0, 2022-02-10 23:51:07.472
