%OpenBCI Raw EEG Data
%Number of channels = 16
%Sample Rate = 125 Hz
%Board = OpenBCI_GUI$BoardCytonSerialDaisy
Sample Index, EXG Channel 0, EXG Channel 1, EXG Channel 2, EXG Channel 3, EXG Channel 4, EXG Channel 5, EXG Channel 6, EXG Channel 7, EXG Channel 8, EXG Channel 9, EXG Channel 10, EXG Channel 11, EXG Channel 12, EXG Channel 13, EXG Channel 14, EXG Channel 15, Accel Channel 0, Accel Channel 1, Accel Channel 2, Other, Other, Other, Other, Other, Other, Other, Analog Channel 0, Analog Channel 1, Analog Channel 2, Timestamp, Other, Timestamp (Formatted)
0.0, -10559.791095231903, -12326.227107790364, -7446.930700174654, -15089.126239910871, -817.7609226418642, -1625.5306155122062, -2158.1950376266286, -3986.2995131372827, 0.0, 0.0, 0.0, 0.0, 0.0, 0.0, 0.0, 0.0, 0.0, 0.0, 0.0, 192.0, 0.0, 0.0, 0.0, 0.0, 0.0, 0.0, 0.0, 0.0, 0.0, 1.6444976842912557E9, 0.0, 2022-02-10 23:54:44.291
158.0, -10580.555865830884, -12330.1610148145, -7449.858778698299, -15092.635463790353, -835.2623385503696, -1641.1544848864658, -2173.1707064116845, -4003.443301134503, -20630.41426305941, -17650.747913211337, -22945.20562233992, -13509.282590065312, -7659.339327733437, -12330.29512528123, -6445.483141599077, -9123.66916223397, 0.0, 0.0, 0.0, 192.0, 0.0, 0.0, 0.0, 0.0, 0.0, 0.0, 0.0, 0.0, 0.0, 1.6444976842912638E9, 0.0, 2022-02-10 23:54:44.291
160.0, -10585.741470544514, -12345.06962836619, -7449.612909509291, -15090.17677190027, -846.0358793778277, -1638.7404964852926, -2182.5584390829135, -4006.259620935872, -20641.344266098055, -17665.008326173822, -22966.104503405633, -13526.091101895703, -7669.308205760504, -12358.033640150266, -6463.163371463224, -9134.621517017069, 0.0, 0.0, 0.0, 192.0, 0.0, 0.0, 0.0, 0.0, 0.0, 0.0, 0.0, 0.0, 0.0, 1.6444976842912707E9, 0.0, 2022-02-10 23:54:44.291
162.0, -10578.0971739408, -12344.734352199359, -7443.466179784082, -15096.345853369934, -836.156408328582, -1642.1379616424992, -2190.9403432536537, -4013.389827417115, -20639.89140270846, -17667.757590741825, -22953.319305577195, -13515.652837235075, -7671.006938339107, -12344.82375917718, -6455.854351026339, -9136.744932740323, 0.003, -0.009000000000000001, 0.495, 192.0, 0.0, 24.0, 127.5, 56.0, 15.0, 120.0, 0.0, 0.0, 0.0, 1.6444976842912776E9, 0.0, 2022-02-10 23:54:44.291
164.0, -10585.80852577788, -12342.879157409569, -7453.18918862214, -15100.4138708608, -846.6393764781209, -1653.112668170055, -2195.2765816779834, -4012.7639785723663, -20646.194594644858, -17668.294032608752, -22970.194872640954, -13521.553697771276, -7671.789249395043, -12342.812102176202, -6465.286787186478, -9143.584566543648, 0.003, -0.009000000000000001, 0.495, 192.0, 0.0, 0.0, 0.0, 0.0, 0.0, 0.0, 0.0, 0.0, 0.0, 1.6444976842912855E9, 0.0, 2022-02-10 23:54:44.291
166.0, -10564.261444122963, -12318.113424553088, -7445.231967596051, -15102.336120883958, -829.8085129032747, -1642.6520517649712, -2161.7489649950226, -3996.849536520188, -20640.360789342023, -17657.721657481394, -22965.1210266496, -13528.996828674894, -7666.7154034036885, -12316.01236057429, -6459.520037117009, -9136.700229251413, 0.003, -0.009000000000000001, 0.495, 192.0, 0.0, 0.0, 0.0, 0.0, 0.0, 0.0, 0.0, 0.0, 0.0, 1.6444976842912924E9, 0.0, 2022-02-10 23:54:44.291
168.0, -10585.272083910953, -12337.268869551286, -7459.291214858439, -15099.296283638036, -843.8677601656628, -1658.342976372597, -2171.8072499999107, -4010.484100637925, -20637.74563524075, -17660.62738426058, -22965.9703929389, -13511.785985444307, -7676.438412241747, -12339.258174807808, -6454.08856321437, -9135.627345517558, 0.003, -0.009000000000000001, 0.495, 192.0, 0.0, 0.0, 0.0, 0.0, 0.0, 0.0, 0.0, 0.0, 0.0, 1.6444976842913148E9, 0.0, 2022-02-10 23:54:44.291
170.0, -10578.678319296638, -12331.658581693004, -7460.297043358928, -15090.55675155601, -848.0922398677159, -1649.4246303349294, -2176.4564128466145, -4004.1809087015286, -20644.875841721994, -17663.130779639578, -22976.229843643887, -13523.475947794432, -7680.998168110629, -12369.83536122267, -6468.840714554873, -9138.24249961883, 0.003, -0.009000000000000001, 0.495, 192.0, 0.0, 0.0, 0.0, 0.0, 0.0, 0.0, 0.0, 0.0, 0.0, 1.644497684291322E9, 0.0, 2022-02-10 23:54:44.291
172.0, -10580.399403619696, -12329.691628180937, -7452.6974502441235, -15094.289492880047, -841.4537717644897, -1645.2225023773317, -2177.9986832140307, -3993.7202922964448, -20643.624144032496, -17665.79063722976, -22958.035523657265, -13518.335046569711, -7677.734813420155, -12351.842206936146, -6466.024394753504, -9128.295973336217, 0.0055, -0.0145, 0.7424999999999999, 192.0, 0.0, 32.0, 127.5, 48.0, 15.0, 120.0, 0.0, 0.0, 0.0, 1.6444976842913296E9, 0.0, 2022-02-10 23:54:44.291
174.0, -10581.986377476023, -12331.569174715183, -7459.090049158341, -15096.994053959139, -843.5324839988332, -1658.4770868393286, -2179.7421192815445, -4019.8718333091538, -20647.66980977891, -17670.037468676266, -22967.378552839586, -13523.610058261163, -7677.108964575406, -12347.81889293419, -6463.7445168190625, -9135.448531561915, 0.0055, -0.0145, 0.7424999999999999, 192.0, 0.0, 0.0, 0.0, 0.0, 0.0, 0.0, 0.0, 0.0, 0.0, 1.6444976842913363E9, 0.0, 2022-02-10 23:54:44.291
176.0, -10548.056429392867, -12300.500249922306, -7443.466179784082, -15093.395423101834, -824.3770390006351, -1638.8299034631139, -2168.47684007607, -3983.572600313735, -20635.689274750865, -17653.45247429043, -22959.242517857852, -13513.551773256277, -7667.56476969299, -12351.238709835854, -6469.04188025497, -9136.454360062404, 0.0055, -0.0145, 0.7424999999999999, 192.0, 0.0, 0.0, 0.0, 0.0, 0.0, 0.0, 0.0, 0.0, 0.0, 1.6444976842913437E9, 0.0, 2022-02-10 23:54:44.291
178.0, -10570.363470359263, -12326.763549657291, -7450.149351376218, -15100.235056905158, -842.7948764318081, -1650.855141980069, -2185.2630001620055, -3989.9651992279532, -20631.80007121564, -17651.06083763371, -22952.40288405453, -13508.187354587002, -7665.798981881021, -12347.371858045086, -6465.443249397666, -9128.765359969779, 0.0055, -0.0145, 0.7424999999999999, 192.0, 0.0, 0.0, 0.0, 0.0, 0.0, 0.0, 0.0, 0.0, 0.0, 1.6444976842913504E9, 0.0, 2022-02-10 23:54:44.291
180.0, -10566.608377290771, -12326.048293834721, -7450.149351376218, -15097.776365015074, -840.4926467529115, -1649.2681681237423, -2184.435985617159, -3993.2509056628833, -20628.335550825068, -17662.326116839187, -22962.371762081595, -13522.671284994041, -7670.895179616831, -12349.092942368145, -6478.563723392931, -9134.263889105785, 0.0055, -0.0145, 0.7424999999999999, 192.0, 0.0, 0.0, 0.0, 0.0, 0.0, 0.0, 0.0, 0.0, 0.0, 1.6444976842913575E9, 0.0, 2022-02-10 23:54:44.291
182.0, -10559.880502209724, -12321.15326179901, -7444.673173984668, -15101.397347616834, -826.4557512349786, -1643.3896593319964, -2178.892752992243, -3993.4297196185257, -20633.990542172258, -17658.280451092774, -22944.49036651735, -13505.371034785634, -7669.241150527138, -12338.96760212989, -6466.51613313152, -9130.24057510383, 0.00875, -0.01925, 0.86725, 192.0, 0.0, 48.0, 127.5, 32.0, 15.5, 0.0, 0.0, 0.0, 0.0, 1.6444976842913644E9, 0.0, 2022-02-10 23:54:44.291
184.0, -10577.985415218523, -12324.349561256118, -7462.375755593272, -15105.957103485716, -844.605367732688, -1654.431421092918, -2188.951037997131, -4007.3101529252713, -20634.795204972652, -17657.140512125556, -22954.146320122043, -13517.888011680605, -7660.121638789373, -12341.403942275518, -6471.165295978224, -9137.303726351705, 0.00875, -0.01925, 0.86725, 192.0, 0.0, 0.0, 0.0, 0.0, 0.0, 0.0, 0.0, 0.0, 0.0, 1.644497684291371E9, 0.0, 2022-02-10 23:54:44.291
186.0, -10562.89798771119, -12314.894773351523, -7445.969575163076, -15106.828821519473, -834.8153036612634, -1647.9941186897897, -2178.7139390366006, -3995.3966731305927, -20631.24127760426, -17647.439855031953, -22950.77120670929, -13520.749034970884, -7659.18286552225, -12342.074494609178, -6474.383947179788, -9135.090903650631, 0.00875, -0.01925, 0.86725, 192.0, 0.0, 0.0, 0.0, 0.0, 0.0, 0.0, 0.0, 0.0, 0.0, 1.644497684291378E9, 0.0, 2022-02-10 23:54:44.291
188.0, -10568.821199991848, -12320.035674576244, -7453.122133388774, -15112.461461122211, -847.2428735784142, -1658.5441420726947, -2206.228936461084, -4005.678475580034, -20640.04786491965, -17665.656526763025, -22956.247384100843, -13524.3923693171, -7665.240188269639, -12352.892738925546, -6472.484048901088, -9140.030639175253, 0.00875, -0.01925, 0.86725, 192.0, 0.0, 0.0, 0.0, 0.0, 0.0, 0.0, 0.0, 0.0, 0.0, 1.6444976842913888E9, 0.0, 2022-02-10 23:54:44.291
190.0, -10571.95044421559, -12323.567250200183, -7455.781990978956, -15107.164097686304, -850.7520974578974, -1642.5849965316054, -2214.6555441207342, -3999.9564289994755, -20642.908888209928, -17673.233768133374, -22969.07728541819, -13517.53038376932, -7661.462743456691, -12360.760552973814, -6482.698796117163, -9141.86348222059, 0.00875, -0.01925, 0.86725, 192.0, 0.0, 0.0, 0.0, 0.0, 0.0, 0.0, 0.0, 0.0, 0.0, 1.6444976842913957E9, 0.0, 2022-02-10 23:54:44.291
192.0, -10561.690993510603, -12317.755796641803, -7448.6517844977125, -15105.018330218594, -844.1806845880371, -1644.9989849327785, -2171.4272703441707, -4000.9175540110537, -20642.08187366508, -17668.0705151642, -22950.815910198202, -13511.830688933218, -7671.252807528116, -12357.631308750071, -6471.008833767037, -9134.934441439444, 0.009375000000000001, -0.019625, 0.9276249999999999, 192.0, 0.0, 40.0, 127.5, 48.0, 15.0, 112.0, 0.0, 0.0, 0.0, 1.6444976842914023E9, 0.0, 2022-02-10 23:54:44.291
194.0, -10575.482019839528, -12328.261116535798, -7466.197903895129, -15111.567391343999, -856.4070888050901, -1655.8619327380577, -2193.6225525882905, -4009.4559203929807, -20642.305391109632, -17667.44466631945, -22965.948041194446, -13522.157194871568, -7680.998168110629, -12366.102619898633, -6475.635644869286, -9137.61665077408, 0.009375000000000001, -0.019625, 0.9276249999999999, 192.0, 0.0, 0.0, 0.0, 0.0, 0.0, 0.0, 0.0, 0.0, 0.0, 1.6444976842914093E9, 0.0, 2022-02-10 23:54:44.291
196.0, -10569.581159303327, -12330.831567148158, -7463.538046304947, -15109.84630702094, -845.8794171666405, -1655.2807873822198, -2183.9218954946873, -4008.293629681305, -20646.84279523406, -17679.760477514326, -22970.843073230157, -13526.918116440549, -7676.863095386398, -12359.955890173424, -6484.218714740124, -9142.779903743256, 0.009375000000000001, -0.019625, 0.9276249999999999, 192.0, 0.0, 0.0, 0.0, 0.0, 0.0, 0.0, 0.0, 0.0, 0.0, 1.644497684291416E9, 0.0, 2022-02-10 23:54:44.291
198.0, -10588.468383368061, -12343.34854404313, -7462.711031760101, -15113.534344856065, -863.3808330751459, -1659.5723223176387, -2201.602125358835, -4013.5686413727576, -20642.864184721016, -17669.992765187355, -22955.666238745005, -13520.302000081778, -7672.079822072962, -12362.839265208158, -6478.295502459468, -9141.215281631385, 0.009375000000000001, -0.019625, 0.9276249999999999, 192.0, 0.0, 0.0, 0.0, 0.0, 0.0, 0.0, 0.0, 0.0, 0.0, 1.6444976842914228E9, 0.0, 2022-02-10 23:54:44.291
200.0, -10579.035947207922, -12318.046369319722, -7464.163895149696, -15118.787004803064, -855.3342050712354, -1658.0971071835886, -2189.308665908416, -4001.833975533721, -20650.12850166899, -17668.763419242314, -22976.74393376636, -13535.322372355746, -7681.556961722013, -12356.267852338297, -6482.922313561716, -9142.869310721077, 0.009375000000000001, -0.019625, 0.9276249999999999, 192.0, 0.0, 0.0, 0.0, 0.0, 0.0, 0.0, 0.0, 0.0, 0.0, 1.6444976842914295E9, 0.0, 2022-02-10 23:54:44.291
202.0, -10571.70457502658, -12328.238764791342, -7461.459334070603, -15115.925981512784, -845.0971061107048, -1662.1427729299992, -2194.2260496885838, -4019.8494815646986, -20646.507519067232, -17663.10842789512, -22961.3212300922, -13531.008485675871, -7673.867961629387, -12372.003480434834, -6472.752269834551, -9143.338697354638, 0.0106875, -0.025812500000000002, 0.9578125, 192.0, 0.0, 48.0, 127.5, 0.0, 15.0, 112.0, 0.0, 0.0, 0.0, 1.644497684291437E9, 0.0, 2022-02-10 23:54:44.291
204.0, -10591.552924102894, -12346.075456866678, -7468.9024649742205, -15118.675246080787, -872.3662343461793, -1672.2010579348873, -2210.9228027966983, -4022.5987461327013, -20652.00604820324, -17691.629253820094, -22977.056858188735, -13525.86758445115, -7685.021482112585, -12376.764402003813, -6483.57051415092, -9151.206511402906, 0.0106875, -0.025812500000000002, 0.9578125, 192.0, 0.0, 0.0, 0.0, 0.0, 0.0, 0.0, 0.0, 0.0, 0.0, 1.6444976842914433E9, 0.0, 2022-02-10 23:54:44.291
206.0, -10576.353737873285, -12332.060913093199, -7461.548741048425, -15110.941542499251, -855.8035917047968, -1657.7841827612142, -2199.2328404465725, -4016.4073129185813, -20652.60954530353, -17688.142381685066, -22973.122951164598, -13515.25050583488, -7691.145860093339, -12377.278492126286, -6485.805688596451, -9148.993688701832, 0.0106875, -0.025812500000000002, 0.9578125, 192.0, 0.0, 0.0, 0.0, 0.0, 0.0, 0.0, 0.0, 0.0, 0.0, 1.6444976842914505E9, 0.0, 2022-02-10 23:54:44.291
208.0, -10571.056374437378, -12330.116311325588, -7469.371851607782, -15114.80839429002, -854.6636527375762, -1649.46933382384, -2192.639075832257, -4014.820339062255, -20647.64745803445, -17675.468942578907, -22963.48934930436, -13522.805395460773, -7679.18767680975, -12350.791674946748, -6480.0612902714365, -9144.679802021958, 0.0106875, -0.025812500000000002, 0.9578125, 192.0, 0.0, 0.0, 0.0, 0.0, 0.0, 0.0, 0.0, 0.0, 0.0, 1.6444976842914574E9, 0.0, 2022-02-10 23:54:44.291
210.0, -10574.81146750587, -12330.58569795915, -7479.8771715017765, -15114.495469867645, -856.2059231049924, -1648.9105402124574, -2192.952000254631, -4004.8514610351876, -20647.379237100988, -17673.144361155555, -22981.9742419689, -13532.349590343189, -7683.993301867641, -12357.988936661355, -6483.861086828839, -9140.14239789753, 0.0106875, -0.025812500000000002, 0.9578125, 192.0, 0.0, 0.0, 0.0, 0.0, 0.0, 0.0, 0.0, 0.0, 0.0, 1.6444976842914643E9, 0.0, 2022-02-10 23:54:44.291
212.0, -10574.207970405576, -12333.9608113719, -7468.589540551847, -15125.537231628567, -857.3905655611236, -1655.079621682122, -2194.2931049219496, -4010.6852663380228, -20654.151815670946, -17668.49519830885, -22969.16669239601, -13528.438035063511, -7685.893200146342, -12359.933538428968, -6481.625912383308, -9141.416447331483, 0.01134375, -0.02690625, 0.97590625, 192.0, 0.0, 48.0, 127.5, 16.0, 15.5, 8.0, 0.0, 0.0, 0.0, 1.6444976842914712E9, 0.0, 2022-02-10 23:54:44.291
214.0, -10602.438223652629, -12340.912203897502, -7484.548686092936, -15119.457557136722, -876.344844859224, -1684.7403865743145, -2219.7740936009995, -4038.1779120180504, -20666.42292337691, -17695.987843988878, -22988.188026927477, -13541.96084045897, -7695.750319451132, -12390.846001010657, -6489.694892131673, -9159.342546384638, 0.01134375, -0.02690625, 0.97590625, 192.0, 0.0, 0.0, 0.0, 0.0, 0.0, 0.0, 0.0, 0.0, 0.0, 1.644497684291478E9, 0.0, 2022-02-10 23:54:44.291
216.0, -10582.14283968721, -12330.183366558955, -7474.088069687852, -15118.719949569697, -862.6879289970313, -1658.4100316059628, -2199.344599168849, -4017.547251885802, -20656.208176160835, -17676.9218059685, -22976.341602366163, -13538.16104390157, -7684.417985012292, -12387.850867253646, -6497.607409668853, -9157.487351594847, 0.01134375, -0.02690625, 0.97590625, 192.0, 0.0, 0.0, 0.0, 0.0, 0.0, 0.0, 0.0, 0.0, 0.0, 1.644497684291486E9, 0.0, 2022-02-10 23:54:44.291
218.0, -10598.459613139585, -12356.960756416413, -7476.949092978131, -15124.4196444058, -858.9328359285398, -1665.0261479647338, -2186.022959473486, -4019.4024466755927, -20659.13625468448, -17695.429050377494, -22976.207491899433, -13524.280610594824, -7696.934961907264, -12357.340736072152, -6483.011720539537, -9150.223034646873, 0.01134375, -0.02690625, 0.97590625, 192.0, 0.0, 0.0, 0.0, 0.0, 0.0, 0.0, 0.0, 0.0, 0.0, 1.644497684291493E9, 0.0, 2022-02-10 23:54:44.291
220.0, -10600.068938740365, -12360.022945406788, -7483.073470958886, -15121.4692141377, -869.5946180337213, -1667.1272119435325, -2199.1657852132066, -4018.9107082975756, -20661.03615296318, -17703.65449233705, -22991.473733362407, -13537.803415990284, -7697.069072373995, -12378.440782837963, -6490.767775865528, -9155.162770171497, 0.01134375, -0.02690625, 0.97590625, 192.0, 0.0, 0.0, 0.0, 0.0, 0.0, 0.0, 0.0, 0.0, 0.0, 1.644497684291502E9, 0.0, 2022-02-10 23:54:44.291
222.0, -10584.780345532936, -12335.123102083577, -7473.998662710031, -15122.98913276066, -865.4595453094895, -1653.7832205037143, -2187.7440437965447, -4008.941830270509, -20664.724190798308, -17690.668128808516, -22979.493198334363, -13530.025008919838, -7691.771708938088, -12366.862579210112, -6487.169145008224, -9150.692421280435, 0.008, -0.024, 0.994, 192.0, 0.0, 32.0, 127.5, 32.0, 15.5, 8.0, 0.0, 0.0, 0.0, 1.6444976842915206E9, 0.0, 2022-02-10 23:54:44.291
224.0, -10586.52378160045, -12340.241651563842, -7479.027805212475, -15122.765615316108, -871.3604058456905, -1658.5888455616052, -2194.538974110958, -4017.3684379301594, -20659.046847706657, -17688.0753264517, -22983.963547225423, -13528.72860774143, -7689.938865892753, -12356.647831994038, -6484.66574962923, -9151.362973614094, 0.008, -0.024, 0.994, 192.0, 0.0, 0.0, 0.0, 0.0, 0.0, 0.0, 0.0, 0.0, 0.0, 1.6444976842915273E9, 0.0, 2022-02-10 23:54:44.291
226.0, -10573.693880283105, -12322.717883910882, -7470.087107430352, -15118.317618169502, -856.4741440384561, -1649.46933382384, -2189.7109973086117, -3991.2392486619055, -20651.357847614032, -17670.037468676266, -22979.694364034458, -13534.718875255452, -7687.279008302571, -12369.276567611287, -6483.883438573294, -9146.624403789569, 0.008, -0.024, 0.994, 192.0, 0.0, 0.0, 0.0, 0.0, 0.0, 0.0, 0.0, 0.0, 0.0, 1.6444976842915337E9, 0.0, 2022-02-10 23:54:44.291
228.0, -10589.205990935086, -12347.81889293419, -7478.6478255567345, -15121.960952515718, -862.2855975968358, -1656.37602286053, -2195.142471211251, -4006.5948971027015, -20653.99535345976, -17688.008271218332, -22969.032581929278, -13529.86854670865, -7669.151743549317, -12354.278547081774, -6476.663825114229, -9145.059781677697, 0.008, -0.024, 0.994, 192.0, 0.0, 0.0, 0.0, 0.0, 0.0, 0.0, 0.0, 0.0, 0.0, 1.6444976842915406E9, 0.0, 2022-02-10 23:54:44.291
230.0, -10598.750185817504, -12351.305765069219, -7482.492325603048, -15132.063941009515, -874.7802227473525, -1650.9221972134349, -2189.9121630087093, -4009.1206442261514, -20656.2752313942, -17691.584550331183, -22987.58452982718, -13543.592517804209, -7677.600702953423, -12357.228977349876, -6481.067118771925, -9153.084057937152, 0.008, -0.024, 0.994, 192.0, 0.0, 0.0, 0.0, 0.0, 0.0, 0.0, 0.0, 0.0, 0.0, 1.6444976842915473E9, 0.0, 2022-02-10 23:54:44.291
232.0, -10584.199200177098, -12327.523508968772, -7478.916046490199, -15127.839461307463, -876.925990215062, -1648.0611739231556, -2195.43304388917, -4004.9632197574642, -20656.409341860934, -17684.16377117202, -22979.40379135654, -13539.099817168692, -7695.638560728856, -12370.952948445434, -6482.967017050626, -9150.580662558159, 0.008, -0.02, 0.992, 192.0, 0.0, 32.0, 127.5, 48.0, 15.5, 0.0, 0.0, 0.0, 0.0, 1.6444976842915535E9, 0.0, 2022-02-10 23:54:44.291
234.0, -10601.477098641051, -12338.542918985238, -7486.67210181619, -15128.4206066633, -881.2175251504809, -1660.5110955847617, -2199.0987299798408, -4014.6862285955226, -20659.94091748487, -17687.78475377378, -22994.290053163775, -13535.501186311387, -7692.486964760657, -12372.249349623842, -6482.475278672609, -9153.396982359527, 0.008, -0.02, 0.992, 192.0, 0.0, 0.0, 0.0, 0.0, 0.0, 0.0, 0.0, 0.0, 0.0, 1.6444976842915604E9, 0.0, 2022-02-10 23:54:44.291
236.0, -10585.652063566693, -12345.784884188759, -7473.037537698453, -15127.280667696079, -861.7715074743638, -1649.5140373127506, -2193.4213868881925, -4020.65414436509, -20657.035190705683, -17686.35424212864, -22983.06947744721, -13538.16104390157, -7686.9660838801965, -12353.16095985901, -6479.368386193322, -9152.212339903395, 0.008, -0.02, 0.992, 192.0, 0.0, 0.0, 0.0, 0.0, 0.0, 0.0, 0.0, 0.0, 0.0, 1.6444976842915668E9, 0.0, 2022-02-10 23:54:44.291
238.0, -10594.458650882085, -12347.39420978954, -7479.184267423662, -15125.917211284306, -875.5848855477435, -1663.0591944526666, -2212.2415557195613, -4012.808682061277, -20653.816539504118, -17683.78379151628, -22970.10546566313, -13527.074578651736, -7685.960255379708, -12372.674032768493, -6471.120592489314, -9151.18415965845, 0.008, -0.02, 0.992, 192.0, 0.0, 0.0, 0.0, 0.0, 0.0, 0.0, 0.0, 0.0, 0.0, 1.6444976842915733E9, 0.0, 2022-02-10 23:54:44.291
240.0, -10593.43047063714, -12351.529282513773, -7479.38543312376, -15127.682999096276, -875.2719611253692, -1655.370194360041, -2190.158032197718, -4016.9884582744194, -20660.56676632962, -17699.49706786836, -22991.83136127369, -13548.644012051107, -7683.054528600518, -12361.386401818563, -6480.307159460444, -9155.363935871594, 0.008, -0.02, 0.992, 192.0, 0.0, 0.0, 0.0, 0.0, 0.0, 0.0, 0.0, 0.0, 0.0, 1.64449768429158E9, 0.0, 2022-02-10 23:54:44.291
242.0, -10577.560732073873, -12336.330096284164, -7468.567188807391, -15129.269972952603, -863.5149435418778, -1650.3187001131416, -2196.1035962228293, -4013.166309972562, -20653.28009763719, -17680.609843803628, -22974.486407576373, -13531.924907198538, -7686.653159457823, -12365.968509431901, -6465.75617382004, -9149.172502657473, 0.006, -0.02, 0.99, 192.0, 0.0, 24.0, 127.5, 48.0, 15.0, 120.0, 0.0, 0.0, 0.0, 1.6444976842915866E9, 0.0, 2022-02-10 23:54:44.291
244.0, -10600.448918396107, -12340.509872497305, -7480.950055235631, -15135.796682333552, -877.3059698708022, -1660.6899095404042, -2208.888794051265, -4032.7911416043216, -20653.905946481937, -17681.101582181644, -22985.79639027076, -13545.827692249739, -7693.828069427976, -12366.683765254471, -6471.969958778615, -9154.089886437641, 0.006, -0.02, 0.99, 192.0, 0.0, 0.0, 0.0, 0.0, 0.0, 0.0, 0.0, 0.0, 0.0, 1.6444976842915933E9, 0.0, 2022-02-10 23:54:44.291
246.0, -10582.053432709388, -12334.631363705561, -7468.366023107294, -15124.598458361443, -856.831771949741, -1650.8998454689797, -2186.402939129226, -4001.811623789266, -20651.98369645878, -17690.109335197132, -22976.363954110617, -13535.121206655647, -7687.301360047026, -12355.373782560086, -6469.064231999426, -9152.927595725965, 0.006, -0.02, 0.99, 192.0, 0.0, 0.0, 0.0, 0.0, 0.0, 0.0, 0.0, 0.0, 0.0, 1.644497684291614E9, 0.0, 2022-02-10 23:54:44.291
248.0, -10586.836706022825, -12333.9608113719, -7479.564247079403, -15131.818071820508, -867.9852924329392, -1665.4284793649292, -2206.854785305832, -4012.0934262387073, -20646.060484178124, -17684.36493687212, -22960.74008473636, -13528.147462385592, -7684.976778623674, -12355.127913371076, -6460.972900506605, -9148.61370904609, 0.006, -0.02, 0.99, 192.0, 0.0, 0.0, 0.0, 0.0, 0.0, 0.0, 0.0, 0.0, 0.0, 1.6444976842916207E9, 0.0, 2022-02-10 23:54:44.291
250.0, -10586.344967644807, -12331.613878204094, -7479.251322657028, -15131.32633344249, -868.9464174445174, -1659.7734880177366, -2189.0404449749526, -4011.0875977382184, -20647.64745803445, -17674.999555945345, -22981.482503590883, -13544.263070137868, -7682.316921033493, -12364.739163486858, -6467.18668546518, -9158.38142137306, 0.006, -0.02, 0.99, 192.0, 0.0, 0.0, 0.0, 0.0, 0.0, 0.0, 0.0, 0.0, 0.0, 1.644497684291628E9, 0.0, 2022-02-10 23:54:44.291
252.0, -10581.785211775925, -12346.500140011329, -7472.344633620338, -15126.364246173413, -862.1291353856487, -1655.8172292491472, -2191.923820009687, -4009.2771064373383, -20648.250955134747, -17682.8226665047, -22971.670087775005, -13535.255317122379, -7696.622037484889, -12362.436933807961, -6459.855313283839, -9151.921767225476, 0.006, -0.02, 0.992, 192.0, 0.0, 24.0, 127.5, 48.0, 15.5, 0.0, 0.0, 0.0, 0.0, 1.6444976842916365E9, 0.0, 2022-02-10 23:54:44.291
254.0, -10572.151609915687, -12338.945250385434, -7482.469973858592, -15120.999827504138, -877.8647634821849, -1658.790011261703, -2208.9782010290864, -4013.814510561766, -20651.715475525318, -17689.952872985945, -22975.134608165576, -13533.243660121401, -7694.252752572626, -12359.307689584219, -6464.951511019649, -9155.565101571692, 0.006, -0.02, 0.992, 192.0, 0.0, 0.0, 0.0, 0.0, 0.0, 0.0, 0.0, 0.0, 0.0, 1.6444976842916431E9, 0.0, 2022-02-10 23:54:44.291
0.0, -10565.289624367908, -12320.996799587823, -7471.674081286679, -15118.496432125145, -852.8755131811516, -1654.6549385374713, -2182.2455146605394, -4011.847557049699, -20642.93123995438, -17673.45728557793, -22976.45336108844, -13524.146500128092, -7694.498621761635, -12352.78098020327, -6467.23138895409, -9151.89941548102, 0.006, -0.02, 0.992, 192.0, 0.0, 0.0, 0.0, 0.0, 0.0, 0.0, 0.0, 0.0, 0.0, 1.64449768429165E9, 0.0, 2022-02-10 23:54:44.291
2.0, -10589.205990935086, -12338.58762247415, -7481.508848847014, -15122.229173449181, -862.5761702747549, -1660.3769851180298, -2192.4379101321592, -4009.3665134151597, -20643.37827484349, -17667.556425041726, -22958.862538202113, -13516.502203524376, -7689.335368792459, -12363.39805881954, -6460.391755150767, -9150.647717791524, 0.006, -0.02, 0.992, 192.0, 0.0, 0.0, 0.0, 0.0, 0.0, 0.0, 0.0, 0.0, 0.0, 1.6444976842916567E9, 0.0, 2022-02-10 23:54:44.291
4.0, -10584.959159488579, -12332.843224149135, -7487.990854739053, -15121.513917626611, -866.3536150877018, -1655.7948775046918, -2210.2522504630388, -4012.4063506610814, -20652.18486215888, -17684.856675250136, -22977.950927966944, -13531.164947887059, -7693.38103453887, -12347.908299912013, -6472.193476223169, -9151.273566636273, 0.006, -0.02, 0.992, 192.0, 0.0, 0.0, 0.0, 0.0, 0.0, 0.0, 0.0, 0.0, 0.0, 1.644497684291664E9, 0.0, 2022-02-10 23:54:44.291
6.0, -10571.90574072668, -12321.19796528792, -7477.95492147862, -15121.55862111552, -857.0999928832047, -1644.6190052770385, -2176.948151224631, -4006.4607866359697, -20646.75338825624, -17673.54669255575, -22964.875157460592, -13522.358360571667, -7679.165325065294, -12343.415599276495, -6466.672595342708, -9148.703116023913, 0.012, -0.016, 0.99, 192.0, 0.0, 48.0, 127.5, 64.0, 15.0, 120.0, 0.0, 0.0, 0.0, 1.6444976842916708E9, 0.0, 2022-02-10 23:54:44.291
8.0, -10595.218610193564, -12341.605107975616, -7484.258113415017, -15121.156289715325, -875.2943128698246, -1656.532485071717, -2203.0326370039747, -4013.7474553284, -20644.60762078853, -17667.578776786184, -22971.78184649728, -13528.706255996975, -7696.242057829149, -12357.944233172446, -6469.153638977246, -9146.512645067292, 0.012, -0.016, 0.99, 192.0, 0.0, 0.0, 0.0, 0.0, 0.0, 0.0, 0.0, 0.0, 0.0, 1.644497684291678E9, 0.0, 2022-02-10 23:54:44.291
10.0, -10567.413040091162, -12339.39228527454, -7480.592427324346, -15120.217516448203, -859.6704434955649, -1647.9941186897897, -2196.5282793674805, -3989.0487777052854, -20645.121710911004, -17684.45434384994, -22978.621480300604, -13535.59059328921, -7703.461671288213, -12357.340736072152, -6473.691043101674, -9146.66910727848, 0.012, -0.016, 0.99, 192.0, 0.0, 0.0, 0.0, 0.0, 0.0, 0.0, 0.0, 0.0, 0.0, 1.6444976842916849E9, 0.0, 2022-02-10 23:54:44.291
12.0, -10599.57720036235, -12350.523454013284, -7488.259075672517, -15130.678132853287, -871.0474814233162, -1673.7656800467587, -2200.059854991419, -4008.7853680593216, -20647.580402801086, -17683.984957216377, -22972.944137208957, -13529.779139730828, -7706.52386027859, -12354.993802904344, -6466.806705809439, -9147.585528801148, 0.012, -0.016, 0.99, 192.0, 0.0, 0.0, 0.0, 0.0, 0.0, 0.0, 0.0, 0.0, 0.0, 1.6444976842916918E9, 0.0, 2022-02-10 23:54:44.291
14.0, -10611.244810968019, -12351.10459936912, -7495.00930249802, -15129.582897374976, -875.8307547367519, -1674.1009562135885, -2196.9976660010416, -4016.9214030410535, -20664.858301265038, -17696.859562022633, -22986.60105307115, -13542.810206748272, -7708.982552168674, -12376.093849670155, -6475.054499513448, -9159.677822551468, 0.012, -0.016, 0.99, 192.0, 0.0, 0.0, 0.0, 0.0, 0.0, 0.0, 0.0, 0.0, 0.0, 1.6444976842916987E9, 0.0, 2022-02-10 23:54:44.291
16.0, -10589.965950246567, -12336.084227095154, -7488.52729660598, -15136.04255152256, -865.3030830983023, -1657.627720550027, -2201.982105014575, -4010.2158797044613, -20663.94187974237, -17682.487390337872, -22977.146265166553, -13532.863680465662, -7712.111796392417, -12345.382552788562, -6470.003005266548, -9147.943156712432, 0.01, -0.02, 0.994, 192.0, 0.0, 40.0, 127.5, 48.0, 15.5, 8.0, 0.0, 0.0, 0.0, 1.6444976842917056E9, 0.0, 2022-02-10 23:54:44.291
18.0, -10596.515011371972, -12337.134759084554, -7500.060796744919, -15138.814167835018, -873.9532082025062, -1672.178706190432, -2225.093808781363, -4023.4928159109136, -20657.99631571726, -17672.02677393279, -22985.103486192642, -13548.10757018418, -7694.990360139652, -12345.315497555197, -6472.8416768123725, -9151.944118969932, 0.01, -0.02, 0.994, 192.0, 0.0, 0.0, 0.0, 0.0, 0.0, 0.0, 0.0, 0.0, 0.0, 1.6444976842917125E9, 0.0, 2022-02-10 23:54:44.291
20.0, -10587.730775801037, -12354.032677892767, -7491.5000786185365, -15130.387560175368, -854.0601556372828, -1665.5402380872058, -2191.119157209296, -4009.0759407372407, -20656.632859305486, -17669.16575064251, -22993.664204319026, -13535.724703755941, -7709.966028924708, -12370.841189723158, -6476.060328013937, -9147.831397990156, 0.01, -0.02, 0.994, 192.0, 0.0, 0.0, 0.0, 0.0, 0.0, 0.0, 0.0, 0.0, 0.0, 1.6444976842917197E9, 0.0, 2022-02-10 23:54:44.291
0.0, -5308.0028662685, -6232.180444262081, -3755.853027803067, -7624.1576819607835, -480.0707674110851, -918.5449383908438, -1224.227395561623, -2113.9832870940313, -10329.165795942044, -8850.352031034474, -11495.4127663866, -6768.845828634004, -3853.95483421741, -6184.906504739107, -3235.7055825836164, -4576.81024990204, 0.008, -0.022, 0.99, 192.0, 0.0, 32.0, 127.5, 40.0, 15.0, 120.0, 0.0, 0.0, 0.0, 1.6444976848854227E9, 0.0, 2022-02-10 23:54:44.885
2.0, -10628.500357687517, -12470.217045571453, -7515.595259141357, -15255.713791336275, -968.4563837595445, -1847.0811065532098, -2454.8026865485535, -4242.405801106191, -20544.583564351033, -17744.021742823334, -23108.99920570841, -13568.604119849697, -7825.703361714288, -12369.701250755938, -6656.12598134589, -9299.152707952584, 0.008, -0.022, 0.99, 192.0, 0.0, 0.0, 0.0, 0.0, 0.0, 0.0, 0.0, 0.0, 0.0, 1.6444976848854349E9, 0.0, 2022-02-10 23:54:44.885
4.0, -10629.86381409929, -12465.411420513561, -7524.7818261124885, -15258.373648926456, -976.1230321077147, -1856.0441560797879, -2467.5655326325336, -4246.809094763887, -20545.87996552944, -17745.720475401937, -23128.19935419552, -13583.78095433485, -7831.112483872472, -12368.002518177334, -6664.50788551663, -9308.94277202401, 0.008, -0.022, 0.99, 192.0, 0.0, 0.0, 0.0, 0.0, 0.0, 0.0, 0.0, 0.0, 0.0, 1.6444976848854418E9, 0.0, 2022-02-10 23:54:44.885
6.0, -10613.278819713452, -12463.064487345755, -7508.7556253380335, -15252.137512223426, -962.5555232233434, -1845.0023943188662, -2470.8959425563744, -4227.251318365493, -20543.041293983617, -17745.11697830164, -23114.833011011247, -13576.740154831428, -7829.592565249511, -12380.564198561216, -6664.776106450094, -9303.466594632459, 0.008, -0.022, 0.99, 192.0, 0.0, 0.0, 0.0, 0.0, 0.0, 0.0, 0.0, 0.0, 0.0, 1.6444976848854554E9, 0.0, 2022-02-10 23:54:44.885
8.0, -10633.238927512042, -12465.254958302374, -7519.640924887768, -15254.395038413411, -978.0452821308711, -1850.523275199327, -2438.6423753073664, -4228.435960821625, -20543.3989218949, -17737.159757275553, -23113.62601681066, -13572.739192573928, -7828.385571048924, -12368.896587955545, -6662.719745960206, -9298.638617830113, 0.002, -0.022, 0.992, 192.0, 0.0, 8.0, 127.5, 40.0, 15.5, 0.0, 0.0, 0.0, 0.0, 1.644497684885462E9, 0.0, 2022-02-10 23:54:44.885
10.0, -10622.800662851414, -12452.022725584833, -7507.6380381152685, -15245.499044120199, -968.4340320150891, -1853.0490223227766, -2444.632642821389, -4231.3193358563585, -20542.415445138868, -17729.11312927164, -23121.113851203187, -13569.006451249892, -7824.898698913897, -12392.723547544903, -6664.239664583167, -9303.019559743352, 0.002, -0.022, 0.992, 192.0, 0.0, 0.0, 0.0, 0.0, 0.0, 0.0, 0.0, 0.0, 0.0, 1.6444976848854687E9, 0.0, 2022-02-10 23:54:44.885
12.0, -10614.709331358592, -12459.376449510628, -7502.452433401637, -15248.605936599486, -959.9627208665278, -1848.8692461096343, -2452.701622569755, -4223.987963675018, -20533.16182293437, -17744.31231550125, -23107.635749296638, -13564.334936658734, -7821.948268645796, -12378.64194853806, -6656.684774957273, -9297.498678862892, 0.002, -0.022, 0.992, 192.0, 0.0, 0.0, 0.0, 0.0, 0.0, 0.0, 0.0, 0.0, 0.0, 1.6444976848854752E9, 0.0, 2022-02-10 23:54:44.885
14.0, -10634.177700779164, -12459.644670444093, -7512.264849217517, -15250.774055811651, -966.1318023361924, -1856.1112113131537, -2441.950433486752, -4240.863530738775, -20540.78376779363, -17749.386161492606, -23120.711519802993, -13576.538989131332, -7817.477919754734, -12382.821724751202, -6659.769315692105, -9301.566696353757, 0.002, -0.022, 0.992, 192.0, 0.0, 0.0, 0.0, 0.0, 0.0, 0.0, 0.0, 0.0, 0.0, 1.6444976848854818E9, 0.0, 2022-02-10 23:54:44.885
16.0, -10619.760825605492, -12445.741885392892, -7504.665256102712, -15247.041314487615, -949.9938428394607, -1849.8527228656678, -2425.9242327122965, -4233.532158557434, -20543.06364572807, -17736.913888086547, -23111.927284232057, -13570.816942550773, -7818.170823832849, -12384.945140474456, -6659.098763358446, -9303.556001610279, 0.003, -0.02, 0.991, 192.0, 0.0, 16.0, 127.5, 56.0, 15.0, 120.0, 0.0, 0.0, 0.0, 1.6444976848854885E9, 0.0, 2022-02-10 23:54:44.885
18.0, -10630.847290855323, -12448.446446471984, -7503.257096202028, -15243.040352230115, -958.3980987546562, -1859.0169380923437, -2443.850331765453, -4246.451466852602, -20533.720616545754, -17727.593210648683, -23105.825257995755, -13564.35728840319, -7810.660637695866, -12383.78284976278, -6650.962728376714, -9300.22559168644, 0.003, -0.02, 0.991, 192.0, 0.0, 0.0, 0.0, 0.0, 0.0, 0.0, 0.0, 0.0, 0.0, 1.644497684885495E9, 0.0, 2022-02-10 23:54:44.885
20.0, -10614.418758680673, -12446.36773423764, -7503.972352024598, -15245.58845109802, -954.8441713862624, -1852.55728394476, -2437.413029362325, -4218.2882688389145, -20533.027712467636, -17724.79924259177, -23113.782479021847, -13563.932605258538, -7812.2252598077375, -12371.489390312361, -6652.348536532943, -9300.583219597724, 0.003, -0.02, 0.991, 192.0, 0.0, 0.0, 0.0, 0.0, 0.0, 0.0, 0.0, 0.0, 0.0, 1.6444976848855016E9, 0.0, 2022-02-10 23:54:44.885
22.0, -10617.235078482043, -12458.236510543407, -7506.207526470128, -15251.936346523327, -954.888874875173, -1852.3784699891175, -2433.859101993931, -4225.016143919962, -20536.20166018029, -17736.98094331991, -23103.232455638943, -13562.435038380032, -7812.515832485657, -12378.954872960434, -6646.514731230108, -9292.961274738464, 0.003, -0.02, 0.991, 192.0, 0.0, 0.0, 0.0, 0.0, 0.0, 0.0, 0.0, 0.0, 0.0, 1.644497684885508E9, 0.0, 2022-02-10 23:54:44.885
24.0, -10631.562546677893, -12470.954653138479, -7511.929573050687, -15254.417390157867, -957.5487324653545, -1858.167571803042, -2445.0573259660396, -4234.515635313468, -20537.140433447414, -17747.75448414737, -23120.130374447155, -13580.472896155465, -7807.263172538659, -12384.185181162977, -6648.526388231086, -9303.645408588101, 0.003, -0.02, 0.991, 192.0, 0.0, 0.0, 0.0, 0.0, 0.0, 0.0, 0.0, 0.0, 0.0, 1.6444976848855147E9, 0.0, 2022-02-10 23:54:44.885
26.0, -10624.164119263187, -12465.500827491383, -7506.945134037153, -15255.803198314095, -950.5526364508435, -1839.7944378607797, -2437.8377125069755, -4219.115283383761, -20539.844994526506, -17744.0887980567, -23113.156630177098, -13579.869399055171, -7814.527489486634, -12378.217265393409, -6647.609966708418, -9300.426757386536, 0.0035, -0.019000000000000003, 0.9904999999999999, 192.0, 0.0, 16.0, 127.5, 56.0, 15.0, 120.0, 0.0, 0.0, 0.0, 1.6444976848855212E9, 0.0, 2022-02-10 23:54:44.885
28.0, -10643.498378217027, -12477.906045664078, -7529.542747681469, -15261.324079194555, -972.502049505955, -1853.361946745151, -2453.707451070243, -4233.509806812979, -20547.757512063687, -17750.615507437647, -23120.62211282517, -13585.904370058104, -7817.88025115493, -12371.198817634442, -6651.208597565723, -9304.248905688395, 0.0035, -0.019000000000000003, 0.9904999999999999, 192.0, 0.0, 0.0, 0.0, 0.0, 0.0, 0.0, 0.0, 0.0, 0.0, 1.6444976848855278E9, 0.0, 2022-02-10 23:54:44.885
30.0, -10634.021238567977, -12468.406554270572, -7518.0315992869855, -15250.103503477992, -958.7110231770305, -1852.6466909225812, -2430.215767647716, -4233.375696346247, -20553.859538299985, -17757.164568563054, -23140.313999690297, -13587.848971825717, -7823.915222157863, -12395.293998157264, -6656.751830190638, -9306.528783622836, 0.0035, -0.019000000000000003, 0.9904999999999999, 192.0, 0.0, 0.0, 0.0, 0.0, 0.0, 0.0, 0.0, 0.0, 0.0, 1.6444976848855343E9, 0.0, 2022-02-10 23:54:44.885
32.0, -10632.791892622936, -12465.769048424847, -7509.29206720496, -15252.897471534905, -956.9675871095166, -1852.5125804558493, -2436.5860148174784, -4240.774123760953, -20548.092788230515, -17743.75352188987, -23121.851458770212, -13563.910253514083, -7810.25830629567, -12391.583608577683, -6642.960803861714, -9306.908763278576, 0.0035, -0.019000000000000003, 0.9904999999999999, 192.0, 0.0, 0.0, 0.0, 0.0, 0.0, 0.0, 0.0, 0.0, 0.0, 1.6444976848855407E9, 0.0, 2022-02-10 23:54:44.885
34.0, -10638.223366525575, -12456.649536687082, -7517.450453931147, -15254.864425046973, -962.5778749677986, -1856.7594119023577, -2441.4586951087354, -4237.488417326023, -20549.679762086842, -17754.683524928514, -23130.211011196498, -13580.78582057784, -7814.885117397919, -12396.433937124484, -6647.408801008321, -9313.144899981608, 0.0035, -0.019000000000000003, 0.9904999999999999, 192.0, 0.0, 0.0, 0.0, 0.0, 0.0, 0.0, 0.0, 0.0, 0.0, 1.6444976848855474E9, 0.0, 2022-02-10 23:54:44.885
36.0, -10618.509127915995, -12457.834179143212, -7503.704131091134, -15246.326058665045, -944.405906725634, -1842.8342751067014, -2432.9650322157186, -4226.334896842825, -20545.030599240137, -17743.37354223413, -23118.05166221281, -13569.967576261472, -7811.487652240712, -12390.510724843827, -6642.871396883893, -9304.830051044233, 7.5E-4, -0.022500000000000003, 1.00125, 192.0, 127.5, 120.0, 127.5, 24.0, 15.5, 80.0, 0.0, 0.0, 0.0, 1.644497684885554E9, 0.0, 2022-02-10 23:54:44.885
38.0, -10630.646125155226, -12468.473609503939, -7512.778939339989, -15255.870253547462, -950.2397120284692, -1860.9615398599553, -2439.067058452017, -4236.683754525632, -20543.533032361633, -17741.630106166616, -23118.29753140182, -13576.941320531527, -7805.11740507095, -12387.582646320183, -6639.74215266015, -9305.880583033631, 7.5E-4, -0.022500000000000003, 1.00125, 192.0, 0.0, 0.0, 0.0, 0.0, 0.0, 0.0, 0.0, 0.0, 0.0, 1.6444976848855624E9, 0.0, 2022-02-10 23:54:44.885
40.0, -10629.260316998998, -12473.078068861732, -7507.883907304276, -15254.931480280338, -937.3204037333016, -1853.429001978517, -2423.5549478000344, -4224.3902950752135, -20549.38918940892, -17747.866242869644, -23130.836860041247, -13592.74400386143, -7813.029922608129, -12393.88583825658, -6644.056039340025, -9308.56279236827, 7.5E-4, -0.022500000000000003, 1.00125, 192.0, 0.0, 0.0, 0.0, 0.0, 0.0, 0.0, 0.0, 0.0, 0.0, 1.644497684885569E9, 0.0, 2022-02-10 23:54:44.885
42.0, -10620.185508750143, -12462.75156292338, -7500.530183378481, -15253.411561657378, -935.3981537101453, -1852.0655455667431, -2429.7463810141544, -4230.0899899113165, -20545.991724251715, -17754.102379572676, -23111.435545854038, -13570.861646039682, -7803.508079470168, -12388.11908818711, -6634.936527602259, -9304.025388243841, 7.5E-4, -0.022500000000000003, 1.00125, 192.0, 0.0, 0.0, 0.0, 0.0, 0.0, 0.0, 0.0, 0.0, 0.0, 1.6444976848855755E9, 0.0, 2022-02-10 23:54:44.885
44.0, -10634.669439157182, -12469.635900215615, -7512.823642828899, -15251.981050012238, -947.1775230380921, -1856.200618290975, -2439.916424741319, -4233.152178901694, -20546.25994518518, -17749.408513237064, -23129.85338328521, -13574.504980385898, -7819.869556411452, -12386.152134675043, -6643.631356195374, -9304.181850455028, 7.5E-4, -0.022500000000000003, 1.00125, 192.0, 0.0, 0.0, 0.0, 0.0, 0.0, 0.0, 0.0, 0.0, 0.0, 1.644497684885582E9, 0.0, 2022-02-10 23:54:44.885
46.0, -10627.829805353858, -12465.165551324553, -7512.331904450883, -15254.037410502126, -937.0074793109274, -1851.3726414886287, -2434.104971182939, -4228.637126521722, -20547.82456729705, -17752.157777805063, -23125.628903583158, -13572.538026873832, -7826.0833413700275, -12382.441745095462, -6651.9909086216585, -9302.952504509987, 0.0053750000000000004, -0.018250000000000002, 1.0006249999999999, 192.0, 0.0, 40.0, 127.5, 72.0, 15.5, 32.0, 0.0, 0.0, 0.0, 1.6444976848855886E9, 0.0, 2022-02-10 23:54:44.885
48.0, -10640.078561315366, -12451.732152906914, -7517.383398697782, -15257.770151826162, -946.3952119821563, -1865.0519090952766, -2447.113686455928, -4238.673059782155, -20553.21133771078, -17749.184995792508, -23121.873810514666, -13577.321300187266, -7824.518719258156, -12379.558370060728, -6650.2698242986, -9307.17698421204, 0.0053750000000000004, -0.018250000000000002, 1.0006249999999999, 192.0, 0.0, 0.0, 0.0, 0.0, 0.0, 0.0, 0.0, 0.0, 0.0, 1.644497684885595E9, 0.0, 2022-02-10 23:54:44.885
50.0, -10626.175776264165, -12450.167530795043, -7514.231802729583, -15251.534015123132, -936.2698717439023, -1860.1121735706538, -2441.369288130914, -4234.3144696133695, -20550.171500464858, -17735.32691423022, -23128.512278617894, -13577.701279843008, -7819.914259900363, -12405.240524439874, -6656.260091812622, -9313.882507548631, 0.0053750000000000004, -0.018250000000000002, 1.0006249999999999, 192.0, 0.0, 0.0, 0.0, 0.0, 0.0, 0.0, 0.0, 0.0, 0.0, 1.6444976848856025E9, 0.0, 2022-02-10 23:54:44.885
52.0, -10629.506186188006, -12475.290891562807, -7523.1948522561615, -15256.741971581218, -938.9967845674497, -1857.2735020248297, -2444.3197183990146, -4236.102609169795, -20558.531052891143, -17740.713684643946, -23120.979740736457, -13566.145427959613, -7825.278678569637, -12398.758518547837, -6651.0521353545355, -9309.07688249074, 0.0053750000000000004, -0.018250000000000002, 1.0006249999999999, 192.0, 0.0, 0.0, 0.0, 0.0, 0.0, 0.0, 0.0, 0.0, 0.0, 1.6444976848856373E9, 0.0, 2022-02-10 23:54:44.885
54.0, -10636.591689180337, -12474.240359573409, -7518.5009859205475, -15256.965489025772, -943.8247613697961, -1857.072336324732, -2449.751192301654, -4234.448580080102, -20555.759436578686, -17754.527062717327, -23133.854345542713, -13579.221198465968, -7821.16595758986, -12385.16865791901, -6653.354365033432, -9310.41798715806, 0.0053750000000000004, -0.018250000000000002, 1.0006249999999999, 192.0, 0.0, 0.0, 0.0, 0.0, 0.0, 0.0, 0.0, 0.0, 0.0, 1.6444976848856456E9, 0.0, 2022-02-10 23:54:44.885
56.0, -10621.504261673006, -12460.672850689036, -7509.381474182782, -15255.356163424989, -927.9550228065281, -1847.84106586469, -2443.8950352543634, -4222.6915624966105, -20551.713770832273, -17742.09949280018, -23123.706653560002, -13579.422364166066, -7814.63924820891, -12379.625425294093, -6646.693545185751, -9307.758129567877, 0.0086875, -0.022125000000000002, 0.9963124999999999, 192.0, 0.0, 48.0, 127.5, 24.0, 15.5, 0.0, 0.0, 0.0, 0.0, 1.6444976848856523E9, 0.0, 2022-02-10 23:54:44.885
58.0, -10635.272936257476, -12470.8428944162, -7517.361046953327, -15262.039335017125, -943.4894852029664, -1861.4979817268827, -2445.7278782996987, -4232.280460867937, -20548.763340564175, -17749.967306848444, -23115.950598234012, -13575.801381564306, -7816.539146487612, -12377.859637482125, -6640.1891875492565, -9309.79213831331, 0.0086875, -0.022125000000000002, 0.9963124999999999, 192.0, 0.0, 0.0, 0.0, 0.0, 0.0, 0.0, 0.0, 0.0, 0.0, 1.6444976848856597E9, 0.0, 2022-02-10 23:54:44.885
60.0, -10622.130110517754, -12467.177208325531, -7511.124910250296, -15258.77598032665, -927.0162495394051, -1856.848818880179, -2428.00294494664, -4228.927699199641, -20551.4008464099, -17754.549414461784, -23125.070109971777, -13584.11623050168, -7820.45070176729, -12389.057861454232, -6646.626489952385, -9314.150728482095, 0.0086875, -0.022125000000000002, 0.9963124999999999, 192.0, 0.0, 0.0, 0.0, 0.0, 0.0, 0.0, 0.0, 0.0, 0.0, 1.644497684885667E9, 0.0, 2022-02-10 23:54:44.885
62.0, -10629.327372232363, -12455.442542486495, -7512.622477128802, -15263.603957128998, -929.9666798075057, -1854.7701066458353, -2437.502436340146, -4227.8548154657865, -20552.943116777315, -17742.07714105572, -23115.034176711342, -13569.274672183356, -7822.484710512724, -12387.984977720378, -6642.737286417161, -9310.574449369245, 0.0086875, -0.022125000000000002, 0.9963124999999999, 192.0, 0.0, 0.0, 0.0, 0.0, 0.0, 0.0, 0.0, 0.0, 0.0, 1.644497684885674E9, 0.0, 2022-02-10 23:54:44.885
64.0, -10638.29042175894, -12460.784609411314, -7518.836262087377, -15265.749724596708, -938.0803630447821, -1854.390126990095, -2438.8882444963747, -4229.419437577658, -20554.127759233448, -17746.771007391337, -23126.701787317015, -13579.176494977057, -7827.647963481899, -12384.811030007724, -6644.3019085290325, -9315.491833149414, 0.0086875, -0.022125000000000002, 0.9963124999999999, 192.0, 0.0, 0.0, 0.0, 0.0, 0.0, 0.0, 0.0, 0.0, 0.0, 1.6444976848856807E9, 0.0, 2022-02-10 23:54:44.885
66.0, -10620.744302361525, -12461.656327445071, -7507.8168520709105, -15270.465942676778, -925.1387030051593, -1846.388202475095, -2436.1836834172827, -4229.844120722309, -20552.406674910388, -17731.325951972718, -23116.978778478955, -13582.082221756247, -7823.401132035391, -12369.567140289206, -6643.050210839536, -9315.000094771398, 0.00834375, -0.0220625, 0.99515625, 192.0, 0.0, 32.0, 127.5, 40.0, 15.5, 8.0, 0.0, 0.0, 0.0, 1.6444976848856876E9, 0.0, 2022-02-10 23:54:44.885
68.0, -10644.526558461972, -12475.648519474093, -7522.0772650333965, -15270.443590932322, -943.1765607805921, -1873.9255516440335, -2465.0621372535393, -4259.393126892224, -20557.83814881303, -17755.912870873555, -23121.292665158828, -13583.02099502337, -7823.870518668952, -12400.859582526635, -6643.877225384382, -9324.924269309553, 0.00834375, -0.0220625, 0.99515625, 192.0, 0.0, 0.0, 0.0, 0.0, 0.0, 0.0, 0.0, 0.0, 0.0, 1.6444976848856957E9, 0.0, 2022-02-10 23:54:44.885
70.0, -10641.285555515953, -12487.360833568673, -7522.278430733494, -15265.749724596708, -939.3544124787346, -1863.6661009390475, -2469.8007070780645, -4255.392164634724, -20562.80023608211, -17757.544548218793, -23135.44131939904, -13589.12302125967, -7825.524547758645, -12401.954818004944, -6658.69643195825, -9332.99324905792, 0.00834375, -0.0220625, 0.99515625, 192.0, 0.0, 0.0, 0.0, 0.0, 0.0, 0.0, 0.0, 0.0, 0.0, 1.6444976848857093E9, 0.0, 2022-02-10 23:54:44.885
72.0, -10649.44394224214, -12496.994435428911, -7528.000477314053, -15274.69042237883, -939.3320607342793, -1864.8283916507235, -2453.81920979252, -4227.430132321136, -20562.576718637552, -17764.18301632202, -23126.925304761568, -13588.11719275918, -7833.258251340181, -12384.676919540992, -6648.83931265346, -9324.745455353912, 0.00834375, -0.0220625, 0.99515625, 192.0, 0.0, 0.0, 0.0, 0.0, 0.0, 0.0, 0.0, 0.0, 0.0, 1.644497684885717E9, 0.0, 2022-02-10 23:54:44.885
74.0, -10646.15823580721, -12486.37735681264, -7528.760436625534, -15268.074306020058, -942.9753950804943, -1859.5980834481818, -2467.5431808880785, -4231.498149812001, -20570.086904774536, -17774.733039704926, -23142.34800843573, -13600.589466165242, -7839.270870598659, -12406.983960507388, -6653.376716777888, -9325.863042576677, 0.00834375, -0.0220625, 0.99515625, 192.0, 0.0, 0.0, 0.0, 0.0, 0.0, 0.0, 0.0, 0.0, 0.0, 1.644497684885724E9, 0.0, 2022-02-10 23:54:44.885
76.0, -10624.454691941106, -12464.763219924358, -7518.7915585984665, -15267.627271130952, -920.824816325285, -1846.1646850305422, -2438.754134029643, -4227.296021854403, -20555.267698200667, -17751.397818493584, -23120.24213316943, -13585.055003768803, -7828.273812326648, -12391.091870199665, -6649.286347542567, -9317.79406282831, 0.00834375, -0.0220625, 0.99515625, 192.0, 0.0, 0.0, 127.5, 24.0, 15.5, 0.0, 0.0, 0.0, 0.0, 1.6444976848857312E9, 0.0, 2022-02-10 23:54:44.885
78.0, -10644.995945095534, -12470.306452549274, -7528.693381392167, -15276.903245079906, -939.2203020120028, -1858.0781648252207, -2446.979575989196, -4236.169664403161, -20560.766227336673, -17746.681600413514, -23121.739700047936, -13575.890788542127, -7832.140664117416, -12391.538905088772, -6651.007431865625, -9323.627868131145, 0.00834375, -0.0220625, 0.99515625, 192.0, 0.0, 0.0, 0.0, 0.0, 0.0, 0.0, 0.0, 0.0, 0.0, 1.644497684885738E9, 0.0, 2022-02-10 23:54:44.885
80.0, -10632.702485645115, -12453.27442327433, -7521.384360955282, -15270.331832210046, -930.503121674433, -1850.9703100884333, -2445.1243811994054, -4237.778990003942, -20557.5028726462, -17755.17526330653, -23131.082729230253, -13586.530218902853, -7835.269908341159, -12393.483506856384, -6655.880112156882, -9329.7522461119, 0.00834375, -0.0220625, 0.99515625, 192.0, 0.0, 0.0, 0.0, 0.0, 0.0, 0.0, 0.0, 0.0, 0.0, 1.6444976848857448E9, 0.0, 2022-02-10 23:54:44.885
82.0, -10624.655857641204, -12466.081972847222, -7517.897488820254, -15266.353221697, -924.5352059048661, -1852.3337665002068, -2454.020375492618, -4238.717763271065, -20555.4018086674, -17751.733094660412, -23114.542438333327, -13572.627433851652, -7829.726675716242, -12389.102564943143, -6648.168760319801, -9325.930097810042, 0.00834375, -0.0220625, 0.99515625, 192.0, 0.0, 0.0, 0.0, 0.0, 0.0, 0.0, 0.0, 0.0, 0.0, 1.644497684885752E9, 0.0, 2022-02-10 23:54:44.885
84.0, -10641.173796793675, -12487.941978924511, -7518.836262087377, -15269.326003709557, -932.4253716975894, -1865.2530747953745, -2451.561683602534, -4245.490341841023, -20556.720561590264, -17769.905062902577, -23132.267371686386, -13585.54674214682, -7826.575079748044, -12395.204591179443, -6650.761562676616, -9330.735722867934, 0.00834375, -0.0220625, 0.99515625, 192.0, 0.0, 0.0, 0.0, 0.0, 0.0, 0.0, 0.0, 0.0, 0.0, 1.644497684885759E9, 0.0, 2022-02-10 23:54:44.885
86.0, -10628.276840242963, -12459.287042532807, -7510.00732302753, -15260.474712905254, -924.4010954381342, -1851.1491240440757, -2442.8221515205087, -4221.909251440675, -20553.323096433058, -17766.57465297874, -23117.24699941242, -13581.83635256724, -7824.853995424985, -12400.16667844852, -6650.31452778751, -9324.432530931537, -0.002, -0.028, 0.99, 192.0, 127.5, 120.0, 127.5, 16.0, 15.0, 120.0, 0.0, 0.0, 0.0, 1.6444976848857663E9, 0.0, 2022-02-10 23:54:44.885
88.0, -10642.045514827432, -12470.395859527096, -7525.452378446148, -15264.006288529194, -937.0074793109274, -1853.8536851231677, -2454.4674103817238, -4229.508844555479, -20553.814834811074, -17759.042115097298, -23114.028348210853, -13576.047250753314, -7822.931745401829, -12405.709911073436, -6653.242606311155, -9323.203184986494, -0.002, -0.028, 0.99, 192.0, 0.0, 0.0, 0.0, 0.0, 0.0, 0.0, 0.0, 0.0, 0.0, 1.6444976848857732E9, 0.0, 2022-02-10 23:54:44.885
90.0, -10634.043590312433, -12474.575635740237, -7529.498044192558, -15262.06168676158, -929.9890315519609, -1846.4776094529163, -2438.5976718184556, -4220.590498517811, -20554.485387144734, -17748.26857426984, -23129.473403629472, -13582.283387456346, -7811.979390618729, -12390.913056244024, -6656.79653367955, -9318.7998913288, -0.002, -0.028, 0.99, 192.0, 0.0, 0.0, 0.0, 0.0, 0.0, 0.0, 0.0, 0.0, 0.0, 1.6444976848857799E9, 0.0, 2022-02-10 23:54:44.885
92.0, -10632.255450756009, -12475.313243307262, -7526.055875546441, -15264.341564696022, -936.1134095327151, -1855.6418246795924, -2440.1846456747826, -4223.898556697197, -20555.804140067594, -17760.942013376, -23120.085670958244, -13576.628396109152, -7824.78694019162, -12390.935407988478, -6650.806266165527, -9320.677437863045, -0.002, -0.028, 0.99, 192.0, 0.0, 0.0, 0.0, 0.0, 0.0, 0.0, 0.0, 0.0, 0.0, 1.6444976848857863E9, 0.0, 2022-02-10 23:54:44.885
94.0, -10642.559604949905, -12479.80594394278, -7534.01309657253, -15262.173445483859, -937.5215694333995, -1853.2725397673298, -2444.2526631656488, -4229.441789322113, -20554.39598016691, -17765.367658778152, -23136.67066534408, -13593.705128873007, -7826.26215532567, -12396.970378991411, -6660.641033725862, -9329.79694960081, -0.002, -0.028, 0.99, 192.0, 0.0, 0.0, 0.0, 0.0, 0.0, 0.0, 0.0, 0.0, 0.0, 1.6444976848857937E9, 0.0, 2022-02-10 23:54:44.885
96.0, -10628.232136754053, -12471.915778150056, -7520.6691051327125, -15253.813893057573, -916.5779848787768, -1841.0014320613661, -2441.1904741752714, -4218.9364694281185, -20550.573831865055, -17763.28894654381, -23117.068185456777, -13576.695451342519, -7812.627591207933, -12391.673015555503, -6657.578844735485, -9324.924269309553, 0.004, -0.026000000000000002, 0.992, 192.0, 0.0, 16.0, 127.5, 24.0, 15.5, 0.0, 0.0, 0.0, 0.0, 1.6444976848858001E9, 0.0, 2022-02-10 23:54:44.885
98.0, -10650.740343420548, -12489.148973125099, -7533.811930872433, -15256.473750647754, -932.3806682086788, -1842.4542954509611, -2451.8969597693635, -4214.287306581415, -20551.534956876632, -17766.418190767552, -23114.67654880006, -13574.952015275005, -7807.799614405587, -12379.826590994191, -6656.170684834801, -9315.961219782976, 0.004, -0.026000000000000002, 0.992, 192.0, 0.0, 0.0, 0.0, 0.0, 0.0, 0.0, 0.0, 0.0, 0.0, 1.6444976848858068E9, 0.0, 2022-02-10 23:54:44.885
100.0, -10654.830712655868, -12495.765089483868, -7531.934384338187, -15253.2998029351, -925.0939995162487, -1838.945071571478, -2437.502436340146, -4215.203728104082, -20559.291012202622, -17772.363754792663, -23133.988456009443, -13586.910198558593, -7814.840413909008, -12389.9742829769, -6659.2105220807225, -9318.352856439693, 0.004, -0.026000000000000002, 0.992, 192.0, 0.0, 0.0, 0.0, 0.0, 0.0, 0.0, 0.0, 0.0, 0.0, 1.6444976848858137E9, 0.0, 2022-02-10 23:54:44.885
102.0, -10661.200959825632, -12508.393825101117, -7534.147207039262, -15256.630212858941, -920.3777814361789, -1842.588405917693, -2435.110799683428, -4213.348533314292, -20558.30753544659, -17765.90410064508, -23118.38693837964, -13578.684756599041, -7807.0620068385615, -12387.560294575727, -6646.537082974563, -9312.384940670127, 0.004, -0.026000000000000002, 0.992, 192.0, 0.0, 0.0, 0.0, 0.0, 0.0, 0.0, 0.0, 0.0, 0.0, 1.6444976848858232E9, 0.0, 2022-02-10 23:54:44.885
104.0, -10693.610989285826, -12528.733912555446, -7532.984916327587, -15255.646736102908, -919.7966360803409, -1840.912025083545, -2423.9349274557744, -4212.588574002812, -20562.1520354929, -17782.13146711963, -23136.33538917725, -13600.723576631974, -7801.630532935922, -12379.35720436063, -6646.201806807734, -9317.905821550587, 0.004, -0.026000000000000002, 0.992, 192.0, 0.0, 0.0, 0.0, 0.0, 0.0, 0.0, 0.0, 0.0, 0.0, 1.6444976848858302E9, 0.0, 2022-02-10 23:54:44.885
106.0, -10727.943268769177, -12558.90876757011, -7534.8177593729215, -15250.63994534492, -907.0337899963606, -1832.5971761461708, -2414.8154157180093, -4200.652742463678, -20586.180160782358, -17783.874903187145, -23144.87375555918, -13602.176440021569, -7808.2913527836035, -12389.9742829769, -6634.981231091169, -9309.70273133549, 0.008, -0.022, 0.992, 192.0, 0.0, 32.0, 127.5, 40.0, 15.5, 0.0, 0.0, 0.0, 0.0, 1.6444976848858373E9, 0.0, 2022-02-10 23:54:44.885
108.0, -10765.471847709638, -12584.926198116089, -7548.54173046848, -15256.630212858941, -918.4108279241119, -1842.0519640507657, -2422.102084410439, -4209.1911088456045, -20604.0615563466, -17784.880731687634, -23154.77557835288, -13603.40578596661, -7808.269001039148, -12388.275550398297, -6635.137693302357, -9312.004961014385, 0.008, -0.022, 0.992, 192.0, 0.0, 0.0, 0.0, 0.0, 0.0, 0.0, 0.0, 0.0, 0.0, 1.644497684885844E9, 0.0, 2022-02-10 23:54:44.885
110.0, -10818.087854157431, -12642.236070899497, -7557.102448594863, -15264.565082140576, -920.7577610919192, -1831.6807546235032, -2427.041819935062, -4209.548736756889, -20619.68542572086, -17798.8505719722, -23185.822151401302, -13624.617591454697, -7807.710207427765, -12385.861561997124, -6646.581786463474, -9314.08367324873, 0.008, -0.022, 0.992, 192.0, 0.0, 0.0, 0.0, 0.0, 0.0, 0.0, 0.0, 0.0, 0.0, 1.644497684885851E9, 0.0, 2022-02-10 23:54:44.885
112.0, -10831.320086874974, -12654.574233838825, -7551.849788647865, -15266.241462974724, -910.5206621313885, -1822.4718359079166, -2436.1836834172827, -4209.749902456988, -20640.807824231128, -17806.517220320373, -23190.6724799481, -13627.545669978343, -7824.4963675137005, -12371.422335078996, -6640.256242782622, -9312.31788543676, 0.008, -0.022, 0.992, 192.0, 0.0, 0.0, 0.0, 0.0, 0.0, 0.0, 0.0, 0.0, 0.0, 1.6444976848858583E9, 0.0, 2022-02-10 23:54:44.885
114.0, -10858.566863365992, -12665.660699088658, -7564.500876009569, -15258.373648926456, -909.8501097977293, -1834.9888128028886, -2435.1555031723387, -4212.342704813803, -20645.18876614437, -17802.27038887386, -23201.53542775338, -13628.305629289822, -7819.199004077793, -12379.848942738647, -6640.166835804801, -9313.234306959428, 0.008, -0.022, 0.992, 192.0, 0.0, 0.0, 0.0, 0.0, 0.0, 0.0, 0.0, 0.0, 0.0, 1.6444976848858657E9, 0.0, 2022-02-10 23:54:44.885
116.0, -10847.43569462725, -12659.424562385628, -7552.028602603508, -15255.49027389172, -900.4847288709557, -1829.914966811534, -2404.8688894353977, -4190.549753969879, -20643.154757398934, -17797.397708582605, -23192.147695082152, -13628.216222312001, -7806.905544627374, -12387.40383236454, -6636.679963669773, -9307.109928978674, 0.004, -0.02, 0.99, 192.0, 0.0, 16.0, 127.5, 48.0, 15.0, 120.0, 0.0, 0.0, 0.0, 1.6444976848858726E9, 0.0, 2022-02-10 23:54:44.885
118.0, -10854.945880764233, -12670.399268913183, -7566.7360504551, -15260.742933838717, -915.6392116116539, -1834.8547023361568, -2422.727933255188, -4197.478794751024, -20653.391856359467, -17788.680528245037, -23197.847389918257, -13617.777957651373, -7810.638285951411, -12377.613768293115, -6636.747018903139, -9304.65123708859, 0.004, -0.02, 0.99, 192.0, 0.0, 0.0, 0.0, 0.0, 0.0, 0.0, 0.0, 0.0, 0.0, 1.6444976848858795E9, 0.0, 2022-02-10 23:54:44.885
120.0, -10833.219985153673, -12653.70251580507, -7558.8235329179215, -15254.775018069151, -903.2339934389584, -1828.1491789995646, -2414.234270362171, -4194.885992394208, -20649.99439120226, -17796.235417870932, -23197.221541073508, -13625.779882166373, -7810.325361529036, -12379.536018316272, -6644.614832951407, -9307.13228072313, 0.004, -0.02, 0.99, 192.0, 0.0, 0.0, 0.0, 0.0, 0.0, 0.0, 0.0, 0.0, 0.0, 1.6444976853660555E9, 0.0, 2022-02-10 23:54:45.366
122.0, -10806.576705762947, -12628.936782948587, -7556.141323583284, -15255.959660525283, -895.2991241573244, -1820.527234140305, -2414.0331046620736, -4200.16100408566, -20637.767986985207, -17786.80298171079, -23173.282822761874, -13603.182268522058, -7802.1893265473045, -12368.561311788717, -6637.484626470164, -9304.22655394394, 0.004, -0.02, 0.99, 192.0, 0.0, 0.0, 0.0, 0.0, 0.0, 0.0, 0.0, 0.0, 0.0, 1.6444976853662522E9, 0.0, 2022-02-10 23:54:45.366
124.0, -10804.408586550784, -12619.861974699734, -7562.131591097306, -15258.284241948635, -908.2407841969472, -1836.978118059411, -2423.398485588847, -4202.664399464655, -20622.501745522233, -17786.132429377132, -23181.44120948806, -13609.239591269445, -7799.73063465722, -12356.960756416413, -6642.625527694885, -9307.489908634414, 0.004, -0.02, 0.99, 192.0, 0.0, 0.0, 0.0, 0.0, 0.0, 0.0, 0.0, 0.0, 0.0, 1.6444976853662603E9, 0.0, 2022-02-10 23:54:45.366
126.0, -10762.566120930449, -12591.29644528585, -7554.576701471413, -15257.25606170369, -894.4944613569334, -1825.1540452425536, -2420.6045175319337, -4192.2261348040265, -20606.877876147973, -17777.28113857283, -23169.72889539348, -13601.908219088105, -7793.315683998548, -12378.574893304694, -6643.8325218954715, -9306.394673156105, 0.008, -0.02, 0.992, 192.0, 0.0, 32.0, 127.5, 48.0, 15.5, 0.0, 0.0, 0.0, 0.0, 1.6444976853662672E9, 0.0, 2022-02-10 23:54:45.366
128.0, -10765.427144220728, -12595.431518010082, -7564.702041709667, -15267.180236241848, -909.4924818864444, -1842.6107576621482, -2436.451904350746, -4217.573013016345, -20605.69323369184, -17789.596949767703, -23156.38490395366, -13610.22306802548, -7791.505192697668, -12380.83241949468, -6645.0618678405135, -9312.98843777042, 0.008, -0.02, 0.992, 192.0, 0.0, 0.0, 0.0, 0.0, 0.0, 0.0, 0.0, 0.0, 0.0, 1.6444976853662739E9, 0.0, 2022-02-10 23:54:45.366
130.0, -10745.534091655505, -12567.49183744095, -7552.855617148354, -15258.597166371008, -894.2038886790143, -1832.9548040574557, -2425.5219013121014, -4203.312600053859, -20600.485277233754, -17788.881693945135, -23162.95631682352, -13614.581658194264, -7791.885172353408, -12383.73814627387, -6652.9296818887815, -9321.03506577433, 0.008, -0.02, 0.992, 192.0, 0.0, 0.0, 0.0, 0.0, 0.0, 0.0, 0.0, 0.0, 0.0, 1.6444976853662808E9, 0.0, 2022-02-10 23:54:45.366
132.0, -10722.511794866537, -12562.172122260587, -7551.313346780938, -15256.652564603397, -890.1805746770591, -1826.875129565612, -2428.293517624559, -4195.73535868351, -20589.622329428475, -17776.968214150456, -23144.069092758786, -13595.247399240423, -7789.851163607975, -12367.510779799317, -6641.038553838558, -9307.311094678771, 0.008, -0.02, 0.992, 192.0, 0.0, 0.0, 0.0, 0.0, 0.0, 0.0, 0.0, 0.0, 0.0, 1.6444976853662877E9, 0.0, 2022-02-10 23:54:45.366
134.0, -10726.848033290868, -12562.8650263387, -7556.16367532774, -15254.573852369054, -895.1426619461372, -1828.0597720217434, -2427.555910057534, -4203.02202737594, -20582.44741945832, -17783.740792720415, -23156.049627786833, -13599.650692898118, -7798.233067778715, -12363.621576264093, -6637.305812514522, -9309.36745516866, 0.008, -0.02, 0.992, 192.0, 0.0, 0.0, 0.0, 0.0, 0.0, 0.0, 0.0, 0.0, 0.0, 1.6444976853663025E9, 0.0, 2022-02-10 23:54:45.366
136.0, -10704.384530113284, -12540.781502816857, -7548.362916512838, -15254.484445391232, -883.1621269180927, -1822.6059463746485, -2419.6433925203555, -4191.667341192644, -20580.234596757247, -17763.400705266085, -23149.29940096133, -13591.537009660842, -7789.962922330252, -12377.837285737669, -6636.970536347692, -9302.661931832068, 0.008, -0.02, 0.992, 192.0, 0.0, 0.0, 127.5, 56.0, 15.5, 0.0, 0.0, 0.0, 0.0, 1.6444976853663092E9, 0.0, 2022-02-10 23:54:45.366
138.0, -10713.9287249957, -12548.291688953841, -7553.213245059639, -15255.982012269738, -898.473071869978, -1845.717650141436, -2440.7657910306207, -4200.742149441498, -20581.195721768825, -17777.102324617186, -23142.77269158038, -13591.335843960744, -7790.186439774805, -12381.011233450323, -6639.183359048768, -9305.724120822444, 0.008, -0.02, 0.992, 192.0, 0.0, 0.0, 0.0, 0.0, 0.0, 0.0, 0.0, 0.0, 0.0, 1.6444976853663156E9, 0.0, 2022-02-10 23:54:45.366
140.0, -10687.196038627153, -12514.09351993722, -7545.5018932225585, -15256.16082622538, -887.1630891755926, -1844.1306762851093, -2412.267316850104, -4204.229021576527, -20569.282241974146, -17773.637804226615, -23142.258601457906, -13591.02291953837, -7787.168954273338, -12377.1220299151, -6644.570129462497, -9313.658990104079, 0.008, -0.02, 0.992, 192.0, 0.0, 0.0, 0.0, 0.0, 0.0, 0.0, 0.0, 0.0, 0.0, 1.6444976853663223E9, 0.0, 2022-02-10 23:54:45.366
142.0, -10673.628529742782, -12516.61926706067, -7534.750704139556, -15251.936346523327, -883.7879757628413, -1844.4212489630281, -2422.9514506997407, -4196.182393572616, -20560.185081980835, -17761.65726919857, -23123.10315645971, -13584.138582246136, -7778.116497768939, -12389.88487599908, -6637.842254381449, -9312.787272070322, 0.008, -0.02, 0.992, 192.0, 0.0, 0.0, 0.0, 0.0, 0.0, 0.0, 0.0, 0.0, 0.0, 1.6444976853663287E9, 0.0, 2022-02-10 23:54:45.366
144.0, -10680.579922268382, -12531.237307934442, -7549.2569862910495, -15248.337715666023, -891.6781415555647, -1845.8741123526231, -2424.404314089336, -4191.7567481704655, -20559.73804709173, -17761.18788256501, -23133.04968274232, -13584.607968879696, -7777.378890201913, -12384.006367207334, -6643.3631352619095, -9310.283876691326, 0.008, -0.02, 0.992, 192.0, 0.0, 0.0, 0.0, 0.0, 0.0, 0.0, 0.0, 0.0, 0.0, 1.6444976853663352E9, 0.0, 2022-02-10 23:54:45.366
146.0, -10655.38950626725, -12504.035234932333, -7539.44457047517, -15241.408674884877, -883.5644583182882, -1832.8653970796345, -2409.9650871712074, -4180.916152109641, -20556.318230190067, -17758.95270811948, -23127.95348500651, -13574.348518174711, -7781.983349559707, -12382.553503817739, -6641.351478260932, -9305.388844655616, -0.004, -0.018000000000000002, 0.988, 192.0, 127.5, 112.0, 127.5, 56.0, 15.0, 112.0, 0.0, 0.0, 0.0, 1.644497685366342E9, 0.0, 2022-02-10 23:54:45.366
148.0, -10674.410840798717, -12503.878772721146, -7543.467884477125, -15244.649677830897, -891.70049330002, -1837.4028012040617, -2432.3168316265146, -4204.1396145987055, -20556.944079034816, -17752.224833038432, -23120.689168058536, -13570.816942550773, -7781.312797226048, -12381.45826833943, -6638.64691718184, -9305.142975466606, -0.004, -0.018000000000000002, 0.988, 192.0, 0.0, 0.0, 0.0, 0.0, 0.0, 0.0, 0.0, 0.0, 0.0, 1.6444976853663485E9, 0.0, 2022-02-10 23:54:45.366
150.0, -10657.021183612489, -12490.199505114497, -7535.801236128955, -15245.2978784201, -889.2194496654809, -1847.6622519090477, -2431.579224059489, -4202.664399464655, -20553.457206899788, -17759.667963942047, -23126.590028594735, -13585.032652024347, -7777.311834968547, -12385.839210252669, -6646.112399829913, -9316.452958160991, -0.004, -0.018000000000000002, 0.988, 192.0, 0.0, 0.0, 0.0, 0.0, 0.0, 0.0, 0.0, 0.0, 0.0, 1.6444976853663552E9, 0.0, 2022-02-10 23:54:45.366
152.0, -10650.002735853523, -12500.548362797304, -7539.645736175268, -15250.394076155912, -895.7461590464305, -1852.4455252224834, -2447.4042591338466, -4213.035608891918, -20552.339619677023, -17756.292850529295, -23107.278121385352, -13564.44669538101, -7786.878381595419, -12383.849904996147, -6642.558472461519, -9319.872775062655, -0.004, -0.018000000000000002, 0.988, 192.0, 0.0, 0.0, 0.0, 0.0, 0.0, 0.0, 0.0, 0.0, 0.0, 1.644497685366362E9, 0.0, 2022-02-10 23:54:45.366
154.0, -10656.417686512195, -12494.222819116452, -7547.401791501259, -15247.242480187713, -908.3078394303132, -1862.7496794163799, -2460.591788362478, -4222.557452029879, -20557.88285230194, -17759.220929052943, -23128.422871640072, -13572.850951296205, -7793.069814809539, -12390.980111477389, -6654.002565622636, -9331.741551368423, -0.001, -0.02, 0.99, 192.0, 0.0, 8.0, 127.5, 40.0, 15.5, 0.0, 0.0, 0.0, 0.0, 1.6444976853663683E9, 0.0, 2022-02-10 23:54:45.366
156.0, -10634.58003217936, -12472.854551417178, -7539.310460008438, -15244.180291197335, -898.9201067590841, -1842.0519640507657, -2445.2808434105928, -4211.515690268957, -20555.759436578686, -17754.214138294952, -23128.735796062447, -13569.453486138998, -7791.482840953213, -12373.612806035615, -6654.941338889759, -9327.114740266174, -0.001, -0.02, 0.99, 192.0, 0.0, 0.0, 0.0, 0.0, 0.0, 0.0, 0.0, 0.0, 0.0, 1.6444976853663752E9, 0.0, 2022-02-10 23:54:45.366
158.0, -10642.291384016442, -12463.13154257912, -7543.289070521483, -15247.77892205464, -900.5964875932322, -1854.3230717567292, -2444.0291457210956, -4222.713914241065, -20552.809006310585, -17741.60775442216, -23118.14106919063, -13572.985061762938, -7794.343864243492, -12373.657509524526, -6648.414629508809, -9325.326600709748, -0.001, -0.02, 0.99, 192.0, 0.0, 0.0, 0.0, 0.0, 0.0, 0.0, 0.0, 0.0, 0.0, 1.6444976853663816E9, 0.0, 2022-02-10 23:54:45.366
160.0, -10637.418703725185, -12483.51633352236, -7535.2871460064825, -15238.078264961037, -883.0727199402714, -1852.780801389313, -2452.2322359361933, -4225.105550897783, -20552.719599332762, -17750.28023127082, -23125.405386138606, -13566.838332037727, -7794.299160754581, -12389.9742829769, -6649.353402775932, -9326.757112354888, -0.001, -0.02, 0.99, 192.0, 0.0, 0.0, 0.0, 0.0, 0.0, 0.0, 0.0, 0.0, 0.0, 1.6444976853663883E9, 0.0, 2022-02-10 23:54:45.366
162.0, -10637.508110703006, -12482.890484677611, -7537.075285562907, -15251.332849423034, -892.572211333777, -1860.7603741598577, -2458.8260005505085, -4229.732362000032, -20551.154977220893, -17749.85554812617, -23108.976853963955, -13559.238738922924, -7787.146602528883, -12389.370785876607, -6646.738248674661, -9330.579260656747, -0.001, -0.02, 0.99, 192.0, 0.0, 0.0, 0.0, 0.0, 0.0, 0.0, 0.0, 0.0, 0.0, 1.6444976853663948E9, 0.0, 2022-02-10 23:54:45.366
164.0, -10650.025087597978, -12480.834124187724, -7550.776904914011, -15258.083076248537, -914.1192929886929, -1874.2831795553184, -2479.6131228939444, -4230.514673055968, -20561.995573281714, -17754.527062717327, -23129.00401699591, -13580.539951388831, -7798.657750923366, -12384.274588140797, -6656.952995890737, -9334.155539769596, 0.0015, -0.020999999999999998, 0.99, 192.0, 0.0, 16.0, 127.5, 40.0, 15.0, 120.0, 0.0, 0.0, 0.0, 1.6444976853664017E9, 0.0, 2022-02-10 23:54:45.366
166.0, -10640.726761904569, -12464.56205422426, -7546.284204278494, -15251.3999046564, -908.3078394303132, -1868.5387812303045, -2476.103899014461, -4229.173568388649, -20559.134549991435, -17751.241356282397, -23124.86894427168, -13572.44861989601, -7798.881268367919, -12410.64964659806, -6665.3125483170215, -9335.451940948004, 0.0015, -0.020999999999999998, 0.99, 192.0, 0.0, 0.0, 0.0, 0.0, 0.0, 0.0, 0.0, 0.0, 0.0, 1.64449768536641E9, 0.0, 2022-02-10 23:54:45.366
168.0, -10651.500302732027, -12481.839952688213, -7544.965451355631, -15262.151093739403, -919.9754500359834, -1884.8332029382234, -2466.358538431947, -4248.686641298133, -20563.381381437943, -17749.9896585929, -23117.89520000162, -13564.290233169822, -7795.953189844274, -12409.085024486189, -6661.959786648726, -9340.011696816886, 0.0015, -0.020999999999999998, 0.99, 192.0, 0.0, 0.0, 0.0, 0.0, 0.0, 0.0, 0.0, 0.0, 0.0, 1.6444976853664165E9, 0.0, 2022-02-10 23:54:45.366
170.0, -10640.011506081999, -12478.777763697835, -7544.294899021972, -15256.451398903298, -908.9783917639724, -1889.169441362553, -2463.2739976971147, -4236.437885336624, -20565.415390183378, -17764.741809933403, -23134.0108077539, -13578.863570554682, -7790.700529897276, -12409.621466353115, -6665.826638439494, -9344.906728852598, 0.0015, -0.020999999999999998, 0.99, 192.0, 0.0, 0.0, 0.0, 0.0, 0.0, 0.0, 0.0, 0.0, 0.0, 1.644497685366423E9, 0.0, 2022-02-10 23:54:45.366
172.0, -10629.461482699095, -12464.60675771317, -7540.092771064374, -15256.741971581218, -901.0882259712489, -1873.456165010472, -2458.8707040394193, -4219.182338617127, -20558.575756380054, -17742.8371003672, -23117.694034301527, -13552.644974308609, -7787.817154862542, -12400.703120315447, -6663.636167482873, -9336.502472937402, 0.0015, -0.020999999999999998, 0.99, 192.0, 0.0, 0.0, 0.0, 0.0, 0.0, 0.0, 0.0, 0.0, 0.0, 1.6444976853664296E9, 0.0, 2022-02-10 23:54:45.366
174.0, -10639.787988637447, -12469.904121149078, -7549.838131646888, -15262.821646073062, -914.1639964776035, -1874.5737522332374, -2480.328378716514, -4239.969460960563, -20559.000439524705, -17758.103341830178, -23127.707615817504, -13573.83442805224, -7794.813250877053, -12393.371748134106, -6666.631301239884, -9340.168159028073, 0.00475, -0.0195, 0.99, 192.0, 0.0, 32.0, 127.5, 56.0, 15.0, 120.0, 0.0, 0.0, 0.0, 1.6444976853664362E9, 0.0, 2022-02-10 23:54:45.366
176.0, -10639.162139792697, -12475.38029854063, -7542.149131554263, -15260.072381505059, -902.8987172721288, -1873.523220243838, -2464.8609715534417, -4215.181376359627, -20562.442608170822, -17754.214138294952, -23126.500621616917, -13580.361137433189, -7795.9084863553635, -12396.903323758046, -6670.587560008474, -9341.03987706183, 0.00475, -0.0195, 0.99, 192.0, 0.0, 0.0, 0.0, 0.0, 0.0, 0.0, 0.0, 0.0, 0.0, 1.644497685366443E9, 0.0, 2022-02-10 23:54:45.366
178.0, -10649.44394224214, -12485.080955634232, -7559.359974784848, -15266.822608330562, -920.4895401584555, -1879.9828743914218, -2469.308968700048, -4224.010315419473, -20564.2530994717, -17763.0430773548, -23121.449127370015, -13575.600215864208, -7792.555724687068, -12417.399873423563, -6668.195923351756, -9343.006830573897, 0.00475, -0.0195, 0.99, 192.0, 0.0, 0.0, 0.0, 0.0, 0.0, 0.0, 0.0, 0.0, 0.0, 1.644497685366449E9, 0.0, 2022-02-10 23:54:45.366
180.0, -10642.649011927726, -12464.80792341327, -7554.576701471413, -15269.616576387476, -899.0542172258159, -1872.137412087609, -2452.500456869657, -4217.93064092763, -20569.036372785136, -17758.684487186016, -23142.77269158038, -13579.198846721512, -7802.681064925321, -12412.281323943296, -6675.862571699927, -9342.157464284595, 0.00475, -0.0195, 0.99, 192.0, 0.0, 0.0, 0.0, 0.0, 0.0, 0.0, 0.0, 0.0, 0.0, 1.6444976853664558E9, 0.0, 2022-02-10 23:54:45.366
182.0, -10636.8599101138, -12475.84968517419, -7553.347355526371, -15270.488294421231, -898.5848305922545, -1875.1325458446202, -2452.366346402925, -4224.904385197686, -20568.566986151574, -17748.782664392314, -23128.691092573536, -13578.751811832406, -7791.236971764204, -12398.69146331447, -6660.261054070122, -9340.99517357292, 0.00475, -0.0195, 0.99, 192.0, 0.0, 0.0, 0.0, 0.0, 0.0, 0.0, 0.0, 0.0, 0.0, 1.6444976853664625E9, 0.0, 2022-02-10 23:54:45.366
184.0, -10650.829750398369, -12480.431792787527, -7556.8342276613985, -15267.73902985323, -906.922031274084, -1885.0343686383212, -2465.3080064425476, -4230.894652711708, -20564.78954133863, -17762.976022121435, -23132.803813553313, -13588.005434036904, -7789.560590930056, -12406.089890729178, -6665.670176228306, -9340.503435194902, 0.007375, -0.01975, 0.991, 192.0, 0.0, 40.0, 127.5, 48.0, 15.5, 0.0, 0.0, 0.0, 0.0, 1.644497685366469E9, 0.0, 2022-02-10 23:54:45.366
186.0, -10633.373037978774, -12477.213141585964, -7544.250195533061, -15266.353221697, -891.991065977939, -1872.6738539545363, -2447.918349256319, -4228.301850354892, -20559.26866045817, -17763.490112243904, -23127.48409837295, -13564.960785503483, -7790.029977563618, -12404.994655250866, -6666.452487284242, -9341.151635784106, 0.007375, -0.01975, 0.991, 192.0, 0.0, 0.0, 0.0, 0.0, 0.0, 0.0, 0.0, 0.0, 0.0, 1.6444976853664756E9, 0.0, 2022-02-10 23:54:45.366
188.0, -10650.717991676092, -12482.532856766327, -7553.704983437656, -15270.912977565882, -908.3301911747684, -1879.4687842689498, -2462.91636978583, -4216.477777538035, -20565.25892797219, -17759.824426153235, -23122.544362848326, -13567.665346582575, -7794.3215124990365, -12403.474736627906, -6666.161914606323, -9337.195377015518, 0.007375, -0.01975, 0.991, 192.0, 0.0, 0.0, 0.0, 0.0, 0.0, 0.0, 0.0, 0.0, 0.0, 1.644497685366482E9, 0.0, 2022-02-10 23:54:45.366
190.0, -10645.219462540086, -12486.265598090364, -7556.8342276613985, -15260.228843716246, -904.2845254283578, -1880.429909280528, -2446.19726493326, -4210.934544913119, -20571.65152688641, -17764.428885511028, -23140.269296201386, -13576.360175175689, -7791.572247931033, -12422.116091503633, -6672.085126886979, -9335.6531066481, 0.007375, -0.01975, 0.991, 192.0, 0.0, 0.0, 0.0, 0.0, 0.0, 0.0, 0.0, 0.0, 0.0, 1.6444976853664887E9, 0.0, 2022-02-10 23:54:45.366
192.0, -10633.082465300855, -12467.624243214637, -7551.536864225491, -15263.000460028705, -896.7519875469194, -1876.518354000849, -2441.1681224308163, -4218.578841516834, -20562.30849770409, -17763.8924436441, -23120.7562232919, -13561.384506390634, -7777.356538457459, -12409.755576819847, -6662.093897115457, -9331.026295545853, 0.007375, -0.01975, 0.991, 192.0, 0.0, 0.0, 0.0, 0.0, 0.0, 0.0, 0.0, 0.0, 0.0, 1.6444976853664951E9, 0.0, 2022-02-10 23:54:45.366
194.0, -10650.717991676092, -12477.794286941802, -7568.054803377963, -15274.69042237883, -915.7509703339304, -1882.1062901146759, -2453.2157126922266, -4216.768350215954, -20562.889643059927, -17762.193711065498, -23134.97193276548, -13578.684756599041, -7791.818117120042, -12407.207477951943, -6670.922836175303, -9339.922289839065, 0.0066875, -0.020874999999999998, 0.9924999999999999, 192.0, 0.0, 24.0, 127.5, 40.0, 15.5, 8.0, 0.0, 0.0, 0.0, 1.644497685366502E9, 0.0, 2022-02-10 23:54:45.366
196.0, -10635.71997114658, -12454.459065730462, -7556.074268349918, -15271.807047344095, -895.7014555575199, -1871.332749287218, -2452.1875324472826, -4211.269821079948, -20565.92948030585, -17750.012010337356, -23133.67553158707, -13586.597274136218, -7787.057195551061, -12407.40864365204, -6670.006414652636, -9336.681286893045, 0.0066875, -0.020874999999999998, 0.9924999999999999, 192.0, 0.0, 0.0, 0.0, 0.0, 0.0, 0.0, 0.0, 0.0, 0.0, 1.6444976853665085E9, 0.0, 2022-02-10 23:54:45.366
198.0, -10655.30009928943, -12484.9468451675, -7560.812838174444, -15274.042221789627, -909.3583714197125, -1883.6709122265474, -2463.2739976971147, -4220.992829918007, -20567.11412276198, -17764.85356865568, -23128.691092573536, -13581.83635256724, -7788.711224640754, -12402.357149405141, -6665.066679128013, -9337.307135737794, 0.0066875, -0.020874999999999998, 0.9924999999999999, 192.0, 0.0, 0.0, 0.0, 0.0, 0.0, 0.0, 0.0, 0.0, 0.0, 1.6444976853665168E9, 0.0, 2022-02-10 23:54:45.366
200.0, -10645.085352073354, -12486.824391701746, -7554.241425304584, -15267.962547297782, -905.1785952065701, -1882.262752325863, -2467.1632012323385, -4229.307678855381, -20566.041239028127, -17770.24033906941, -23134.547249620828, -13571.576901862252, -7788.06302405155, -12430.45329218546, -6672.0627751425245, -9345.264356763882, 0.0066875, -0.020874999999999998, 0.9924999999999999, 192.0, 0.0, 0.0, 0.0, 0.0, 0.0, 0.0, 0.0, 0.0, 0.0, 1.6444976853665235E9, 0.0, 2022-02-10 23:54:45.366
202.0, -10637.753979892013, -12468.026574614832, -7555.7166404386335, -15268.364878697977, -907.5925836077433, -1876.5630574897598, -2455.4508871377575, -4214.600231003789, -20562.10733200399, -17766.95463263448, -23117.24699941242, -13569.945224517016, -7780.865762336942, -12418.875088557612, -6667.972405907203, -9338.491778193926, 0.0066875, -0.020874999999999998, 0.9924999999999999, 192.0, 0.0, 0.0, 0.0, 0.0, 0.0, 0.0, 0.0, 0.0, 0.0, 1.64449768536653E9, 0.0, 2022-02-10 23:54:45.366
204.0, -10651.656764943215, -12474.933263651523, -7560.835189918899, -15269.370707198466, -921.4283134255784, -1877.8818104126228, -2455.2273696932043, -4216.45542579358, -20567.896433817918, -17768.13927509061, -23136.15657522161, -13590.039442782336, -7789.582942674511, -12410.046149497766, -6671.682795486784, -9338.648240405111, 0.00734375, -0.0224375, 0.99325, 192.0, 0.0, 32.0, 127.5, 32.0, 15.5, 8.0, 0.0, 0.0, 0.0, 1.6444976853665364E9, 0.0, 2022-02-10 23:54:45.366
206.0, -10639.519767703983, -12478.151914853086, -7554.442591004681, -15268.007250786693, -912.442912154545, -1871.1986388204862, -2447.203093433749, -4213.952030414585, -20568.2540617292, -17762.640745954603, -23140.135185734653, -13577.097782742714, -7797.338998000503, -12409.643818097571, -6671.9510164202475, -9337.307135737794, 0.00734375, -0.0224375, 0.99325, 192.0, 0.0, 0.0, 0.0, 0.0, 0.0, 0.0, 0.0, 0.0, 0.0, 1.6444976853665433E9, 0.0, 2022-02-10 23:54:45.366
208.0, -10644.548910206428, -12467.870112403645, -7556.141323583284, -15270.555349654598, -911.1018074872264, -1879.6252464801369, -2449.3041574125477, -4221.9316031851295, -20561.436779670334, -17765.971155878444, -23124.9583512495, -13569.945224517016, -7781.916294326341, -12407.945085518968, -6660.372812792399, -9335.787217114832, 0.00734375, -0.0224375, 0.99325, 192.0, 0.0, 0.0, 0.0, 0.0, 0.0, 0.0, 0.0, 0.0, 0.0, 1.6444976853665495E9, 0.0, 2022-02-10 23:54:45.366
210.0, -10634.021238567977, -12454.570824452738, -7554.509646238047, -15273.729297367252, -905.6703335845868, -1874.7302144444245, -2445.9290439997967, -4216.343667071303, -20556.899375545905, -17761.143179076098, -23136.044816499332, -13588.586579392742, -7774.7190326117325, -12409.50970763084, -6661.0880686149685, -9340.481083450448, 0.00734375, -0.0224375, 0.99325, 192.0, 0.0, 0.0, 0.0, 0.0, 0.0, 0.0, 0.0, 0.0, 0.0, 1.6444976853665562E9, 0.0, 2022-02-10 23:54:45.366
212.0, -10632.881299600756, -12461.23164430042, -7559.024698618019, -15265.839131574528, -907.9949150079389, -1871.8021359207794, -2447.3148521560256, -4208.654666978678, -20552.585488866032, -17756.337554018206, -23115.950598234012, -13569.83346579474, -7778.407070446858, -12395.092832457165, -6654.31549004501, -9331.830958346243, 0.00734375, -0.0224375, 0.99325, 192.0, 0.0, 0.0, 0.0, 0.0, 0.0, 0.0, 0.0, 0.0, 0.0, 1.6444976853665628E9, 0.0, 2022-02-10 23:54:45.366
214.0, -10649.667459686692, -12486.958502168478, -7563.383288786804, -15263.246329217713, -919.0590285133158, -1884.5649820047597, -2457.887227283386, -4218.578841516834, -20565.81772158357, -17763.065429099253, -23135.53072637686, -13580.517599644376, -7783.950303071774, -12407.967437263422, -6659.6799087142845, -9329.864004834177, 0.007671875, -0.02321875, 0.997625, 192.0, 0.0, 32.0, 127.5, 32.0, 15.5, 40.0, 0.0, 0.0, 0.0, 1.6444976853665695E9, 0.0, 2022-02-10 23:54:45.366
216.0, -10640.972631093578, -12470.172342082542, -7552.520340981525, -15260.49706464971, -904.955077762017, -1870.5951417201927, -2457.1943232052713, -4199.848079663287, -20564.49896866071, -17759.399743008584, -23130.23336294095, -13572.49332338492, -7781.089279781495, -12401.351320904652, -6655.701298201239, -9326.533594910336, 0.007671875, -0.02321875, 0.997625, 192.0, 0.0, 0.0, 0.0, 0.0, 0.0, 0.0, 0.0, 0.0, 0.0, 1.644497685366577E9, 0.0, 2022-02-10 23:54:45.366
218.0, -10650.785046909457, -12474.888560162612, -7557.8847596507985, -15262.888701306429, -917.1144267457041, -1879.5805429912261, -2460.4129744068355, -4215.471949037546, -20565.08011401655, -17765.837045411714, -23126.835897783745, -13566.25718668189, -7778.295311724582, -12418.137480990586, -6650.001603365136, -9326.779464099343, 0.007671875, -0.02321875, 0.997625, 192.0, 0.0, 0.0, 0.0, 0.0, 0.0, 0.0, 0.0, 0.0, 0.0, 1.6444976853665838E9, 0.0, 2022-02-10 23:54:45.366
220.0, -10643.185453794653, -12473.32393805074, -7556.454248005659, -15262.016983272671, -921.7188861034973, -1866.1918480624972, -2476.796803092576, -4213.482643781023, -20565.907128561394, -17768.56395823526, -23145.05256951482, -13583.73625084594, -7796.735500900209, -12398.669111570014, -6661.803324437538, -9331.383923457137, 0.007671875, -0.02321875, 0.997625, 192.0, 0.0, 0.0, 0.0, 0.0, 0.0, 0.0, 0.0, 0.0, 0.0, 1.6444976853665905E9, 0.0, 2022-02-10 23:54:45.366
222.0, -10631.204918766609, -12454.101437819176, -7551.44745724767, -15265.481503663243, -910.2300894534695, -1862.7273276719247, -2446.0631544665284, -4210.353399557281, -20561.570890137064, -17765.680583200527, -23122.09732795922, -13566.748925059906, -7790.812288619553, -12405.888725029079, -6652.594405721951, -9321.660914619079, 0.007671875, -0.02321875, 0.997625, 192.0, 0.0, 0.0, 0.0, 0.0, 0.0, 0.0, 0.0, 0.0, 0.0, 1.6444976853665967E9, 0.0, 2022-02-10 23:54:45.366
224.0, -10643.431322983663, -12470.619376971648, -7557.929463139709, -15261.458189661289, -916.6897436010532, -1874.03731036631, -2441.682212553288, -4200.988018630507, -20560.07332325856, -17764.875920400133, -23132.937924020043, -13573.655614096597, -7782.788012360098, -12409.643818097571, -6650.470989998697, -9322.554984397291, 0.0068359375, -0.023609375000000002, 0.9998125, 192.0, 0.0, 24.0, 127.5, 32.0, 15.5, 40.0, 0.0, 0.0, 0.0, 1.6444976853666036E9, 0.0, 2022-02-10 23:54:45.366
226.0, -10619.269087227474, -12452.425056985028, -7545.010154844542, -15260.318250694067, -892.2369351669473, -1862.5038102273716, -2419.911613453819, -4197.232925562015, -20553.636020855432, -17759.690315686505, -23123.572543093273, -13570.369907661667, -7783.212695504749, -12399.719643559414, -6643.69841142874, -9318.196394228506, 0.0068359375, -0.023609375000000002, 0.9998125, 192.0, 0.0, 0.0, 0.0, 0.0, 0.0, 0.0, 0.0, 0.0, 0.0, 1.64449768536661E9, 0.0, 2022-02-10 23:54:45.366
228.0, -10629.014447809988, -12437.538795177794, -7550.1957595581725, -15262.3522594395, -900.7753015488746, -1865.811868406757, -2426.7959507460537, -4201.390350030702, -20550.171500464858, -17737.51738518684, -23117.135240690142, -13569.766410561373, -7776.574227401523, -12393.483506856384, -6636.769370647594, -9313.36841742616, 0.0068359375, -0.023609375000000002, 0.9998125, 192.0, 0.0, 0.0, 0.0, 0.0, 0.0, 0.0, 0.0, 0.0, 0.0, 1.6444976853666165E9, 0.0, 2022-02-10 23:54:45.366
230.0, -10632.568375178382, -12464.494998990895, -7554.755515427055, -15254.082113991037, -897.4895951139445, -1869.3210922862402, -2433.2779566380927, -4199.73632094101, -20550.752645820696, -17755.152911562076, -23129.00401699591, -13577.701279843008, -7773.042651777584, -12407.78862330778, -6646.715896930206, -9314.865984304666, 0.0068359375, -0.023609375000000002, 0.9998125, 192.0, 0.0, 0.0, 0.0, 0.0, 0.0, 0.0, 0.0, 0.0, 0.0, 1.6444976853666248E9, 0.0, 2022-02-10 23:54:45.366
232.0, -10625.684037886149, -12462.930376879023, -7547.06651533443, -15255.669087847364, -901.5129091158998, -1864.940150373, -2436.6530700508442, -4210.465158279558, -20555.98295402324, -17765.591176222704, -23110.630883053647, -13549.4486748515, -7780.508134425657, -12405.26287618433, -6645.821827151994, -9311.088539491719, 0.0068359375, -0.023609375000000002, 0.9998125, 192.0, 0.0, 0.0, 0.0, 0.0, 0.0, 0.0, 0.0, 0.0, 0.0, 1.6444976853666315E9, 0.0, 2022-02-10 23:54:45.366
234.0, -10638.268070014487, -12473.122772350642, -7560.745782941078, -15264.408619929389, -921.2047959810253, -1874.327883044229, -2448.879474267897, -4218.422379305646, -20555.871195300962, -17770.977946636434, -23115.771784278368, -13561.384506390634, -7785.537276928101, -12404.212344194932, -6652.862626655416, -9318.41991167306, 0.004, -0.028, 0.992, 192.0, 0.0, 16.0, 127.5, 16.0, 15.5, 0.0, 0.0, 0.0, 0.0, 1.644497685366638E9, 0.0, 2022-02-10 23:54:45.366
236.0, -10629.372075721274, -12469.524141493339, -7554.174370071218, -15266.68849786383, -910.8112348093075, -1864.0013771058773, -2443.7832765320873, -4212.990905403007, -20561.36972443697, -17773.727211204437, -23123.594894837726, -13573.20857920749, -7787.459526951257, -12404.860544784135, -6653.019088866603, -9319.6492576181, 0.004, -0.028, 0.992, 192.0, 0.0, 0.0, 0.0, 0.0, 0.0, 0.0, 0.0, 0.0, 0.0, 1.6444976853666446E9, 0.0, 2022-02-10 23:54:45.366
238.0, -10636.524633946972, -12466.37254552514, -7561.684556208201, -15268.49898916471, -923.6187843821984, -1870.2598655533632, -2450.6229103354112, -4215.874280437742, -20565.92948030585, -17765.792341922803, -23121.136202947644, -13565.966614003972, -7785.090242038995, -12400.323140659708, -6650.493341743153, -9320.74449309641, 0.004, -0.028, 0.992, 192.0, 0.0, 0.0, 0.0, 0.0, 0.0, 0.0, 0.0, 0.0, 0.0, 1.6444976853666513E9, 0.0, 2022-02-10 23:54:45.366
240.0, -10634.781197879458, -12467.154856581075, -7564.54557949848, -15268.87896882045, -915.9297842895728, -1875.557228989271, -2446.331375399992, -4226.960745687574, -20562.062628515083, -17773.36958329315, -23129.652217585113, -13571.174570462057, -7783.257398993659, -12391.047166710756, -6653.913158644815, -9322.42087393056, 0.004, -0.028, 0.992, 192.0, 0.0, 0.0, 0.0, 0.0, 0.0, 0.0, 0.0, 0.0, 0.0, 1.6444976858455825E9, 0.0, 2022-02-10 23:54:45.845
242.0, -10624.074712285366, -12448.513501705349, -7557.750649184067, -15272.567006655576, -908.3078394303132, -1869.2540370528743, -2440.2517009081485, -4215.918983926652, -20562.53201514864, -17762.126655832133, -23115.48121160045, -13576.315471686778, -7784.978483316718, -12393.63996906757, -6646.447675996742, -9321.996190785909, 0.004, -0.028, 0.992, 192.0, 0.0, 0.0, 0.0, 0.0, 0.0, 0.0, 0.0, 0.0, 0.0, 1.6444976858457963E9, 0.0, 2022-02-10 23:54:45.845
244.0, -10649.510997475505, -12479.448316031494, -7564.523227754024, -15273.014041544682, -924.3340402047683, -1884.4308715380278, -2460.6811953402994, -4231.744019001009, -20567.807026840095, -17766.14996983409, -23127.662912328593, -13582.171628734068, -7786.453698450769, -12415.0305885113, -6646.492379485653, -9321.88443206363, 0.004, -0.028, 0.992, 192.0, 0.0, 0.0, 127.5, 32.0, 15.5, 0.0, 0.0, 0.0, 0.0, 1.6444976858458037E9, 0.0, 2022-02-10 23:54:45.845
246.0, -10638.893918859234, -12469.166513582053, -7554.241425304584, -15267.582567642043, -907.4137696521008, -1868.874057397134, -2447.0913347114724, -4227.743056743509, -20568.209358240292, -17784.43369679853, -23129.38399665165, -13566.92773901555, -7776.7753931016205, -12434.99069630989, -6651.74503943265, -9325.907746065586, 0.004, -0.028, 0.992, 192.0, 0.0, 0.0, 0.0, 0.0, 0.0, 0.0, 0.0, 0.0, 0.0, 1.644497685845812E9, 0.0, 2022-02-10 23:54:45.845
248.0, -10647.119360818788, -12477.995452641899, -7563.740916698089, -15269.124838009458, -913.1358162326594, -1873.2549993103744, -2442.665689309322, -4221.886899696219, -20565.996535539216, -17779.13633336262, -23123.66195007109, -13566.391297148622, -7779.077622780517, -12417.131652490098, -6644.793646907049, -9320.096292507207, 0.004, -0.028, 0.992, 192.0, 0.0, 0.0, 0.0, 0.0, 0.0, 0.0, 0.0, 0.0, 0.0, 1.6444976858458192E9, 0.0, 2022-02-10 23:54:45.845
250.0, -10639.542119448439, -12470.865246160656, -7568.077155122418, -15271.471771177266, -907.9725632634835, -1877.3453685456955, -2428.9640699582187, -4223.563280530368, -20568.32111696257, -17778.979871151434, -23137.117700233186, -13571.241625695424, -7778.854105335964, -12426.541736905783, -6654.449600511743, -9326.444187932515, 0.004, -0.028, 0.992, 192.0, 0.0, 0.0, 0.0, 0.0, 0.0, 0.0, 0.0, 0.0, 0.0, 1.6444976858458261E9, 0.0, 2022-02-10 23:54:45.845
252.0, -10629.77440712147, -12469.568844982248, -7556.253082305561, -15277.506742180198, -903.5916213502434, -1870.8857143981118, -2420.0680756650063, -4210.487510024012, -20563.22491922676, -17774.42011528255, -23118.789269779834, -13578.841218810228, -7781.782183859609, -12415.321161189218, -6644.972460862692, -9320.900955307598, 0.004, -0.028, 0.992, 192.0, 0.0, 0.0, 0.0, 0.0, 0.0, 0.0, 0.0, 0.0, 0.0, 1.644497685845833E9, 0.0, 2022-02-10 23:54:45.845
254.0, -10645.040648584443, -12468.808885670769, -7565.037317876497, -15277.238521246734, -914.4322174110672, -1877.2336098234189, -2436.9436427287633, -4228.301850354892, -20565.236576227737, -17771.46968501445, -23127.99818849542, -13591.715823616485, -7781.402204203869, -12415.187050722487, -6646.335917274466, -9321.07976926324, 0.004, -0.028, 0.992, 192.0, 0.0, 0.0, 127.5, 32.0, 15.5, 24.0, 0.0, 0.0, 0.0, 1.6444976858458402E9, 0.0, 2022-02-10 23:54:45.845
0.0, -10638.446883970128, -12471.736964194413, -7554.576701471413, -15274.332794467546, -901.6917230715422, -1866.1918480624972, -2430.0593054365286, -4208.140576856205, -20567.091771017527, -17778.644594984602, -23131.44035714154, -13585.54674214682, -7778.20590474676, -12417.578687379204, -6647.0064696081245, -9317.637600617123, 0.004, -0.028, 0.992, 192.0, 0.0, 0.0, 0.0, 0.0, 0.0, 0.0, 0.0, 0.0, 0.0, 1.6444976858458593E9, 0.0, 2022-02-10 23:54:45.845
2.0, -10648.594575952839, -12478.576597997737, -7562.980957386609, -15278.557274169598, -913.6946098440421, -1879.6923017135027, -2441.1234189419056, -4224.949088686596, -20568.07524777356, -17780.589196752215, -23128.512278617894, -13572.560378618286, -7779.904637325363, -12412.996579765866, -6644.905405629326, -9315.201260471495, 0.004, -0.028, 0.992, 192.0, 0.0, 0.0, 0.0, 0.0, 0.0, 0.0, 0.0, 0.0, 0.0, 1.6444976858458657E9, 0.0, 2022-02-10 23:54:45.845
4.0, -10642.336087505351, -12459.0411733438, -7568.725355711622, -15276.679727635352, -910.0959789867377, -1872.8973713990895, -2435.848407250453, -4216.723646727043, -20567.69526811782, -17781.058583385777, -23140.939848535043, -13592.542838161331, -7784.643207149888, -12417.981018779401, -6654.002565622636, -9319.157519240085, 0.004, -0.028, 0.992, 192.0, 0.0, 0.0, 0.0, 0.0, 0.0, 0.0, 0.0, 0.0, 0.0, 1.6444976858458724E9, 0.0, 2022-02-10 23:54:45.845
6.0, -10629.036799554444, -12464.80792341327, -7556.297785794472, -15272.745820611219, -906.407941151612, -1860.0004148483772, -2433.3897153603693, -4215.315486826359, -20560.36389593648, -17778.510484517872, -23121.38207213665, -13575.555512375298, -7771.6344918769, -12400.099623215154, -6651.208597565723, -9309.434510402025, 0.004, -0.028, 0.992, 192.0, 0.0, 0.0, 0.0, 0.0, 0.0, 0.0, 0.0, 0.0, 0.0, 1.6444976858458862E9, 0.0, 2022-02-10 23:54:45.845
8.0, -10642.738418905546, -12468.160685081564, -7567.048974877474, -15274.243387489723, -921.9424035480504, -1876.8983336565893, -2431.892148481864, -4220.389332817714, -20560.341544192022, -17783.293757831307, -23128.601685595713, -13582.439849667533, -7780.39637570338, -12417.757501334847, -6654.561359234019, -9314.977743026942, 0.004, -0.024, 0.996, 192.0, 0.0, 16.0, 127.5, 32.0, 15.5, 16.0, 0.0, 0.0, 0.0, 1.644497685845893E9, 0.0, 2022-02-10 23:54:45.845
10.0, -10630.757883877503, -12467.37837402563, -7556.454248005659, -15271.270605477168, -903.8821940281623, -1866.9741591184331, -2440.2293491636933, -4213.907326925674, -20562.487311659734, -17772.363754792663, -23128.601685595713, -13583.244512467923, -7788.085375796006, -12421.043207769777, -6655.790705179061, -9311.647333103101, 0.004, -0.024, 0.996, 192.0, 0.0, 0.0, 0.0, 0.0, 0.0, 0.0, 0.0, 0.0, 0.0, 1.6444976858458996E9, 0.0, 2022-02-10 23:54:45.845
12.0, -10644.705372417615, -12486.444412046005, -7560.723431196622, -15277.730259624752, -917.3379441902572, -1879.1782115910307, -2431.0874856814726, -4229.352382344292, -20566.331811706044, -17776.18590309452, -23121.940865748034, -13571.77806756235, -7785.246704250182, -12411.36490242063, -6655.9248156457925, -9315.089501749218, 0.004, -0.024, 0.996, 192.0, 0.0, 0.0, 0.0, 0.0, 0.0, 0.0, 0.0, 0.0, 0.0, 1.644497685845906E9, 0.0, 2022-02-10 23:54:45.845
14.0, -10646.068828829388, -12479.560074753772, -7562.645681219778, -15273.88575957844, -922.054162270327, -1877.971217390444, -2426.2818606235815, -4220.434036306624, -20570.198663496813, -17791.76506897987, -23140.068130501288, -13588.988910792938, -7792.578076431522, -12417.265762956831, -6668.46414428522, -9322.398522186104, 0.004, -0.024, 0.996, 192.0, 0.0, 0.0, 0.0, 0.0, 0.0, 0.0, 0.0, 0.0, 0.0, 1.6444976858459127E9, 0.0, 2022-02-10 23:54:45.845
16.0, -10636.457578713605, -12469.747658937891, -7559.896416651776, -15275.204512501303, -906.7655690628969, -1875.4007667780838, -2437.748305529154, -4221.149292129194, -20568.92461406286, -17782.489095030916, -23127.886429773145, -13579.77999207735, -7792.488669453701, -12403.519440116817, -6665.401955294843, -9314.553059882292, 0.004, -0.024, 0.996, 192.0, 0.0, 0.0, 0.0, 0.0, 0.0, 0.0, 0.0, 0.0, 0.0, 1.6444976858459191E9, 0.0, 2022-02-10 23:54:45.845
18.0, -10647.476988730072, -12476.140257852108, -7561.125762596818, -15277.462038691288, -919.8636913137069, -1885.101423871687, -2460.4129744068355, -4246.563225574878, -20565.97418379476, -17787.808810211278, -23133.809642053802, -13581.50107640041, -7779.949340814274, -12421.289076958785, -6668.620606496407, -9321.526804152347, 0.006, -0.026000000000000002, 0.994, 192.0, 0.0, 24.0, 127.5, 24.0, 15.5, 8.0, 0.0, 0.0, 0.0, 1.644497685845926E9, 0.0, 2022-02-10 23:54:45.845
20.0, -10633.14952053422, -12470.41821127155, -7551.223939803117, -15270.287128721135, -901.5576126048104, -1871.7350806874135, -2432.3615351154253, -4219.137635128216, -20559.134549991435, -17783.18199910903, -23130.501583874415, -13586.843143325228, -7785.716090883743, -12424.150100249064, -6667.234798340178, -9317.905821550587, 0.006, -0.026000000000000002, 0.994, 192.0, 0.0, 0.0, 0.0, 0.0, 0.0, 0.0, 0.0, 0.0, 0.0, 1.6444976858459325E9, 0.0, 2022-02-10 23:54:45.845
22.0, -10639.855043870813, -12478.263673575364, -7550.0169456025305, -15274.824532845561, -905.2903539288467, -1874.5066969998716, -2424.8289972339867, -4208.609963489766, -20561.705000603797, -17779.27044382935, -23126.52297336137, -13580.607006622196, -7779.815230347542, -12418.808033324247, -6652.594405721951, -9313.055493003785, 0.006, -0.026000000000000002, 0.994, 192.0, 0.0, 0.0, 0.0, 0.0, 0.0, 0.0, 0.0, 0.0, 0.0, 1.644497685845939E9, 0.0, 2022-02-10 23:54:45.845
24.0, -10635.205881024109, -12462.03630710081, -7546.574776956413, -15269.214244987279, -903.6586765836092, -1864.3813567616173, -2419.7998547315424, -4214.3543618147805, -20553.568965622064, -17775.269481571853, -23130.412176896596, -13585.59144563573, -7778.854105335964, -12415.321161189218, -6649.576920220486, -9313.949562781998, 0.006, -0.026000000000000002, 0.994, 192.0, 0.0, 0.0, 0.0, 0.0, 0.0, 0.0, 0.0, 0.0, 0.0, 1.6444976858459456E9, 0.0, 2022-02-10 23:54:45.845
26.0, -10631.115511788788, -12466.32784203623, -7544.607823444346, -15264.252157718201, -903.9939527504389, -1859.5980834481818, -2420.112779153917, -4219.808187461876, -20549.366837664467, -17764.764161677856, -23107.926321974555, -13561.07158196826, -7775.389584945391, -12410.31437043123, -6646.291213785555, -9309.434510402025, 0.006, -0.026000000000000002, 0.994, 192.0, 0.0, 0.0, 0.0, 0.0, 0.0, 0.0, 0.0, 0.0, 0.0, 1.6444976858459523E9, 0.0, 2022-02-10 23:54:45.845
28.0, -10640.749113649024, -12475.492057262905, -7559.6505474627675, -15261.055858261092, -914.6780866000756, -1863.0179003498438, -2438.5082648406346, -4216.477777538035, -20556.96643077927, -17772.497865259393, -23123.840764026736, -13565.765448303873, -7779.8822855809085, -12416.349341434163, -6652.147370832846, -9311.200298213995, 0.016, -0.024, 0.992, 192.0, 0.0, 64.0, 127.5, 32.0, 15.5, 0.0, 0.0, 0.0, 0.0, 1.6444976858459587E9, 0.0, 2022-02-10 23:54:45.845
30.0, -10630.243793755031, -12469.144161837597, -7548.809951401944, -15263.760419340184, -906.5196998738885, -1854.3230717567292, -2430.4392850922686, -4206.374789044236, -20552.473730143756, -17765.971155878444, -23125.628903583158, -13559.998698234403, -7776.328358212514, -12405.464041884428, -6652.013260366114, -9305.210030699973, 0.016, -0.024, 0.992, 192.0, 0.0, 0.0, 0.0, 0.0, 0.0, 0.0, 0.0, 0.0, 0.0, 1.6444976858459654E9, 0.0, 2022-02-10 23:54:45.845
32.0, -10637.999849081023, -12472.0945921057, -7557.437724761692, -15269.795390343117, -917.6955721015421, -1859.4863247259052, -2433.4120671048245, -4214.577879259334, -20560.274488958657, -17770.352097791685, -23124.019577982377, -13574.147352474612, -7794.187402032305, -12397.864448769624, -6648.593443464451, -9302.17019345405, 0.016, -0.024, 0.992, 192.0, 0.0, 0.0, 0.0, 0.0, 0.0, 0.0, 0.0, 0.0, 0.0, 1.644497685845972E9, 0.0, 2022-02-10 23:54:45.845
34.0, -10628.232136754053, -12446.479492959917, -7552.140361325784, -15267.291994964124, -905.9609062625059, -1857.0946880691872, -2430.461636836724, -4220.188167117616, -20557.88285230194, -17766.731115189927, -23136.24598219943, -13584.675024113063, -7787.213657762249, -12401.060748226733, -6651.499170243642, -9310.50739413588, 0.016, -0.024, 0.992, 192.0, 0.0, 0.0, 0.0, 0.0, 0.0, 0.0, 0.0, 0.0, 0.0, 1.6444976858459785E9, 0.0, 2022-02-10 23:54:45.845
36.0, -10625.013485552488, -12473.480400261928, -7542.082076320896, -15253.25509944619, -899.0989207147265, -1852.5796356892154, -2420.8056832320312, -4212.186242602616, -20547.95867776378, -17754.884690628613, -23114.67654880006, -13555.058962709782, -7774.786087845098, -12401.373672649106, -6641.195016049745, -9304.047739988297, 0.016, -0.024, 0.992, 192.0, 0.0, 0.0, 0.0, 0.0, 0.0, 0.0, 0.0, 0.0, 0.0, 1.6444976858459852E9, 0.0, 2022-02-10 23:54:45.845
38.0, -10641.39731423823, -12475.313243307262, -7554.621404960323, -15258.753628582195, -915.7733220783857, -1865.4989439843828, -2441.950433486752, -4218.31062058337, -20550.931459776337, -17773.816618182256, -23118.34223489073, -13554.768390031863, -7779.837582091997, -12406.559277362738, -6642.469065483698, -9307.780481312333, 0.008, -0.022, 0.986, 192.0, 0.0, 32.0, 127.5, 40.0, 15.0, 104.0, 0.0, 0.0, 0.0, 1.644497685845994E9, 0.0, 2022-02-10 23:54:45.845
40.0, -10622.755959362503, -12459.577615210726, -7542.842035632377, -15262.620480372963, -897.310781158302, -1863.1743625610309, -2424.1807966447827, -4217.684771738622, -20548.673933586353, -17771.0450018698, -23121.315016903285, -13565.296061670311, -7773.199113988771, -12406.64868434056, -6647.051173097036, -9307.579315612234, 0.008, -0.022, 0.986, 192.0, 0.0, 0.0, 0.0, 0.0, 0.0, 0.0, 0.0, 0.0, 0.0, 1.6444976858460004E9, 0.0, 2022-02-10 23:54:45.846
42.0, -10636.949317091623, -12466.104324591675, -7548.072343834919, -15270.287128721135, -899.7694730483859, -1874.2831795553184, -2427.600613546445, -4223.049190407895, -20553.278392944147, -17766.842873912203, -23121.38207213665, -13572.4039164071, -7770.271035465126, -12393.59526557866, -6640.345649760444, -9309.99330401341, 0.008, -0.022, 0.986, 192.0, 0.0, 0.0, 0.0, 0.0, 0.0, 0.0, 0.0, 0.0, 0.0, 1.644497685846007E9, 0.0, 2022-02-10 23:54:45.846
44.0, -10631.115511788788, -12459.331746021719, -7543.847864132866, -15261.905224550394, -900.4176736375897, -1864.4037085060727, -2435.8037037615422, -4206.084216366317, -20552.630192354944, -17772.341403048205, -23134.34608392073, -13578.72946008795, -7780.172858258827, -12424.261858971342, -6643.430190495275, -9306.729949322933, 0.008, -0.022, 0.986, 192.0, 0.0, 0.0, 0.0, 0.0, 0.0, 0.0, 0.0, 0.0, 0.0, 1.6444976858460135E9, 0.0, 2022-02-10 23:54:45.846
46.0, -10628.232136754053, -12475.961443896467, -7536.360029740337, -15258.038372759625, -891.5663828332881, -1857.8546473806678, -2434.6414130498665, -4204.854870421275, -20548.383360908432, -17762.953670376977, -23118.878676757657, -13560.53514010133, -7780.418727447835, -12421.356132192152, -6634.042457824047, -9298.817431785756, 0.008, -0.020999999999999998, 0.988, 192.0, 0.0, 32.0, 127.5, 48.0, 15.0, 120.0, 0.0, 0.0, 0.0, 1.6444976858460205E9, 0.0, 2022-02-10 23:54:45.846
48.0, -10646.15823580721, -12485.639749245614, -7548.0276403460075, -15269.996556043216, -901.5576126048104, -1879.200563335486, -2432.6744595377995, -4219.919946184153, -20550.46207314278, -17767.8934059016, -23126.746490805923, -13564.022012236359, -7780.195210003282, -12416.617562367626, -6634.2659752685995, -9305.008864999874, 0.008, -0.020999999999999998, 0.988, 192.0, 0.0, 0.0, 0.0, 0.0, 0.0, 0.0, 0.0, 0.0, 0.0, 1.6444976858460271E9, 0.0, 2022-02-10 23:54:45.846
50.0, -10633.976535079068, -12477.74958345289, -7547.960585112642, -15272.902282822406, -892.7063218005088, -1871.2880457983074, -2425.9018809678414, -4204.564297743356, -20554.77595982265, -17775.09066761621, -23130.76980480788, -13574.929663530549, -7780.955169314763, -12416.304637945252, -6640.010373593614, -9305.925286522543, 0.008, -0.020999999999999998, 0.988, 192.0, 0.0, 0.0, 0.0, 0.0, 0.0, 0.0, 0.0, 0.0, 0.0, 1.6444976858460345E9, 0.0, 2022-02-10 23:54:45.846
52.0, -10643.811302639402, -12481.437621288016, -7560.678727707712, -15278.803143358606, -902.98812424995, -1879.491136013405, -2449.170046945816, -4228.637126521722, -20560.92268954786, -17765.546472733793, -23132.133261219653, -13567.374773904656, -7792.309855498059, -12421.199669980964, -6642.781989906071, -9308.831013301733, 0.008, -0.020999999999999998, 0.988, 192.0, 0.0, 0.0, 0.0, 0.0, 0.0, 0.0, 0.0, 0.0, 0.0, 1.6444976858460412E9, 0.0, 2022-02-10 23:54:45.846
54.0, -10647.320526518884, -12468.652423459582, -7545.613651944835, -15274.533960167642, -899.5459556038327, -1872.0480051097877, -2453.2604161811373, -4221.126940384739, -20558.754570335695, -17779.583368251726, -23139.28581944535, -13580.696413600019, -7786.0513670505725, -12422.898402559567, -6652.482646999675, -9316.877641305642, 0.008, -0.020999999999999998, 0.988, 192.0, 0.0, 0.0, 0.0, 0.0, 0.0, 0.0, 0.0, 0.0, 0.0, 1.6444976858460476E9, 0.0, 2022-02-10 23:54:45.846
56.0, -10636.658744413704, -12475.715574707458, -7542.484407721092, -15272.142323510925, -888.4147868650898, -1870.6398452091034, -2414.658953506822, -4206.397140788691, -20554.038352255626, -17775.895330416603, -23121.270313414374, -13568.470009382965, -7791.326378742026, -12406.469870384917, -6640.323298015988, -9304.986513255419, 0.008, -0.0195, 0.989, 192.0, 0.0, 32.0, 127.5, 56.0, 15.0, 120.0, 0.0, 0.0, 0.0, 1.6444976858460543E9, 0.0, 2022-02-10 23:54:45.846
58.0, -10648.415761997196, -12486.533819023827, -7552.945024126176, -15275.338622968035, -906.98908650745, -1887.9177436730558, -2434.1273229273943, -4231.721667256555, -20552.4513783993, -17780.388031052116, -23130.63569434115, -13578.327128687755, -7787.727747884721, -12430.945030563478, -6639.608042193418, -9311.289705191815, 0.008, -0.0195, 0.989, 192.0, 0.0, 0.0, 0.0, 0.0, 0.0, 0.0, 0.0, 0.0, 0.0, 1.6444976858460608E9, 0.0, 2022-02-10 23:54:45.846
60.0, -10635.71997114658, -12468.495961248394, -7546.753590912055, -15277.327928224557, -893.1086532007043, -1868.0246911078325, -2431.690982781766, -4217.774178716442, -20555.066532500572, -17778.979871151434, -23133.429662398063, -13574.572035619263, -7788.912390340852, -12434.27544048732, -6644.994812607148, -9312.250830203395, 0.008, -0.0195, 0.989, 192.0, 0.0, 0.0, 0.0, 0.0, 0.0, 0.0, 0.0, 0.0, 0.0, 1.6444976858460674E9, 0.0, 2022-02-10 23:54:45.846
62.0, -10650.516825975994, -12481.303510821284, -7551.760381670044, -15274.265739234179, -902.2281649384696, -1875.9819121339217, -2449.2594539236375, -4219.8752426952415, -20554.93242203384, -17769.972118135945, -23126.612380339193, -13566.167779704068, -7788.8676868519415, -12424.88770781609, -6641.17266430529, -9304.874754533143, 0.008, -0.0195, 0.989, 192.0, 0.0, 0.0, 0.0, 0.0, 0.0, 0.0, 0.0, 0.0, 0.0, 1.644497685846074E9, 0.0, 2022-02-10 23:54:45.846
64.0, -10648.348706763829, -12486.243246345908, -7545.054858333452, -15272.812875844584, -897.6460573251317, -1871.3998045205838, -2437.10010493995, -4221.305754340381, -20555.6029743675, -17782.265577586364, -23133.54142112034, -13574.661442597086, -7788.957093829763, -12427.949896806467, -6648.593443464451, -9311.736740080922, 0.008, -0.0195, 0.989, 192.0, 0.0, 0.0, 0.0, 0.0, 0.0, 0.0, 0.0, 0.0, 0.0, 1.6444976858460803E9, 0.0, 2022-02-10 23:54:45.846
66.0, -10640.235023526553, -12477.23549333042, -7538.505797208047, -15278.423163702866, -890.3593886327016, -1869.4552027529721, -2442.0621922090286, -4220.724608984543, -20556.474692401254, -17773.458990270974, -23121.67264481457, -13573.11917222967, -7780.798707103576, -12424.530079904805, -6638.803379393027, -9312.072016247752, 0.007, -0.018750000000000003, 0.9904999999999999, 192.0, 0.0, 24.0, 127.5, 56.0, 15.5, 0.0, 0.0, 0.0, 0.0, 1.644497685846087E9, 0.0, 2022-02-10 23:54:45.846
68.0, -10647.655802685715, -12479.001281142388, -7549.413448502237, -15282.31236723809, -896.3720078911791, -1882.4192145370503, -2444.1856079322824, -4227.765408487965, -20558.39694242441, -17787.674699744548, -23129.33929316274, -13586.329053202755, -7783.592675160489, -12427.994600295378, -6649.353402775932, -9319.872775062655, 0.007, -0.018750000000000003, 0.9904999999999999, 192.0, 0.0, 0.0, 0.0, 0.0, 0.0, 0.0, 0.0, 0.0, 0.0, 1.644497685846094E9, 0.0, 2022-02-10 23:54:45.846
70.0, -10619.403197694206, -12466.41724901405, -7535.912994851232, -15275.11510552348, -877.7306530154531, -1855.1947897904863, -2424.2478518781486, -4211.269821079948, -20542.68366607233, -17770.821484425247, -23121.069147714275, -13572.694489085019, -7779.569361158534, -12392.991768478367, -6642.603175950429, -9313.860155804177, 0.007, -0.018750000000000003, 0.9904999999999999, 192.0, 0.0, 0.0, 0.0, 0.0, 0.0, 0.0, 0.0, 0.0, 0.0, 1.6444976858461022E9, 0.0, 2022-02-10 23:54:45.846
72.0, -10630.020276310477, -12467.825408914734, -7536.471788462614, -15269.25894847619, -880.3234553722687, -1859.4192694925393, -2426.885357723875, -4217.260088593971, -20537.095729958502, -17762.886615143612, -23111.77082202087, -13566.681869826542, -7774.003776789163, -12415.254105955853, -6633.953050846226, -9308.56279236827, 0.007, -0.018750000000000003, 0.9904999999999999, 192.0, 0.0, 0.0, 0.0, 0.0, 0.0, 0.0, 0.0, 0.0, 0.0, 1.644497685846109E9, 0.0, 2022-02-10 23:54:45.846
74.0, -10627.29336348693, -12463.578577468226, -7539.198701286162, -15269.907149065395, -877.4847838264446, -1859.8439526371901, -2424.046686178051, -4215.78487345992, -20540.96258174927, -17777.951690906488, -23128.221705939974, -13563.127942458146, -7778.071794280028, -12421.087911258688, -6641.396181749843, -9308.965123768465, 0.007, -0.018750000000000003, 0.9904999999999999, 192.0, 0.0, 0.0, 0.0, 0.0, 0.0, 0.0, 0.0, 0.0, 0.0, 1.6444976858461156E9, 0.0, 2022-02-10 23:54:45.846
76.0, -10629.506186188006, -12461.589272211704, -7534.236614017083, -15268.431933931344, -869.862838967185, -1863.9343218725112, -2422.9738024441963, -4213.013257147462, -20541.38726489392, -17771.67085071455, -23113.871885999666, -13568.827637294251, -7774.383756444902, -12421.713760103436, -6638.423399737287, -9305.03121674433, 0.0085, -0.021375, 0.98925, 192.0, 0.0, 40.0, 127.5, 32.0, 15.0, 112.0, 0.0, 0.0, 0.0, 1.6444976858461225E9, 0.0, 2022-02-10 23:54:45.846
78.0, -10645.510035218005, -12481.28115907683, -7542.171483298717, -15269.88479732094, -881.8433739952295, -1865.5659992177486, -2423.979630944685, -4209.906364668174, -20547.01990449666, -17774.643632727104, -23121.471479114472, -13569.297023927811, -7779.010567547151, -12428.754559606858, -6641.1279608163795, -9309.613324357668, 0.0085, -0.021375, 0.98925, 192.0, 0.0, 0.0, 0.0, 0.0, 0.0, 0.0, 0.0, 0.0, 0.0, 1.6444976858461292E9, 0.0, 2022-02-10 23:54:45.846
80.0, -10626.958087320101, -12478.04015613081, -7531.666163404723, -15268.096657764514, -869.795783733819, -1850.7244408994247, -2412.8708139503974, -4201.256239563971, -20545.611744595975, -17771.112057103164, -23122.499659359415, -13572.560378618286, -7778.16120125785, -12416.461100156439, -6638.9598416042145, -9299.666798075057, 0.0085, -0.021375, 0.98925, 192.0, 0.0, 0.0, 0.0, 0.0, 0.0, 0.0, 0.0, 0.0, 0.0, 1.6444976858461356E9, 0.0, 2022-02-10 23:54:45.846
82.0, -10635.183529279653, -12470.865246160656, -7535.085980306385, -15270.264776976679, -881.7539670174083, -1853.0266705783215, -2416.8047209745314, -4205.436015777113, -20540.895526515906, -17759.489149986406, -23110.34031037573, -13569.364079161178, -7770.494552909679, -12411.0296262538, -6630.510882200108, -9297.878658518632, 0.0085, -0.021375, 0.98925, 192.0, 0.0, 0.0, 0.0, 0.0, 0.0, 0.0, 0.0, 0.0, 0.0, 1.6444976858461423E9, 0.0, 2022-02-10 23:54:45.846
84.0, -10635.585860679848, -12470.641728716104, -7538.7516663970555, -15269.996556043216, -884.2126589074921, -1852.1773042890197, -2425.991287945663, -4205.54777449939, -20543.756549806185, -17776.699993216993, -23127.595857095224, -13573.700317585508, -7786.0513670505725, -12409.30854193074, -6636.411742736309, -9298.728024807933, 0.0085, -0.021375, 0.98925, 192.0, 0.0, 0.0, 0.0, 0.0, 0.0, 0.0, 0.0, 0.0, 0.0, 1.6444976858461487E9, 0.0, 2022-02-10 23:54:45.846
86.0, -10627.583936164849, -12466.8419321587, -7533.476654705603, -15274.60101540101, -871.0251296788609, -1848.0645833092433, -2418.659915764322, -4204.11726285425, -20543.510680617175, -17775.98473739442, -23115.57061857827, -13561.116285457168, -7778.988215802696, -12407.855678541146, -6631.717876400695, -9297.856306774176, 0.009250000000000001, -0.0216875, 0.988625, 192.0, 0.0, 40.0, 127.5, 40.0, 15.0, 112.0, 0.0, 0.0, 0.0, 1.6444976858461552E9, 0.0, 2022-02-10 23:54:45.846
88.0, -10639.497415959528, -12460.047001844288, -7545.948928111664, -15275.74095436823, -886.2690193973804, -1867.6447114520922, -2425.4995495676458, -4222.512748540968, -20547.042256241115, -17779.248092084898, -23117.91755174608, -13570.101686728203, -7776.797744846076, -12407.45334714095, -6630.130902544368, -9303.287780676816, 0.009250000000000001, -0.0216875, 0.988625, 192.0, 0.0, 0.0, 0.0, 0.0, 0.0, 0.0, 0.0, 0.0, 0.0, 1.644497685846162E9, 0.0, 2022-02-10 23:54:45.846
90.0, -10627.919212331679, -12465.523179235839, -7541.903262365254, -15273.908111322895, -882.1115949286932, -1866.8624003961565, -2427.8688344799084, -4215.561356015367, -20547.623401596953, -17782.80201945329, -23122.745528548425, -13582.104573500703, -7780.552837914567, -12432.621411397626, -6633.751885146128, -9304.830051044233, 0.009250000000000001, -0.0216875, 0.988625, 192.0, 0.0, 0.0, 0.0, 0.0, 0.0, 0.0, 0.0, 0.0, 0.0, 1.6444976858461685E9, 0.0, 2022-02-10 23:54:45.846
92.0, -10636.8599101138, -12484.52216202285, -7548.072343834919, -15276.389154957433, -886.4925368419334, -1874.3055312997737, -2441.302232897548, -4209.280515823426, -20548.40571265289, -17779.71747871846, -23115.57061857827, -13565.676041326053, -7781.1786867593155, -12428.732207862402, -6629.415646721798, -9301.276123675838, 0.009250000000000001, -0.0216875, 0.988625, 192.0, 0.0, 0.0, 0.0, 0.0, 0.0, 0.0, 0.0, 0.0, 0.0, 1.6444976858461752E9, 0.0, 2022-02-10 23:54:45.846
94.0, -10630.57906992186, -12472.720440950447, -7542.171483298717, -15270.488294421231, -876.7695280038748, -1868.494077741394, -2417.43056981928, -4193.678998193622, -20543.24245968371, -17788.18878986702, -23128.7581478069, -13573.968538518971, -7771.410974432347, -12407.140422718576, -6631.784931634061, -9303.265428932362, 0.009250000000000001, -0.0216875, 0.988625, 192.0, 0.0, 0.0, 0.0, 0.0, 0.0, 0.0, 0.0, 0.0, 0.0, 1.6444976858461819E9, 0.0, 2022-02-10 23:54:45.846
96.0, -10624.812319852392, -12467.490132747906, -7535.82358787341, -15268.11900950897, -873.0367866798385, -1866.1247928291314, -2421.0962559099503, -4201.502108752979, -20535.106424701982, -17769.703897202482, -23104.32769111725, -13556.668288310562, -7762.6267388614115, -12424.015989782332, -6621.7042948847175, -9297.31986490725, 0.009625000000000002, -0.01984375, 0.9863124999999999, 192.0, 0.0, 40.0, 127.5, 56.0, 15.0, 96.0, 0.0, 0.0, 0.0, 1.6444976858461883E9, 0.0, 2022-02-10 23:54:45.846
98.0, -10640.123264804277, -12479.18009509803, -7552.87796889281, -15274.019870045171, -893.9133160010954, -1871.7574324318687, -2440.206997419238, -4215.6954664821, -20544.158881206382, -17778.532836262326, -23118.744566290923, -13564.267881425367, -7779.457602436257, -12427.972248550923, -6627.828672865471, -9305.299437677793, 0.009625000000000002, -0.01984375, 0.9863124999999999, 192.0, 0.0, 0.0, 0.0, 0.0, 0.0, 0.0, 0.0, 0.0, 0.0, 1.6444976858461947E9, 0.0, 2022-02-10 23:54:45.846
100.0, -10631.160215277698, -12465.031440857822, -7548.429971746204, -15271.538826410631, -880.4352140945452, -1856.491190968894, -2441.8163230200203, -4210.711027468566, -20546.461110885277, -17782.891426431113, -23126.031234983355, -13569.766410561373, -7777.691814624288, -12413.197745465965, -6633.416608979298, -9303.354835910182, 0.009625000000000002, -0.01984375, 0.9863124999999999, 192.0, 0.0, 0.0, 0.0, 0.0, 0.0, 0.0, 0.0, 0.0, 0.0, 1.6444976858462014E9, 0.0, 2022-02-10 23:54:45.846
102.0, -10627.807453609403, -12450.41339998405, -7555.962509627642, -15272.20937874429, -891.3875688776457, -1861.2744642823297, -2434.4178956053133, -4208.051169878384, -20540.49319511571, -17774.218949582453, -23111.34613887622, -13566.994794248914, -7774.584922145001, -12401.284265671286, -6627.515748443097, -9301.097309720197, 0.009625000000000002, -0.01984375, 0.9863124999999999, 192.0, 0.0, 0.0, 0.0, 0.0, 0.0, 0.0, 0.0, 0.0, 0.0, 1.6444976858462095E9, 0.0, 2022-02-10 23:54:45.846
104.0, -10629.461482699095, -12461.008126855866, -7560.052878862964, -15268.610747886987, -892.6839700560535, -1865.3648335176508, -2429.4334565917798, -4207.112396611261, -20545.030599240137, -17779.113981618164, -23128.691092573536, -13578.3047769433, -7788.822983363031, -12414.114166988633, -6637.0822950699685, -9299.666798075057, 0.009625000000000002, -0.01984375, 0.9863124999999999, 192.0, 0.0, 0.0, 0.0, 0.0, 0.0, 0.0, 0.0, 0.0, 0.0, 1.6444976863250585E9, 0.0, 2022-02-10 23:54:46.325
106.0, -10636.502282202517, -12478.643653231104, -7557.035393361497, -15265.906186807893, -888.280676398358, -1870.617493464648, -2431.892148481864, -4213.21442284756, -20548.87509928645, -17777.974042650945, -23118.364586635184, -13562.949128502505, -7792.332207242514, -12420.59617288067, -6637.2164055367, -9298.88448701912, 0.009812500000000002, -0.018921875, 0.98615625, 192.0, 0.0, 40.0, 127.5, 56.0, 15.0, 104.0, 0.0, 0.0, 0.0, 1.6444976863252354E9, 0.0, 2022-02-10 23:54:46.325
108.0, -10655.210692311608, -12486.511467279372, -7567.741878955589, -15271.516474666176, -898.8083480368076, -1875.2219528224414, -2450.444096379769, -4219.495263039501, -20560.31919244757, -17785.394821810107, -23129.227534440462, -13564.893730270116, -7797.361349744958, -12427.07817877271, -6640.323298015988, -9305.590010355712, 0.009812500000000002, -0.018921875, 0.98615625, 192.0, 0.0, 0.0, 0.0, 0.0, 0.0, 0.0, 0.0, 0.0, 0.0, 1.6444976863252423E9, 0.0, 2022-02-10 23:54:46.325
110.0, -10633.328334489863, -12473.592158984204, -7558.510608495547, -15271.4047159439, -882.3798158621569, -1860.4027462485728, -2431.981555459685, -4209.816957690354, -20552.518433632664, -17781.19269385251, -23126.43356638355, -13569.431134394543, -7784.889076338897, -12422.518422903828, -6638.110475314913, -9302.46076613197, 0.009812500000000002, -0.018921875, 0.98615625, 192.0, 0.0, 0.0, 0.0, 0.0, 0.0, 0.0, 0.0, 0.0, 0.0, 1.6444976863252494E9, 0.0, 2022-02-10 23:54:46.325
112.0, -10639.96680259309, -12477.257845074875, -7566.892512666287, -15275.964471812782, -895.7238073019753, -1869.0305196083214, -2441.5481020865564, -4213.303829825381, -20549.277430686645, -17777.28113857283, -23118.074013957266, -13563.44086688052, -7784.2855792386035, -12422.74194034838, -6631.650821167329, -9304.561830110768, 0.009812500000000002, -0.018921875, 0.98615625, 192.0, 0.0, 0.0, 0.0, 0.0, 0.0, 0.0, 0.0, 0.0, 0.0, 1.644497686325256E9, 0.0, 2022-02-10 23:54:46.325
114.0, -10637.418703725185, -12463.176246068031, -7560.991652130086, -15279.563102670087, -889.89000199914, -1869.4999062418826, -2444.2526631656488, -4217.774178716442, -20552.049046999105, -17782.265577586364, -23136.80477581081, -13589.391242193133, -7783.480916438212, -12427.681675873004, -6639.228062537678, -9311.93790578102, 0.009812500000000002, -0.018921875, 0.98615625, 192.0, 0.0, 0.0, 0.0, 0.0, 0.0, 0.0, 0.0, 0.0, 0.0, 1.6444976863252628E9, 0.0, 2022-02-10 23:54:46.325
116.0, -10621.884241328746, -12463.489170490406, -7549.815779902432, -15270.60005314351, -871.5615715457883, -1860.4698014819387, -2435.2449101501597, -4208.811129189865, -20542.482500372233, -17767.021687867844, -23125.494793116428, -13574.21440770798, -7777.624759390922, -12423.8818793156, -6630.287364755555, -9306.46172838947, 0.01, -0.022, 0.992, 192.0, 0.0, 40.0, 127.5, 40.0, 15.5, 0.0, 0.0, 0.0, 0.0, 1.6444976863252697E9, 0.0, 2022-02-10 23:54:46.325
118.0, -10644.05717182841, -12478.822467186747, -7562.489219008591, -15282.40177421591, -889.0629874542938, -1872.9197231435446, -2440.1622939303275, -4224.2114811195715, -20541.431968382833, -17777.03526938382, -23116.576447078758, -13564.849026781205, -7778.295311724582, -12416.237582711887, -6625.794664120039, -9306.707597578477, 0.01, -0.022, 0.992, 192.0, 0.0, 0.0, 0.0, 0.0, 0.0, 0.0, 0.0, 0.0, 0.0, 1.6444976863252769E9, 0.0, 2022-02-10 23:54:46.325
120.0, -10639.139788048244, -12489.975987669945, -7559.583492229402, -15278.490218936233, -882.4692228399781, -1871.9809498764218, -2437.6141950624224, -4226.960745687574, -20551.154977220893, -17793.217932369465, -23124.1089849602, -13578.103611243203, -7786.073718795028, -12430.095664274177, -6629.236832766156, -9313.122548237152, 0.01, -0.022, 0.992, 192.0, 0.0, 0.0, 0.0, 0.0, 0.0, 0.0, 0.0, 0.0, 0.0, 1.6444976863252833E9, 0.0, 2022-02-10 23:54:46.325
122.0, -10645.331221262362, -12499.14020289662, -7570.133515612307, -15280.993614315226, -893.4215776230786, -1880.0052261358771, -2445.504360855146, -4212.275649580437, -20555.267698200667, -17789.887522445624, -23121.069147714275, -13569.140561716624, -7779.435250691802, -12440.802149868268, -6626.845196109438, -9312.407292414582, 0.01, -0.022, 0.992, 192.0, 0.0, 0.0, 0.0, 0.0, 0.0, 0.0, 0.0, 0.0, 0.0, 1.64449768632529E9, 0.0, 2022-02-10 23:54:46.325
124.0, -10649.600404453327, -12492.52408653785, -7569.9770534011195, -15284.79341087263, -900.0376939818495, -1886.0849006277206, -2451.2934626690703, -4213.795568203398, -20557.97225927976, -17797.084784160234, -23142.0127322689, -13593.056928283802, -7791.728710142221, -12442.500882446871, -6641.686754427762, -9316.02827501634, 0.01, -0.022, 0.992, 192.0, 0.0, 0.0, 0.0, 0.0, 0.0, 0.0, 0.0, 0.0, 0.0, 1.6444976863252966E9, 0.0, 2022-02-10 23:54:46.325
126.0, -10640.413837482196, -12478.621301486648, -7560.92459689672, -15283.139381782936, -887.2301444089585, -1872.4726882544385, -2433.523825827101, -4203.826690176331, -20560.2521372142, -17791.742717235415, -23127.707615817504, -13583.132753745647, -7796.914314855852, -12434.051923042765, -6635.249452024634, -9311.93790578102, 0.006, -0.026000000000000002, 0.99, 192.0, 0.0, 24.0, 127.5, 24.0, 15.0, 120.0, 0.0, 0.0, 0.0, 1.6444976863253033E9, 0.0, 2022-02-10 23:54:46.325
128.0, -10651.075619587376, -12482.912836422067, -7570.334681312404, -15288.481448707755, -899.4789003704668, -1880.5193162583491, -2449.5723783460116, -4222.333934585326, -20557.614631368477, -17792.592083524716, -23130.658046085602, -13579.601178121708, -7794.120346798939, -12416.103472245155, -6639.965670104703, -9315.22361221595, 0.006, -0.026000000000000002, 0.99, 192.0, 0.0, 0.0, 0.0, 0.0, 0.0, 0.0, 0.0, 0.0, 0.0, 1.6444976863253098E9, 0.0, 2022-02-10 23:54:46.325
