%OpenBCI Raw EEG Data
%Number of channels = 16
%Sample Rate = 125 Hz
%Board = OpenBCI_GUI$BoardCytonSerialDaisy
Sample Index, EXG Channel 0, EXG Channel 1, EXG Channel 2, EXG Channel 3, EXG Channel 4, EXG Channel 5, EXG Channel 6, EXG Channel 7, EXG Channel 8, EXG Channel 9, EXG Channel 10, EXG Channel 11, EXG Channel 12, EXG Channel 13, EXG Channel 14, EXG Channel 15, Accel Channel 0, Accel Channel 1, Accel Channel 2, Other, Other, Other, Other, Other, Other, Other, Analog Channel 0, Analog Channel 1, Analog Channel 2, Timestamp, Other, Timestamp (Formatted)
0.0, -7691.995226382641, -4847.981613633825, -6215.148414987138, -11685.536704723443, -2469.018396022129, -726.4540465419349, -3958.0916116346853, -4016.1167402406622, -8671.135743991821, -5302.236116199031, -2648.078220853594, -2730.9808410383275, -508.74805554724406, -1509.2791926001541, -2876.960084075938, -3597.893249737412, 0.0, 0.0, 0.0, 192.0, 0.0, 0.0, 0.5, 32.0, 7.5, 32.0, 0.0, 0.0, 0.0, 1.6444916093242795E9, 0.0, 2022-02-10 22:13:29.324
2.0, -7701.181793353772, -4847.065192111158, -6209.739292828953, -11682.16159131069, -2467.1855529767936, -728.5104070318231, -3957.1528383675623, -4017.3013826967936, -17336.236516980713, -10591.016482235967, -5294.077729472844, -5453.959757561655, -1006.0520179333708, -3002.3086669813, -5739.235072044739, -7178.642711477603, 0.0, 0.0, 0.0, 192.0, 0.0, 0.0, 0.0, 0.0, 0.0, 0.0, 0.0, 0.0, 0.0, 1.6444916093242884E9, 0.0, 2022-02-10 22:13:29.324
4.0, -7705.830956200476, -4856.72114571585, -6223.955002302529, -11694.656216461208, -2478.6519978823662, -733.6066047676331, -3977.1129461661517, -4038.4014294626036, -17354.944927089804, -10608.607305122294, -5308.919287791167, -5468.13076354632, -1025.6544978206753, -3018.2231090334785, -5756.982357142253, -7194.199525618497, 0.0, 0.0, 0.0, 192.0, 0.0, 0.0, 0.0, 0.0, 0.0, 0.0, 0.0, 0.0, 0.0, 1.6444916093242953E9, 0.0, 2022-02-10 22:13:29.324
6.0, -7693.939828150253, -4846.729915944328, -6205.537164871355, -11682.608626199797, -2459.228331950704, -731.0138024108174, -3949.843817930677, -4031.807664848288, -17341.980915305725, -10602.460575397085, -5298.324560919352, -5457.290167485496, -1010.9246982246278, -3012.3446002417327, -5746.588795970535, -7188.388072060117, -0.001, 0.03, 0.368, 192.0, 127.5, 120.0, 0.5, 112.0, 11.5, 0.0, 0.0, 0.0, 0.0, 1.644491609324302E9, 0.0, 2022-02-10 22:13:29.324
8.0, -7703.416967799302, -4857.5705120051525, -6218.210603977514, -11693.873905405273, -2469.040747766584, -736.3111658467252, -3949.7991144417665, -4020.3412199427153, -17341.95856356127, -10602.929962030645, -5299.486851631028, -5460.330004731418, -1011.1929191580915, -3015.496196209931, -5741.112618578985, -7186.354063314684, -0.001, 0.03, 0.368, 192.0, 0.0, 0.0, 0.0, 0.0, 0.0, 0.0, 0.0, 0.0, 0.0, 1.6444916093243213E9, 0.0, 2022-02-10 22:13:29.324
10.0, -7693.090461860951, -4845.321756043644, -6205.738330571453, -11684.575579711865, -2452.746326058665, -718.9885638938623, -3928.6543641870458, -4005.8572895356765, -17346.67478164134, -10607.869697555268, -5299.889183031223, -5461.358184976361, -1006.4767010780217, -3015.9432310990373, -5744.42067675837, -7189.706824982981, -0.001, 0.03, 0.368, 192.0, 0.0, 0.0, 0.0, 0.0, 0.0, 0.0, 0.0, 0.0, 0.0, 1.6444916093243277E9, 0.0, 2022-02-10 22:13:29.324
12.0, -7694.610380483911, -4846.059363610669, -6201.625609591676, -11683.525047722465, -2449.0359364790843, -720.709648216921, -3930.39780025456, -3995.5307835973244, -17333.129624501424, -10588.155458945688, -5291.8872585162235, -5448.528283659016, -997.6701137626308, -2985.9471900400154, -5723.924127092854, -7167.13156308312, -0.001, 0.03, 0.368, 192.0, 0.0, 0.0, 0.0, 0.0, 0.0, 0.0, 0.0, 0.0, 0.0, 1.6444916093243344E9, 0.0, 2022-02-10 22:13:29.324
14.0, -7695.191525839749, -4852.988404391815, -6213.85201380873, -11694.07507110537, -2458.624834850411, -732.0419826557616, -3946.848684173666, -4008.3383331702157, -17345.803063607582, -10598.772537561958, -5301.789081309925, -5465.113278044853, -1010.209442402058, -3010.981143829959, -5741.403191256904, -7185.102365625187, -0.001, 0.03, 0.368, 192.0, 0.0, 0.0, 0.0, 0.0, 0.0, 0.0, 0.0, 0.0, 0.0, 1.6444916093243408E9, 0.0, 2022-02-10 22:13:29.324
16.0, -7685.312054790504, -4838.14684607349, -6196.149432200126, -11681.669852932675, -2445.3702503884138, -720.5531860057338, -3940.5007887483584, -3983.3714346136376, -17333.733121601716, -10594.682168326637, -5288.8921247592125, -5451.232844738108, -998.4747765630218, -3010.869385107683, -5730.495539962714, -7179.246208577897, -0.002, 0.062, 0.86, 192.0, 127.5, 120.0, 0.5, 120.0, 13.0, 112.0, 0.0, 0.0, 0.0, 1.6444916093243475E9, 0.0, 2022-02-10 22:13:29.324
18.0, -7699.795985197543, -4845.925253143937, -6208.912278284107, -11693.739794938541, -2458.7365935726875, -728.9127384320186, -3939.003221869853, -4013.903917539587, -17333.084921012512, -10582.232246665031, -5291.909610260679, -5455.1220482733315, -999.3688463412341, -3010.4447019630315, -5730.272022518161, -7177.793345188302, -0.002, 0.062, 0.86, 192.0, 0.0, 0.0, 0.0, 0.0, 0.0, 0.0, 0.0, 0.0, 0.0, 1.644491609324354E9, 0.0, 2022-02-10 22:13:29.324
20.0, -7694.565676995001, -4849.881511912527, -6205.17953696007, -11685.916684379183, -2448.5441981010676, -711.7242469458874, -3932.9906026113754, -4003.488004623414, -17342.450301939287, -10598.43726139513, -5296.670531829659, -5457.0666500409425, -1014.7021430375747, -3012.7022281530176, -5741.0455633456195, -7188.432775549028, -0.002, 0.062, 0.86, 192.0, 0.0, 0.0, 0.0, 0.0, 0.0, 0.0, 0.0, 0.0, 0.0, 1.6444916093243604E9, 0.0, 2022-02-10 22:13:29.324
22.0, -7701.762938709609, -4857.011718393769, -6204.7101503265085, -11683.547399466921, -2459.138924972883, -729.2927180877589, -3951.520198764825, -4009.5006238818914, -17334.515432657652, -10592.268179925464, -5287.349854391797, -5449.243539481586, -1001.5816690423095, -2999.157071013102, -5728.170958539362, -7173.770031186346, -0.002, 0.062, 0.86, 192.0, 0.0, 0.0, 0.0, 0.0, 0.0, 0.0, 0.0, 0.0, 0.0, 1.644491609324367E9, 0.0, 2022-02-10 22:13:29.324
24.0, -7705.04864514454, -4864.723070230851, -6218.076493510783, -11697.3607775403, -2465.2409512091817, -733.2489768563482, -3954.962367410942, -4017.7484175859, -17347.01005780817, -10603.62286610876, -5295.57529635135, -5455.613786651348, -1013.2492796479797, -3016.8596526217048, -5745.560615725591, -7193.305455840285, -0.002, 0.062, 0.86, 192.0, 0.0, 0.0, 0.0, 0.0, 0.0, 0.0, 0.0, 0.0, 0.0, 1.6444916093243735E9, 0.0, 2022-02-10 22:13:29.324
26.0, -7695.929133406775, -4847.378116533532, -6202.631438092165, -11684.240303545035, -2445.4149538773245, -715.3899330365579, -3930.040172343275, -3979.6610450340568, -17340.595107149496, -10597.319674172364, -5289.8308980263355, -5456.440801196194, -1001.5593172978541, -3002.3310187257553, -5729.981449840242, -7178.732118455425, -0.002, 0.062, 0.86, 192.0, 0.0, 0.0, 1.0, 24.0, 14.0, 88.0, 0.0, 0.0, 0.0, 1.64449160932438E9, 0.0, 2022-02-10 22:13:29.324
28.0, -7703.729892221677, -4858.48693352782, -6215.193118476048, -11698.008978129505, -2457.4401923942796, -728.3986483095465, -3949.2403208303836, -4004.382074401626, -17336.95177280328, -10594.883334026736, -5294.211839939576, -5463.012214066054, -1000.8440614752843, -2999.6488093911184, -5733.3565632529935, -7179.2238568334415, -0.002, 0.062, 0.86, 192.0, 0.0, 0.0, 0.0, 0.0, 0.0, 0.0, 0.0, 0.0, 0.0, 1.6444916093243866E9, 0.0, 2022-02-10 22:13:29.324
30.0, -7678.941807620741, -4845.38881127701, -6210.946287029539, -11691.50462049301, -2445.4820091106903, -716.9545551484293, -3955.968195911431, -4007.958353514475, -17337.219993736744, -10603.354645175295, -5296.1117382182765, -5466.610844923359, -1003.079235920815, -2992.608009887697, -5745.560615725591, -7187.918685426555, -0.002, 0.062, 0.86, 192.0, 0.0, 0.0, 0.0, 0.0, 0.0, 0.0, 0.0, 0.0, 0.0, 1.6444916093243933E9, 0.0, 2022-02-10 22:13:29.324
32.0, -7697.449052029736, -4847.646337466996, -6208.711112584008, -11682.608626199797, -2452.00871849164, -726.029363397284, -3934.041134600775, -3987.707673037967, -17327.29581919859, -10586.568485089361, -5285.539363090917, -5448.796504592479, -990.7187212370302, -2997.6148006456856, -5726.785150383133, -7169.098516595187, -0.002, 0.062, 0.86, 192.0, 0.0, 0.0, 0.0, 0.0, 0.0, 0.0, 0.0, 0.0, 0.0, 1.6444916093244047E9, 0.0, 2022-02-10 22:13:29.324
34.0, -7709.474290546691, -4858.106953872079, -6218.858804566718, -11690.118812336781, -2457.976634261207, -726.5211017753007, -3954.7388499663894, -4025.7279903564445, -17341.131549016423, -10597.967874761567, -5299.084520230833, -5458.251292497074, -1015.1044744377703, -3011.4281787190653, -5745.426505258859, -7182.062528379265, -0.002, 0.062, 0.86, 192.0, 0.0, 0.0, 0.0, 0.0, 0.0, 0.0, 0.0, 0.0, 0.0, 1.6444916093244116E9, 0.0, 2022-02-10 22:13:29.324
36.0, -7703.729892221677, -4845.299404299189, -6209.538127128855, -11679.859361631796, -2450.5111516131346, -721.0449243837505, -3936.58923346868, -4004.069149979252, -17333.66606636835, -10584.914455999668, -5289.137993948221, -5451.389306949295, -1004.4650440770441, -2993.0997482657135, -5738.005726099697, -7178.486249266416, -0.002, 0.062, 0.86, 192.0, 0.0, 0.0, 1.0, 48.0, 14.5, 88.0, 0.0, 0.0, 0.0, 1.644491609324418E9, 0.0, 2022-02-10 22:13:29.324
38.0, -7717.520918550601, -4868.366404577066, -6230.99580180595, -11695.50558275051, -2475.7686228476314, -736.7805524802867, -3942.4006870270596, -4002.12454821164, -17342.584412406017, -10582.321653642852, -5296.894049274212, -5459.07830704192, -1012.9587069700608, -3005.4602629494984, -5738.475112733258, -7175.8934469096, -0.002, 0.062, 0.86, 192.0, 0.0, 0.0, 0.0, 0.0, 0.0, 0.0, 0.0, 0.0, 0.0, 1.6444916093244245E9, 0.0, 2022-02-10 22:13:29.324
40.0, -7701.584124753967, -4854.195398592401, -6218.054141766327, -11680.954597110105, -2458.0213377501177, -715.1440638475494, -3928.1179223201184, -3998.0565307207744, -17348.798197364595, -10605.835688809835, -5301.252639442997, -5462.386365221306, -1025.7439047984965, -3008.924783340071, -5749.3827640274485, -7184.945903414, -0.002, 0.062, 0.86, 192.0, 0.0, 0.0, 0.0, 0.0, 0.0, 0.0, 0.0, 0.0, 0.0, 1.6444916093244312E9, 0.0, 2022-02-10 22:13:29.324
42.0, -7707.95437192373, -4852.429610780431, -6212.913240541607, -11675.634881929742, -2448.857122523442, -716.3063545592254, -3927.0897420751744, -3988.6240945606346, -17330.782691333618, -10581.114659442266, -5287.059281713878, -5445.376687690818, -1003.5709742988319, -2987.02007377387, -5728.506234706192, -7162.840028147702, -0.002, 0.062, 0.86, 192.0, 0.0, 0.0, 0.0, 0.0, 0.0, 0.0, 0.0, 0.0, 0.0, 1.644491609324438E9, 0.0, 2022-02-10 22:13:29.324
44.0, -7712.245906859149, -4863.650186496996, -6228.671220382598, -11691.594027470832, -2456.7472883161654, -718.0721423711947, -3934.0858380896857, -4002.7280453119333, -17345.356028718477, -10598.392557906218, -5297.408139396684, -5458.608920408359, -1016.3785238717228, -2999.3805884576545, -5747.2146448152835, -7179.715595211458, -0.002, 0.062, 0.86, 192.0, 0.0, 0.0, 0.0, 0.0, 0.0, 0.0, 0.0, 0.0, 0.0, 1.6444916093244443E9, 0.0, 2022-02-10 22:13:29.324
46.0, -7701.137089864861, -4846.238177566312, -6211.661542852109, -11678.78647789794, -2448.141866700872, -710.4725492563903, -3933.750561922856, -3994.5696585857463, -17334.00134253518, -10590.9494270026, -5288.221572425553, -5446.248405724574, -1006.566108055843, -2991.1327947536465, -5735.770551654166, -7175.625225976137, -0.002, 0.062, 0.86, 192.0, 0.0, 0.0, 1.0, 56.0, 15.0, 16.0, 0.0, 0.0, 0.0, 1.644491609324451E9, 0.0, 2022-02-10 22:13:29.324
48.0, -7708.826089957487, -4860.856218440083, -6228.023019793394, -11691.12464083727, -2464.235122708693, -728.6668692430103, -3952.63778598759, -4011.4675773939584, -17337.175290247833, -10589.787136290925, -5294.9941509955115, -5452.886873827801, -1010.0753319353262, -2992.630361632152, -5739.011554600186, -7178.709766710969, -0.002, 0.062, 0.86, 192.0, 0.0, 0.0, 0.0, 0.0, 0.0, 0.0, 0.0, 0.0, 0.0, 1.6444916093244576E9, 0.0, 2022-02-10 22:13:29.324
50.0, -7703.059339888017, -4865.9077126869815, -6221.943345301551, -11689.403556514211, -2442.688041053777, -711.2548603123261, -3931.3365735216826, -4006.930173269531, -17349.267583998157, -10607.601476621805, -5301.610267354282, -5456.485504685104, -1022.8828815082171, -2999.3805884576545, -5750.813275672588, -7188.455127293483, -0.002, 0.062, 0.86, 192.0, 0.0, 0.0, 0.0, 0.0, 0.0, 0.0, 0.0, 0.0, 0.0, 1.644491609324464E9, 0.0, 2022-02-10 22:13:29.324
52.0, -7708.289648090559, -4859.604520750585, -6215.081359753771, -11682.899198877716, -2453.8639132814305, -719.7038197164321, -3948.480361518903, -3994.5696585857463, -17331.162670989357, -10588.490735112517, -5284.399424123696, -5442.2697952115295, -1004.7332650105078, -2990.1046145087025, -5730.272022518161, -7170.618435218148, -0.002, 0.062, 0.86, 192.0, 0.0, 0.0, 0.0, 0.0, 0.0, 0.0, 0.0, 0.0, 0.0, 1.6444916093244705E9, 0.0, 2022-02-10 22:13:29.324
54.0, -7717.275049361593, -4869.618102266562, -6229.431179694078, -11694.633864716752, -2463.072831997017, -731.7514099778426, -3951.8554749316545, -4010.84172854921, -17355.414313723366, -10608.741415589026, -5304.136014477732, -5471.0364903255095, -1028.6496315776863, -3020.055952078814, -5748.4439907603255, -7185.638807492114, -0.002, 0.062, 0.86, 192.0, 0.0, 0.0, 0.0, 0.0, 0.0, 0.0, 0.0, 0.0, 0.0, 1.6444916093244774E9, 0.0, 2022-02-10 22:13:29.324
56.0, -7699.684226475267, -4866.399451064998, -6204.777205559874, -11676.886579619239, -2450.2652824241263, -716.1498923480383, -3947.0498498737634, -4000.492870866403, -17337.37645594793, -10598.303150928397, -5290.032063726433, -5457.1784087632195, -1008.8906894791949, -3005.7508356274175, -5741.13497032344, -7178.821525433246, -0.002, 0.062, 0.86, 192.0, 0.0, 0.0, 1.0, 40.0, 15.0, 32.0, 0.0, 0.0, 0.0, 1.644491609324484E9, 0.0, 2022-02-10 22:13:29.324
58.0, -7717.409159828325, -4876.72595700335, -6215.908374298618, -11692.331635037855, -2458.289558683581, -733.4724943009013, -3940.4784370039033, -4016.6084786186793, -17333.464900668252, -10593.72104331506, -5289.517973603961, -5456.574911662926, -1007.6166400452424, -3004.2979722378223, -5736.798731899111, -7178.687414966514, -0.002, 0.062, 0.86, 192.0, 0.0, 0.0, 0.0, 0.0, 0.0, 0.0, 0.0, 0.0, 0.0, 1.6444916093244903E9, 0.0, 2022-02-10 22:13:29.324
60.0, -7709.250773102138, -4871.674462756451, -6213.203813219526, -11687.861286146795, -2446.5772445890007, -721.6260697395885, -3930.5319107212918, -4002.169251700551, -17344.551365918083, -10601.499450385505, -5296.737587063025, -5462.8781035993225, -1016.244413404991, -3011.6963996525287, -5743.526606980158, -7186.644635992603, -0.002, 0.062, 0.86, 192.0, 0.0, 0.0, 0.0, 0.0, 0.0, 0.0, 0.0, 0.0, 0.0, 1.6444916093244972E9, 0.0, 2022-02-10 22:13:29.324
62.0, -7712.134148136873, -4869.796916222205, -6209.448720151034, -11682.519219221977, -2462.3575761744473, -720.9555174059293, -3937.907986391543, -3979.392824100593, -17334.515432657652, -10593.363415403774, -5288.422738125651, -5455.591434906893, -1003.2804016209128, -2998.374759957166, -5730.674353918356, -7168.003281116878, -0.002, 0.062, 0.86, 192.0, 0.0, 0.0, 0.0, 0.0, 0.0, 0.0, 0.0, 0.0, 0.0, 1.6444916093245037E9, 0.0, 2022-02-10 22:13:29.324
64.0, -7702.902877676831, -4871.361538334077, -6219.507005155922, -11695.21501007259, -2461.2846924405926, -730.0973808881499, -3955.2752918333167, -4005.969048257953, -17343.09850252849, -10598.616075350772, -5299.509203375484, -5463.705118144169, -1018.5242913394322, -3010.243536262934, -5747.728734937756, -7185.66115923657, -0.002, 0.062, 0.86, 192.0, 0.0, 0.0, 0.0, 0.0, 0.0, 0.0, 0.0, 0.0, 0.0, 1.644491609324512E9, 0.0, 2022-02-10 22:13:29.324
66.0, -7696.733796207166, -4865.706546986884, -6198.94340025704, -11686.453126246111, -2445.3702503884138, -722.6318982400774, -3926.7321141638895, -3992.289780651305, -17326.938191287303, -10601.275932940953, -5283.7288717900365, -5458.608920408359, -1005.1579481551586, -3009.0365420623475, -5737.156359810396, -7182.643673735103, -0.002, 0.062, 0.86, 192.0, 0.0, 0.0, 1.0, 32.0, 15.0, 72.0, 0.0, 0.0, 0.0, 1.6444916093245184E9, 0.0, 2022-02-10 22:13:29.324
68.0, -7716.828014472487, -4881.598637294607, -6215.70720859852, -11698.679530463163, -2471.1194600009276, -745.609491540133, -3964.774783226822, -4018.8213013197546, -17331.408540178363, -10599.174868962155, -5288.936828248123, -5462.341661732396, -1002.6322010317089, -3012.724579897473, -5731.411961485382, -7182.844839435201, -0.002, 0.062, 0.86, 192.0, 0.0, 0.0, 0.0, 0.0, 0.0, 0.0, 0.0, 0.0, 0.0, 1.644491609324525E9, 0.0, 2022-02-10 22:13:29.324
70.0, -7706.881488189875, -4874.602541280096, -6210.499252140433, -11692.085765848848, -2448.812419034531, -724.4647412854125, -3949.016803385831, -4011.959315771975, -17347.23357525272, -10606.9532760326, -5299.62096209776, -5465.202685022675, -1016.758503527463, -3022.1570160576125, -5750.90268265041, -7198.3569500871845, -0.002, 0.062, 0.86, 192.0, 0.0, 0.0, 0.0, 0.0, 0.0, 0.0, 0.0, 0.0, 0.0, 1.6444916093245475E9, 0.0, 2022-02-10 22:13:29.324
72.0, -7712.804700470531, -4870.556875533685, -6202.854955536718, -11685.69316693463, -2450.9581865022406, -728.8233314541974, -3930.5766142102025, -3976.6659112770453, -17332.034389023112, -10592.245828181009, -5288.668607314659, -5458.698327386181, -1009.8518144907731, -3006.2202222609785, -5727.299240505605, -7173.5241619973385, -0.002, 0.062, 0.86, 192.0, 0.0, 0.0, 0.0, 0.0, 0.0, 0.0, 0.0, 0.0, 0.0, 1.6444916093245542E9, 0.0, 2022-02-10 22:13:29.324
74.0, -7715.263392360615, -4868.2993493437, -6212.443853908045, -11695.4608792616, -2454.1991894482603, -731.9749274223957, -3945.172303339518, -4008.383036659126, -17344.461958940265, -10604.539287631427, -5302.079653987844, -5463.146324532786, -1014.2327564040132, -3019.273641022878, -5738.184540055339, -7187.494002281905, -0.002, 0.062, 0.86, 192.0, 0.0, 0.0, 0.0, 0.0, 0.0, 0.0, 0.0, 0.0, 0.0, 1.644491609324561E9, 0.0, 2022-02-10 22:13:29.324
76.0, -7699.438357286258, -4850.954395646381, -6193.936609499051, -11678.473553475565, -2448.521846356612, -711.4560260124238, -3955.521161022325, -3997.005998731375, -17330.894450055894, -10598.347854417307, -5283.572409578849, -5445.600205135371, -1002.3639800982452, -3006.913126339093, -5736.105827820997, -7182.777784201835, -0.002, 0.062, 0.86, 192.0, 0.0, 0.0, 1.0, 24.0, 15.0, 88.0, 0.0, 0.0, 0.0, 1.644491609324568E9, 0.0, 2022-02-10 22:13:29.324
78.0, -7710.882450447375, -4872.3003116012, -6208.08526373926, -11693.002187371516, -2461.508209885146, -736.0876484021721, -3949.396783041571, -4022.5987461327013, -17330.469766911243, -10593.072842725855, -5289.607380581782, -5452.149266260775, -995.9713811840275, -3002.822757103772, -5729.512063206681, -7180.386147545118, -0.002, 0.062, 0.86, 192.0, 0.0, 0.0, 0.0, 0.0, 0.0, 0.0, 0.0, 0.0, 0.0, 1.6444916093245747E9, 0.0, 2022-02-10 22:13:29.324
80.0, -7700.399482297837, -4865.483029542331, -6202.407920647612, -11685.3578907678, -2450.6229103354112, -721.0002208948399, -3953.0848208766965, -4018.038990263819, -17339.365761204455, -10604.204011464599, -5296.022331240455, -5454.093868028387, -1010.2764976354239, -3001.951039070015, -5741.358487767993, -7193.417214562562, -0.002, 0.062, 0.86, 192.0, 0.0, 0.0, 0.0, 0.0, 0.0, 0.0, 0.0, 0.0, 0.0, 1.6444916093245811E9, 0.0, 2022-02-10 22:13:29.324
82.0, -7712.447072559246, -4876.390680836521, -6199.815118290797, -11682.094536077326, -2455.7414598156765, -721.1566831060271, -3953.040117387786, -3996.3354463977157, -17326.87113605394, -10591.552924102894, -5285.8969910022015, -5447.276585969518, -991.9480671820721, -3004.923821082571, -5720.817234613566, -7177.368662043651, -0.002, 0.062, 0.86, 192.0, 0.0, 0.0, 0.0, 0.0, 0.0, 0.0, 0.0, 0.0, 0.0, 1.644491609324588E9, 0.0, 2022-02-10 22:13:29.324
84.0, -7717.118587150406, -4881.263361127778, -6216.042484765349, -11697.718405451586, -2472.818192579531, -730.3656018216136, -3958.44923954597, -4015.6250018626456, -17346.227746752233, -10599.353682917796, -5301.0961772318105, -5462.743993132591, -1016.4902825939993, -3021.7323329129617, -5743.437200002337, -7191.3161505837625, -0.002, 0.062, 0.86, 192.0, 0.0, 0.0, 0.0, 0.0, 0.0, 0.0, 0.0, 0.0, 0.0, 1.644491609324607E9, 0.0, 2022-02-10 22:13:29.324
86.0, -7697.985493896663, -4853.748363703295, -6196.976446744972, -11682.474515733065, -2456.0990877269614, -717.222776081893, -3946.111076606641, -4005.074978479741, -17335.543612902595, -10597.610246850283, -5291.261409671475, -5446.516626658038, -1009.1589104126585, -3014.5574229428084, -5734.496502220214, -7189.170383116053, -0.002, 0.062, 0.86, 192.0, 0.0, 0.0, 1.0, 32.0, 15.0, 64.0, 0.0, 0.0, 0.0, 1.6444916093246136E9, 0.0, 2022-02-10 22:13:29.324
88.0, -7703.2828573325705, -4861.035032395725, -6203.70432182602, -11687.950693124616, -2466.403241920858, -725.4705697859014, -3979.705748522967, -4027.94081305752, -17328.458109910265, -10593.72104331506, -5284.399424123696, -5449.601167392871, -996.6642852621419, -3008.1648240285904, -5730.339077751527, -7184.811792947268, -0.002, 0.062, 0.86, 192.0, 0.0, 0.0, 0.0, 0.0, 0.0, 0.0, 0.0, 0.0, 0.0, 1.64449160932462E9, 0.0, 2022-02-10 22:13:29.324
90.0, -7701.829993942976, -4858.598692250096, -6197.401129889623, -11680.485210476543, -2455.5402941155785, -717.3568865486249, -3948.3462510521713, -4010.7523215713886, -17331.9896855342, -10602.125299230254, -5280.398461866196, -5450.495237171082, -1003.5039190654659, -3012.188138030546, -5740.218548800773, -7194.1324703851315, -0.002, 0.062, 0.86, 192.0, 0.0, 0.0, 0.0, 0.0, 0.0, 0.0, 0.0, 0.0, 0.0, 1.6444916093246264E9, 0.0, 2022-02-10 22:13:29.324
92.0, -7709.340180079959, -4856.3411660601105, -6195.210658933003, -11676.618358685775, -2450.824076035509, -720.5531860057338, -3963.8360099596994, -4002.6386383341123, -17317.61751384944, -10586.210857178075, -5274.005862951978, -5439.498178899072, -993.4456340605777, -2999.760568113395, -5721.800711369599, -7177.815696932757, -0.002, 0.062, 0.86, 192.0, 0.0, 0.0, 0.0, 0.0, 0.0, 0.0, 0.0, 0.0, 0.0, 1.644491609324633E9, 0.0, 2022-02-10 22:13:29.324
94.0, -7711.731816736677, -4863.180799863434, -6211.773301574386, -11690.4093850147, -2454.333299914992, -719.8155784387086, -3976.0177106878414, -4019.9165367980645, -17337.555269903572, -10599.420738151162, -5292.602514338793, -5454.004461050566, -1017.5408145833987, -3011.6069926747077, -5744.063048847085, -7193.4842697959275, -0.002, 0.066, 0.9199999999999999, 192.0, 127.5, 120.0, 1.0, 24.0, 15.0, 80.0, 0.0, 0.0, 0.0, 1.6444916093246396E9, 0.0, 2022-02-10 22:13:29.324
96.0, -7699.1701363527945, -4848.227482822834, -6191.142641442138, -11676.21602728558, -2446.9348725002856, -707.7009329439322, -3926.262727530328, -3978.1187746666405, -17329.888621555405, -10594.168078204166, -5283.751223534492, -5442.940347545189, -1004.2638783769463, -2999.246477990923, -5731.970755096764, -7184.945903414, -0.002, 0.066, 0.9199999999999999, 192.0, 0.0, 0.0, 0.0, 0.0, 0.0, 0.0, 0.0, 0.0, 0.0, 1.6444916093246477E9, 0.0, 2022-02-10 22:13:29.324
98.0, -7707.90966843482, -4851.669651468951, -6202.094996225238, -11687.302492535413, -2456.233198193693, -713.3112208022143, -3950.737887708889, -3990.613399817157, -17327.362874431954, -10588.848363023802, -5284.466479357062, -5449.288242970496, -1001.6263725312201, -2990.8645738201826, -5719.61024041298, -7173.948845141989, -0.002, 0.066, 0.9199999999999999, 192.0, 0.0, 0.0, 0.0, 0.0, 0.0, 0.0, 0.0, 0.0, 0.0, 1.644491609324654E9, 0.0, 2022-02-10 22:13:29.324
100.0, -7697.404348540825, -4850.663822968462, -6196.864688022696, -11680.887541876738, -2452.4781051252016, -709.645534711544, -3968.775745484322, -3999.196469687995, -17329.642752366395, -10598.86194453978, -5280.621979310748, -5447.120123758331, -1007.1025499227703, -2990.7975185868168, -5734.630612686946, -7189.706824982981, -0.002, 0.066, 0.9199999999999999, 192.0, 0.0, 0.0, 0.0, 0.0, 0.0, 0.0, 0.0, 0.0, 0.0, 1.6444916093246608E9, 0.0, 2022-02-10 22:13:29.324
102.0, -7706.613267256412, -4853.211921836367, -6190.047405963827, -11668.951710337606, -2441.3469363864588, -712.7971306797423, -3932.2529950443504, -3983.3043793802717, -17317.930438271815, -10587.395499634207, -5274.497601329995, -5435.139588730287, -988.5506020248655, -2995.4243296890654, -5718.827929357044, -7173.568865486249, -0.002, 0.066, 0.9199999999999999, 192.0, 0.0, 0.0, 0.0, 0.0, 0.0, 0.0, 0.0, 0.0, 0.0, 1.6444916093246672E9, 0.0, 2022-02-10 22:13:29.324
104.0, -7713.542308037557, -4860.610349251074, -6206.520641627389, -11680.954597110105, -2456.680233082799, -712.2606888128148, -3942.3559835381493, -4000.135242955118, -17339.43281643782, -10596.515011371972, -5293.518935861461, -5449.400001692772, -1010.9470499690831, -3011.763454885895, -5729.355600995494, -7183.046005135299, -0.002, 0.066, 0.9199999999999999, 192.0, 0.0, 0.0, 1.0, 24.0, 15.0, 72.0, 0.0, 0.0, 0.0, 1.6444916093246737E9, 0.0, 2022-02-10 22:13:29.324
106.0, -7694.431566528269, -4840.4937792412975, -6186.381719873157, -11669.912835349183, -2428.4723315802016, -702.80590090822, -3933.4376375004817, -3978.096422922185, -17326.513508142652, -10583.86392401027, -5279.526743832439, -5442.023926022521, -993.8032619718626, -2987.5788673852526, -5720.906641591388, -7177.882752166123, -0.002, 0.066, 0.9199999999999999, 192.0, 0.0, 0.0, 0.0, 0.0, 0.0, 0.0, 0.0, 0.0, 0.0, 1.64449160932468E9, 0.0, 2022-02-10 22:13:29.324
108.0, -7711.553002781035, -4862.599654507596, -6202.162051458604, -11680.574617454366, -2450.086468468484, -713.6017934801333, -3941.3948585265707, -3989.786385272311, -17320.389130161897, -10583.640406565715, -5277.626845553737, -5433.798484062968, -992.953895682561, -2991.110443009191, -5712.837661843021, -7169.120868339643, -0.002, 0.066, 0.9199999999999999, 192.0, 0.0, 0.0, 0.0, 0.0, 0.0, 0.0, 0.0, 0.0, 0.0, 1.6444916093246868E9, 0.0, 2022-02-10 22:13:29.324
110.0, -7701.517069520602, -4857.302291071688, -6198.786938045852, -11677.132448808248, -2437.010697962129, -700.3919125070468, -3924.4745879739035, -3985.070167192241, -17334.135453001913, -10606.036854509934, -5291.551982349394, -5449.0200220370325, -1011.4611400915552, -3000.9899140584366, -5725.309935249083, -7181.883714423623, -0.002, 0.066, 0.9199999999999999, 192.0, 0.0, 0.0, 0.0, 0.0, 0.0, 0.0, 0.0, 0.0, 0.0, 1.6444916093246932E9, 0.0, 2022-02-10 22:13:29.324
112.0, -7705.562735267012, -4844.204168820878, -6193.8472025212295, -11671.41040222769, -2432.7415147711654, -705.7116276874099, -3950.939053408987, -3986.098347437185, -17321.95375227377, -10580.488810597517, -5281.650159555693, -5435.340754430385, -992.082177648804, -2980.5827713707413, -5708.70258911879, -7163.778801414825, -0.002, 0.066, 0.9199999999999999, 192.0, 0.0, 0.0, 0.0, 0.0, 0.0, 0.0, 0.0, 0.0, 0.0, 1.6444916093246996E9, 0.0, 2022-02-10 22:13:29.324
114.0, -7705.115700377906, -4856.967014904859, -6209.8734032956845, -11681.602797699308, -2449.9747097462073, -709.578479478178, -3949.7991144417665, -3994.703769052478, -17332.593182634497, -10589.0495287239, -5289.406214881685, -5448.416524936739, -1004.8003202438737, -2994.4855564219424, -5732.328383008049, -7179.492077766905, -0.002, 0.07, 0.948, 192.0, 127.5, 120.0, 1.0, 40.0, 15.0, 64.0, 0.0, 0.0, 0.0, 1.6444916093247063E9, 0.0, 2022-02-10 22:13:29.324
116.0, -7696.867906673898, -4850.507360757275, -6189.242743163436, -11665.598948669309, -2437.368325873414, -697.1732613054826, -3922.7311519063896, -3974.4083850870593, -17316.81285104905, -10585.0485664664, -5276.933941475623, -5436.324231186418, -994.2279451165134, -2983.7343673389396, -5717.285658989627, -7176.094612609699, -0.002, 0.07, 0.948, 192.0, 0.0, 0.0, 0.0, 0.0, 0.0, 0.0, 0.0, 0.0, 0.0, 1.6444916093247128E9, 0.0, 2022-02-10 22:13:29.324
118.0, -7714.637543515867, -4869.193419121912, -6197.7811095453635, -11672.796210383918, -2445.0573259660396, -707.9468021329405, -3939.8302364146994, -3972.463783319448, -17314.51062137015, -10581.785211775925, -5274.028214696434, -5434.178463718708, -984.3261223228125, -2989.2999517083113, -5712.502385676192, -7169.567903228749, -0.002, 0.07, 0.948, 192.0, 0.0, 0.0, 0.0, 0.0, 0.0, 0.0, 0.0, 0.0, 0.0, 1.6444916093247192E9, 0.0, 2022-02-10 22:13:29.324
120.0, -7706.903839934331, -4864.320738830655, -6196.171783944582, -11669.97989058255, -2434.753171772143, -700.3472090181361, -3940.7019544484565, -3973.223742630928, -17328.48046165472, -10598.459613139585, -5283.639464812215, -5446.561330146948, -1001.4699103200329, -2999.201774502012, -5726.382818982937, -7179.648539978092, -0.002, 0.07, 0.948, 192.0, 0.0, 0.0, 0.0, 0.0, 0.0, 0.0, 0.0, 0.0, 0.0, 1.644491609803613E9, 0.0, 2022-02-10 22:13:29.803
122.0, -7711.083616147473, -4857.302291071688, -6187.007568717906, -11666.06833530287, -2427.8688344799084, -704.4152265090021, -3933.459989244937, -3985.494850336892, -17317.2375341937, -10581.852267009292, -5275.905761230679, -5435.273699197019, -983.4991077779661, -2982.3709109271663, -5711.60831589798, -7169.4784962509275, -0.002, 0.07, 0.948, 192.0, 0.0, 0.0, 0.0, 0.0, 0.0, 0.0, 0.0, 0.0, 0.0, 1.6444916098036213E9, 0.0, 2022-02-10 22:13:29.803
124.0, -7714.950467938241, -4864.7901254642165, -6201.446795636034, -11677.3559662528, -2449.393564390369, -702.3812177635691, -3947.1169051071297, -3977.381167099615, -17329.061607010557, -10594.749223560004, -5289.1826974371315, -5445.9131295577445, -999.0335701744044, -2994.1726319995682, -5725.689914904823, -7181.056699878776, -0.002, 0.07100000000000001, 0.962, 192.0, 127.5, 120.0, 1.0, 32.0, 15.0, 64.0, 0.0, 0.0, 0.0, 1.6444916098036284E9, 0.0, 2022-02-10 22:13:29.803
126.0, -7701.42766254278, -4855.067116626157, -6189.242743163436, -11666.716535892074, -2434.0379159495733, -693.1499473035274, -3918.104340804141, -3953.241283087884, -17321.864345295948, -10588.781307790436, -5281.493697344506, -5431.831530550901, -983.6779217336085, -2986.5506871403086, -5714.737560121723, -7168.517371239349, -0.002, 0.07100000000000001, 0.962, 192.0, 0.0, 0.0, 0.0, 0.0, 0.0, 0.0, 0.0, 0.0, 0.0, 1.6444916098036351E9, 0.0, 2022-02-10 22:13:29.803
128.0, -7715.0845784049725, -4865.05834639768, -6201.178574702571, -11681.222818043569, -2445.1243811994054, -708.3044300442255, -3953.0848208766965, -3987.506507337869, -17322.221973207234, -10581.226418164542, -5282.544229333906, -5439.74404808808, -993.535041038399, -2990.350483697711, -5715.765740366667, -7171.736022440913, -0.002, 0.07100000000000001, 0.962, 192.0, 0.0, 0.0, 0.0, 0.0, 0.0, 0.0, 0.0, 0.0, 0.0, 1.644491609803683E9, 0.0, 2022-02-10 22:13:29.803
130.0, -7718.683209262277, -4862.733764974328, -6197.155260700615, -11678.36179475329, -2437.7706572736097, -700.0789880846725, -3926.866224630621, -3964.104230893163, -17340.41629319385, -10600.627732351748, -5296.603476596293, -5452.328080216418, -1017.6972767945858, -2999.8946785801268, -5728.282717261639, -7184.6776824805365, -0.002, 0.07100000000000001, 0.962, 192.0, 0.0, 0.0, 0.0, 0.0, 0.0, 0.0, 0.0, 0.0, 0.0, 1.6444916098036897E9, 0.0, 2022-02-10 22:13:29.803
132.0, -7709.139014379861, -4852.988404391815, -6183.587751816243, -11666.649480658709, -2430.7522095146433, -699.0284560952731, -3934.9352043789872, -3967.5016960503694, -17322.981932518713, -10585.42854612214, -5282.946560734101, -5436.681859097703, -988.9752851695163, -2982.0579865047916, -5704.36635069446, -7159.107286823665, -0.002, 0.07100000000000001, 0.962, 192.0, 0.0, 0.0, 0.0, 0.0, 0.0, 0.0, 0.0, 0.0, 0.0, 1.6444916098036962E9, 0.0, 2022-02-10 22:13:29.803
134.0, -7712.894107448353, -4864.186628363923, -6201.379740402668, -11686.386071012745, -2442.2857096535813, -708.3267817886808, -3944.389992283582, -3984.0419869472967, -17326.580563376017, -10588.647197323704, -5292.513107360972, -5442.716830100636, -999.726474252519, -2980.5827713707413, -5721.756007880689, -7171.579560229727, -0.002, 0.07250000000000001, 0.969, 192.0, 127.5, 120.0, 1.0, 40.0, 15.0, 64.0, 0.0, 0.0, 0.0, 1.6444916098037028E9, 0.0, 2022-02-10 22:13:29.803
136.0, -7718.48204356218, -4862.979634163336, -6184.370062872179, -11671.320995249867, -2433.859101993931, -702.0906450856502, -3933.1470648225627, -3975.9506554544755, -17325.217106964243, -10588.736604301526, -5276.106926930777, -5441.912167300245, -993.6691515051308, -2988.4505854190097, -5715.60927815548, -7172.026595118832, -0.002, 0.07250000000000001, 0.969, 192.0, 0.0, 0.0, 0.0, 0.0, 0.0, 0.0, 0.0, 0.0, 0.0, 1.6444916098037093E9, 0.0, 2022-02-10 22:13:29.803
138.0, -7732.138959424372, -4874.647244769007, -6198.630475834665, -11681.401631999212, -2448.0077562341403, -714.1382353470607, -3944.3005853057607, -3976.442393832492, -17331.363836689456, -10590.077708968844, -5284.645293312704, -5445.756667346557, -995.7478637394744, -3000.073492535769, -5719.140853779418, -7169.165571828553, -0.002, 0.07250000000000001, 0.969, 192.0, 0.0, 0.0, 0.0, 0.0, 0.0, 0.0, 0.0, 0.0, 0.0, 1.6444916098037157E9, 0.0, 2022-02-10 22:13:29.803
140.0, -7715.173985382794, -4865.81830570916, -6190.315626897291, -11677.825352886362, -2446.823113778009, -709.8019969227311, -3953.911835421543, -3982.879696235621, -17339.23165073772, -10596.894991027713, -5291.328464904841, -5446.181350491208, -1015.9538407270719, -3004.7673588713837, -5732.70836266379, -7180.609664989671, -0.002, 0.07250000000000001, 0.969, 192.0, 0.0, 0.0, 0.0, 0.0, 0.0, 0.0, 0.0, 0.0, 0.0, 1.6444916098037224E9, 0.0, 2022-02-10 22:13:29.803
142.0, -7718.504395306635, -4861.079735884636, -6178.692719780532, -11670.851608616305, -2438.1953404182605, -707.3656567771026, -3952.7271929654116, -3977.582332799713, -17323.18309821881, -10586.881409511734, -5280.778441521936, -5430.64688809477, -994.2950003498794, -2986.7071493514954, -5714.804615355089, -7166.237493304908, -0.002, 0.07250000000000001, 0.969, 192.0, 0.0, 0.0, 0.0, 0.0, 0.0, 0.0, 0.0, 0.0, 0.0, 1.644491609803729E9, 0.0, 2022-02-10 22:13:29.803
144.0, -7723.265316875615, -4870.668634255962, -6193.981312987961, -11682.832143644351, -2443.5150555986233, -720.1061511166276, -3931.805960155244, -3995.195507430495, -17334.76130184666, -10597.185563705632, -5291.7084445605815, -5449.131780759309, -1006.208480144558, -3002.375722214666, -5726.22635677175, -7180.542609756304, -0.002, 0.07250000000000001, 0.969, 192.0, 0.0, 0.0, 1.0, 24.0, 15.0, 64.0, 0.0, 0.0, 0.0, 1.6444916098037357E9, 0.0, 2022-02-10 22:13:29.803
146.0, -7718.035008673073, -4863.694889985906, -6177.776298257863, -11669.085820804337, -2444.431477121291, -705.7786829207759, -3926.3074310192387, -3960.25973084685, -17335.3424472025, -10600.828898051846, -5284.734700290525, -5449.400001692772, -1001.8722417202284, -2998.1959460015237, -5717.352714222993, -7173.211237574964, -0.002, 0.07250000000000001, 0.969, 192.0, 0.0, 0.0, 0.0, 0.0, 0.0, 0.0, 0.0, 0.0, 0.0, 1.6444916098037424E9, 0.0, 2022-02-10 22:13:29.803
148.0, -7732.831863502487, -4878.491744815319, -6186.694644295531, -11679.389974998234, -2456.233198193693, -722.4307325399795, -3960.103268635663, -4006.8184145472546, -17333.91193555736, -10593.38576714823, -5286.656950313682, -5446.382516191306, -998.9665149410386, -2991.691588365029, -5719.342019479516, -7168.3609090281625, -0.002, 0.07250000000000001, 0.969, 192.0, 0.0, 0.0, 0.0, 0.0, 0.0, 0.0, 0.0, 0.0, 0.0, 1.6444916098037488E9, 0.0, 2022-02-10 22:13:29.803
150.0, -7729.277936134093, -4886.53837281923, -6185.17472567257, -11678.585312197842, -2442.3527648869476, -713.4676830134015, -3927.268556030817, -3977.5152775663473, -17342.47265368374, -10611.267162712475, -5290.724967804547, -5457.0666500409425, -1010.6341255467088, -3005.348504227222, -5735.815255143078, -7186.085842381221, -0.002, 0.07250000000000001, 0.969, 192.0, 0.0, 0.0, 0.0, 0.0, 0.0, 0.0, 0.0, 0.0, 0.0, 1.6444916098037553E9, 0.0, 2022-02-10 22:13:29.803
152.0, -7765.845390062976, -4906.051445728713, -6183.118365182682, -11669.599910926809, -2445.549064344056, -705.5551654762228, -3932.722381677912, -3970.3850710851043, -17334.023694279636, -10598.124336972754, -5284.37707237924, -5451.501065671571, -991.724549737519, -2988.9646755414815, -5712.792958354111, -7164.22583630393, -0.002, 0.07250000000000001, 0.969, 192.0, 0.0, 0.0, 0.0, 0.0, 0.0, 0.0, 0.0, 0.0, 0.0, 1.644491609803762E9, 0.0, 2022-02-10 22:13:29.803
154.0, -7815.108634842472, -4959.896798121548, -6200.84329853574, -11686.564884968388, -2447.6054248339447, -708.773816677787, -3941.819541671222, -3976.5988560436795, -17374.860331399483, -10616.273953470463, -5316.027142527955, -5472.712871159658, -1008.6448202901865, -2995.916068067082, -5727.679220161345, -7172.853609663679, -0.002, 0.07250000000000001, 0.969, 192.0, 0.0, 0.0, 1.0, 40.0, 15.0, 80.0, 0.0, 0.0, 0.0, 1.6444916098037684E9, 0.0, 2022-02-10 22:13:29.803
156.0, -7847.675126513855, -4982.136783854578, -6183.5206965828775, -11670.806905127396, -2432.875625237897, -700.6154299515999, -3914.9303930914875, -3953.487152276892, -17382.9516628923, -10629.036799554444, -5317.971744295567, -5480.1336503188195, -1010.8576429912619, -2990.730463353451, -5722.0912840475185, -7167.064507849755, -0.002, 0.07250000000000001, 0.969, 192.0, 0.0, 0.0, 0.0, 0.0, 0.0, 0.0, 0.0, 0.0, 0.0, 1.6444916098037748E9, 0.0, 2022-02-10 22:13:29.803
158.0, -7875.301882660614, -4997.045397406268, -6194.562458343799, -11676.998338341517, -2447.0689829670173, -706.3151247877032, -3944.144123094574, -3970.1839053850063, -17385.700927460304, -10624.454691941106, -5323.358514709296, -5483.79933640949, -999.6147155302425, -2984.5166783948757, -5714.245821743706, -7159.934301368511, -0.002, 0.07250000000000001, 0.969, 192.0, 0.0, 0.0, 0.0, 0.0, 0.0, 0.0, 0.0, 0.0, 0.0, 1.6444916098037815E9, 0.0, 2022-02-10 22:13:29.803
160.0, -7888.690577589343, -5012.758673758349, -6192.6178565761875, -11676.417192985678, -2429.589918802967, -690.3783309910692, -3925.838044385677, -3973.223742630928, -17395.826267698558, -10633.10481704531, -5330.220500257075, -5487.889705644811, -1008.4660063345441, -2980.694530093018, -5730.786112640633, -7174.082955608721, -0.002, 0.07250000000000001, 0.969, 192.0, 0.0, 0.0, 0.0, 0.0, 0.0, 0.0, 0.0, 0.0, 0.0, 1.64449160980379E9, 0.0, 2022-02-10 22:13:29.803
162.0, -7897.251295715725, -5007.75188300036, -6184.906504739107, -11670.471628960566, -2426.885357723875, -694.3792932485692, -3921.7923786392666, -3956.9963761563754, -17385.231540826742, -10620.0066947945, -5321.972706553067, -5480.312464274462, -988.5953055137761, -2970.122154965658, -5709.775472852644, -7155.374545499629, -0.002, 0.07250000000000001, 0.969, 192.0, 0.0, 0.0, 0.0, 0.0, 0.0, 0.0, 0.0, 0.0, 0.0, 1.6444916098037963E9, 0.0, 2022-02-10 22:13:29.803
164.0, -7882.789717053141, -5004.756749243349, -6199.32337991278, -11683.078012833359, -2446.621948077911, -702.80590090822, -3933.482340989392, -3965.8029634717664, -17404.096413147025, -10624.320581474374, -5336.456636960106, -5494.885801659322, -1010.4329598466111, -2991.244553475923, -5724.214699770773, -7165.052850848777, -0.002, 0.07250000000000001, 0.969, 192.0, 0.0, 0.0, 1.0, 40.0, 15.0, 96.0, 0.0, 0.0, 0.0, 1.644491609803803E9, 0.0, 2022-02-10 22:13:29.803
166.0, -7864.304824388603, -4987.70236822395, -6182.917199482585, -11663.006146312493, -2432.3168316265146, -690.4453862244352, -3944.3676405391266, -3953.4200970435263, -17376.357898277987, -10598.258447439486, -5312.942601793123, -5454.384440706306, -1001.1569858976586, -2986.103652251202, -5724.080589304041, -7163.398821759084, -0.002, 0.07250000000000001, 0.969, 192.0, 0.0, 0.0, 0.0, 0.0, 0.0, 0.0, 0.0, 0.0, 0.0, 1.6444916098038096E9, 0.0, 2022-02-10 22:13:29.803
168.0, -7879.168734451382, -4979.633388475584, -6195.098900210727, -11668.3035097484, -2436.9436427287633, -697.7544066613206, -3936.723343935412, -3962.4949052923807, -17389.21015133979, -10610.395444678717, -5317.792930339924, -5470.790621136502, -1004.599154543776, -2979.5098876368866, -5723.253574759195, -7153.809923387757, -0.002, 0.07250000000000001, 0.969, 192.0, 0.0, 0.0, 0.0, 0.0, 0.0, 0.0, 0.0, 0.0, 0.0, 1.644491609803816E9, 0.0, 2022-02-10 22:13:29.803
170.0, -7847.518664302667, -4969.418641259509, -6185.5770570727655, -11670.382221982745, -2420.559814043023, -702.5600317192116, -3912.6728669015015, -3983.8184695027435, -17384.404526281898, -10609.81429932288, -5317.0106192839885, -5474.74687990509, -1007.7283987675189, -2983.6896638500293, -5734.921185364865, -7167.243321805397, -0.002, 0.07250000000000001, 0.969, 192.0, 0.0, 0.0, 0.0, 0.0, 0.0, 0.0, 0.0, 0.0, 0.0, 1.6444916098038225E9, 0.0, 2022-02-10 22:13:29.803
172.0, -7828.653791982388, -4956.8346091311705, -6174.624702289665, -11663.989623068526, -2430.4839885811793, -696.7485781608318, -3917.0538088147414, -3946.736925451389, -17365.62906093944, -10604.62869460925, -5301.207935954087, -5466.879065856822, -997.7148172515414, -2960.756774038884, -5706.5344699066245, -7150.948900097478, -0.002, 0.07250000000000001, 0.969, 192.0, 0.0, 0.0, 0.0, 0.0, 0.0, 0.0, 0.0, 0.0, 0.0, 1.64449160980383E9, 0.0, 2022-02-10 22:13:29.803
174.0, -7836.901585686396, -4958.734507409872, -6193.13194669866, -11672.63974817273, -2443.4256486208023, -710.2713835562926, -3941.573672482213, -3973.871943220132, -17370.837017397527, -10610.507203400994, -5305.164194722676, -5473.450478726683, -1011.5058435804658, -2994.1726319995682, -5726.047542816108, -7163.398821759084, 0.004, 0.07200000000000001, 0.98, 192.0, 0.0, 16.0, 1.0, 32.0, 15.0, 80.0, 0.0, 0.0, 0.0, 1.6444916098038363E9, 0.0, 2022-02-10 22:13:29.803
176.0, -7799.8423933794975, -4928.760818095305, -6176.122269168171, -11657.842893343317, -2423.8902239668637, -690.8253658801754, -3913.9916198243645, -3952.883655176599, -17363.371534749454, -10606.372130676762, -5294.211839939576, -5463.950987333177, -1005.6049830442647, -2995.178460500057, -5722.337153236527, -7160.694260679992, 0.004, 0.07200000000000001, 0.98, 192.0, 0.0, 0.0, 0.0, 0.0, 0.0, 0.0, 0.0, 0.0, 0.0, 1.6444916098038428E9, 0.0, 2022-02-10 22:13:29.803
178.0, -7814.415730764357, -4940.115504278601, -6187.476955351467, -11668.392916726223, -2427.667668779811, -702.1129968301054, -3931.87301538861, -3978.230533388917, -17350.787502621115, -10592.022310736456, -5291.462575371573, -5456.038469795999, -991.7469014819744, -2984.159050483591, -5712.792958354111, -7152.290004764796, 0.004, 0.07200000000000001, 0.98, 192.0, 0.0, 0.0, 0.0, 0.0, 0.0, 0.0, 0.0, 0.0, 0.0, 1.6444916098038492E9, 0.0, 2022-02-10 22:13:29.803
180.0, -7795.372044488436, -4931.68889661895, -6183.990083216439, -11669.197579526613, -2431.4451135927575, -690.1324618020609, -3925.614526941124, -3965.4676873049366, -17365.15967430588, -10604.181659720143, -5302.236116199031, -5460.777039620524, -1015.082122693315, -2996.11723376718, -5732.03781033013, -7168.204446816975, 0.004, 0.07200000000000001, 0.98, 192.0, 0.0, 0.0, 0.0, 0.0, 0.0, 0.0, 0.0, 0.0, 0.0, 1.644491609803856E9, 0.0, 2022-02-10 22:13:29.803
182.0, -7784.643207149888, -4920.35656218011, -6167.762716741886, -11657.284099731934, -2430.4169333478135, -702.5376799747563, -3936.611585213135, -3955.54351276678, -17344.037275795614, -10594.749223560004, -5287.081633458332, -5446.449571424672, -995.2337736170023, -2984.919009795071, -5712.032999042631, -7154.212254787953, 0.004, 0.07200000000000001, 0.98, 192.0, 0.0, 0.0, 0.0, 0.0, 0.0, 0.0, 0.0, 0.0, 0.0, 1.6444916098038623E9, 0.0, 2022-02-10 22:13:29.803
184.0, -7789.068852552039, -4920.065989502191, -6183.654807049609, -11663.87786434625, -2439.3799828743918, -699.7660636622982, -3927.425018242004, -3966.7193849944338, -17350.027543309636, -10601.275932940953, -5289.249752670497, -5460.575873920426, -1003.5486225543765, -2994.4185011885766, -5726.829853872044, -7162.348289769685, 0.004, 0.068, 0.976, 192.0, 0.0, 16.0, 1.0, 16.0, 15.0, 64.0, 0.0, 0.0, 0.0, 1.6444916098038688E9, 0.0, 2022-02-10 22:13:29.803
186.0, -7769.511076153645, -4896.104919446101, -6172.590693544233, -11654.132503763736, -2419.7998547315424, -679.3812727190582, -3903.128672019085, -3950.06733537523, -17339.589278649008, -10591.999958992, -5281.8513252557905, -5448.9082633147555, -995.725511995019, -2971.820887544261, -5722.918298592365, -7156.089801322199, 0.004, 0.068, 0.976, 192.0, 0.0, 0.0, 0.0, 0.0, 0.0, 0.0, 0.0, 0.0, 0.0, 1.6444916098038754E9, 0.0, 2022-02-10 22:13:29.803
188.0, -7763.029070261607, -4894.115614189579, -6179.31856862528, -11660.368640466768, -2423.5102443111236, -687.4055489785134, -3919.356038493638, -3969.4686495624364, -17329.888621555405, -10566.831894735324, -5283.371243878752, -5443.789713834491, -994.7196834945302, -2971.4185561440654, -5709.596658897002, -7150.792437886291, 0.004, 0.068, 0.976, 192.0, 0.0, 0.0, 0.0, 0.0, 0.0, 0.0, 0.0, 0.0, 0.0, 1.6444916098038821E9, 0.0, 2022-02-10 22:13:29.803
190.0, -7751.249700933659, -4883.006797195291, -6176.79282150183, -11653.260785729979, -2419.24106112016, -682.7340343873542, -3924.653401929546, -3973.447260075481, -17333.397845434887, -10585.205028677587, -5276.643368797704, -5446.538978402493, -1006.3202388668345, -2991.982161042948, -5725.153473037895, -7163.644690948092, 0.004, 0.068, 0.976, 192.0, 0.0, 0.0, 0.0, 0.0, 0.0, 0.0, 0.0, 0.0, 0.0, 1.6444916098038888E9, 0.0, 2022-02-10 22:13:29.803
192.0, -7741.77256128461, -4883.722053017861, -6160.386641071635, -11643.291907702913, -2421.81151173252, -682.3317029871587, -3932.4988642333587, -3962.3160913367383, -17312.588371346996, -10559.992260932, -5255.342156331797, -5422.577908346404, -982.0238926439158, -2963.215465928968, -5706.17684199534, -7145.875054106124, 0.004, 0.068, 0.976, 192.0, 0.0, 0.0, 0.0, 0.0, 0.0, 0.0, 0.0, 0.0, 0.0, 1.6444916098039138E9, 0.0, 2022-02-10 22:13:29.803
194.0, -7745.617061330922, -4889.600561809607, -6183.028958204861, -11659.049887543904, -2433.0320874490844, -693.3734647480804, -3949.0838586191967, -3968.0157861728417, -17323.38426391891, -10571.861037237768, -5268.484982071517, -5431.272736939519, -994.0714829053263, -2975.73244282394, -5720.794882869111, -7157.363850756151, 0.006, 0.066, 0.978, 192.0, 0.0, 24.0, 1.0, 8.0, 15.0, 72.0, 0.0, 0.0, 0.0, 1.6444916098039205E9, 0.0, 2022-02-10 22:13:29.803
196.0, -7726.618078543911, -4866.779430720739, -6162.9123881950845, -11644.320087947857, -2418.7493227421432, -680.5212116862788, -3902.905154574532, -3956.906969178554, -17314.421214392332, -10564.887292967713, -5253.017574908445, -5431.160978217242, -989.1764508696141, -2967.1270212086465, -5715.028132799642, -7152.334708253707, 0.006, 0.066, 0.978, 192.0, 0.0, 0.0, 0.0, 0.0, 0.0, 0.0, 0.0, 0.0, 0.0, 1.6444916098039267E9, 0.0, 2022-02-10 22:13:29.803
198.0, -7742.957203740741, -4872.747346490306, -6169.349690598213, -11653.529006663442, -2438.53061658509, -699.5648979622005, -3912.941087834965, -3953.263634832339, -17307.402766633364, -10554.091400395799, -5260.103077900777, -5427.02590549301, -973.664340217631, -2965.1600676965795, -5700.588905881514, -7144.288080249797, 0.006, 0.066, 0.978, 192.0, 0.0, 0.0, 0.0, 0.0, 0.0, 0.0, 0.0, 0.0, 0.0, 1.6444916098039334E9, 0.0, 2022-02-10 22:13:29.803
200.0, -7731.2225379017045, -4868.142887132512, -6169.640263276132, -11652.25495722949, -2426.8406542349644, -683.7175111433877, -3895.0596922707196, -3944.4123440280373, -17323.04898775208, -10567.077763924333, -5265.623958781238, -5434.2902224409845, -993.5797445273096, -2977.989969013926, -5718.671467145857, -7154.212254787953, 0.006, 0.066, 0.978, 192.0, 0.0, 0.0, 0.0, 0.0, 0.0, 0.0, 0.0, 0.0, 0.0, 1.64449160980394E9, 0.0, 2022-02-10 22:13:29.803
202.0, -7724.852290731942, -4862.242026596311, -6158.777315470853, -11644.96828853706, -2415.5753750294894, -689.3501507461251, -3910.6612099005238, -3953.5095040213473, -17305.301702654568, -10553.353792828775, -5248.8601504397575, -5413.704265797647, -965.6847674470863, -2955.794686769806, -5698.532545391625, -7140.354173225663, 0.006, 0.066, 0.978, 192.0, 0.0, 0.0, 0.0, 0.0, 0.0, 0.0, 0.0, 0.0, 0.0, 1.6444916098039465E9, 0.0, 2022-02-10 22:13:29.803
204.0, -7731.714276279721, -4870.333358089132, -6177.7092430244975, -11660.838027100328, -2440.8328462639865, -700.1683950624937, -3912.516404690314, -3965.8476669606766, -17311.18021144631, -10563.009746433467, -5257.599682521783, -5425.975373503611, -980.8839536766951, -2967.4622973754763, -5710.490728675214, -7153.385240243107, 0.004, 0.068, 0.978, 192.0, 0.0, 16.0, 1.0, 16.0, 15.0, 72.0, 0.0, 0.0, 0.0, 1.644491609803953E9, 0.0, 2022-02-10 22:13:29.803
206.0, -7717.789139484065, -4847.869854911549, -6164.834638218241, -11641.481416402034, -2424.33725885597, -691.7864908917536, -3912.5387564347693, -3956.3928790560817, -17311.42608063532, -10565.691955768103, -5255.18569412061, -5420.990934490077, -984.3261223228125, -2980.471012648465, -5713.552917665591, -7152.625280931626, 0.004, 0.068, 0.978, 192.0, 0.0, 0.0, 0.0, 0.0, 0.0, 0.0, 0.0, 0.0, 0.0, 1.6444916098039596E9, 0.0, 2022-02-10 22:13:29.803
208.0, -7726.305154121537, -4848.562758989663, -6172.523638310867, -11648.768085094463, -2438.731782285188, -698.4473107394351, -3926.7544659083446, -3961.198504113973, -17305.14524044338, -10552.437371306107, -5255.722135987537, -5410.530318084993, -978.1123373642371, -2976.715919579973, -5707.115615262463, -7141.561167426249, 0.004, 0.068, 0.978, 192.0, 0.0, 0.0, 0.0, 0.0, 0.0, 0.0, 0.0, 0.0, 0.0, 1.644491609803966E9, 0.0, 2022-02-10 22:13:29.803
210.0, -7714.615191771411, -4859.470410283853, -6171.115478410182, -11643.470721658556, -2429.3216978695036, -688.7243019013765, -3922.664096673024, -3970.1839053850063, -17315.00235974817, -10562.786228988914, -5260.1254296452325, -5419.761588545035, -993.8703172052285, -2984.270809205867, -5721.1525107803955, -7156.22391178893, 0.004, 0.068, 0.978, 192.0, 0.0, 0.0, 0.0, 0.0, 0.0, 0.0, 0.0, 0.0, 0.0, 1.6444916098039725E9, 0.0, 2022-02-10 22:13:29.803
212.0, -7706.792081212054, -4846.7746194332385, -6159.134943382138, -11633.121863975748, -2425.05251467854, -688.5231362012787, -3918.2384512708727, -3943.428867272004, -17293.499981582165, -10541.060333378355, -5244.188635848598, -5405.948210471655, -972.7255669505081, -2961.472029861454, -5703.047597771597, -7137.068466790733, 0.004, 0.068, 0.978, 192.0, 0.0, 0.0, 0.0, 0.0, 0.0, 0.0, 0.0, 0.0, 0.0, 1.6444916098039792E9, 0.0, 2022-02-10 22:13:29.803
214.0, -7722.371247097403, -4852.317852058155, -6175.205847645503, -11646.801131582395, -2435.9601659727296, -691.7641391472982, -3929.68254443199, -3968.038137917297, -17303.960597987247, -10547.609394503761, -5255.699784243082, -5421.54972810146, -989.0870438917929, -2971.0385764883254, -5712.4576821872815, -7148.266690762841, 0.006, 0.068, 0.982, 192.0, 0.0, 24.0, 1.0, 16.0, 15.0, 88.0, 0.0, 0.0, 0.0, 1.6444916098039856E9, 0.0, 2022-02-10 22:13:29.803
216.0, -7713.162328381816, -4843.220692064845, -6162.107725394693, -11634.530023876432, -2420.3810000873805, -676.7884703622426, -3914.975096580398, -3954.7164982219338, -17302.150106686368, -10547.877615437224, -5243.831007937313, -5417.16878618822, -984.9743229120163, -2961.7402507949178, -5710.423673441848, -7147.774952384824, 0.006, 0.068, 0.982, 192.0, 0.0, 0.0, 0.0, 0.0, 0.0, 0.0, 0.0, 0.0, 0.0, 1.6444916098039923E9, 0.0, 2022-02-10 22:13:29.803
218.0, -7716.470386561202, -4851.267320068756, -6170.26611212088, -11640.654401857186, -2430.618099047911, -687.51730770079, -3938.0868003471855, -3970.3627193406487, -17299.42319386282, -10542.893176423691, -5247.429638794618, -5415.626515820803, -975.7207007075192, -2960.086221705225, -5699.583077381025, -7138.722495880425, 0.006, 0.068, 0.982, 192.0, 0.0, 0.0, 0.0, 0.0, 0.0, 0.0, 0.0, 0.0, 0.0, 1.6444916098039987E9, 0.0, 2022-02-10 22:13:29.803
220.0, -7693.403386283325, -4832.983593104314, -6167.405088830601, -11635.40174191019, -2424.9631077007184, -672.5416389157342, -3901.8993260740435, -3937.4162480135265, -17299.624359562917, -10542.714362468048, -5245.932071916112, -5410.575021573904, -988.14827062467, -2963.3495763957, -5716.995086311708, -7152.357059998162, 0.006, 0.068, 0.982, 192.0, 0.0, 0.0, 0.0, 0.0, 0.0, 0.0, 0.0, 0.0, 0.0, 1.6444916098040051E9, 0.0, 2022-02-10 22:13:29.804
222.0, -7693.023406627585, -4823.327639499622, -6155.31279508028, -11627.01983773945, -2413.2507936061374, -674.5085924278012, -3890.72345384639, -3930.755428165845, -17271.237644104676, -10513.835908631792, -5223.89325188318, -5392.335998098373, -965.3271395358014, -2942.3165848632557, -5690.530620876625, -7127.8595480751455, 0.006, 0.068, 0.982, 192.0, 0.0, 0.0, 0.0, 0.0, 0.0, 0.0, 0.0, 0.0, 0.0, 1.6444916098040118E9, 0.0, 2022-02-10 22:13:29.804
224.0, -7718.124415650895, -4852.474314269342, -6181.397280859624, -11647.918718805162, -2431.333354870481, -692.4123397365022, -3920.3395152496714, -3970.7650507408443, -17314.644731836885, -10542.602603745772, -5256.303281343375, -5412.2737541525075, -988.1929741135806, -2964.1542391960907, -5709.887231574921, -7147.46202796245, 0.004, 0.068, 0.982, 192.0, 0.0, 16.0, 1.0, 16.0, 15.0, 88.0, 0.0, 0.0, 0.0, 1.64449160980402E9, 0.0, 2022-02-10 22:13:29.804
226.0, -7691.145860093339, -4832.022468092736, -6159.403164315601, -11631.356076163778, -2413.1837383727716, -674.0615575386951, -3910.4153407115155, -3951.2743295758164, -17309.123850956425, -10546.603566003272, -5247.675507983627, -5411.580850074393, -993.7138549940414, -2963.997776984904, -5713.910545576876, -7149.093705307688, 0.004, 0.068, 0.982, 192.0, 0.0, 0.0, 0.0, 0.0, 0.0, 0.0, 0.0, 0.0, 0.0, 1.6444916098040264E9, 0.0, 2022-02-10 22:13:29.804
228.0, -7695.102118861929, -4837.208072806367, -6162.5547602838, -11640.87791930174, -2425.0301629340843, -690.6465519245329, -3919.713666404923, -3938.6902974474788, -17288.51554256863, -10538.713400210549, -5235.091475855288, -5415.9170884987225, -969.2610465599355, -2949.670308789052, -5697.012626768664, -7134.408609200551, 0.004, 0.068, 0.982, 192.0, 0.0, 0.0, 0.0, 0.0, 0.0, 0.0, 0.0, 0.0, 0.0, 1.6444916098040328E9, 0.0, 2022-02-10 22:13:29.804
230.0, -7681.400499510825, -4822.701790654873, -6162.420649817068, -11633.010105253472, -2417.2517558636378, -674.5309441722566, -3911.1082447896297, -3944.0770678612075, -17301.926589241815, -10551.677411994626, -5243.898063170679, -5420.588603089882, -984.3037705783571, -2976.470050390965, -5711.541260664614, -7147.260862262352, 0.004, 0.068, 0.982, 192.0, 0.0, 0.0, 0.0, 0.0, 0.0, 0.0, 0.0, 0.0, 0.0, 1.6444916098040395E9, 0.0, 2022-02-10 22:13:29.804
232.0, -7671.856304628409, -4805.088616024091, -6143.935757152529, -11622.951820248583, -2409.853328448931, -673.7039296274102, -3910.4376924559706, -3948.100381863163, -17273.919853439314, -10518.686237178594, -5220.026400092412, -5394.280599865985, -957.8169533988182, -2943.188302897013, -5692.430519155326, -7131.346420210174, 0.004, 0.068, 0.982, 192.0, 0.0, 0.0, 1.0, 32.0, 15.0, 112.0, 0.0, 0.0, 0.0, 1.644491609804046E9, 0.0, 2022-02-10 22:13:29.804
234.0, -7680.2158570546935, -4824.825206378127, -6164.432306818046, -11637.905137289184, -2415.6424302628557, -680.9458948309297, -3917.836119870677, -3968.552228039769, -17280.401859331352, -10526.777568671414, -5229.436484508095, -5402.617800547815, -965.7518226804523, -2956.3534803811885, -5705.014551283664, -7145.606833172659, 0.004, 0.068, 0.982, 192.0, 0.0, 0.0, 0.0, 0.0, 0.0, 0.0, 0.0, 0.0, 0.0, 1.6444916098040524E9, 0.0, 2022-02-10 22:13:29.804
236.0, -7668.548246449023, -4806.139148013491, -6149.076658377249, -11624.695256316098, -2393.0001131296294, -671.6252173930666, -3902.5698784077026, -3957.823390701222, -17279.463086064232, -10515.691103421583, -5220.249917536965, -5395.174669644198, -964.9918633689718, -2951.7713727678506, -5708.993161796709, -7144.019859316333, 0.004, 0.068, 0.982, 192.0, 0.0, 0.0, 0.0, 0.0, 0.0, 0.0, 0.0, 0.0, 0.0, 1.6444916098040588E9, 0.0, 2022-02-10 22:13:29.804
238.0, -7691.727005449177, -4824.266412766745, -6158.5090945373895, -11637.882785544729, -2408.9145551818083, -695.2733630267815, -3900.0441312842527, -3947.295719062772, -17278.61371977493, -10526.531699482406, -5222.932126871601, -5402.327227869896, -962.019081356416, -2956.6664048035627, -5692.430519155326, -7134.408609200551, 0.004, 0.068, 0.982, 192.0, 0.0, 0.0, 0.0, 0.0, 0.0, 0.0, 0.0, 0.0, 0.0, 1.644491609804082E9, 0.0, 2022-02-10 22:13:29.804
240.0, -7684.261522801105, -4837.275128039733, -6160.833675960741, -11639.089779745314, -2418.2575843641266, -693.3958164925357, -3919.9818873383865, -3968.3957658285817, -17296.383356616898, -10550.85039744978, -5239.94180440209, -5416.095902454365, -974.1337268511924, -2974.056061989792, -5709.417844941359, -7156.9168158670445, 0.004, 0.068, 0.982, 192.0, 0.0, 0.0, 0.0, 0.0, 0.0, 0.0, 0.0, 0.0, 0.0, 1.6444916102831717E9, 0.0, 2022-02-10 22:13:30.283
242.0, -7682.898066389331, -4823.864081366549, -6152.8764549346515, -11627.690390073109, -2412.691999994755, -691.093586813639, -3922.9546693509424, -3949.016803385831, -17282.748792499162, -10537.70757171006, -5226.776626917914, -5403.511870326027, -953.9277498635948, -2953.53716057982, -5695.068025001053, -7139.1918825139865, 0.001, 0.07200000000000001, 0.983, 192.0, 127.5, 120.0, 1.0, 48.0, 15.0, 96.0, 0.0, 0.0, 0.0, 1.64449161028318E9, 0.0, 2022-02-10 22:13:30.283
244.0, -7689.849458914931, -4828.200319790879, -6177.8210017467745, -11643.82834956984, -2424.2478518781486, -691.7641391472982, -3961.131448880607, -3975.0118821873525, -17293.32116762652, -10543.451970035074, -5238.757161945959, -5417.481710610594, -982.113299621737, -2961.7849542838285, -5713.552917665591, -7151.686507664503, 0.001, 0.07200000000000001, 0.983, 192.0, 0.0, 0.0, 0.0, 0.0, 0.0, 0.0, 0.0, 0.0, 0.0, 1.644491610283188E9, 0.0, 2022-02-10 22:13:30.283
246.0, -7691.212915326705, -4831.731895414817, -6163.717050995476, -11636.787550066418, -2421.3421250989586, -692.7029124144212, -3897.563087649714, -3957.0187279008305, -17291.600083303463, -10542.580252001317, -5231.55990023135, -5407.445777350161, -981.6439129881755, -2960.6226635721523, -5715.810443855577, -7154.547530954783, 0.001, 0.07200000000000001, 0.983, 192.0, 0.0, 0.0, 0.0, 0.0, 0.0, 0.0, 0.0, 0.0, 0.0, 1.6444916102831955E9, 0.0, 2022-02-10 22:13:30.283
248.0, -7707.596744012445, -4841.544311230697, -6168.947359198018, -11642.867224558262, -2418.078770408484, -709.4667207559015, -3891.6622271135125, -3966.741736738889, -17291.577731559006, -10538.959269399556, -5232.118693842733, -5410.195041918164, -971.4068140276449, -2975.8442015462165, -5692.139946477407, -7144.712763394447, 0.001, 0.07200000000000001, 0.983, 192.0, 0.0, 0.0, 0.0, 0.0, 0.0, 0.0, 0.0, 0.0, 0.0, 1.644491610283259E9, 0.0, 2022-02-10 22:13:30.283
250.0, -7694.230400828172, -4833.229462293322, -6169.752021998408, -11638.262765200468, -2416.8047209745314, -697.195613049938, -3913.455177957437, -3979.9516177119754, -17304.497039854174, -10551.431542805618, -5243.6968974705815, -5417.459358866138, -984.2143636005359, -2980.2027917150012, -5714.245821743706, -7160.917778124545, 0.001, 0.07200000000000001, 0.983, 192.0, 0.0, 0.0, 0.0, 0.0, 0.0, 0.0, 0.0, 0.0, 0.0, 1.6444916102832665E9, 0.0, 2022-02-10 22:13:30.283
252.0, -7679.299435532026, -4814.878680095516, -6155.446905547012, -11626.192823194602, -2416.4247413187913, -700.481319484868, -3927.268556030817, -3978.7222717669338, -17282.346461098965, -10532.432560018608, -5225.0331908504, -5406.082320938387, -967.2270378145025, -2961.0026432278923, -5701.259458215172, -7150.837141375201, 0.001, 0.07200000000000001, 0.983, 192.0, 0.0, 0.0, 1.0, 56.0, 15.0, 80.0, 0.0, 0.0, 0.0, 1.644491610283274E9, 0.0, 2022-02-10 22:13:30.283
254.0, -7692.822240927487, -4834.6823256829175, -6173.55181855581, -11644.297736203402, -2427.690020524266, -709.3102585447143, -3939.6290707146018, -3994.547306841291, -17287.308548368044, -10538.84751067728, -5232.230452565009, -5418.040504221976, -971.3397587942791, -2974.078413734247, -5711.563612409069, -7163.018842103344, 0.001, 0.07200000000000001, 0.983, 192.0, 0.0, 0.0, 0.0, 0.0, 0.0, 0.0, 0.0, 0.0, 0.0, 1.644491610283281E9, 0.0, 2022-02-10 22:13:30.283
0.0, -7680.349967521426, -4822.545328443686, -6157.145638125616, -11630.841986041307, -2415.463616307213, -692.8593746256083, -3910.1471197780515, -3960.3714895691264, -17286.481533823197, -10542.826121190325, -5227.603641462761, -5413.436044864184, -969.5739709823098, -2973.3855096561324, -5709.3507897079935, -7158.660251934559, 0.001, 0.07200000000000001, 0.983, 192.0, 0.0, 0.0, 0.0, 0.0, 0.0, 0.0, 0.0, 0.0, 0.0, 1.644491610283306E9, 0.0, 2022-02-10 22:13:30.283
2.0, -7689.08949960345, -4827.865043624049, -6166.019280674373, -11638.665096600664, -2423.2867268665705, -701.1965753074379, -3930.2860415322834, -3970.4297745740146, -17281.05005992056, -10533.08076060781, -5230.576423475316, -5408.473957595105, -960.85679064474, -2963.573093840253, -5699.761891336667, -7145.897405850578, 0.001, 0.07200000000000001, 0.983, 192.0, 0.0, 0.0, 0.0, 0.0, 0.0, 0.0, 0.0, 0.0, 0.0, 1.6444916102833133E9, 0.0, 2022-02-10 22:13:30.283
4.0, -7687.994264125141, -4829.452017480376, -6172.434231333045, -11641.235547213024, -2412.356723827925, -703.3423427751474, -3922.5746896952023, -3977.291760121794, -17297.05390895056, -10542.915528168145, -5240.7017637135705, -5419.35925714484, -982.6720932331197, -2979.4651841479763, -5722.001877069697, -7165.2540165488745, 0.001, 0.07200000000000001, 0.983, 192.0, 0.0, 0.0, 0.0, 0.0, 0.0, 0.0, 0.0, 0.0, 0.0, 1.64449161028332E9, 0.0, 2022-02-10 22:13:30.283
6.0, -7686.563752480001, -4826.032200578714, -6156.832713703241, -11632.406608153178, -2404.8688894353977, -695.89921187153, -3927.4026664975486, -3969.222780373428, -17284.402821588854, -10528.006914616457, -5232.230452565009, -5403.109538925832, -968.7022529485528, -2961.337919394722, -5704.723978605745, -7150.3454029971845, -0.0025, 0.07300000000000001, 0.9835, 192.0, 127.5, 104.0, 1.0, 40.0, 15.0, 96.0, 0.0, 0.0, 0.0, 1.644491610283327E9, 0.0, 2022-02-10 22:13:30.283
8.0, -7696.823203184987, -4831.441322736898, -6174.155315656104, -11647.762256593975, -2418.6375640198667, -704.8622613981082, -3934.3093555342384, -3972.463783319448, -17292.270635637124, -10548.928147426623, -5241.439371280596, -5410.329152384896, -977.2182675860248, -2960.7120705499733, -5712.994124054208, -7158.3249757677295, -0.0025, 0.07300000000000001, 0.9835, 192.0, 0.0, 0.0, 0.0, 0.0, 0.0, 0.0, 0.0, 0.0, 0.0, 1.644491610283334E9, 0.0, 2022-02-10 22:13:30.283
10.0, -7656.455952698702, -4810.944773071382, -6151.580053756244, -11624.62820108273, -2397.76103469861, -693.194650792438, -3925.6592304300348, -3968.1498966395734, -17285.408650089343, -10543.18374910161, -5233.102170598766, -5404.897678482256, -968.9257703931058, -2973.2290474449455, -5706.020379784153, -7155.821580388735, -0.0025, 0.07300000000000001, 0.9835, 192.0, 0.0, 0.0, 0.0, 0.0, 0.0, 0.0, 0.0, 0.0, 0.0, 1.6444916102833407E9, 0.0, 2022-02-10 22:13:30.283
12.0, -7691.749357193632, -4838.213901306856, -6170.467277820979, -11638.866262300762, -2418.86108146442, -710.5619562342115, -3917.1208640481073, -3948.5027132633586, -17264.777989957096, -10523.044827347378, -5221.769836159925, -5398.527431312494, -948.1609997941256, -2947.3904308546107, -5695.403301167882, -7141.784684870802, -0.0025, 0.07300000000000001, 0.9835, 192.0, 0.0, 0.0, 0.0, 0.0, 0.0, 0.0, 0.0, 0.0, 0.0, 1.6444916102833474E9, 0.0, 2022-02-10 22:13:30.283
14.0, -7706.769729467599, -4847.199302577889, -6175.31760636778, -11642.509596646976, -2425.43249433428, -713.6017934801333, -3937.8185794137216, -3976.196524643484, -17313.884772525405, -10573.559769816371, -5252.861112697257, -5427.472940382117, -994.5632212833431, -2993.278562221356, -5718.716170634767, -7162.862379892156, -0.0025, 0.07300000000000001, 0.9835, 192.0, 0.0, 0.0, 0.0, 0.0, 0.0, 0.0, 0.0, 0.0, 0.0, 1.6444916102833543E9, 0.0, 2022-02-10 22:13:30.283
16.0, -7694.520973506091, -4829.072037824636, -6157.905597437096, -11630.931393019127, -2410.9709156716963, -696.2791915272703, -3913.499881446348, -3937.7291724359006, -17286.79445824557, -10553.622013762239, -5230.755237430959, -5410.597373318359, -968.8363634152846, -2973.2290474449455, -5704.165184994363, -7146.389144228595, -0.0022500000000000003, 0.07350000000000001, 0.98375, 192.0, 127.5, 120.0, 1.0, 40.0, 15.0, 96.0, 0.0, 0.0, 0.0, 1.6444916102833612E9, 0.0, 2022-02-10 22:13:30.283
18.0, -7694.632732228367, -4831.664840181451, -6173.5965220447215, -11643.4483699141, -2425.678363523288, -706.7845114212646, -3923.133483306585, -3961.2655593473387, -17292.09182168148, -10554.381973073718, -5241.238205580497, -5415.470053609616, -977.1735640971142, -2975.01718700137, -5712.032999042631, -7147.305565751263, -0.0022500000000000003, 0.07350000000000001, 0.98375, 192.0, 0.0, 0.0, 0.0, 0.0, 0.0, 0.0, 0.0, 0.0, 0.0, 1.644491610283368E9, 0.0, 2022-02-10 22:13:30.283
20.0, -7677.75716516461, -4819.3043254976665, -6159.894902693618, -11630.216137196558, -2404.7124272242104, -696.4133019940022, -3896.1325760045743, -3953.0848208766965, -17282.189998887778, -10554.04669690689, -5227.000144362467, -5405.344713371363, -972.7032152060527, -2969.1386782096242, -5709.328437963538, -7148.423152974028, -0.0022500000000000003, 0.07350000000000001, 0.98375, 192.0, 0.0, 0.0, 0.0, 0.0, 0.0, 0.0, 0.0, 0.0, 0.0, 1.6444916102833748E9, 0.0, 2022-02-10 22:13:30.283
22.0, -7687.301360047026, -4825.76397964525, -6165.415783574079, -11636.20640471058, -2415.262450607115, -708.125616088583, -3921.30064026125, -3959.54447502428, -17276.75852498514, -10543.116693868244, -5226.8436821512805, -5401.7684342585135, -962.5555232233434, -2963.081355462236, -5694.2633622006615, -7139.325992980718, -0.0022500000000000003, 0.07350000000000001, 0.98375, 192.0, 0.0, 0.0, 0.0, 0.0, 0.0, 0.0, 0.0, 0.0, 0.0, 1.644491610283382E9, 0.0, 2022-02-10 22:13:30.283
24.0, -7687.413118769303, -4830.323735514133, -6170.154353398604, -11641.459064657578, -2408.400465059336, -697.4638339834016, -3920.4959774608587, -3958.0916116346853, -17288.448487335263, -10555.94659518559, -5239.651231724171, -5413.614858819826, -984.5049362784549, -2979.7110533369846, -5717.866804345465, -7156.760353655858, -0.0022500000000000003, 0.07350000000000001, 0.98375, 192.0, 0.0, 0.0, 0.0, 0.0, 0.0, 0.0, 0.0, 0.0, 0.0, 1.6444916102833889E9, 0.0, 2022-02-10 22:13:30.283
26.0, -7678.584179709456, -4812.263525994244, -6153.904635179596, -11630.439654641112, -2410.4791772936796, -703.6776189419769, -3926.575651952702, -3957.421059301026, -17279.84306571997, -10545.731847969515, -5232.163397331643, -5402.774262759002, -971.6079797277428, -2965.2047711854902, -5701.818251826555, -7142.075257548721, -0.0022500000000000003, 0.07350000000000001, 0.98375, 192.0, 0.0, 0.0, 1.0, 40.0, 15.0, 80.0, 0.0, 0.0, 0.0, 1.644491610283396E9, 0.0, 2022-02-10 22:13:30.283
28.0, -7680.729947177166, -4828.937927357903, -6174.60235054521, -11645.035343770427, -2419.822206475998, -712.5736132351892, -3936.700992190956, -3983.3043793802717, -17281.98883318768, -10548.70462998207, -5238.623051479227, -5410.351504129351, -978.984055397994, -2962.321396150756, -5714.2234699992505, -7152.17824604252, -0.0022500000000000003, 0.07350000000000001, 0.98375, 192.0, 0.0, 0.0, 0.0, 0.0, 0.0, 0.0, 0.0, 0.0, 0.0, 1.6444916102834027E9, 0.0, 2022-02-10 22:13:30.283
30.0, -7680.417022754792, -4814.655162650963, -6158.732611981942, -11632.831291297829, -2423.689058266766, -697.3744270055804, -3928.5649572092248, -3960.7961727137777, -17284.045193677568, -10538.869862421736, -5234.46562701054, -5403.467166837117, -973.2173053285248, -2973.9443032675154, -5712.860013587477, -7150.255996019363, -0.0022500000000000003, 0.07350000000000001, 0.98375, 192.0, 0.0, 0.0, 0.0, 0.0, 0.0, 0.0, 0.0, 0.0, 0.0, 1.6444916102834096E9, 0.0, 2022-02-10 22:13:30.283
32.0, -7693.7163107056995, -4835.174064060934, -6159.604330015699, -11633.59125060931, -2427.7347240131767, -711.1878050789601, -3936.4774747464035, -3975.3024548652716, -17278.077277908003, -10536.142949598188, -5221.0322285929005, -5393.7888614879685, -969.1716395821143, -2965.4953438634093, -5699.203097725284, -7140.689449392492, -0.0022500000000000003, 0.07350000000000001, 0.98375, 192.0, 0.0, 0.0, 0.0, 0.0, 0.0, 0.0, 0.0, 0.0, 0.0, 1.644491610283419E9, 0.0, 2022-02-10 22:13:30.283
34.0, -7683.076880344973, -4830.994287847792, -6163.605292273199, -11636.027590754939, -2422.9290989552856, -704.8622613981082, -3938.1091520916407, -3988.9370189830092, -17285.833333233993, -10552.347964328286, -5233.660964210148, -5411.424387863206, -982.985017655494, -2978.0346725028367, -5713.307048476583, -7162.996490358889, -0.0022500000000000003, 0.07350000000000001, 0.98375, 192.0, 0.0, 0.0, 0.0, 0.0, 0.0, 0.0, 0.0, 0.0, 0.0, 1.6444916102834253E9, 0.0, 2022-02-10 22:13:30.283
36.0, -7671.029290083563, -4815.281011495711, -6147.31087056528, -11622.661247570664, -2412.021447661096, -703.8117294087087, -3971.1226786521293, -3967.680510006012, -17264.93445216828, -10534.623030975226, -5217.545356457872, -5398.527431312494, -957.8840086321842, -2956.241721658912, -5694.2633622006615, -7148.981946585411, -1.250000000000001E-4, 0.07375000000000001, 0.9808749999999999, 192.0, 0.0, 8.0, 1.0, 40.0, 15.0, 72.0, 0.0, 0.0, 0.0, 1.6444916102834325E9, 0.0, 2022-02-10 22:13:30.283
38.0, -7688.955389136719, -4833.475331482331, -6169.416745831579, -11639.581518123332, -2425.8124739900204, -711.545432990245, -3922.2841170172833, -3971.1226786521293, -17274.210426117235, -10540.255670577964, -5227.93891762959, -5409.233916906585, -970.5127442494327, -2974.011358500881, -5708.635533885424, -7151.79826638678, -1.250000000000001E-4, 0.07375000000000001, 0.9808749999999999, 192.0, 0.0, 0.0, 0.0, 0.0, 0.0, 0.0, 0.0, 0.0, 0.0, 1.6444916102834392E9, 0.0, 2022-02-10 22:13:30.283
40.0, -7674.314996518493, -4824.154654044468, -6155.111629380182, -11634.284154687424, -2413.5413662840565, -691.965304847396, -3888.4435759119483, -3956.7058034784563, -17278.256091863645, -10549.017554404445, -5227.491882740484, -5412.07258845241, -976.5924187412762, -2963.438983373521, -5699.694836103301, -7151.552397197771, -1.250000000000001E-4, 0.07375000000000001, 0.9808749999999999, 192.0, 0.0, 0.0, 0.0, 0.0, 0.0, 0.0, 0.0, 0.0, 0.0, 1.644491610283446E9, 0.0, 2022-02-10 22:13:30.283
42.0, -7672.862133128898, -4824.489930211298, -6156.050402647305, -11635.804073310384, -2424.493721067157, -719.7261714608874, -3923.647573429057, -3976.196524643484, -17268.644841747864, -10539.22749033302, -5222.820368149325, -5398.438024334672, -967.1823343255919, -2967.6858148200295, -5687.781356308622, -7142.74580988238, -1.250000000000001E-4, 0.07375000000000001, 0.9808749999999999, 192.0, 0.0, 0.0, 0.0, 0.0, 0.0, 0.0, 0.0, 0.0, 0.0, 1.6444916102834527E9, 0.0, 2022-02-10 22:13:30.283
44.0, -7684.015653612096, -4819.796063875683, -6162.957091683995, -11638.553337878388, -2422.012677432618, -724.3529825631359, -3935.583404968191, -4004.583240101724, -17284.112248910937, -10554.829007962824, -5233.862129910246, -5408.742178528569, -986.6060002572538, -2979.0628527477807, -5712.301219976094, -7167.735060183413, -1.250000000000001E-4, 0.07375000000000001, 0.9808749999999999, 192.0, 0.0, 0.0, 0.0, 0.0, 0.0, 0.0, 0.0, 0.0, 0.0, 1.6444916102834597E9, 0.0, 2022-02-10 22:13:30.283
46.0, -7686.004958868619, -4817.00209581877, -6150.127190366649, -11625.477567372032, -2423.0632094220173, -714.5852702361668, -3931.850663644155, -3968.1722483840285, -17272.489341794175, -10539.294545566387, -5220.831062892802, -5398.9744662016, -970.2892268048796, -2971.3515009106995, -5701.438272170815, -7151.1053623086655, 0.0029375, 0.07087500000000001, 0.9804375, 192.0, 0.0, 24.0, 1.0, 16.0, 15.0, 80.0, 0.0, 0.0, 0.0, 1.64449161028347E9, 0.0, 2022-02-10 22:13:30.283
48.0, -7697.896086918841, -4834.6823256829175, -6171.786030743841, -11643.02368676945, -2442.7327445426877, -724.2188720964041, -3920.6300879275905, -3981.270370634839, -17285.542760556076, -10552.973813173034, -5231.023458364422, -5412.430216363695, -984.7508054674632, -2977.7888033138283, -5707.964981551764, -7152.2229495314305, 0.0029375, 0.07087500000000001, 0.9804375, 192.0, 0.0, 0.0, 0.0, 0.0, 0.0, 0.0, 0.0, 0.0, 0.0, 1.6444916102834785E9, 0.0, 2022-02-10 22:13:30.283
50.0, -7677.8689238868865, -4815.6609911514515, -6154.731649724442, -11628.360942406767, -2426.2818606235815, -702.8506043971306, -3919.4677972159147, -3959.902102935565, -17285.2298361337, -10555.320746340842, -5227.17895831811, -5403.087187181376, -984.437881045089, -2975.4865736349316, -5712.189461253818, -7152.960557098456, 0.0029375, 0.07087500000000001, 0.9804375, 192.0, 0.0, 0.0, 0.0, 0.0, 0.0, 0.0, 0.0, 0.0, 0.0, 1.644491610283486E9, 0.0, 2022-02-10 22:13:30.283
52.0, -7682.51808673359, -4824.020543577736, -6160.5654550272775, -11633.188919209113, -2426.9300612127854, -712.9759446353847, -3933.4376375004817, -3982.7679375133444, -17273.673984250305, -10533.863071663747, -5222.373333260219, -5389.787899230469, -974.4466512735667, -2958.8792275046385, -5700.164222736862, -7138.2531092468635, 0.0029375, 0.07087500000000001, 0.9804375, 192.0, 0.0, 0.0, 0.0, 0.0, 0.0, 0.0, 0.0, 0.0, 0.0, 1.6444916102834933E9, 0.0, 2022-02-10 22:13:30.283
54.0, -7686.47434550218, -4834.5035117272755, -6170.154353398604, -11643.001335024994, -2425.007811189629, -717.5804039931779, -3915.3550762361383, -3981.35977761266, -17284.55928380004, -10549.978679416023, -5228.922394385623, -5413.883079753289, -991.7692532264297, -2982.4603179049873, -5717.553879923092, -7162.013013602855, 0.0029375, 0.07087500000000001, 0.9804375, 192.0, 0.0, 0.0, 0.0, 0.0, 0.0, 0.0, 0.0, 0.0, 0.0, 1.6444916102835E9, 0.0, 2022-02-10 22:13:30.283
56.0, -7684.574447223479, -4827.730933157317, -6152.07179213426, -11631.423131397145, -2420.9397936987634, -707.5221189882898, -3916.830291370188, -3953.4200970435263, -17278.725478497206, -10545.061295635855, -5224.563804216838, -5407.02109420551, -973.2843605618907, -2976.693567835518, -5698.55489713608, -7141.695277892981, 0.004, 0.068, 0.986, 192.0, 0.0, 16.0, 1.0, 16.0, 15.0, 104.0, 0.0, 0.0, 0.0, 1.6444916102835069E9, 0.0, 2022-02-10 22:13:30.283
58.0, -7690.631769970867, -4837.610404206563, -6171.5401615548335, -11644.610660625776, -2447.4042591338466, -717.4462935264461, -3964.2830448488053, -3987.037120704308, -17278.256091863645, -10548.391705559696, -5228.095379840777, -5412.340809385873, -987.5447735243766, -2971.9326462665376, -5713.865842087966, -7150.479513463916, 0.004, 0.068, 0.986, 192.0, 0.0, 0.0, 0.0, 0.0, 0.0, 0.0, 0.0, 0.0, 0.0, 1.6444916102835186E9, 0.0, 2022-02-10 22:13:30.283
60.0, -7682.786307667055, -4826.836863379105, -6154.128152624149, -11635.357038421278, -2435.6248898059, -712.7747789352869, -3918.819596626711, -3994.614362074657, -17279.686603508784, -10532.812539674347, -5225.212004806042, -5398.169803401209, -987.9694566690275, -2984.561381883786, -5720.0349235576305, -7152.938205354, 0.004, 0.068, 0.986, 192.0, 0.0, 0.0, 0.0, 0.0, 0.0, 0.0, 0.0, 0.0, 0.0, 1.644491610283526E9, 0.0, 2022-02-10 22:13:30.283
62.0, -7697.9407904077525, -4830.301383769677, -6160.721917238465, -11638.978021023038, -2434.797875261054, -721.0225726392953, -3916.0479803142525, -3964.4395070599926, -17275.46212380673, -10539.85333917777, -5224.787321661392, -5399.488556324071, -978.3582065532454, -2970.9715212549595, -5698.689007602812, -7140.577690670216, 0.004, 0.068, 0.986, 192.0, 0.0, 0.0, 0.0, 0.0, 0.0, 0.0, 0.0, 0.0, 0.0, 1.6444916102835329E9, 0.0, 2022-02-10 22:13:30.283
64.0, -7687.279008302571, -4836.693982683895, -6171.517809810378, -11639.067428000859, -2433.501474082646, -715.769912692298, -3908.91777383301, -3955.1858848554953, -17287.062679179035, -10557.064182408356, -5242.199330592076, -5404.517698826516, -996.9325061956056, -2989.7469865974176, -5715.050484544097, -7150.479513463916, 0.004, 0.068, 0.986, 192.0, 0.0, 0.0, 0.0, 0.0, 0.0, 0.0, 0.0, 0.0, 0.0, 1.644491610283542E9, 0.0, 2022-02-10 22:13:30.283
66.0, -7692.1293368493725, -4833.72120067134, -6151.736515967431, -11625.3434569053, -2415.463616307213, -708.3267817886808, -3898.3677504501047, -3940.59019572618, -17276.825580218505, -10547.721153226037, -5225.815501906336, -5399.01916969051, -975.0054448849494, -2969.853934032194, -5694.330417434027, -7136.777894112814, 0.004, 0.068, 0.986, 192.0, 0.0, 0.0, 1.0, 32.0, 15.0, 96.0, 0.0, 0.0, 0.0, 1.6444916102835486E9, 0.0, 2022-02-10 22:13:30.283
68.0, -7695.638560728856, -4832.871834382037, -6163.784106228842, -11634.038285498416, -2432.786218260076, -716.6639824705104, -3915.10920704713, -3981.2480188903833, -17282.10059190996, -10551.23037710552, -5234.644440966183, -5412.4525681081495, -978.2464478309689, -2974.748966067906, -5699.896001803399, -7141.427056959517, 0.004, 0.068, 0.986, 192.0, 0.0, 0.0, 0.0, 0.0, 0.0, 0.0, 0.0, 0.0, 0.0, 1.6444916102835555E9, 0.0, 2022-02-10 22:13:30.283
70.0, -7686.3178832909925, -4825.451055222876, -6158.285577092836, -11622.281267914925, -2423.6220030334002, -693.5522787037229, -3903.799224352744, -3933.370582267116, -17280.960652942736, -10550.202196860577, -5229.0341531079, -5402.550745314449, -979.2299245870024, -2969.853934032194, -5705.193365239306, -7141.583519170705, 0.004, 0.068, 0.986, 192.0, 0.0, 0.0, 0.0, 0.0, 0.0, 0.0, 0.0, 0.0, 0.0, 1.6444916102835624E9, 0.0, 2022-02-10 22:13:30.283
72.0, -7685.80379316852, -4824.802854633672, -6166.175742885559, -11625.499919116488, -2425.656011778833, -696.1003775716279, -3918.037285570775, -3959.7232889799225, -17273.137542383378, -10536.813501931847, -5225.524929228417, -5390.838431219868, -973.0384913728824, -2951.4584483454764, -5698.040807013608, -7125.579670140704, 0.004, 0.068, 0.986, 192.0, 0.0, 0.0, 0.0, 0.0, 0.0, 0.0, 0.0, 0.0, 0.0, 1.644491610283569E9, 0.0, 2022-02-10 22:13:30.283
74.0, -7688.798926925532, -4829.273203524734, -6169.439097576034, -11634.73118957653, -2424.5831280449784, -704.1470055755384, -3932.5882712111797, -3984.0196352028415, -17280.67008026482, -10543.340211312796, -5233.683315954604, -5401.20964064713, -990.6069625147537, -2966.3000066638, -5713.821138599055, -7149.719554152436, 0.004, 0.068, 0.986, 192.0, 0.0, 0.0, 0.0, 0.0, 0.0, 0.0, 0.0, 0.0, 0.0, 1.6444916102835765E9, 0.0, 2022-02-10 22:13:30.283
76.0, -7688.798926925532, -4831.262508781256, -6157.100934636705, -11629.836157540818, -2418.1905291307603, -699.386084006558, -3905.453253442437, -3936.812750913233, -17269.203635359245, -10541.932051412112, -5223.759141416448, -5383.238838105063, -966.2659128029243, -2951.4808000899316, -5694.732748834223, -7133.872167333623, -0.004, 0.07200000000000001, 0.982, 192.0, 127.5, 112.0, 1.0, 32.0, 15.0, 88.0, 0.0, 0.0, 0.0, 1.6444916102835844E9, 0.0, 2022-02-10 22:13:30.283
78.0, -7699.281895075071, -4826.658049423462, -6172.74715575542, -11637.771026822451, -2428.0252966910957, -710.2713835562926, -3926.0839135746855, -3967.009957672353, -17277.429077318797, -10548.235243348508, -5231.157568831154, -5403.891849981767, -963.5166482349216, -2983.7120155944845, -5698.152565735885, -7143.304603493763, -0.004, 0.07200000000000001, 0.982, 192.0, 0.0, 0.0, 0.0, 0.0, 0.0, 0.0, 0.0, 0.0, 0.0, 1.6444916102835913E9, 0.0, 2022-02-10 22:13:30.283
80.0, -7691.123508348884, -4841.656069952974, -6161.347766083213, -11629.120901718248, -2407.595802258945, -701.2636305408038, -3888.264761956306, -3943.227701571906, -17273.361059827934, -10546.737676470004, -5232.878653154213, -5397.454547578639, -976.9053431636505, -2981.7003585935067, -5700.454795414781, -7140.823559859224, -0.004, 0.07200000000000001, 0.982, 192.0, 0.0, 0.0, 0.0, 0.0, 0.0, 0.0, 0.0, 0.0, 0.0, 1.644491610283598E9, 0.0, 2022-02-10 22:13:30.283
82.0, -7701.561773009512, -4846.126418844035, -6166.689833008031, -11636.184052966126, -2414.591898273456, -711.9254126459853, -3894.612657381613, -3945.4405242729813, -17272.712859238727, -10538.735751955004, -5228.005972862956, -5401.097881924854, -971.0938896052706, -2987.243591218423, -5689.480088887226, -7130.765274854336, -0.004, 0.07200000000000001, 0.982, 192.0, 0.0, 0.0, 0.0, 0.0, 0.0, 0.0, 0.0, 0.0, 0.0, 1.6444916102836049E9, 0.0, 2022-02-10 22:13:30.283
84.0, -7701.494717776146, -4844.114761843057, -6174.17766740056, -11640.676753601641, -2418.6822675087774, -704.9740201203848, -3907.621372654602, -3974.4977920648807, -17282.45821982124, -10559.075839409334, -5231.202272320065, -5408.317495383918, -983.5438112668767, -2986.6400941181296, -5705.528641406137, -7147.104400051165, -0.004, 0.07200000000000001, 0.982, 192.0, 0.0, 0.0, 0.0, 0.0, 0.0, 0.0, 0.0, 0.0, 0.0, 1.6444916102836127E9, 0.0, 2022-02-10 22:13:30.283
86.0, -7698.767804952598, -4841.76782867525, -6158.6879084930315, -11626.841023783807, -2415.597726773945, -695.6309909380664, -3922.3735239951047, -3942.3783352826044, -17278.12198139691, -10554.56078702936, -5230.911699642146, -5406.6411145497705, -973.7984506843628, -2972.4243846445543, -5694.330417434027, -7133.894519078079, -0.002, 0.07, 0.98, 192.0, 127.5, 120.0, 1.0, 24.0, 15.0, 80.0, 0.0, 0.0, 0.0, 1.6444916102836196E9, 0.0, 2022-02-10 22:13:30.283
88.0, -7707.417930056803, -4852.071982869146, -6175.116440667683, -11642.643707113708, -2435.2225584057046, -716.3063545592254, -3918.037285570775, -3973.514315308847, -17284.46987682222, -10556.080705652323, -5237.796036934381, -5411.714960541125, -982.0015408994605, -2978.213486458479, -5702.51115590467, -7144.980984327911, -0.002, 0.07, 0.98, 192.0, 0.0, 0.0, 0.0, 0.0, 0.0, 0.0, 0.0, 0.0, 0.0, 1.644491610283627E9, 0.0, 2022-02-10 22:13:30.283
90.0, -7695.370339795392, -4834.145883815991, -6165.102859151704, -11635.692314588108, -2420.693924509755, -700.2801537847703, -3916.226794269895, -3943.4065155275484, -17284.983966944692, -10559.61228127626, -5234.800903177369, -5408.384550617284, -990.115224136737, -2980.8733440486603, -5706.087435017519, -7150.501865208372, -0.002, 0.07, 0.98, 192.0, 0.0, 0.0, 0.0, 0.0, 0.0, 0.0, 0.0, 0.0, 0.0, 1.6444916102836344E9, 0.0, 2022-02-10 22:13:30.283
92.0, -7703.819299199498, -4840.918462385948, -6167.9638824419835, -11643.068390258359, -2416.8047209745314, -704.3481712756361, -3950.2237975864173, -3972.3967280860816, -17277.76435348563, -10542.446141534585, -5229.525891485917, -5394.59352428836, -982.9403141665833, -2958.119268193158, -5700.387740181415, -7135.973231312422, -0.002, 0.07, 0.98, 192.0, 0.0, 0.0, 0.0, 0.0, 0.0, 0.0, 0.0, 0.0, 0.0, 1.644491610283641E9, 0.0, 2022-02-10 22:13:30.283
94.0, -7707.775557968088, -4858.643395739007, -6171.942492955029, -11646.197634482103, -2438.0612299515283, -709.1761480779825, -3938.913814892032, -3992.4685946069476, -17290.996586203168, -10556.773609730437, -5241.998164891978, -5412.676085552703, -996.0384364173933, -2990.998684286915, -5715.408112455382, -7157.5650164562485, -0.002, 0.07, 0.98, 192.0, 0.0, 0.0, 0.0, 0.0, 0.0, 0.0, 0.0, 0.0, 0.0, 1.6444916102836485E9, 0.0, 2022-02-10 22:13:30.283
96.0, -7692.6657787163, -4838.035087351213, -6153.278786334848, -11634.328858176334, -2425.4548460787355, -711.2995638012367, -3926.620355441613, -3939.5396637367803, -17269.76242897063, -10556.237167863508, -5221.702780926559, -5418.152262944253, -974.3572442957454, -2977.5876376137303, -5697.929048291332, -7141.3600017261515, -0.004, 0.068, 0.982, 192.0, 127.5, 112.0, 1.0, 16.0, 15.0, 88.0, 0.0, 0.0, 0.0, 1.6444916102836568E9, 0.0, 2022-02-10 22:13:30.283
98.0, -7713.698770248744, -4862.86787544106, -6176.837524990741, -11651.897329318206, -2434.842578749964, -722.9448226624517, -3902.6145818966133, -3984.846649747688, -17284.93926345578, -10556.259519607964, -5234.599737477271, -5423.002591491055, -989.7575962254521, -2993.569134899275, -5702.019417526653, -7148.020821573833, -0.004, 0.068, 0.982, 192.0, 0.0, 0.0, 0.0, 0.0, 0.0, 0.0, 0.0, 0.0, 0.0, 1.6444916102836635E9, 0.0, 2022-02-10 22:13:30.283
100.0, -7711.083616147473, -4867.449983054398, -6169.975539442961, -11643.984811781027, -2427.667668779811, -707.1644910770049, -3913.0304948127864, -3967.524047794825, -17296.785688017095, -10566.831894735324, -5240.925281158124, -5419.8509955228565, -993.5573927828542, -2991.1327947536465, -5707.495594918203, -7154.972214099434, -0.004, 0.068, 0.982, 192.0, 0.0, 0.0, 0.0, 0.0, 0.0, 0.0, 0.0, 0.0, 0.0, 1.6444916102836704E9, 0.0, 2022-02-10 22:13:30.283
102.0, -7711.709464992222, -4863.2478550968, -6169.014414431384, -11653.886634574728, -2433.0991426824503, -719.8826336720746, -3930.2413380433727, -3949.1732655970177, -17280.871245964914, -10557.645327764194, -5233.728019443514, -5415.2688879095185, -982.9626659110387, -2985.3213411952665, -5696.02915001263, -7143.438713960495, -0.004, 0.068, 0.982, 192.0, 0.0, 0.0, 0.0, 0.0, 0.0, 0.0, 0.0, 0.0, 0.0, 1.6444916102836776E9, 0.0, 2022-02-10 22:13:30.283
104.0, -7730.596689056956, -4867.293520843211, -6175.36230985669, -11662.939091079128, -2439.2011689187493, -718.9215086604963, -3925.4357129854816, -3970.7874024852995, -17301.52425784162, -10572.464534338062, -5249.9777376625225, -5428.210547949141, -998.854756218762, -3001.9957425589255, -5715.966906066765, -7159.643728690592, -0.004, 0.068, 0.982, 192.0, 0.0, 0.0, 0.0, 0.0, 0.0, 0.0, 0.0, 0.0, 0.0, 1.6444916107635472E9, 0.0, 2022-02-10 22:13:30.763
106.0, -7716.090406905461, -4850.9990991352915, -6156.944472425517, -11646.510558904476, -2422.012677432618, -712.5736132351892, -3934.1528933230516, -3965.35592858266, -17281.47474306521, -10552.750295728481, -5224.809673405847, -5410.195041918164, -979.7440147094745, -2990.3281319532553, -5702.198231482295, -7148.423152974028, 0.002, 0.07, 0.99, 192.0, 0.0, 8.0, 1.0, 24.0, 15.0, 120.0, 0.0, 0.0, 0.0, 1.6444916107635577E9, 0.0, 2022-02-10 22:13:30.763
108.0, -7722.5947645419565, -4874.2449133688115, -6173.350652855713, -11657.842893343317, -2429.7687327586095, -717.3345348041696, -3950.0226318863192, -3979.303417122772, -17286.79445824557, -10559.545226042894, -5235.069124110833, -5417.816986777424, -986.2036688570582, -2981.342730682222, -5707.830871085032, -7150.032478574811, 0.002, 0.07, 0.99, 192.0, 0.0, 0.0, 0.0, 0.0, 0.0, 0.0, 0.0, 0.0, 0.0, 1.6444916107635653E9, 0.0, 2022-02-10 22:13:30.763
110.0, -7708.960200424219, -4861.705584729384, -6159.023184659861, -11640.430884412634, -2428.7629042581207, -707.5668224772004, -3943.3171085497274, -3966.942902438987, -17289.05198443556, -10565.960176701568, -5233.437446765595, -5423.717847313625, -993.9820759275051, -2994.574963399764, -5716.726865378245, -7155.396897244084, 0.002, 0.07, 0.99, 192.0, 0.0, 0.0, 0.0, 0.0, 0.0, 0.0, 0.0, 0.0, 0.0, 1.6444916107635725E9, 0.0, 2022-02-10 22:13:30.763
112.0, -7720.761921496621, -4869.483991799831, -6162.577112028255, -11648.432808927633, -2439.8270177634977, -720.5531860057338, -3925.1451403075625, -3966.227646616417, -17276.400897073854, -10546.961193914556, -5229.660001952649, -5417.526414099505, -980.660436232142, -2986.2377627179344, -5697.303199446583, -7144.288080249797, 0.002, 0.07, 0.99, 192.0, 0.0, 0.0, 0.0, 0.0, 0.0, 0.0, 0.0, 0.0, 0.0, 1.64449161076358E9, 0.0, 2022-02-10 22:13:30.763
114.0, -7724.584069798479, -4876.100108158602, -6172.9483214555175, -11655.473608431055, -2442.755096287143, -721.0225726392953, -3944.099419605663, -3991.9321527400202, -17298.596179317974, -10582.992205976512, -5245.283871326908, -5434.401981163262, -1006.0967214222815, -3003.8956408376266, -5722.739484636722, -7165.142257826598, 0.002, 0.07, 0.99, 192.0, 0.0, 0.0, 0.0, 0.0, 0.0, 0.0, 0.0, 0.0, 0.0, 1.6444916107635872E9, 0.0, 2022-02-10 22:13:30.763
116.0, -7709.071959146495, -4861.169142862456, -6157.100934636705, -11638.77685532294, -2439.9387764857743, -717.803921437731, -3956.3034720782607, -3982.253847390872, -17280.021879675613, -10564.484961567518, -5229.145911830176, -5414.419521620217, -983.5438112668767, -2985.701320851007, -5711.362446708971, -7157.095629822687, 0.004, 0.068, 0.984, 192.0, 0.0, 16.0, 1.0, 16.0, 15.0, 96.0, 0.0, 0.0, 0.0, 1.644491610763595E9, 0.0, 2022-02-10 22:13:30.763
118.0, -7721.276011619093, -4869.05930865518, -6177.038690690839, -11655.294794475412, -2443.8056282765424, -728.0186686538063, -3941.4395620154814, -3988.5793910717243, -17289.18609490229, -10563.90381621168, -5239.897100913179, -5427.919975271222, -993.5797445273096, -2992.853879076705, -5713.932897321331, -7161.834199647213, 0.004, 0.068, 0.984, 192.0, 0.0, 0.0, 0.0, 0.0, 0.0, 0.0, 0.0, 0.0, 0.0, 1.6444916107636025E9, 0.0, 2022-02-10 22:13:30.763
120.0, -7718.258526117626, -4873.976692435347, -6163.001795172906, -11645.25886121498, -2428.3158693690148, -714.3394010471584, -3917.7020094039453, -3959.3656610686376, -17291.398917603365, -10569.715269770059, -5245.999127149478, -5425.88596652579, -997.4912998069883, -2992.1386232541354, -5715.966906066765, -7163.354118270174, 0.004, 0.068, 0.984, 192.0, 0.0, 0.0, 0.0, 0.0, 0.0, 0.0, 0.0, 0.0, 0.0, 1.6444916107636094E9, 0.0, 2022-02-10 22:13:30.763
122.0, -7725.075808176495, -4874.133154646534, -6159.850199204708, -11643.068390258359, -2442.173950931305, -721.6707732284991, -3962.5619605257466, -3975.9953589433862, -17278.23374011919, -10557.891196953202, -5233.0351153654, -5419.940402500678, -978.8722966757175, -2978.951094025504, -5704.36635069446, -7151.217121030942, 0.004, 0.068, 0.984, 192.0, 0.0, 0.0, 0.0, 0.0, 0.0, 0.0, 0.0, 0.0, 0.0, 1.6444916107636163E9, 0.0, 2022-02-10 22:13:30.763
124.0, -7710.904802191831, -4876.144811647512, -6170.98136794345, -11651.964384551571, -2437.1895119177716, -718.9215086604963, -3930.710724676934, -3964.2159896154394, -17293.81290600454, -10572.598644804793, -5242.624013736727, -5427.338829915385, -995.6584567616532, -2992.2950854653222, -5723.879423603943, -7167.019804360843, 0.005, 0.07, 0.982, 192.0, 0.0, 24.0, 1.0, 32.0, 15.0, 80.0, 0.0, 0.0, 0.0, 1.6444916107636237E9, 0.0, 2022-02-10 22:13:30.763
126.0, -7703.260505588116, -4867.9640731768695, -6153.569359012766, -11641.213195468568, -2416.536500041068, -696.5027089718234, -3921.1888815389734, -3946.647518473568, -17282.435868076787, -10560.28283360992, -5237.371353789729, -5412.541975085971, -989.3329130808012, -2959.8627042606718, -5703.606391382979, -7150.881844864112, 0.005, 0.07, 0.982, 192.0, 0.0, 0.0, 0.0, 0.0, 0.0, 0.0, 0.0, 0.0, 0.0, 1.6444916107636304E9, 0.0, 2022-02-10 22:13:30.763
128.0, -7735.491721092668, -4882.090375672624, -6162.018318416873, -11645.124750748248, -2449.43826787928, -719.7038197164321, -3957.2869488342944, -3977.35881535516, -17286.74975475666, -10552.392667817196, -5240.0535631243665, -5415.157129187242, -986.4495380460666, -2989.009379030392, -5711.787129853622, -7153.519350709838, 0.005, 0.07, 0.982, 192.0, 0.0, 0.0, 0.0, 0.0, 0.0, 0.0, 0.0, 0.0, 0.0, 1.6444916107636456E9, 0.0, 2022-02-10 22:13:30.763
130.0, -7726.14869191035, -4875.116631402568, -6152.965861912473, -11634.932355276627, -2438.5753200740005, -708.6397062110551, -3944.233530072395, -3959.142143624085, -17290.840123991984, -10567.882426724724, -5234.175054332621, -5425.4836351255935, -990.629314259209, -2998.0394837903364, -5718.045618301108, -7158.079106578721, 0.005, 0.07, 0.982, 192.0, 0.0, 0.0, 0.0, 0.0, 0.0, 0.0, 0.0, 0.0, 0.0, 1.6444916107636523E9, 0.0, 2022-02-10 22:13:30.763
132.0, -7721.499529063646, -4869.238122610823, -6154.664594491076, -11635.334686676822, -2442.1963026757603, -719.4132470385131, -3979.2363618894055, -3981.940922968498, -17282.32410935451, -10553.487903295507, -5232.878653154213, -5414.866556509323, -981.1074711212482, -2980.4486609040096, -5711.496557175703, -7146.277385506319, 0.005, 0.07, 0.982, 192.0, 0.0, 0.0, 0.0, 0.0, 0.0, 0.0, 0.0, 0.0, 0.0, 1.6444916107636595E9, 0.0, 2022-02-10 22:13:30.763
134.0, -7728.853252989442, -4883.654997784495, -6168.589731286733, -11647.583442638332, -2455.205017948749, -706.158662576516, -3930.7777799103, -3944.680564961501, -17295.75750777215, -10566.80954299087, -5244.367449804241, -5431.69742008417, -999.1006254077704, -2992.8315273322496, -5722.918298592365, -7162.616510703148, 0.006500000000000001, 0.069, 0.982, 192.0, 0.0, 32.0, 1.0, 16.0, 15.0, 88.0, 0.0, 0.0, 0.0, 1.6444916107636662E9, 0.0, 2022-02-10 22:13:30.763
136.0, -7722.080674419484, -4860.364480062066, -6150.93185316704, -11636.362866921767, -2437.5471398290565, -715.18876733646, -3915.6680006585125, -3963.076050648219, -17288.00145244616, -10550.403362560673, -5243.629842237216, -5419.9627542451335, -980.8839536766951, -2991.7809953428505, -5705.819214084055, -7150.613623930648, 0.006500000000000001, 0.069, 0.982, 192.0, 0.0, 0.0, 0.0, 0.0, 0.0, 0.0, 0.0, 0.0, 0.0, 1.6444916107636733E9, 0.0, 2022-02-10 22:13:30.763
138.0, -7729.747322767655, -4877.731785503839, -6168.813248731286, -11645.63884087072, -2459.3400906729808, -718.1168458601053, -3956.4375825449924, -3973.35785309766, -17290.0801646805, -10556.728906241526, -5245.708554471559, -5424.611917091837, -991.0539974038599, -2981.298027193311, -5714.290525232616, -7158.235568789908, 0.006500000000000001, 0.069, 0.982, 192.0, 0.0, 0.0, 0.0, 0.0, 0.0, 0.0, 0.0, 0.0, 0.0, 1.6444916107636807E9, 0.0, 2022-02-10 22:13:30.763
140.0, -7722.550061053045, -4884.124384418057, -6159.470219548967, -11637.323991933346, -2443.3138898985258, -709.7572934338205, -3919.065465815719, -3957.801038956766, -17294.505810082654, -10565.490790068006, -5239.427714279618, -5420.11921645632, -1000.2405643749911, -2980.2251434594564, -5718.626763656946, -7157.341499011696, 0.006500000000000001, 0.069, 0.982, 192.0, 0.0, 0.0, 0.0, 0.0, 0.0, 0.0, 0.0, 0.0, 0.0, 1.6444916107636883E9, 0.0, 2022-02-10 22:13:30.763
142.0, -7712.536479537068, -4869.43928831092, -6158.710260237487, -11637.525157633443, -2440.296404397059, -720.7319999613762, -3938.8244079142105, -3967.8593239616544, -17279.910120953336, -10550.962156172056, -5234.309164799352, -5414.64303906477, -982.3144653218347, -2965.852971774694, -5699.672484358845, -7145.919757595034, 0.006500000000000001, 0.069, 0.982, 192.0, 0.0, 0.0, 0.0, 0.0, 0.0, 0.0, 0.0, 0.0, 0.0, 1.6444916107636952E9, 0.0, 2022-02-10 22:13:30.763
144.0, -7703.729892221677, -4870.243951111312, -6166.734536496942, -11647.203462982592, -2443.24683466516, -704.8846131425636, -3943.294756805272, -3954.135352866096, -17284.961615200238, -10554.717249240548, -5241.685240469604, -5412.206698919142, -995.9713811840275, -2972.3349776667333, -5719.677295646346, -7158.526141467827, 0.009250000000000001, 0.0685, 0.983, 192.0, 0.0, 48.0, 1.0, 16.0, 15.0, 96.0, 0.0, 0.0, 0.0, 1.6444916107637022E9, 0.0, 2022-02-10 22:13:30.763
146.0, -7724.248793631648, -4877.44121282592, -6152.317661323269, -11630.506709874477, -2433.881453738386, -698.8496421396306, -3914.908041347032, -3938.1315038360963, -17272.154065627346, -10548.749333470982, -5232.31985954283, -5414.285411153485, -979.0958141202706, -2972.6031986001967, -5704.343998950005, -7141.203539514964, 0.009250000000000001, 0.0685, 0.983, 192.0, 0.0, 0.0, 0.0, 0.0, 0.0, 0.0, 0.0, 0.0, 0.0, 1.6444916107637088E9, 0.0, 2022-02-10 22:13:30.763
148.0, -7726.305154121537, -4887.588904808629, -6170.511981309889, -11644.655364114686, -2430.461636836724, -710.0255143672841, -3926.262727530328, -3960.1479721245737, -17286.503885567654, -10560.729868499026, -5252.123505130232, -5429.663411338736, -991.7692532264297, -2972.2008672000015, -5709.84252808601, -7144.51159769435, 0.009250000000000001, 0.0685, 0.983, 192.0, 0.0, 0.0, 0.0, 0.0, 0.0, 0.0, 0.0, 0.0, 0.0, 1.6444916107637157E9, 0.0, 2022-02-10 22:13:30.763
150.0, -7699.751281708633, -4858.665747483462, -6152.183550856537, -11632.764236064462, -2431.601575803945, -690.6242001800777, -3921.591212939169, -3953.330690065705, -17279.84306571997, -10559.835798720813, -5228.341249029786, -5422.756722302047, -985.466061290033, -2971.3067974217893, -5710.89306007541, -7152.021783831333, 0.009250000000000001, 0.0685, 0.983, 192.0, 0.0, 0.0, 0.0, 0.0, 0.0, 0.0, 0.0, 0.0, 0.0, 1.644491610763723E9, 0.0, 2022-02-10 22:13:30.763
152.0, -7728.629735544889, -4857.682270727429, -6149.5013415219, -11636.228756455035, -2430.595747303456, -703.8340811531641, -3941.037230615286, -3962.07022214773, -17258.318335809512, -10538.221661832531, -5229.235318807998, -5404.182422659686, -961.6838051895863, -2954.6100443136747, -5694.755100578678, -7137.470798190928, 0.009250000000000001, 0.0685, 0.983, 192.0, 0.0, 0.0, 0.0, 0.0, 0.0, 0.0, 0.0, 0.0, 0.0, 1.6444916107637296E9, 0.0, 2022-02-10 22:13:30.763
154.0, -7722.930040708786, -4880.592808794118, -6158.151466626105, -11641.25789895748, -2441.1010671974504, -703.2082323084155, -3964.3053965932604, -3975.5930275431906, -17282.681737265793, -10553.733772484515, -5241.685240469604, -5423.851957780356, -980.5486775098656, -2977.721748080462, -5716.32453397805, -7157.252092033875, 0.009250000000000001, 0.0685, 0.983, 192.0, 0.0, 0.0, 1.0, 64.0, 15.0, 64.0, 0.0, 0.0, 0.0, 1.6444916107637365E9, 0.0, 2022-02-10 22:13:30.763
156.0, -7711.016560914107, -4876.636550025529, -6144.7180682084645, -11627.91390751766, -2427.4441513352576, -698.4249589949798, -3908.8730703440992, -3938.265614302828, -17269.047173148057, -10534.623030975226, -5231.850472909269, -5410.329152384896, -967.8528866592511, -2963.059003717781, -5703.807557083078, -7142.03055405981, 0.009250000000000001, 0.0685, 0.983, 192.0, 0.0, 0.0, 0.0, 0.0, 0.0, 0.0, 0.0, 0.0, 0.0, 1.6444916107637436E9, 0.0, 2022-02-10 22:13:30.763
158.0, -7715.755130738632, -4885.756061763294, -6157.436210803534, -11642.576651880343, -2440.363459630425, -707.2986015437367, -3939.5396637367803, -3965.1100593936517, -17277.451429063254, -10556.415981819151, -5234.107999099255, -5423.293164168974, -974.2231338290136, -2963.8636665181716, -5699.203097725284, -7143.4163622160395, 0.009250000000000001, 0.0685, 0.983, 192.0, 0.0, 0.0, 0.0, 0.0, 0.0, 0.0, 0.0, 0.0, 0.0, 1.6444916107637517E9, 0.0, 2022-02-10 22:13:30.763
160.0, -7713.430549315281, -4871.294483100711, -6142.304079807292, -11631.49018663051, -2429.0311251915846, -695.4074734935133, -3926.4415414859704, -3950.2461493308724, -17271.684678993784, -10554.314917840353, -5220.428731492607, -5411.670257052214, -971.5409244943768, -2968.892809020616, -5704.254591972183, -7149.876016363623, 0.009250000000000001, 0.0685, 0.983, 192.0, 0.0, 0.0, 0.0, 0.0, 0.0, 0.0, 0.0, 0.0, 0.0, 1.6444916107637613E9, 0.0, 2022-02-10 22:13:30.763
162.0, -7727.892127977864, -4879.564628549174, -6146.394449042613, -11633.010105253472, -2440.050535208051, -714.8981946585411, -3929.391971754071, -3983.237324146906, -17258.78772244307, -10538.646344977182, -5217.835929135791, -5403.087187181376, -954.0395085858713, -2964.5565705962863, -5687.133155719418, -7140.398876714573, 0.009250000000000001, 0.0685, 0.983, 192.0, 0.0, 0.0, 0.0, 0.0, 0.0, 0.0, 0.0, 0.0, 0.0, 1.6444916107637684E9, 0.0, 2022-02-10 22:13:30.763
164.0, -7721.499529063646, -4886.873648986059, -6157.659728248087, -11643.805997825384, -2450.0194132351176, -712.9088894020188, -3917.5902506816687, -3958.0916116346853, -17278.166684885822, -10558.159417886665, -5232.0739903538215, -5423.40492289125, -977.2182675860248, -2978.7499283254065, -5705.729807106234, -7157.699126922981, 0.0036250000000000006, 0.07525000000000001, 0.9784999999999999, 192.0, 127.5, 120.0, 1.0, 72.0, 15.0, 56.0, 0.0, 0.0, 0.0, 1.6444916107637753E9, 0.0, 2022-02-10 22:13:30.763
166.0, -7722.840633730964, -4874.15550639099, -6139.957146639485, -11624.583497593821, -2433.300308382548, -697.0838543276614, -3933.728210178401, -3960.036213402297, -17269.583615014984, -10547.855263692769, -5227.22366180702, -5413.950134986656, -968.0093488704383, -2962.991948484415, -5690.284751687616, -7144.3551354831625, 0.0036250000000000006, 0.07525000000000001, 0.9784999999999999, 192.0, 0.0, 0.0, 0.0, 0.0, 0.0, 0.0, 0.0, 0.0, 0.0, 1.6444916107637825E9, 0.0, 2022-02-10 22:13:30.763
168.0, -7739.895014750364, -4891.433404854943, -6162.130077139149, -11640.96732627956, -2451.6734423248104, -709.6008312226334, -3950.044983630775, -3960.416193058037, -17275.26095810663, -10542.736714212504, -5233.482150254506, -5411.133815185287, -974.4913547624773, -2964.0648322182697, -5700.611257625968, -7146.277385506319, 0.0036250000000000006, 0.07525000000000001, 0.9784999999999999, 192.0, 0.0, 0.0, 0.0, 0.0, 0.0, 0.0, 0.0, 0.0, 0.0, 1.64449161076379E9, 0.0, 2022-02-10 22:13:30.763
170.0, -7719.085540662473, -4872.054442412191, -6149.478989777445, -11628.383294151223, -2439.268224152115, -695.4521769824239, -3931.0236490993084, -3959.075088390719, -17275.126847639902, -10551.23037710552, -5230.46466475304, -5416.408826876739, -977.4864885194885, -2964.8471432742053, -5704.612219883468, -7150.971251841933, 0.0036250000000000006, 0.07525000000000001, 0.9784999999999999, 192.0, 0.0, 0.0, 0.0, 0.0, 0.0, 0.0, 0.0, 0.0, 0.0, 1.6444916107637968E9, 0.0, 2022-02-10 22:13:30.763
172.0, -7713.7881772265655, -4875.720128502861, -6150.417763044568, -11626.550451105888, -2448.8347707789867, -697.70970317241, -3945.5746347397135, -3953.1295243656073, -17255.725533452696, -10528.141025083189, -5214.684333167593, -5398.326265612396, -959.3592237662344, -2952.4866285904204, -5690.88824878791, -7136.286155734797, 0.0036250000000000006, 0.07525000000000001, 0.9784999999999999, 192.0, 0.0, 0.0, 0.0, 0.0, 0.0, 0.0, 0.0, 0.0, 0.0, 1.644491610763804E9, 0.0, 2022-02-10 22:13:30.763
174.0, -7705.450976544736, -4887.29833213071, -6162.6218155171655, -11639.626221612243, -2443.358593387436, -703.2082323084155, -3911.8235006121995, -3968.7533937398666, -17272.779914472096, -10543.742542712993, -5234.152702588165, -5408.920992484212, -979.4534420315555, -2968.177553198046, -5706.199193739795, -7153.4522954764725, 0.0038125000000000004, 0.075625, 0.97725, 192.0, 0.0, 16.0, 1.0, 48.0, 15.0, 64.0, 0.0, 0.0, 0.0, 1.644491610763811E9, 0.0, 2022-02-10 22:13:30.763
176.0, -7722.8853372198755, -4880.548105305208, -6143.891053663619, -11618.839099268807, -2434.172026416305, -694.2675345262927, -3923.580518195691, -3960.1479721245737, -17259.547681754553, -10543.809597946358, -5220.9204698706235, -5401.790786002968, -962.1978953120584, -2956.733460036929, -5683.64628358439, -7142.74580988238, 0.0038125000000000004, 0.075625, 0.97725, 192.0, 0.0, 0.0, 0.0, 0.0, 0.0, 0.0, 0.0, 0.0, 0.0, 1.6444916107638175E9, 0.0, 2022-02-10 22:13:30.763
178.0, -7744.38771538588, -4892.483936844342, -6168.947359198018, -11631.624297097242, -2454.8026865485535, -707.9691538773959, -3963.746602981878, -3980.8009840012774, -17271.99760341616, -10546.245938091986, -5230.866996153235, -5412.541975085971, -964.790697668874, -2967.886980520127, -5697.191440724307, -7146.120923295131, 0.0038125000000000004, 0.075625, 0.97725, 192.0, 0.0, 0.0, 0.0, 0.0, 0.0, 0.0, 0.0, 0.0, 0.0, 1.6444916107638247E9, 0.0, 2022-02-10 22:13:30.763
180.0, -7736.363439126425, -4886.426614096954, -6164.298196351314, -11626.215174939058, -2441.4586951087354, -699.6990084289323, -3910.5718029227023, -3952.8165999432326, -17278.32314709701, -10547.855263692769, -5236.387877033696, -5412.966658230622, -975.340721051779, -2978.1464312251132, -5702.17587973784, -7149.071353563232, 0.0038125000000000004, 0.075625, 0.97725, 192.0, 0.0, 0.0, 0.0, 0.0, 0.0, 0.0, 0.0, 0.0, 0.0, 1.6444916107638314E9, 0.0, 2022-02-10 22:13:30.763
182.0, -7732.407180357836, -4883.319721617666, -6160.431344560546, -11624.672904571642, -2446.487837611179, -714.3617527916138, -3933.012954355831, -3977.4929258218917, -17263.682754478785, -10542.75906595696, -5226.195481562077, -5406.663466294225, -955.6488341866535, -2963.5283903513423, -5685.769699307644, -7139.08012379171, 0.0038125000000000004, 0.075625, 0.97725, 192.0, 0.0, 0.0, 0.0, 0.0, 0.0, 0.0, 0.0, 0.0, 0.0, 1.6444916107638383E9, 0.0, 2022-02-10 22:13:30.763
184.0, -7711.977685925685, -4871.763869734272, -6171.674272021565, -11633.367733164756, -2451.9193115138187, -706.4045317655244, -3932.3200502777163, -3971.770879241333, -17272.332879582988, -10549.866920693747, -5234.286813054898, -5406.775225016502, -969.3504535377567, -2975.73244282394, -5709.12727226344, -7156.782705400313, 0.0038125000000000004, 0.075625, 0.97725, 192.0, 0.0, 0.0, 1.0, 16.0, 15.0, 72.0, 0.0, 0.0, 0.0, 1.6444916107638452E9, 0.0, 2022-02-10 22:13:30.763
186.0, -7709.5636975245125, -4870.936855189426, -6155.26809159137, -11615.195764922591, -2433.7026397827435, -696.0556740827172, -3950.8943499200764, -3974.9224752095315, -17251.635164217372, -10539.56276649985, -5215.019609334423, -5390.190230630664, -949.7256219059971, -2954.542989080309, -5696.654998857379, -7141.292946492786, 0.0038125000000000004, 0.075625, 0.97725, 192.0, 0.0, 0.0, 0.0, 0.0, 0.0, 0.0, 0.0, 0.0, 0.0, 1.6444916107638521E9, 0.0, 2022-02-10 22:13:30.763
188.0, -7731.758979768632, -4900.150585192512, -6175.876399979163, -11637.435750655623, -2455.652052837855, -715.9040231590299, -3939.4055532700486, -3986.0536439482744, -17257.13369335338, -10541.283850822909, -5225.36846701723, -5416.565289087926, -951.6925754180642, -2971.753832310895, -5703.0699495160525, -7149.250167518875, 0.0038125000000000004, 0.075625, 0.97725, 192.0, 0.0, 0.0, 0.0, 0.0, 0.0, 0.0, 0.0, 0.0, 0.0, 1.6444916107638593E9, 0.0, 2022-02-10 22:13:30.763
190.0, -7731.066075690517, -4889.466451342875, -6162.487705050434, -11631.087855230315, -2436.6307183063886, -697.7544066613206, -3921.2559367723393, -3961.69024249199, -17268.376620814397, -10562.47330456654, -5223.356810016252, -5419.158091444742, -958.3533952657456, -2977.5876376137303, -5706.914449562365, -7151.239472775397, 0.0038125000000000004, 0.075625, 0.97725, 192.0, 0.0, 0.0, 0.0, 0.0, 0.0, 0.0, 0.0, 0.0, 0.0, 1.644491610763866E9, 0.0, 2022-02-10 22:13:30.763
192.0, -7745.728820053198, -4893.266247900277, -6161.638338761132, -11628.852680784785, -2446.4431341222685, -703.6329154530663, -3931.1801113104957, -3955.0294226443084, -17258.89948116535, -10545.731847969515, -5218.998219847467, -5404.271829637508, -937.7897903668631, -2959.750945538395, -5692.922257533343, -7134.989754556389, 0.0038125000000000004, 0.075625, 0.97725, 192.0, 0.0, 0.0, 0.0, 0.0, 0.0, 0.0, 0.0, 0.0, 0.0, 1.6444916107638748E9, 0.0, 2022-02-10 22:13:30.763
194.0, -7733.39065711387, -4889.980541465347, -6171.987196443939, -11639.53681463442, -2451.137000457883, -705.0410753537507, -3947.4074777850483, -3990.613399817157, -17274.009260417137, -10560.685165010114, -5233.415095021141, -5415.537108842982, -964.7236424355082, -2962.857838017683, -5711.429501942337, -7151.820618131235, -0.006, 0.066, 0.98, 192.0, 127.5, 104.0, 1.0, 8.0, 15.0, 80.0, 0.0, 0.0, 0.0, 1.6444916107638817E9, 0.0, 2022-02-10 22:13:30.763
196.0, -7731.937793724274, -4881.509230316786, -6157.950300926006, -11625.008180738472, -2445.8396370219752, -702.9623631194071, -3940.009050370342, -3956.6610999895456, -17257.93835615377, -10546.402400303174, -5222.105112326755, -5399.466204579617, -948.4292207275893, -2961.606140328186, -5704.03107452763, -7145.942109339489, -0.006, 0.066, 0.98, 192.0, 0.0, 0.0, 0.0, 0.0, 0.0, 0.0, 0.0, 0.0, 0.0, 1.6444916107638884E9, 0.0, 2022-02-10 22:13:30.763
198.0, -7755.317718424526, -4895.68023630145, -6178.983292458451, -11640.028553012438, -2463.2963494415703, -712.9759446353847, -3961.1761523695177, -3978.9234374670314, -17269.874187692905, -10557.42181031964, -5233.70566769906, -5421.303858912452, -959.4262789996004, -2977.632341102641, -5708.300257718594, -7145.919757595034, -0.006, 0.066, 0.98, 192.0, 0.0, 0.0, 0.0, 0.0, 0.0, 0.0, 0.0, 0.0, 0.0, 1.6444916107638955E9, 0.0, 2022-02-10 22:13:30.763
200.0, -7741.280822906593, -4890.427576354454, -6168.321510353268, -11632.361904664267, -2445.7278782996987, -702.6270869525775, -3928.944936864965, -3963.813658215244, -17272.578748771997, -10563.009746433467, -5229.0341531079, -5418.7334083000915, -963.4272412571004, -2974.4807451344427, -5718.604411912491, -7152.379411742618, -0.006, 0.066, 0.98, 192.0, 0.0, 0.0, 0.0, 0.0, 0.0, 0.0, 0.0, 0.0, 0.0, 1.6444916107639024E9, 0.0, 2022-02-10 22:13:30.763
202.0, -7754.446000390769, -4894.383835123042, -6163.135905639638, -11628.048017984393, -2443.850331765453, -713.1324068465718, -3931.649497944057, -3975.1459926540847, -17262.542815511562, -10550.917452683147, -5229.0788565968105, -5407.512832583527, -946.4399154710669, -2967.01526248637, -5692.139946477407, -7134.654478389559, -0.006, 0.066, 0.98, 192.0, 0.0, 0.0, 0.0, 0.0, 0.0, 0.0, 0.0, 0.0, 0.0, 1.6444916107639096E9, 0.0, 2022-02-10 22:13:30.763
204.0, -7750.2438724331705, -4898.943590991926, -6172.680100522054, -11638.039247755916, -2453.9309685147964, -711.2548603123261, -3950.0896871196855, -3978.386995600104, -17273.361059827934, -10549.956327671567, -5229.861167652746, -5419.046332722465, -961.8179156563182, -2978.973445769959, -5713.195289754306, -7153.206426287464, -0.008, 0.074, 0.98, 192.0, 127.5, 96.0, 1.0, 40.0, 15.0, 80.0, 0.0, 0.0, 0.0, 1.6444916107639177E9, 0.0, 2022-02-10 22:13:30.763
206.0, -7729.680267534289, -4877.2400471258225, -6157.547969525811, -11624.270573171447, -2442.106895697939, -701.2412787963485, -3921.9041373615432, -3960.6620622470455, -17266.253205091143, -10553.286737595408, -5222.261574537942, -5411.469091352116, -950.6420434286647, -2962.5449135953086, -5701.572382637547, -7138.230757502408, -0.008, 0.074, 0.98, 192.0, 0.0, 0.0, 0.0, 0.0, 0.0, 0.0, 0.0, 0.0, 0.0, 1.6444916107639248E9, 0.0, 2022-02-10 22:13:30.763
208.0, -7747.427552631802, -4903.816271283183, -6173.864742978185, -11637.927489033638, -2457.686061583288, -715.0099533808176, -3942.3783352826044, -3984.3772631141264, -17261.626393988896, -10552.504426539474, -5227.17895831811, -5413.458396608638, -956.2299795424915, -2969.0716229762584, -5711.2283362422395, -7142.812865115746, -0.008, 0.074, 0.98, 192.0, 0.0, 0.0, 0.0, 0.0, 0.0, 0.0, 0.0, 0.0, 0.0, 1.6444916107639315E9, 0.0, 2022-02-10 22:13:30.763
210.0, -7734.374133869903, -4887.410090852987, -6160.788972471831, -11627.578631350832, -2447.3595556449363, -702.224755552382, -3938.1538555805514, -3979.012844444853, -17261.022896888604, -10559.27700510943, -5217.858280880247, -5405.769396516013, -956.4534969870446, -2963.8189630292613, -5720.146682279907, -7154.234606532408, -0.008, 0.074, 0.98, 192.0, 0.0, 0.0, 0.0, 0.0, 0.0, 0.0, 0.0, 0.0, 0.0, 1.644491610763939E9, 0.0, 2022-02-10 22:13:30.763
212.0, -7739.537386839079, -4878.290579115222, -6154.329318324247, -11625.432863883123, -2452.8580847809417, -711.2101568234154, -3947.765105696333, -3971.748527496878, -17248.3718095269, -10539.473359522028, -5206.749463885959, -5392.984198687577, -939.8014473678408, -2958.3651373821663, -5705.260420472672, -7140.153007525565, -0.008, 0.074, 0.98, 192.0, 0.0, 0.0, 0.0, 0.0, 0.0, 0.0, 0.0, 0.0, 0.0, 1.644491610763946E9, 0.0, 2022-02-10 22:13:30.763
214.0, -7752.791971301076, -4877.374157592554, -6168.36621384218, -11633.524195375943, -2469.040747766584, -708.1479678330384, -3943.1829980829953, -3985.6960160369895, -17265.068562635013, -10549.464589293551, -5227.357772273752, -5399.712073768625, -959.6274446996981, -2974.0337102453364, -5721.621897413957, -7153.049964076276, -0.008, 0.074, 0.98, 192.0, 0.0, 0.0, 1.0, 24.0, 15.0, 80.0, 0.0, 0.0, 0.0, 1.6444916107639537E9, 0.0, 2022-02-10 22:13:30.763
216.0, -7743.426590374303, -4888.639436798029, -6154.843408446719, -11621.364846392256, -2455.1603144598384, -699.8778223845748, -3931.6271461996016, -3963.5230855373247, -17258.765370698617, -10545.955365414067, -5218.372371002719, -5390.033768419477, -952.1396103071703, -2957.761640281873, -5710.2895629751165, -7140.488283692394, -0.008, 0.074, 0.98, 192.0, 0.0, 0.0, 0.0, 0.0, 0.0, 0.0, 0.0, 0.0, 0.0, 1.6444916107639625E9, 0.0, 2022-02-10 22:13:30.763
218.0, -7761.48679989419, -4902.475166615864, -6170.668443521076, -11637.994544267005, -2467.1855529767936, -714.384104536069, -3942.870073660621, -3980.64452179009, -17266.119094624413, -10557.265348108453, -5223.468568738529, -5415.626515820803, -956.1629243091255, -2966.210599685979, -5714.022304299153, -7143.79634187178, -0.008, 0.074, 0.98, 192.0, 0.0, 0.0, 0.0, 0.0, 0.0, 0.0, 0.0, 0.0, 0.0, 1.6444916107639697E9, 0.0, 2022-02-10 22:13:30.763
220.0, -7745.862930519931, -4887.4547943418975, -6159.045536404316, -11630.05967498537, -2449.9076545128414, -709.1984998224378, -3932.163588066529, -3979.7504520118778, -17266.722591724705, -10566.13899065721, -5221.501615226462, -5411.826719263401, -950.9326161065836, -2973.7431375674178, -5720.683124146834, -7151.999432086877, -0.008, 0.074, 0.98, 192.0, 0.0, 0.0, 0.0, 0.0, 0.0, 0.0, 0.0, 0.0, 0.0, 1.6444916107639768E9, 0.0, 2022-02-10 22:13:30.763
222.0, -7747.472256120713, -4886.448965841409, -6154.061097390783, -11626.30458191688, -2450.19822719076, -716.641630726055, -3938.6008904696573, -3985.3383881257046, -17254.406780529833, -10548.32465032633, -5214.036132578389, -5401.2990476249515, -937.6109764112207, -2960.1979804275015, -5700.186574481318, -7139.4824551919055, -0.008, 0.074, 0.98, 192.0, 0.0, 0.0, 0.0, 0.0, 0.0, 0.0, 0.0, 0.0, 0.0, 1.6444916107639842E9, 0.0, 2022-02-10 22:13:30.763
224.0, -7742.465465362724, -4890.315817632177, -6164.767582984875, -11635.513500632465, -2452.5675121030226, -706.9186218879964, -3935.583404968191, -3971.6814722635118, -17264.822693446004, -10558.226473120032, -5225.6143362062385, -5413.368989630818, -959.3368720217792, -2968.177553198046, -5717.866804345465, -7150.501865208372, 0.006, 0.07, 0.972, 192.0, 0.0, 24.0, 1.0, 24.0, 15.0, 48.0, 0.0, 0.0, 0.0, 1.644491611243806E9, 0.0, 2022-02-10 22:13:31.243
226.0, -7740.72202929521, -4866.622968509551, -6146.081524620238, -11619.330837646823, -2436.116628183917, -700.9730578628848, -3927.49207347537, -3957.7563354678555, -17254.250318318645, -10545.351868313774, -5214.393760489674, -5393.185364387675, -945.4787904594888, -2953.0901256907136, -5703.964019294264, -7137.9848883134, 0.006, 0.07, 0.972, 192.0, 0.0, 0.0, 0.0, 0.0, 0.0, 0.0, 0.0, 0.0, 0.0, 1.6444916112438145E9, 0.0, 2022-02-10 22:13:31.243
228.0, -7745.639413075378, -4891.63457055504, -6163.448830062012, -11633.099512231292, -2453.752154559154, -714.2276423248819, -3944.4123440280373, -3981.0245014458305, -17255.479664263687, -10536.098246109277, -5218.059446580344, -5400.717902269113, -945.4564387150334, -2959.818000771761, -5705.08160651703, -7142.36583022664, 0.006, 0.07, 0.972, 192.0, 0.0, 0.0, 0.0, 0.0, 0.0, 0.0, 0.0, 0.0, 0.0, 1.6444916112438211E9, 0.0, 2022-02-10 22:13:31.243
230.0, -7729.926136723297, -4879.765794249272, -6153.479952034945, -11624.382331893723, -2441.0563637085397, -700.7271886738764, -3928.4755502314033, -3971.770879241333, -17255.74788519715, -10551.722115483537, -5210.750426143459, -5397.856878978834, -951.9607963515278, -2963.886018262627, -5715.721036877756, -7149.317222752241, 0.006, 0.07, 0.972, 192.0, 0.0, 0.0, 0.0, 0.0, 0.0, 0.0, 0.0, 0.0, 0.0, 1.644491611243828E9, 0.0, 2022-02-10 22:13:31.243
232.0, -7738.129226938395, -4872.859105212582, -6146.975594398451, -11623.82353828234, -2441.637509064378, -705.8680898985971, -3933.2588235448393, -3972.106155408163, -17246.2707455481, -10541.216795589542, -5208.157623786643, -5388.715015496614, -935.2863949878687, -2947.077506432236, -5696.342074435005, -7132.352248710662, 0.006, 0.07, 0.972, 192.0, 0.0, 0.0, 0.0, 0.0, 0.0, 0.0, 0.0, 0.0, 0.0, 1.6444916112438345E9, 0.0, 2022-02-10 22:13:31.243
234.0, -7750.936776511286, -4884.079680929146, -6158.93377768204, -11634.30650643188, -2447.0242794781066, -707.6785811994769, -3930.39780025456, -3980.845687490188, -17261.671097477807, -10551.498598038985, -5221.658077437649, -5395.889925466768, -953.503066718944, -2955.4594106029763, -5717.598583412002, -7149.6972024079805, 0.002, 0.076, 0.982, 192.0, 0.0, 8.0, 1.0, 48.0, 15.0, 88.0, 0.0, 0.0, 0.0, 1.6444916112438412E9, 0.0, 2022-02-10 22:13:31.243
236.0, -7734.2176716587155, -4858.464581783364, -6135.799722170797, -11619.554355091377, -2436.2730903951037, -694.8039763932201, -3921.166529794518, -3963.5901407706906, -17251.568108984007, -10539.205138588564, -5211.309219754841, -5388.0891666518655, -941.2319590129804, -2937.4662563164543, -5705.752158850689, -7137.113170279643, 0.002, 0.076, 0.982, 192.0, 0.0, 0.0, 0.0, 0.0, 0.0, 0.0, 0.0, 0.0, 0.0, 1.6444916112438478E9, 0.0, 2022-02-10 22:13:31.243
238.0, -7749.841541032975, -4879.385814593532, -6153.904635179596, -11631.087855230315, -2453.81920979252, -708.5726509776892, -3942.132466093596, -3986.1206991816402, -17255.859643919426, -10539.160435099655, -5215.779568645903, -5389.944361441656, -948.4962759609552, -2967.819925286761, -5713.150586265396, -7139.638917403093, 0.002, 0.076, 0.982, 192.0, 0.0, 0.0, 0.0, 0.0, 0.0, 0.0, 0.0, 0.0, 0.0, 1.6444916112438543E9, 0.0, 2022-02-10 22:13:31.243
240.0, -7731.28959313507, -4865.661843497974, -6146.260338575881, -11624.248221426991, -2444.6102910769337, -697.4638339834016, -3935.382239268093, -3979.5716380562353, -17259.570033499007, -10549.218720104542, -5215.444292479074, -5391.508983553527, -957.3028632763462, -2960.8908845056158, -5723.834720115033, -7149.719554152436, 0.002, 0.076, 0.982, 192.0, 0.0, 0.0, 0.0, 0.0, 0.0, 0.0, 0.0, 0.0, 0.0, 1.6444916112438607E9, 0.0, 2022-02-10 22:13:31.243
242.0, -7713.587011526467, -4855.312985815166, -6139.532463494834, -11616.000427722982, -2436.8765874953974, -693.5746304481781, -3940.880768404099, -3979.683396778512, -17241.643934445852, -10531.158510584655, -5204.000199317957, -5378.075585135888, -931.1960257525475, -2947.3904308546107, -5707.786167596122, -7133.626298144615, 0.002, 0.076, 0.982, 192.0, 0.0, 0.0, 0.0, 0.0, 0.0, 0.0, 0.0, 0.0, 0.0, 1.6444916112438674E9, 0.0, 2022-02-10 22:13:31.243
244.0, -7707.529688779079, -4858.509285272275, -6152.272957834359, -11629.813805796362, -2438.5753200740005, -691.3171042581921, -3923.8710908736102, -3979.4598793339587, -17244.63906820286, -10530.286792550898, -5208.0011615754565, -5376.77918395748, -945.2105695260251, -2952.240759401412, -5721.398379969404, -7149.339574496696, 0.002, 0.07200000000000001, 0.986, 192.0, 0.0, 8.0, 1.0, 32.0, 15.0, 104.0, 0.0, 0.0, 0.0, 1.644491611243874E9, 0.0, 2022-02-10 22:13:31.243
246.0, -7726.439264588269, -4868.880494699538, -6133.273975047347, -11615.978075978528, -2432.2497763931487, -696.4133019940022, -3922.977021095398, -3961.489076791892, -17245.08610309197, -10553.666717251148, -5201.340341727775, -5392.514812054016, -941.5001799464441, -2954.1406576801132, -5707.674408873846, -7139.929490081012, 0.002, 0.07200000000000001, 0.986, 192.0, 0.0, 0.0, 0.0, 0.0, 0.0, 0.0, 0.0, 0.0, 0.0, 1.6444916112438805E9, 0.0, 2022-02-10 22:13:31.243
248.0, -7729.590860556467, -4863.381965563532, -6147.579091498744, -11626.908079017172, -2449.5500266015565, -708.1032643441278, -3940.59019572618, -3982.544420068791, -17245.734303681173, -10550.291603838397, -5204.044902806867, -5396.851050478345, -943.5118369474218, -2956.800515270295, -5709.283734474628, -7143.997507571878, 0.002, 0.07200000000000001, 0.986, 192.0, 0.0, 0.0, 0.0, 0.0, 0.0, 0.0, 0.0, 0.0, 0.0, 1.644491611243887E9, 0.0, 2022-02-10 22:13:31.243
250.0, -7719.599630784945, -4862.577302763141, -6141.9017484070955, -11621.63306732572, -2442.7103927982325, -701.2636305408038, -3923.647573429057, -3982.589123557702, -17258.564204998518, -10552.035039905912, -5207.420016219618, -5392.715977754114, -956.5876074537764, -2960.533256594331, -5718.805577612588, -7152.312356509252, 0.002, 0.07200000000000001, 0.986, 192.0, 0.0, 0.0, 0.0, 0.0, 0.0, 0.0, 0.0, 0.0, 0.0, 1.6444916112438936E9, 0.0, 2022-02-10 22:13:31.243
252.0, -7725.858119232431, -4861.370308562554, -6137.766675682864, -11618.883802757717, -2443.1127241984277, -710.5843079786669, -3930.5989659546576, -3977.448222332981, -17239.185242555766, -10533.348981541274, -5194.321893968809, -5381.026015403988, -934.3029182318352, -2947.2116168989683, -5696.342074435005, -7137.1355220240985, 0.002, 0.07200000000000001, 0.986, 192.0, 0.0, 0.0, 0.0, 0.0, 0.0, 0.0, 0.0, 0.0, 0.0, 1.6444916112439E9, 0.0, 2022-02-10 22:13:31.243
254.0, -7720.225479629694, -4854.776543948239, -6149.568396755266, -11628.53975636241, -2450.7123173132322, -704.4599299979127, -3936.5445299797693, -4000.291705166305, -17252.752751440137, -10538.400475788174, -5213.74555990047, -5391.0843004088765, -959.0686510883154, -2953.559512324275, -5716.302182233594, -7153.765219898846, 0.004, 0.07200000000000001, 0.988, 192.0, 0.0, 16.0, 1.0, 32.0, 15.0, 112.0, 0.0, 0.0, 0.0, 1.6444916112439065E9, 0.0, 2022-02-10 22:13:31.243
