%OpenBCI Raw EEG Data
%Number of channels = 16
%Sample Rate = 125 Hz
%Board = OpenBCI_GUI$BoardCytonSerialDaisy
Sample Index, EXG Channel 0, EXG Channel 1, EXG Channel 2, EXG Channel 3, EXG Channel 4, EXG Channel 5, EXG Channel 6, EXG Channel 7, EXG Channel 8, EXG Channel 9, EXG Channel 10, EXG Channel 11, EXG Channel 12, EXG Channel 13, EXG Channel 14, EXG Channel 15, Accel Channel 0, Accel Channel 1, Accel Channel 2, Other, Other, Other, Other, Other, Other, Other, Analog Channel 0, Analog Channel 1, Analog Channel 2, Timestamp, Other, Timestamp (Formatted)
78.0, -14688.024185660386, -13819.010712982503, -8670.53224689153, -14553.399628806072, -14082.716594066214, -10712.92289649521, -13693.23744693249, -10910.78053841359, -14175.364574833462, -15877.42756336064, -12565.793104862345, -11516.646923619142, -10792.025720122543, -15080.811390973497, -13929.696551525183, -20792.263244660287, 0.0, 0.0, 0.0, 192.0, 0.0, 0.0, 0.0, 0.0, 0.0, 0.0, 0.0, 0.0, 0.0, 1.644586641467017E9, 0.0, 2022-02-12 00:37:21.467
80.0, -14661.313851036293, -13816.68613155915, -8672.990938781611, -14530.377332017104, -14072.658309061326, -10688.15716363873, -13692.030452731902, -10912.099291336453, -14169.173141619343, -15873.784229014425, -12563.803799605823, -11511.506022394422, -10817.082025656942, -15074.93288218175, -13927.126100912823, -20799.102878463615, 0.0, 0.0, 0.0, 192.0, 0.0, 0.0, 0.0, 0.0, 0.0, 0.0, 0.0, 0.0, 0.0, 1.644586641467021E9, 0.0, 2022-02-12 00:37:21.467
0.0, -7233.918575515578, -6821.171262403877, -4473.2769695850575, -7006.735444871837, -7484.995720982042, -5582.7952126020455, -6870.546265905651, -5419.918050756222, -7087.872277244602, -7940.725438681297, -6290.049110656872, -5759.373993798971, -5411.826719263401, -7539.556329197447, -6971.866723521558, -10400.087881098734, 0.008, -0.024, 0.99, 192.0, 0.0, 32.0, 127.5, 32.0, 15.0, 120.0, 0.0, 0.0, 0.0, 1.644586641572007E9, 0.0, 2022-02-12 00:37:21.572
2.0, -14449.754589766811, -13593.794535850828, -8923.442235403329, -14015.951933378212, -14956.759209246542, -11150.681811652401, -13723.680522880617, -10810.510612787082, -13609.820736625283, -15442.730837193829, -12901.426899603237, -11541.300897753346, -11740.052609449936, -15149.364191217923, -13935.575060316929, -20166.70497258961, 0.008, -0.024, 0.99, 192.0, 0.0, 0.0, 0.0, 0.0, 0.0, 0.0, 0.0, 0.0, 0.0, 1.644586641578322E9, 0.0, 2022-02-12 00:37:21.578
4.0, -14466.540749852747, -13653.428990057588, -8956.388706730451, -14005.87129662887, -14971.578415820411, -11174.59817821958, -13744.71351441306, -10854.945880764233, -13604.45631795601, -15439.668648203451, -12914.703835809689, -11554.33196477079, -11754.290670667968, -15169.681926927797, -13941.118292941845, -20173.142274992737, 0.008, -0.024, 0.99, 192.0, 0.0, 0.0, 0.0, 0.0, 0.0, 0.0, 0.0, 0.0, 0.0, 1.644586641584703E9, 0.0, 2022-02-12 00:37:21.584
6.0, -14441.640906529536, -13625.064626343803, -8921.989372013733, -14005.759537906593, -14951.797121977464, -11153.900462853964, -13722.831156591315, -10816.724397745658, -13609.686626158551, -15454.621965244052, -12922.772815558055, -11552.946156614562, -11777.625891879308, -15176.34274677548, -13959.893758284303, -20167.241414456537, 0.008, -0.024, 0.99, 192.0, 0.0, 0.0, 0.0, 0.0, 0.0, 0.0, 0.0, 0.0, 0.0, 1.644586641593256E9, 0.0, 2022-02-12 00:37:21.593
8.0, -14432.543746536227, -13599.762451620396, -8924.895098792924, -14001.937389604735, -14955.82043597942, -11157.20852103335, -13730.09547353929, -10824.458101327195, -13579.914102544082, -15406.543362920685, -12877.555236524968, -11506.476879891978, -11741.639583306263, -15133.248583465647, -13916.643132763284, -20159.26184168599, 0.008, -0.026000000000000002, 0.99, 192.0, 0.0, 32.0, 127.5, 24.0, 15.0, 120.0, 0.0, 0.0, 0.0, 1.644586641599856E9, 0.0, 2022-02-12 00:37:21.599
10.0, -14440.433912328948, -13613.419367482587, -8945.726924625269, -13997.221171524665, -14961.184854648693, -11160.002489090264, -13738.76795038795, -10846.228700426664, -13609.954847092014, -15454.15257861049, -12927.645495849312, -11569.106467855749, -11778.274092468511, -15164.742191403175, -13964.229996708633, -20170.080086002363, 0.008, -0.026000000000000002, 0.99, 192.0, 0.0, 0.0, 0.0, 0.0, 0.0, 0.0, 0.0, 0.0, 0.0, 1.644586641608067E9, 0.0, 2022-02-12 00:37:21.608
12.0, -14407.822717168656, -13568.537064616332, -8909.405339885396, -13995.947122090713, -14953.741723745075, -11143.842177849076, -13724.038150791903, -10807.649589496803, -13579.288253699335, -15424.402406740477, -12890.273379120039, -11503.012359501405, -11747.719257798108, -15154.66155465383, -13933.94338297169, -20158.07719922986, 0.008, -0.026000000000000002, 0.99, 192.0, 0.0, 0.0, 0.0, 0.0, 0.0, 0.0, 0.0, 0.0, 0.0, 1.644586641615766E9, 0.0, 2022-02-12 00:37:21.615
14.0, -14445.887737976043, -13615.989818094948, -8946.978622314766, -13994.136630789833, -14968.851502996864, -11167.222102549327, -13743.797092890394, -10853.582424352458, -13584.250340968412, -15417.965104337349, -12888.395832585793, -11521.206679488025, -11750.84850202185, -15158.930737844794, -13940.0901126969, -20162.256975443004, 0.008, -0.026000000000000002, 0.99, 192.0, 0.0, 0.0, 0.0, 0.0, 0.0, 0.0, 0.0, 0.0, 0.0, 1.644586641622325E9, 0.0, 2022-02-12 00:37:21.622
16.0, -14426.262906344284, -13581.143448489125, -8926.370313926973, -14001.62446518236, -14956.982726691096, -11144.132750526995, -13726.698008382084, -10811.89642094331, -13611.139489548146, -15429.610363198562, -12922.45989113568, -11549.794560646364, -11781.537447158988, -15176.409802008844, -13964.945252531203, -20159.239489941538, 0.008, -0.026000000000000002, 0.991, 192.0, 0.0, 32.0, 127.5, 24.0, 15.5, 0.0, 0.0, 0.0, 0.0, 1.644586641638752E9, 0.0, 2022-02-12 00:37:21.638
18.0, -14419.669141729968, -13586.038480524836, -8933.321706452574, -13994.784831379036, -14952.333563844391, -11152.604061675556, -13731.52598518443, -10814.221002366663, -13582.171628734068, -15399.770784350729, -12883.366690083349, -11509.740234582452, -11740.924327483694, -15140.177624246791, -13921.448757821174, -20149.784702036945, 0.008, -0.026000000000000002, 0.991, 192.0, 0.0, 0.0, 0.0, 0.0, 0.0, 0.0, 0.0, 0.0, 0.0, 1.644586641645444E9, 0.0, 2022-02-12 00:37:21.645
20.0, -14434.086016903642, -13610.468937214488, -8952.790075873147, -13995.857715112892, -14958.994383692074, -11156.269747766228, -13740.489034711009, -10834.762255521091, -13610.848916870227, -15429.789177154205, -12931.959382529187, -11553.28143278139, -11792.959188575649, -15188.837371925996, -13964.811142064471, -20154.076236972363, 0.008, -0.026000000000000002, 0.991, 192.0, 0.0, 0.0, 0.0, 0.0, 0.0, 0.0, 0.0, 0.0, 0.0, 1.644586641651982E9, 0.0, 2022-02-12 00:37:21.651
22.0, -14407.666254957468, -13562.457390124488, -8912.221659686764, -13999.635159925838, -14938.453130537646, -11138.433055690892, -13723.85933683626, -10789.835249165923, -13584.317396201777, -15425.631752685518, -12891.748594254088, -11506.476879891978, -11767.724069085607, -15130.879298553384, -13935.016266705547, -20140.776949021452, 0.008, -0.026000000000000002, 0.991, 192.0, 0.0, 0.0, 0.0, 0.0, 0.0, 0.0, 0.0, 0.0, 0.0, 1.644586641660163E9, 0.0, 2022-02-12 00:37:21.660
24.0, -14454.694325291435, -13632.530108991876, -8950.398439216428, -13992.81787786697, -14954.456979567645, -11159.264881523239, -13737.695066654094, -10831.990639208632, -13588.92185555957, -15427.017560841747, -12894.497858822091, -11527.666333635609, -11764.550121372953, -15164.988060592183, -13934.077493438423, -20145.046132212417, 0.008, -0.026000000000000002, 0.991, 192.0, 0.0, 0.0, 0.0, 0.0, 0.0, 0.0, 0.0, 0.0, 0.0, 1.644586641671156E9, 0.0, 2022-02-12 00:37:21.671
26.0, -14429.235688356841, -13579.243550210424, -8926.996162771722, -13993.756651134092, -14941.068284638917, -11142.21050050384, -13724.28401998091, -10804.60975225088, -13611.675931415073, -15442.552023238186, -12919.956495756685, -11550.375706002202, -11796.04372931048, -15183.227084067714, -13953.121179714344, -20140.620486810265, 0.01, -0.023, 0.9895, 192.0, 0.0, 48.0, 127.5, 48.0, 15.0, 112.0, 0.0, 0.0, 0.0, 1.644586641675166E9, 0.0, 2022-02-12 00:37:21.675
28.0, -14422.351351064606, -13575.086125741736, -8930.125406995465, -13984.033642296034, -14948.243194609071, -11137.136654512484, -13733.537642185407, -10806.599057507403, -13580.539951388831, -15392.126487747013, -12875.431820801714, -11489.869533761685, -11738.84561524935, -15139.194147490758, -13907.635379747795, -20128.46113782658, 0.01, -0.023, 0.9895, 192.0, 0.0, 0.0, 0.0, 0.0, 0.0, 0.0, 0.0, 0.0, 0.0, 1.64458664168262E9, 0.0, 2022-02-12 00:37:21.682
30.0, -14419.33386556314, -13590.933512560548, -8947.224491503775, -13982.558427161985, -14941.00122940555, -11139.662401635935, -13724.462833936554, -10818.601944279902, -13605.015111567393, -15405.381072209011, -12908.311236895472, -11549.928671113095, -11771.769734832018, -15168.85491238295, -13952.964717503157, -20131.56803030587, 0.01, -0.023, 0.9895, 192.0, 0.0, 0.0, 0.0, 0.0, 0.0, 0.0, 0.0, 0.0, 0.0, 1.644586641689759E9, 0.0, 2022-02-12 00:37:21.689
32.0, -14397.85383914159, -13551.3485731302, -8915.082682977043, -13981.664357383772, -14929.490081011068, -11131.414607931925, -13707.654322106162, -10782.70504268468, -13566.72657331545, -15387.164400477935, -12874.537751023503, -11498.139679210148, -11760.70562132664, -15134.924964299795, -13918.699493253172, -20116.570009776355, 0.01, -0.023, 0.9895, 192.0, 0.0, 0.0, 0.0, 0.0, 0.0, 0.0, 0.0, 0.0, 0.0, 1.644586641697922E9, 0.0, 2022-02-12 00:37:21.697
34.0, -14449.821645000178, -13623.701169932028, -8959.830875376569, -13983.251331240099, -14951.551252788455, -11152.469951208825, -13734.521118941442, -10828.771988007067, -13599.516582431386, -15432.76195916676, -12899.996387958097, -11515.596391629744, -11782.587979148386, -15154.348630231456, -13925.494423567585, -20127.45530932609, 0.01, -0.023, 0.9895, 192.0, 0.0, 0.0, 0.0, 0.0, 0.0, 0.0, 0.0, 0.0, 0.0, 1.644586641704909E9, 0.0, 2022-02-12 00:37:21.704
36.0, -14404.916990389465, -13557.361192388678, -8929.276040706163, -13982.983110306635, -14929.266563566514, -11142.076390037108, -13723.188784502601, -10796.98780739162, -13623.83528039876, -15437.992267369304, -12923.331609169438, -11543.603127432243, -11799.53060144551, -15185.305796302056, -13953.344697158898, -20129.399911093704, 0.011, -0.0225, 0.98775, 192.0, 0.0, 48.0, 127.5, 40.0, 15.0, 104.0, 0.0, 0.0, 0.0, 1.644586641712344E9, 0.0, 2022-02-12 00:37:21.712
38.0, -14412.360121293083, -13562.412686635576, -8929.38779942844, -13977.931616059735, -14937.581412503889, -11135.907308567443, -13724.038150791903, -10792.003368378088, -13577.611872865185, -15390.561865635142, -12869.463905032148, -11483.074603447272, -11751.22848167759, -15132.734493343174, -13914.117385639835, -20116.07827139834, 0.011, -0.0225, 0.98775, 192.0, 0.0, 0.0, 0.0, 0.0, 0.0, 0.0, 0.0, 0.0, 0.0, 1.644586641720321E9, 0.0, 2022-02-12 00:37:21.720
40.0, -14421.99372315332, -13579.198846721512, -8948.230320004264, -13982.312557972975, -14947.14795913076, -11143.685715637888, -13733.71645614105, -10818.154909390798, -13608.501983702421, -15406.588066409597, -12903.572667070946, -11537.501101195945, -11786.790107105984, -15164.831598380995, -13947.935575000713, -20121.666207512168, 0.011, -0.0225, 0.98775, 192.0, 0.0, 0.0, 0.0, 0.0, 0.0, 0.0, 0.0, 0.0, 0.0, 1.644586641728193E9, 0.0, 2022-02-12 00:37:21.728
42.0, -14392.064737327664, -13546.498244583398, -8918.882479534446, -13984.324214973953, -14939.548366015955, -11132.934526554887, -13723.881688580715, -10780.335757772418, -13582.73042234545, -15372.501656115253, -12871.7884864555, -11497.08914722075, -11759.968013759615, -15145.363228960423, -13920.487632809596, -20116.100623142796, 0.011, -0.0225, 0.98775, 192.0, 0.0, 0.0, 0.0, 0.0, 0.0, 0.0, 0.0, 0.0, 0.0, 1.644586641735092E9, 0.0, 2022-02-12 00:37:21.735
44.0, -14427.693417989423, -13601.774108621374, -8957.43923871985, -13976.612863136872, -14958.502645314056, -11158.571977445125, -13747.552185958886, -10826.402703094805, -13587.40193693661, -15417.361607237055, -12880.036280159507, -11507.393301414646, -11776.530656400999, -15148.783045862085, -13932.915202726746, -20118.93929468862, 0.011, -0.0225, 0.98775, 192.0, 0.0, 0.0, 0.0, 0.0, 0.0, 0.0, 0.0, 0.0, 0.0, 1.64458664174319E9, 0.0, 2022-02-12 00:37:21.743
46.0, -14410.527278247748, -13561.049230223804, -8933.656982619403, -13978.33394745993, -14943.817549206919, -11143.484549937792, -13725.356903714766, -10797.814821936468, -13614.380492494165, -15429.856232387572, -12915.46379512117, -11524.224164989491, -11804.649150925774, -15182.131848589403, -13952.741200058605, -20121.062710411872, 0.0095, -0.02425, 0.988875, 192.0, 0.0, 32.0, 127.5, 24.0, 15.0, 120.0, 0.0, 0.0, 0.0, 1.644586641757061E9, 0.0, 2022-02-12 00:37:21.757
48.0, -14415.869345172567, -13575.644919353119, -8937.322668710074, -13969.393249677809, -14943.86225269583, -11147.239643006284, -13732.688275896106, -10803.827441194946, -13584.675024113063, -15386.113868488535, -12857.863349659843, -11477.84429524473, -11774.451944166654, -15157.790798877573, -13908.887077437292, -20110.579742262333, 0.0095, -0.02425, 0.988875, 192.0, 0.0, 0.0, 0.0, 0.0, 0.0, 0.0, 0.0, 0.0, 0.0, 1.644586641764738E9, 0.0, 2022-02-12 00:37:21.764
50.0, -14417.635132984537, -13582.439849667533, -8965.44116323485, -13976.277586970042, -14942.878775939796, -11153.520483198225, -13735.035209063913, -10828.906098473799, -13622.561230964808, -15419.976761338326, -12909.719396796156, -11525.744083612453, -11805.230296281612, -15184.545836990577, -13953.657621581271, -20118.469908055056, 0.0095, -0.02425, 0.988875, 192.0, 0.0, 0.0, 0.0, 0.0, 0.0, 0.0, 0.0, 0.0, 0.0, 1.644586641772852E9, 0.0, 2022-02-12 00:37:21.772
52.0, -14389.51663845976, -13537.669305523552, -8924.112787736987, -13976.05406952549, -14929.490081011068, -11131.481663165292, -13720.685389123606, -10786.236618308618, -13594.576846906764, -15392.305301702656, -12877.689346991701, -11494.786917541853, -11777.961168046138, -15154.974479076205, -13928.0872259244, -20104.678881726133, 0.0095, -0.02425, 0.988875, 192.0, 0.0, 0.0, 0.0, 0.0, 0.0, 0.0, 0.0, 0.0, 0.0, 1.644586641780832E9, 0.0, 2022-02-12 00:37:21.780
54.0, -14423.04425514272, -13599.02484405337, -8957.416886975394, -13960.497255384596, -14939.905993927241, -11153.006393075751, -13741.539566700409, -10829.733113018647, -13585.770259591372, -15406.14103152049, -12862.601919484368, -11481.420574357579, -11798.323607244922, -15150.392371462867, -13930.14358641429, -20107.584608505324, 0.0095, -0.02425, 0.988875, 192.0, 0.0, 0.0, 0.0, 0.0, 0.0, 0.0, 0.0, 0.0, 0.0, 1.644586641787259E9, 0.0, 2022-02-12 00:37:21.787
56.0, -14393.383490250528, -13553.449637108999, -8932.181767485354, -13961.391325162807, -14933.423988035202, -11131.951049798852, -13722.875860080227, -10792.56216198947, -13608.45728021351, -15424.737682907305, -12884.350166839382, -11499.458432133011, -11801.162278790747, -15159.444827967267, -13957.926804772236, -20104.768288703955, 0.00775, -0.025125, 0.9894375, 192.0, 0.0, 24.0, 127.5, 24.0, 15.0, 120.0, 0.0, 0.0, 0.0, 1.644586641795378E9, 0.0, 2022-02-12 00:37:21.795
58.0, -14388.667272170458, -13552.935546986528, -8931.131235495954, -13958.552653616984, -14925.690284453665, -11132.82276783261, -13722.76410135795, -10793.61269397887, -13574.706146085997, -15383.766935320727, -12840.428988984704, -11454.509074033389, -11767.098220240858, -15122.787967060563, -13914.810289717949, -20090.999614119486, 0.00775, -0.025125, 0.9894375, 192.0, 0.0, 0.0, 0.0, 0.0, 0.0, 0.0, 0.0, 0.0, 0.0, 1.644586641803297E9, 0.0, 2022-02-12 00:37:21.803
60.0, -14418.126871362552, -13589.480649170953, -8962.356622500018, -13958.66441233926, -14930.585316489378, -11148.804265118155, -13722.317066468844, -10818.75840649109, -13617.17446055108, -15418.76976713774, -12897.336530367915, -11515.70815035202, -11806.4372904822, -15170.553644961554, -13955.177540204233, -20104.008329392473, 0.00775, -0.025125, 0.9894375, 192.0, 0.0, 0.0, 0.0, 0.0, 0.0, 0.0, 0.0, 0.0, 0.0, 1.644586641810474E9, 0.0, 2022-02-12 00:37:21.810
62.0, -14389.60604543758, -13533.15425314358, -8927.711418594292, -13965.57110137595, -14927.389017032268, -11131.43695967638, -13708.682502351106, -10775.485429225617, -13598.801326608816, -15406.744528620784, -12871.632024244313, -11477.46431558899, -11792.221581008624, -15141.406970191834, -13923.505118311063, -20090.664337952654, 0.00775, -0.025125, 0.9894375, 192.0, 0.0, 0.0, 0.0, 0.0, 0.0, 0.0, 0.0, 0.0, 0.0, 1.64458664181688E9, 0.0, 2022-02-12 00:37:21.816
64.0, -14418.886830674033, -13581.657538611596, -8964.01065158971, -13960.653717595784, -14943.035238150984, -11155.39802973247, -13726.09451128179, -10819.853641969401, -13597.728442874963, -15405.515182675743, -12870.760306210555, -11480.213580156993, -11794.613217665341, -15145.452635938245, -13920.487632809596, -20101.37082354675, 0.00775, -0.025125, 0.9894375, 192.0, 0.0, 0.0, 0.0, 0.0, 0.0, 0.0, 0.0, 0.0, 0.0, 1.644586641824953E9, 0.0, 2022-02-12 00:37:21.824
66.0, -14391.975330349844, -13556.668288310562, -8944.29641298013, -13960.072572239946, -14921.197583818148, -11135.750846356255, -13703.13926972619, -10783.979092118632, -13618.202640796024, -15416.847517114582, -12901.65041704779, -11511.327208438779, -11802.592790435887, -15186.311624802545, -13943.532281343018, -20098.82272467884, 0.006875, -0.026562500000000003, 0.99071875, 192.0, 0.0, 24.0, 127.5, 16.0, 15.5, 0.0, 0.0, 0.0, 0.0, 1.644586641832887E9, 0.0, 2022-02-12 00:37:21.832
68.0, -14391.908275116477, -13565.005488992392, -8944.609337402504, -13956.362182660365, -14921.689322196165, -11128.35241894155, -13704.480374393508, -10780.693385683702, -13580.964634533482, -15394.607531381553, -12848.766189666532, -11455.69371648952, -11790.075813540914, -15135.707275355731, -13894.157277841245, -20082.617709948747, 0.006875, -0.026562500000000003, 0.99071875, 192.0, 0.0, 0.0, 0.0, 0.0, 0.0, 0.0, 0.0, 0.0, 0.0, 1.644586641839991E9, 0.0, 2022-02-12 00:37:21.839
70.0, -14429.548612779214, -13602.444660955032, -8973.308977283117, -13957.591528605406, -14939.324848571403, -11147.552567428656, -13718.09258676679, -10813.23752561063, -13623.097672831736, -15429.118624820547, -12901.60571355888, -11521.497252165944, -11834.064046628959, -15168.05024958256, -13939.844243507892, -20092.69834669809, 0.006875, -0.026562500000000003, 0.99071875, 192.0, 0.0, 0.0, 0.0, 0.0, 0.0, 0.0, 0.0, 0.0, 0.0, 1.644586641847492E9, 0.0, 2022-02-12 00:37:21.847
72.0, -14397.272693785751, -13558.881111011638, -8937.09915126552, -13963.76061007507, -14933.155767101738, -11125.312581695627, -13702.982807515004, -10770.903321612277, -13607.809079624305, -15414.85821185806, -12877.622291758335, -11476.726708021964, -11814.930953375215, -15146.190243505269, -13917.17957463021, -20082.03656459291, 0.006875, -0.026562500000000003, 0.99071875, 192.0, 0.0, 0.0, 0.0, 0.0, 0.0, 0.0, 0.0, 0.0, 0.0, 1.644586641856033E9, 0.0, 2022-02-12 00:37:21.856
74.0, -14429.593316268125, -13582.663367112085, -8972.414907504906, -13958.016211750057, -14943.035238150984, -11152.49230295328, -13733.090607296303, -10819.853641969401, -13605.864477856694, -15403.928208819416, -12873.375460311827, -11487.075565704772, -11812.584020207409, -15142.636316136875, -13918.90065895327, -20089.25617805197, 0.006875, -0.026562500000000003, 0.99071875, 192.0, 0.0, 0.0, 0.0, 0.0, 0.0, 0.0, 0.0, 0.0, 0.0, 1.644586641862535E9, 0.0, 2022-02-12 00:37:21.862
76.0, -14395.305740273685, -13537.244622378901, -8951.314860739096, -13951.37774364683, -14923.700979197143, -11140.131788269495, -13716.036226276903, -10793.61269397887, -13626.137510077657, -15418.009807826258, -12896.12953616733, -11524.581792900777, -11822.351732534378, -15165.748019903664, -13948.874348267836, -20086.573968717334, 0.0064375000000000005, -0.026281250000000003, 0.9903593749999999, 192.0, 0.0, 24.0, 127.5, 24.0, 15.0, 120.0, 0.0, 0.0, 0.0, 1.644586641870072E9, 0.0, 2022-02-12 00:37:21.870
78.0, -14380.79945812219, -13561.004526734892, -8950.979584572266, -13941.94530748669, -14939.548366015955, -11141.58465165909, -13714.739825098495, -10793.076252111943, -13583.579788634754, -15378.693089329374, -12852.655393201756, -11445.367210551169, -11793.920313587227, -15130.476967153189, -13902.963865156635, -20077.029773834918, 0.0064375000000000005, -0.026281250000000003, 0.9903593749999999, 192.0, 0.0, 0.0, 0.0, 0.0, 0.0, 0.0, 0.0, 0.0, 0.0, 1.644586641885049E9, 0.0, 2022-02-12 00:37:21.885
80.0, -14395.238685040318, -13594.621550395674, -8975.365337773006, -13941.85590050887, -14958.256776125048, -11146.144407527972, -13730.721322384039, -10821.060636169987, -13598.130774275158, -15410.231400755813, -12893.02264368804, -11483.856914503207, -11837.14858736379, -15152.515787186121, -13941.721790042138, -20082.751820415477, 0.0064375000000000005, -0.026281250000000003, 0.9903593749999999, 192.0, 0.0, 0.0, 0.0, 0.0, 0.0, 0.0, 0.0, 0.0, 0.0, 1.644586641893121E9, 0.0, 2022-02-12 00:37:21.893
82.0, -14399.597275209104, -13590.35236720471, -8945.302241480618, -13952.920014014247, -14947.371476575314, -11133.828596333098, -13715.186859987602, -10785.700176441691, -13606.736195890451, -15411.863078101049, -12876.236483602106, -11478.917178978585, -11823.424616268232, -15150.437074951778, -13922.029903177012, -20071.754762143464, 0.0064375000000000005, -0.026281250000000003, 0.9903593749999999, 192.0, 0.0, 0.0, 0.0, 0.0, 0.0, 0.0, 0.0, 0.0, 0.0, 1.644586641900179E9, 0.0, 2022-02-12 00:37:21.900
84.0, -14438.019923927775, -13609.865440114194, -8974.381861016973, -13939.687781296705, -14950.813645221431, -11151.844102364077, -13727.927354327127, -10826.447406583717, -13604.232800511456, -15401.178944251413, -12870.156809110262, -11486.94145523804, -11818.931915632715, -15145.966726060717, -13916.486670552096, -20081.522474470436, 0.0064375000000000005, -0.026281250000000003, 0.9903593749999999, 192.0, 0.0, 0.0, 0.0, 0.0, 0.0, 0.0, 0.0, 0.0, 0.0, 1.644586641907756E9, 0.0, 2022-02-12 00:37:21.907
86.0, -14428.18515636744, -13573.052116996303, -8955.405229974416, -13932.71403702665, -14927.970162388106, -11128.486529408281, -13701.775813314416, -10787.153039831286, -13620.348408263733, -15440.652124959484, -12896.755385012077, -11514.74702534044, -11835.673372229741, -15177.773258420619, -13942.459397609164, -20075.621613934232, 0.01, -0.024, 0.984, 192.0, 0.0, 40.0, 127.5, 32.0, 15.0, 96.0, 0.0, 0.0, 0.0, 1.644586641915738E9, 0.0, 2022-02-12 00:37:21.915
88.0, -14433.169595380974, -13594.062756784291, -8957.416886975394, -13925.315609611942, -14929.981819389084, -11129.045323019664, -13711.722339597029, -10791.37751953334, -13582.01516652288, -15397.513258160741, -12855.382306025303, -11471.004661441406, -11803.889191614295, -15125.648990350843, -13892.03386211799, -20057.11436952524, 0.01, -0.024, 0.984, 192.0, 0.0, 0.0, 0.0, 0.0, 0.0, 0.0, 0.0, 0.0, 0.0, 1.644586641922593E9, 0.0, 2022-02-12 00:37:21.922
90.0, -14448.704057777413, -13648.578661510786, -8984.529552999682, -13925.270906123033, -14963.263566883037, -11147.26199475074, -13724.19461300309, -10820.054807669498, -13630.74196943545, -15428.559831209164, -12897.738861768112, -11503.437042646055, -11852.236014871123, -15161.702354157253, -13941.922955742235, -20065.630384162712, 0.01, -0.024, 0.984, 192.0, 0.0, 0.0, 0.0, 0.0, 0.0, 0.0, 0.0, 0.0, 0.0, 1.644586641930511E9, 0.0, 2022-02-12 00:37:21.930
92.0, -14424.586525510136, -13613.106443060213, -8953.214759017797, -13927.439025335196, -14953.026467922506, -11126.20665147384, -13707.1849354726, -10776.670071681747, -13614.3134372608, -15417.04868281468, -12874.805971956966, -11476.056155688306, -11829.86191867136, -15158.99779307816, -13919.124176397823, -20053.694552623576, 0.01, -0.024, 0.984, 192.0, 0.0, 0.0, 0.0, 0.0, 0.0, 0.0, 0.0, 0.0, 0.0, 1.644586641937309E9, 0.0, 2022-02-12 00:37:21.937
94.0, -14444.233708886351, -13642.387228296666, -8984.417794277406, -13915.793766473982, -14967.085715184894, -11153.811055876144, -13738.320915498844, -10825.7545025056, -13609.820736625283, -15420.222630527334, -12882.204399371672, -11481.398222613123, -11829.124311104335, -15154.058057553537, -13923.594525288883, -20060.958869571554, 0.01, -0.024, 0.984, 192.0, 0.0, 0.0, 0.0, 0.0, 0.0, 0.0, 0.0, 0.0, 0.0, 1.644586641945752E9, 0.0, 2022-02-12 00:37:21.945
96.0, -14436.298839604717, -13587.848971825717, -8968.481000480771, -13916.933705441203, -14951.439494066179, -11134.946183555865, -13713.689293109095, -10795.08790911292, -13626.69630368904, -15428.895107375993, -12905.78548977202, -11514.791728829352, -11845.664602001263, -15161.635298923888, -13947.533243600517, -20054.521567168424, 0.012, -0.024, 0.984, 192.0, 0.0, 48.0, 127.5, 32.0, 15.0, 96.0, 0.0, 0.0, 0.0, 1.644586641952125E9, 0.0, 2022-02-12 00:37:21.952
98.0, -14430.800310468712, -13624.304667032322, -8965.82114289059, -13913.938571684192, -14961.475427326612, -11149.854797107553, -13727.994409560491, -10815.47270005616, -13595.336806218244, -15396.887409315994, -12866.088791619397, -11477.151391166615, -11832.857052428371, -15147.3748859614, -13902.315664567432, -20046.363180442237, 0.012, -0.024, 0.984, 192.0, 0.0, 0.0, 0.0, 0.0, 0.0, 0.0, 0.0, 0.0, 0.0, 1.64458664196005E9, 0.0, 2022-02-12 00:37:21.960
100.0, -14467.077191719674, -13660.045106416359, -8995.772480460702, -13920.577039787417, -14966.348107617869, -11168.339689772092, -13717.936124555603, -10834.561089820992, -13642.476635274486, -15432.985476611315, -12909.629989818335, -11535.891775595162, -11882.790849541529, -15198.694491230786, -13948.270851167543, -20062.612898661246, 0.012, -0.024, 0.984, 192.0, 0.0, 0.0, 0.0, 0.0, 0.0, 0.0, 0.0, 0.0, 0.0, 1.644586641968026E9, 0.0, 2022-02-12 00:37:21.968
102.0, -14434.600107026114, -13616.325094261778, -8960.590834688048, -13917.961885686147, -14968.33741287439, -11149.474817451814, -13712.482298908508, -10794.819688179456, -13631.121949091192, -15441.05445635968, -12896.196591400694, -11510.835470060763, -11860.930843464237, -15157.43317096629, -13926.075568923423, -20051.72759911151, 0.012, -0.024, 0.984, 192.0, 0.0, 0.0, 0.0, 0.0, 0.0, 0.0, 0.0, 0.0, 0.0, 1.64458664197512E9, 0.0, 2022-02-12 00:37:21.975
104.0, -14466.38428764156, -13670.103391421246, -8994.900762426945, -13909.021187904023, -14979.468581613135, -11167.535026971702, -13730.475453195031, -10835.410456110294, -13623.611762954208, -15423.150709050979, -12887.211190129661, -11504.845202546741, -11848.883253202826, -15170.28542402809, -13920.554688042963, -20054.990953801986, 0.012, -0.024, 0.984, 192.0, 0.0, 0.0, 0.0, 0.0, 0.0, 0.0, 0.0, 0.0, 0.0, 1.644586641982794E9, 0.0, 2022-02-12 00:37:21.982
106.0, -14439.584546039647, -13637.425141027588, -8978.762802930212, -13908.887077437292, -14963.375325605313, -11152.000564575263, -13709.040130262392, -10819.0042756801, -13646.455245787532, -15441.590898226608, -12926.304391181993, -11535.243575005958, -11869.379802868343, -15183.42824976781, -13951.355391902374, -20051.861709578243, 0.014, -0.026000000000000002, 0.982, 192.0, 0.0, 56.0, 127.5, 24.0, 15.0, 88.0, 0.0, 0.0, 0.0, 1.644586641990625E9, 0.0, 2022-02-12 00:37:21.990
108.0, -14444.032543186253, -13635.011152626414, -8980.081555853076, -13905.84724019137, -14971.86898849833, -11150.659459907945, -13710.582400629808, -10798.574781247948, -13602.511716188397, -15423.933020106915, -12872.235521344606, -11486.069737204283, -11833.304087317478, -15126.498356640144, -13902.427423289708, -20040.86465130623, 0.014, -0.026000000000000002, 0.982, 192.0, 0.0, 0.0, 0.0, 0.0, 0.0, 0.0, 0.0, 0.0, 0.0, 1.644586642005039E9, 0.0, 2022-02-12 00:37:22.005
110.0, -14479.14713372554, -13672.092696677768, -9013.966800447322, -13905.333150068898, -14987.179933450216, -11169.792553161687, -13732.844738107293, -10838.740866034135, -13646.27643183189, -15460.656936246985, -12916.246106177105, -11553.974336859506, -11873.87250350386, -15192.81598243904, -13947.37678138933, -20050.699418866567, 0.014, -0.026000000000000002, 0.982, 192.0, 0.0, 0.0, 0.0, 0.0, 0.0, 0.0, 0.0, 0.0, 0.0, 1.644586642012232E9, 0.0, 2022-02-12 00:37:22.012
112.0, -14436.09767390462, -13617.129757062168, -8972.079631338076, -13903.61206574584, -14962.682421527199, -11151.330012241604, -13696.880781278704, -10794.439708523716, -13631.03254211337, -15428.984514353815, -12893.112050665863, -11511.66248460561, -11860.506160319586, -15162.976403591205, -13924.667409022739, -20036.841337304275, 0.014, -0.026000000000000002, 0.982, 192.0, 0.0, 0.0, 0.0, 0.0, 0.0, 0.0, 0.0, 0.0, 0.0, 1.644586642021902E9, 0.0, 2022-02-12 00:37:22.021
114.0, -14463.344450395638, -13668.583472798286, -9012.826861480102, -13903.924990168214, -14996.053575998973, -11173.88292239701, -13727.368560715744, -10847.323935904973, -13619.02965534087, -15421.653142172474, -12889.424012830737, -11520.536127154366, -11860.819084741961, -15152.336973230478, -13920.688798509695, -20041.132872239694, 0.014, -0.026000000000000002, 0.982, 192.0, 0.0, 0.0, 0.0, 0.0, 0.0, 0.0, 0.0, 0.0, 0.0, 1.644586642027808E9, 0.0, 2022-02-12 00:37:22.027
116.0, -14441.752665251812, -13648.444551044055, -8998.052358395144, -13896.168934842222, -14985.436497382701, -11171.446582251381, -13709.509516895952, -10815.450348311704, -13644.93532716457, -15460.321660080155, -12931.802920318, -11554.846054893262, -11917.391349958343, -15193.598293494975, -13957.122141971844, -20042.20575597355, 0.012, -0.024, 0.986, 192.0, 0.0, 48.0, 127.5, 32.0, 15.0, 104.0, 0.0, 0.0, 0.0, 1.64458664203483E9, 0.0, 2022-02-12 00:37:22.034
118.0, -14459.701116049424, -13659.46396106052, -8998.566448517615, -13887.675271949205, -14988.476334628624, -11174.419364263937, -13716.304447210367, -10809.393025564317, -13605.931533090059, -15417.00397932577, -12880.483315048614, -11502.788842056852, -11862.339003364921, -15166.530330959598, -13908.41769080373, -20031.38751165718, 0.012, -0.024, 0.986, 192.0, 0.0, 0.0, 0.0, 0.0, 0.0, 0.0, 0.0, 0.0, 0.0, 1.6445866420437E9, 0.0, 2022-02-12 00:37:22.043
120.0, -14479.482409892371, -13698.579513857308, -9033.345762890072, -13889.776335928003, -15000.658035356766, -11195.519411029747, -13726.072159537336, -10842.205386424708, -13649.584490011275, -15464.881415949038, -12931.914679040276, -11554.063743837327, -11893.609093857896, -15191.899560916372, -13951.310688413465, -20038.96475302753, 0.012, -0.024, 0.986, 192.0, 0.0, 0.0, 0.0, 0.0, 0.0, 0.0, 0.0, 0.0, 0.0, 1.644586642049995E9, 0.0, 2022-02-12 00:37:22.049
122.0, -14439.38338033955, -13654.993612169459, -8993.246733337251, -13884.881303892293, -14989.72803231812, -11175.581654975613, -13705.03916800489, -10799.938237659722, -13634.497062503942, -15453.996116399303, -12908.959437484675, -11537.90343259614, -11875.861808760383, -15170.754810661652, -13928.601316046872, -20026.15720345464, 0.012, -0.024, 0.986, 192.0, 0.0, 0.0, 0.0, 0.0, 0.0, 0.0, 0.0, 0.0, 0.0, 1.644586642056641E9, 0.0, 2022-02-12 00:37:22.056
124.0, -14483.8186483167, -13688.029490474402, -9032.474044856315, -13880.634472445783, -15001.663863857255, -11195.519411029747, -13721.937086813103, -10839.187900923242, -13626.428082755576, -15443.110816849568, -12897.336530367915, -11539.244537263457, -11872.77726802555, -15169.637223438887, -13921.873440965825, -20025.352540654247, 0.012, -0.024, 0.986, 192.0, 0.0, 0.0, 0.0, 0.0, 0.0, 0.0, 0.0, 0.0, 0.0, 1.644586642064583E9, 0.0, 2022-02-12 00:37:22.064
126.0, -14461.198682927929, -13653.138417379669, -9017.990114449276, -13884.031937602991, -15000.725090590131, -11182.778916690222, -13709.822441318327, -10818.37842683535, -13648.690420233062, -15465.507264793787, -12934.418074419269, -11586.406718064156, -11913.748015612127, -15192.793630694585, -13954.28347042602, -20021.73155805249, 0.01, -0.022, 0.986, 192.0, 0.0, 40.0, 127.5, 40.0, 15.0, 104.0, 0.0, 0.0, 0.0, 1.644586642072651E9, 0.0, 2022-02-12 00:37:22.072
128.0, -14457.018906714788, -13668.494065820465, -9014.9279254589, -13876.633510188283, -15003.474355158134, -11181.929550400919, -13708.794261073383, -10811.024702909554, -13611.251248270422, -15440.227441814834, -12899.370539113348, -11532.963697071516, -11893.609093857896, -15140.691714369264, -13912.03867340549, -20008.409918357127, 0.01, -0.022, 0.986, 192.0, 0.0, 0.0, 0.0, 0.0, 0.0, 0.0, 0.0, 0.0, 0.0, 1.644586642079631E9, 0.0, 2022-02-12 00:37:22.079
130.0, -14492.669939121002, -13717.66790362214, -9048.164969463942, -13868.676289162195, -15009.129346505326, -11200.88382969902, -13725.893345581693, -10848.597985338925, -13648.824530699794, -15472.905692208493, -12950.645440893823, -11583.210418607046, -11930.936507098259, -15196.794592952085, -13954.059952981468, -20015.741290538466, 0.01, -0.022, 0.986, 192.0, 0.0, 0.0, 0.0, 0.0, 0.0, 0.0, 0.0, 0.0, 0.0, 1.644586642087683E9, 0.0, 2022-02-12 00:37:22.087
132.0, -14455.029601458265, -13668.98580419848, -9012.245716124264, -13870.911463607725, -15005.463660414656, -11185.371719047036, -13704.256856948956, -10810.175336620252, -13643.41540854161, -15457.43828504542, -12928.22664120515, -11554.823703148808, -11899.040567760536, -15185.730479446707, -13934.904507983269, -20005.593598555755, 0.01, -0.022, 0.986, 192.0, 0.0, 0.0, 0.0, 0.0, 0.0, 0.0, 0.0, 0.0, 0.0, 1.64458664209535E9, 0.0, 2022-02-12 00:37:22.095
134.0, -14494.838058333167, -13715.119804754235, -9047.002678752266, -13864.764733882515, -15034.051541572993, -11208.773995491743, -13723.613467647252, -10849.469703372682, -13631.323114791288, -15457.885319934527, -12924.404492903292, -11566.379555032201, -11898.347663682422, -15180.209598566247, -13926.679066023717, -20005.012453199917, 0.01, -0.022, 0.986, 192.0, 0.0, 0.0, 0.0, 0.0, 0.0, 0.0, 0.0, 0.0, 0.0, 1.644586642103402E9, 0.0, 2022-02-12 00:37:22.103
136.0, -14483.304558194228, -13695.71849056703, -9035.156254190953, -13862.998946070546, -15027.278963003037, -11199.296855842693, -13707.1849354726, -10828.459063584694, -13657.720524993007, -15485.176799914456, -12962.894196855332, -11598.856639725762, -11942.626469448385, -15216.061796672559, -13960.34079317341, -20000.81032524232, 0.012, -0.022, 0.99, 192.0, 0.0, 48.0, 127.5, 40.0, 15.0, 120.0, 0.0, 0.0, 0.0, 1.644586642110082E9, 0.0, 2022-02-12 00:37:22.110
138.0, -14481.985805271364, -13680.407545615142, -9031.222347166819, -13854.415876199708, -15022.965076323162, -11200.325036087637, -13701.552295869864, -10819.317200102472, -13621.443643742043, -15451.179796597935, -12904.734957782623, -11552.968508359018, -11903.64502711833, -15169.100781571959, -13910.675216993717, -19985.678194246077, 0.012, -0.022, 0.99, 192.0, 0.0, 0.0, 0.0, 0.0, 0.0, 0.0, 0.0, 0.0, 0.0, 1.644586642117881E9, 0.0, 2022-02-12 00:37:22.117
140.0, -14503.48818343737, -13720.059540278859, -9067.052193528676, -13852.270108731998, -15034.051541572993, -11216.686513028922, -13716.840889077293, -10848.016839983087, -13659.262795360422, -15482.606349302096, -12955.89810084082, -11608.557296819365, -11943.721704926695, -15208.395148324389, -13946.28154591102, -19992.227255371483, 0.012, -0.022, 0.99, 192.0, 0.0, 0.0, 0.0, 0.0, 0.0, 0.0, 0.0, 0.0, 0.0, 1.644586642132805E9, 0.0, 2022-02-12 00:37:22.132
142.0, -14459.052915460219, -13665.968318697014, -9028.69660004337, -13849.006754041524, -15013.107957018372, -11187.964521403852, -13691.650473076163, -10795.244371324108, -13641.56021375182, -15464.032049659736, -12939.424865177258, -11584.886799441196, -11922.934582583259, -15175.582787463998, -13927.819004990937, -19977.81038019781, 0.012, -0.022, 0.99, 192.0, 0.0, 0.0, 0.0, 0.0, 0.0, 0.0, 0.0, 0.0, 0.0, 1.644586642139396E9, 0.0, 2022-02-12 00:37:22.139
144.0, -14470.854636532622, -13710.180069229613, -9063.297100460184, -13838.903765547726, -15018.382968709824, -11197.061681397163, -13706.268513949934, -10826.536813561537, -13619.096710574237, -15450.688058219917, -12921.543469613012, -11565.798409676363, -11897.49829739312, -15161.389429734878, -13909.535278026497, -19974.34585980724, 0.012, -0.022, 0.99, 192.0, 0.0, 0.0, 0.0, 0.0, 0.0, 0.0, 0.0, 0.0, 0.0, 1.644586642147492E9, 0.0, 2022-02-12 00:37:22.147
146.0, -14479.996500014842, -13699.294769679878, -9052.635318355004, -13836.288611446455, -15020.64049489981, -11194.848858696087, -13691.270493420423, -10812.298752343506, -13639.727370706483, -15463.830883959638, -12953.975850817664, -11607.529116574422, -11922.219326760689, -15189.731441704207, -13947.354429644874, -19969.58493823826, 0.012, -0.02, 0.988, 192.0, 0.0, 48.0, 127.5, 48.0, 15.0, 112.0, 0.0, 0.0, 0.0, 1.644586642155442E9, 0.0, 2022-02-12 00:37:22.155
148.0, -14472.978052255876, -13687.09071720728, -9044.611042095548, -13822.005846739514, -15020.998122811096, -11196.055852896674, -13693.885647521693, -10802.016949894065, -13607.719672646484, -15448.519939007752, -12904.444385104704, -11560.478694496, -11908.540059154042, -15154.259223253635, -13902.628588989806, -19958.565528221792, 0.012, -0.02, 0.988, 192.0, 0.0, 0.0, 0.0, 0.0, 0.0, 0.0, 0.0, 0.0, 0.0, 1.64458664216204E9, 0.0, 2022-02-12 00:37:22.162
150.0, -14488.043128018753, -13718.830194333816, -9076.88696108901, -13813.713349546595, -15031.324628749446, -11209.735120503321, -13696.076118478313, -10835.81278751049, -13635.03350437087, -15477.040764932724, -12948.879653081853, -11613.653494555176, -11946.98505961717, -15191.184305093802, -13941.162996430756, -19961.784179423354, 0.012, -0.02, 0.988, 192.0, 0.0, 0.0, 0.0, 0.0, 0.0, 0.0, 0.0, 0.0, 0.0, 1.644586642170307E9, 0.0, 2022-02-12 00:37:22.170
152.0, -14445.843034487134, -13658.36872558221, -9044.007544995255, -13811.522878589974, -15023.21094551217, -11192.680739483922, -13696.18787720059, -10793.545638745503, -13619.968428607992, -15456.275994333744, -12938.106112254396, -11587.01021516445, -11938.178472301779, -15175.694546186274, -13918.1854031307, -19944.75215014841, 0.012, -0.02, 0.988, 192.0, 0.0, 0.0, 0.0, 0.0, 0.0, 0.0, 0.0, 0.0, 0.0, 1.644586642179846E9, 0.0, 2022-02-12 00:37:22.179
154.0, -14473.738011567357, -13697.57368535682, -9078.138658778507, -13811.2099541676, -15050.949460381205, -11215.479518828335, -13712.482298908508, -10835.76808402158, -13604.299855744823, -15443.021409871748, -12931.132367984339, -11590.117107643737, -11927.874318107883, -15162.819941380018, -13909.714091982138, -19944.193356537027, 0.012, -0.02, 0.988, 192.0, 0.0, 0.0, 0.0, 0.0, 0.0, 0.0, 0.0, 0.0, 0.0, 1.644586642186074E9, 0.0, 2022-02-12 00:37:22.186
156.0, -14488.244293718852, -13713.689293109095, -9066.60515863957, -13812.97574197957, -15041.852300387896, -11212.953771704886, -13687.068365462825, -10822.312333859485, -13642.36487655221, -15480.907616723493, -12960.077877053962, -11634.865300043262, -11952.774161431094, -15188.658557970353, -13947.846168022892, -19950.8094728958, 0.006, -0.026000000000000002, 0.986, 192.0, 0.0, 24.0, 127.5, 24.0, 15.0, 104.0, 0.0, 0.0, 0.0, 1.644586642193335E9, 0.0, 2022-02-12 00:37:22.193
158.0, -14472.553369111225, -13681.346318882266, -9051.093047987586, -13793.686186514638, -15032.218698527658, -11206.427062323935, -13678.887626992182, -10805.570877262458, -13598.466050441988, -15442.48496800482, -12906.456042105681, -11566.401906776657, -11908.025969031569, -15165.05511582555, -13894.246684819065, -19933.17394652056, 0.006, -0.026000000000000002, 0.986, 192.0, 0.0, 0.0, 0.0, 0.0, 0.0, 0.0, 0.0, 0.0, 0.0, 1.644586642199718E9, 0.0, 2022-02-12 00:37:22.199
160.0, -14478.767154069801, -13705.888534294194, -9080.642054157503, -13785.751317233005, -15036.957268352184, -11216.50769907328, -13684.408507872642, -10836.751560777613, -13615.878059372671, -15457.81826470116, -12944.811635590988, -11614.368750377746, -11959.926719656793, -15192.190133594291, -13928.847185235882, -19932.74926337591, 0.006, -0.026000000000000002, 0.986, 192.0, 0.0, 0.0, 0.0, 0.0, 0.0, 0.0, 0.0, 0.0, 0.0, 1.644586642207843E9, 0.0, 2022-02-12 00:37:22.207
162.0, -14440.769188495779, -13666.549464052852, -9046.55564386316, -13781.280968341944, -15022.339227478413, -11198.82746920913, -13667.220016386513, -10784.18025781873, -13586.396108436122, -15435.287706290212, -12923.800995803, -11597.359072847257, -11932.679943165773, -15171.358307761946, -13908.574153014917, -19913.862039311178, 0.006, -0.026000000000000002, 0.986, 192.0, 0.0, 0.0, 0.0, 0.0, 0.0, 0.0, 0.0, 0.0, 0.0, 1.644586642214858E9, 0.0, 2022-02-12 00:37:22.214
164.0, -14482.477543649382, -13689.281188163899, -9075.434097699415, -13774.351927560798, -15042.187576554727, -11231.103388202595, -13688.431821874598, -10830.157796163297, -13585.323224702266, -15440.070979603646, -12910.255838663083, -11596.219133880037, -11925.393274473343, -15165.390391992378, -13896.772431942516, -19916.879524812644, 0.009000000000000001, -0.024, 0.988, 192.0, 0.0, 48.0, 127.5, 40.0, 15.0, 120.0, 0.0, 0.0, 0.0, 1.644586642222307E9, 0.0, 2022-02-12 00:37:22.222
166.0, -14463.456209117916, -13688.476525363509, -9068.661519129459, -13769.702764714095, -15036.756102652087, -11222.654428798489, -13669.365783854222, -10813.170470377263, -13620.79544315284, -15460.165197868968, -12954.936975829241, -11646.35409669329, -11934.959821100214, -15197.889828430394, -13933.049313193478, -19912.766803832867, 0.009000000000000001, -0.024, 0.988, 192.0, 0.0, 0.0, 0.0, 0.0, 0.0, 0.0, 0.0, 0.0, 0.0, 1.64458664223036E9, 0.0, 2022-02-12 00:37:22.230
168.0, -14447.586470554646, -13675.244292645966, -9064.928777805422, -13758.862168653272, -15033.001009583595, -11216.93238221793, -13663.643737273662, -10794.082080612432, -13580.78582057784, -15420.535554949709, -12913.586248586924, -11588.328968087313, -11928.299001252533, -15167.983194349194, -13881.372080012809, -19896.047698980296, 0.009000000000000001, -0.024, 0.988, 192.0, 0.0, 0.0, 0.0, 0.0, 0.0, 0.0, 0.0, 0.0, 0.0, 1.644586642238436E9, 0.0, 2022-02-12 00:37:22.238
170.0, -14478.968319769898, -13718.941953056092, -9091.348539751594, -13753.363639517265, -15040.846471887407, -11229.203489923893, -13671.08686817728, -10825.352171105405, -13604.433966211554, -15456.611270500574, -12940.363638444382, -11625.432863883123, -11970.387336061876, -15192.413651038845, -13914.653827506761, -19896.964120502966, 0.009000000000000001, -0.024, 0.988, 192.0, 0.0, 0.0, 0.0, 0.0, 0.0, 0.0, 0.0, 0.0, 0.0, 1.644586642251926E9, 0.0, 2022-02-12 00:37:22.251
172.0, -14448.011153699299, -13672.115048422223, -9054.669327100435, -13750.368505760254, -15029.760006637574, -11218.27348688525, -13654.457170302532, -10787.577722975937, -13584.585617135243, -15439.042799358702, -12916.223754432649, -11616.760387034463, -11941.59828920344, -15163.736362902686, -13894.492554008075, -19883.553073829782, 0.009000000000000001, -0.024, 0.988, 192.0, 0.0, 0.0, 0.0, 0.0, 0.0, 0.0, 0.0, 0.0, 0.0, 1.644586642260029E9, 0.0, 2022-02-12 00:37:22.260
174.0, -14448.078208932664, -13696.85842953425, -9084.575961181637, -13734.252898007977, -15042.522852721555, -11233.249155670304, -13661.341507594767, -10813.796319222012, -13566.078372726248, -15429.319790520643, -12904.89141999381, -11599.281322870413, -11931.204728031724, -15149.163025517826, -13874.59950144285, -19878.278062138328, 0.0105, -0.025, 0.991, 192.0, 0.0, 48.0, 127.5, 24.0, 15.5, 8.0, 0.0, 0.0, 0.0, 1.644586642267086E9, 0.0, 2022-02-12 00:37:22.267
176.0, -14442.9596594524, -13663.666089018117, -9073.109516276065, -13730.631915406218, -15031.682256660732, -11214.183117649927, -13646.298783576345, -10797.926580658745, -13592.788707350339, -15450.017505886259, -12941.36946694487, -11641.928451291138, -11960.351402801443, -15185.439906768788, -13906.383682058298, -19870.27613762333, 0.0105, -0.025, 0.991, 192.0, 0.0, 0.0, 0.0, 0.0, 0.0, 0.0, 0.0, 0.0, 0.0, 1.644586642274606E9, 0.0, 2022-02-12 00:37:22.274
178.0, -14454.537863080248, -13667.890568720171, -9067.231007484319, -13718.740787355995, -15023.12153853435, -11204.840088467608, -13637.738065449961, -10778.525266471537, -13556.511826099377, -15403.414118696943, -12890.631007031323, -11591.324101844324, -11896.626579359363, -15134.656743366331, -13855.734629122571, -19846.940916411986, 0.0105, -0.025, 0.991, 192.0, 0.0, 0.0, 0.0, 0.0, 0.0, 0.0, 0.0, 0.0, 0.0, 1.644586642282626E9, 0.0, 2022-02-12 00:37:22.282
180.0, -14475.302633679228, -13703.742766826483, -9107.888830648522, -13709.33070294031, -15040.667657931765, -11230.723408546855, -13650.612670256218, -10819.0042756801, -13589.033614281847, -15436.829976657627, -12928.047827249507, -11645.035343770427, -11978.523371043608, -15183.696470701274, -13893.263208063032, -19855.12165488263, 0.0105, -0.025, 0.991, 192.0, 0.0, 0.0, 0.0, 0.0, 0.0, 0.0, 0.0, 0.0, 0.0, 1.644586642290596E9, 0.0, 2022-02-12 00:37:22.290
182.0, -14420.831432441644, -13664.068420418314, -9070.181437752419, -13706.581438372308, -15024.97673332414, -11209.31043735867, -13627.009228111414, -10771.730336157125, -13573.342689674222, -15410.901953089471, -12917.989542244619, -11632.585422108821, -11956.88688241087, -15164.406915236345, -13874.465390976118, -19839.49778550837, 0.0105, -0.025, 0.991, 192.0, 0.0, 0.0, 0.0, 0.0, 0.0, 0.0, 0.0, 0.0, 0.0, 1.644586642297172E9, 0.0, 2022-02-12 00:37:22.297
184.0, -14452.90618573501, -13703.921580782126, -9105.094862591608, -13694.511496366442, -15032.844547372408, -11222.542670076213, -13638.140396850158, -10801.793432449513, -13558.411724378077, -15415.28289500271, -12911.46283286367, -11607.238543896503, -11938.469044979698, -15155.62267966541, -13859.288556490965, -19832.25582030485, 0.009250000000000001, -0.025500000000000002, 0.9915, 192.0, 0.0, 32.0, 127.5, 24.0, 15.5, 0.0, 0.0, 0.0, 0.0, 1.644586642304464E9, 0.0, 2022-02-12 00:37:22.304
186.0, -14438.534014050249, -13667.823513486805, -9090.499173462293, -13690.46583062003, -15023.657980401276, -11203.588390778112, -13616.392149495143, -10779.441687994205, -13577.12013448717, -15434.81831965665, -12934.261612208084, -11655.048925286404, -11967.861588938427, -15156.896729099362, -13886.1777050707, -19823.136308567086, 0.009250000000000001, -0.025500000000000002, 0.9915, 192.0, 0.0, 0.0, 0.0, 0.0, 0.0, 0.0, 0.0, 0.0, 0.0, 1.644586642312346E9, 0.0, 2022-02-12 00:37:22.312
188.0, -14415.265848072273, -13636.59812648274, -9076.88696108901, -13676.47363859101, -15015.141965763803, -11199.78859422071, -13605.663312156596, -10759.481580195616, -13532.751921743384, -15397.960293049848, -12888.909922708264, -11594.00631117896, -11931.78587338756, -15117.75882455812, -13835.193375968145, -19804.49495369136, 0.009250000000000001, -0.025500000000000002, 0.9915, 192.0, 0.0, 0.0, 0.0, 0.0, 0.0, 0.0, 0.0, 0.0, 0.0, 1.644586642320556E9, 0.0, 2022-02-12 00:37:22.320
190.0, -14432.119063391574, -13680.228731659501, -9117.075397619654, -13662.883777962183, -15020.908715833273, -11213.579620549634, -13617.397977995632, -10783.196781062697, -13550.20863416298, -15414.902915346971, -12921.94580101321, -11643.940108292116, -11936.971478101192, -15157.05319131055, -13863.580091426384, -19802.505648434835, 0.009250000000000001, -0.025500000000000002, 0.9915, 192.0, 0.0, 0.0, 0.0, 0.0, 0.0, 0.0, 0.0, 0.0, 0.0, 1.644586642327141E9, 0.0, 2022-02-12 00:37:22.327
192.0, -14395.015167595766, -13631.926611891582, -9072.08133603112, -13658.838112215772, -15003.697872602686, -11181.504867256268, -13585.882018313649, -10734.134701983297, -13543.056075937282, -15392.864095314038, -12901.739824025612, -11619.86727951375, -11962.206597591234, -15140.848176580452, -13843.575280138884, -19782.29967144724, 0.009250000000000001, -0.025500000000000002, 0.9915, 192.0, 0.0, 0.0, 0.0, 0.0, 0.0, 0.0, 0.0, 0.0, 0.0, 1.644586642334941E9, 0.0, 2022-02-12 00:37:22.334
194.0, -14421.144356864019, -13670.617481543719, -9095.260095031274, -13650.27739408939, -15009.531677905523, -11198.268675597748, -13598.108422530702, -10765.673013409736, -13524.951162928483, -15379.162475962936, -12880.460963304158, -11597.493183313989, -11941.955917114725, -15108.505202353623, -13818.295457159933, -19772.82253179819, 0.011625, -0.02375, 0.99175, 192.0, 0.0, 56.0, 127.5, 40.0, 15.5, 0.0, 0.0, 0.0, 0.0, 1.644586642342979E9, 0.0, 2022-02-12 00:37:22.342
196.0, -14394.702243173391, -13653.004306912937, -9089.426289728439, -13644.398885297644, -14999.87572430083, -11186.802230692176, -13579.534122888343, -10745.712905611146, -13546.16296841657, -15418.210973526357, -12909.898210751799, -11656.68060263164, -11962.296004569054, -15143.820958593007, -13850.303155219932, -19768.374534651583, 0.011625, -0.02375, 0.99175, 192.0, 0.0, 0.0, 0.0, 0.0, 0.0, 0.0, 0.0, 0.0, 0.0, 1.644586642349956E9, 0.0, 2022-02-12 00:37:22.349
198.0, -14397.585618208126, -13626.048103099836, -9078.295120989695, -13627.478614744976, -14994.980692265117, -11180.789611433698, -13577.58952112073, -10725.395169901272, -13508.947313898483, -15378.916606773926, -12868.16750385374, -11605.450404340078, -11920.31942848199, -15117.647065835843, -13801.844573240825, -19747.09567393013, 0.011625, -0.02375, 0.99175, 192.0, 0.0, 0.0, 0.0, 0.0, 0.0, 0.0, 0.0, 0.0, 0.0, 1.644586642357743E9, 0.0, 2022-02-12 00:37:22.357
200.0, -14434.063665159187, -13670.572778054808, -9117.410673786482, -13621.667161186597, -15005.083680758917, -11196.16761161895, -13578.148314732112, -10762.856693608368, -13537.848119479195, -15408.175040265924, -12902.253914148083, -11627.712741817564, -11952.952975386737, -15141.675191125298, -13828.800777053926, -19751.186043165453, 0.011625, -0.02375, 0.99175, 192.0, 0.0, 0.0, 0.0, 0.0, 0.0, 0.0, 0.0, 0.0, 0.0, 1.644586642365557E9, 0.0, 2022-02-12 00:37:22.365
202.0, -14375.636205153014, -13591.02291953837, -9079.010376812264, -13618.22499254048, -14988.856314284363, -11174.285253797205, -13546.453541094488, -10714.152242440254, -13521.888973938105, -15385.28685394369, -12884.8419052174, -11624.561145849366, -11943.609946204419, -15128.912345041317, -13809.243000655533, -19729.124871388063, 0.011625, -0.02375, 0.99175, 192.0, 0.0, 0.0, 0.0, 0.0, 0.0, 0.0, 0.0, 0.0, 0.0, 1.644586642379138E9, 0.0, 2022-02-12 00:37:22.379
204.0, -14401.094842087608, -13653.496045290953, -9108.559382982181, -13605.015111567393, -15005.486012159112, -11193.373643562038, -13570.504018128398, -10748.618632390337, -13500.744223683385, -15367.85249326855, -12871.341451566394, -11619.666113813653, -11931.07061756499, -15125.023141506093, -13792.054509169402, -19727.42613880946, 0.0098125, -0.023875, 0.990875, 192.0, 0.0, 32.0, 127.5, 32.0, 15.0, 120.0, 0.0, 0.0, 0.0, 1.64458664238867E9, 0.0, 2022-02-12 00:37:22.388
206.0, -14394.255208284285, -13652.020830156904, -9099.216353799862, -13601.818812110283, -14996.321796932436, -11172.631224707511, -13564.267881425367, -10732.100693237864, -13534.093026410703, -15402.944732063383, -12901.65041704779, -11647.739904849519, -11973.427173307799, -15142.792778348063, -13825.336256663353, -19722.1064236291, 0.0098125, -0.023875, 0.990875, 192.0, 0.0, 0.0, 0.0, 0.0, 0.0, 0.0, 0.0, 0.0, 0.0, 1.644586642395269E9, 0.0, 2022-02-12 00:37:22.395
208.0, -14361.956937546365, -13604.165745278091, -9089.60510368408, -13597.996663808426, -14984.318910159936, -11166.104515326562, -13530.941430442504, -10708.988989471078, -13493.971645113426, -15364.365621133522, -12854.823512413921, -11597.828459480817, -11933.417550732798, -15091.830800989963, -13769.501599013996, -19695.485495982826, 0.0098125, -0.023875, 0.990875, 192.0, 0.0, 0.0, 0.0, 0.0, 0.0, 0.0, 0.0, 0.0, 0.0, 1.644586642402209E9, 0.0, 2022-02-12 00:37:22.402
210.0, -14395.059871084675, -13649.472731288997, -9122.417464544471, -13582.171628734068, -14997.551142877477, -11182.533047501212, -13549.649840551596, -10743.947117799178, -13513.887049423105, -15373.976871249304, -12893.514382066058, -11641.59317512431, -11966.296966826554, -15123.190298460759, -13798.223590639067, -19695.61960644956, 0.0098125, -0.023875, 0.990875, 192.0, 0.0, 0.0, 0.0, 0.0, 0.0, 0.0, 0.0, 0.0, 0.0, 1.64458664241012E9, 0.0, 2022-02-12 00:37:22.410
212.0, -14358.134789244508, -13592.878114328161, -9085.60414142658, -13571.26397743988, -14980.228540924614, -11160.807151890654, -13520.972552415438, -10694.393300341762, -13503.091156851193, -15382.80581030915, -12879.656300503768, -11624.561145849366, -11946.538024728063, -15111.880315766373, -13784.812543965882, -19679.32518474164, 0.0098125, -0.023875, 0.990875, 192.0, 0.0, 0.0, 0.0, 0.0, 0.0, 0.0, 0.0, 0.0, 0.0, 1.644586642417815E9, 0.0, 2022-02-12 00:37:22.417
214.0, -14372.775181862735, -13616.928591362072, -9109.364045782571, -13556.82475052175, -14985.190628193694, -11174.26290205275, -13535.165910144558, -10727.853861791356, -13479.57712168421, -15362.063391454625, -12851.02371585652, -11596.353244346768, -11923.225155261178, -15082.152495640816, -13756.96227037457, -19670.384486959516, 0.008906250000000001, -0.0229375, 0.9904375, 192.0, 0.0, 32.0, 127.5, 40.0, 15.0, 120.0, 0.0, 0.0, 0.0, 1.644586642425771E9, 0.0, 2022-02-12 00:37:22.425
216.0, -14349.529367629215, -13588.027785781358, -9096.601199698593, -13548.308735884279, -14971.779581520508, -11157.499093711269, -13521.777215215829, -10710.665370305225, -13502.085328350704, -15376.390859650477, -12884.908960450764, -11645.929413548638, -11970.02970815059, -15117.021216991094, -13790.199314379612, -19661.443789177392, 0.008906250000000001, -0.0229375, 0.9904375, 192.0, 0.0, 0.0, 0.0, 0.0, 0.0, 0.0, 0.0, 0.0, 0.0, 1.644586642431937E9, 0.0, 2022-02-12 00:37:22.431
218.0, -14341.572146603126, -13579.40001242161, -9088.062833316664, -13535.925869456038, -14967.86802624083, -11151.464122708336, -13514.378787801123, -10684.469125803605, -13458.09709526266, -15332.670847495896, -12831.890622602776, -11592.084061155803, -11922.487547694152, -15073.994108914627, -13738.47737771003, -19636.678056320914, 0.008906250000000001, -0.0229375, 0.9904375, 192.0, 0.0, 0.0, 0.0, 0.0, 0.0, 0.0, 0.0, 0.0, 0.0, 1.644586642439789E9, 0.0, 2022-02-12 00:37:22.439
220.0, -14362.135751502008, -13609.083129058257, -9124.630287245547, -13525.152328628581, -14965.76696226203, -11161.991794346786, -13513.082386622715, -10722.958829755644, -13487.087307821192, -15363.13627518848, -12867.474599775625, -11625.298753416391, -11955.724591699194, -15102.783155773062, -13764.67362221165, -19640.299038922672, 0.008906250000000001, -0.0229375, 0.9904375, 192.0, 0.0, 0.0, 0.0, 0.0, 0.0, 0.0, 0.0, 0.0, 0.0, 1.644586642447402E9, 0.0, 2022-02-12 00:37:22.447
222.0, -14307.128108397497, -13539.233927635423, -9087.861667616568, -13521.888973938105, -14942.387037561779, -11131.056980020641, -13476.671394905019, -10663.167913337698, -13469.675298890508, -15343.109112156524, -12852.342468779383, -11606.210363651559, -11938.93843161326, -15079.98437642865, -13744.91468011316, -19618.416681100927, 0.008906250000000001, -0.0229375, 0.9904375, 192.0, 0.0, 0.0, 0.0, 0.0, 0.0, 0.0, 0.0, 0.0, 0.0, 1.644586642456906E9, 0.0, 2022-02-12 00:37:22.456
224.0, -14304.624713018504, -13550.566262074264, -9115.935458652433, -13508.76849994284, -14951.595956277366, -11139.640049891479, -13486.461458976444, -10682.680986247182, -13440.998010754349, -15302.518344225688, -12825.028637054997, -11604.891610728695, -11899.64406486083, -15067.64621348932, -13717.466737922043, -19608.15723039594, 0.009453125, -0.02546875, 0.98721875, 192.0, 0.0, 40.0, 127.5, 16.0, 15.0, 96.0, 0.0, 0.0, 0.0, 1.644586642463017E9, 0.0, 2022-02-12 00:37:22.463
226.0, -14325.16596617293, -13578.371832176666, -9109.252287060295, -13491.512953223342, -14951.886528955285, -11135.750846356255, -13482.482848463398, -10674.366137309808, -13468.244787245369, -15328.848699194039, -12868.145152109284, -11628.472701129043, -11958.22798707819, -15093.015443446095, -13749.474435982042, -19597.8754279465, 0.009453125, -0.02546875, 0.98721875, 192.0, 0.0, 0.0, 0.0, 0.0, 0.0, 0.0, 0.0, 0.0, 0.0, 1.644586642470199E9, 0.0, 2022-02-12 00:37:22.470
228.0, -14309.609152032037, -13563.820846536262, -9095.640074687013, -13482.505200207854, -14947.326773086403, -11122.138633982973, -13477.09607804967, -10654.316622533397, -13432.683161816974, -15321.830251435073, -12820.558288163935, -11554.041392092871, -11914.172698756778, -15037.270192774558, -13701.529944125408, -19578.518817248205, 0.009453125, -0.02546875, 0.98721875, 192.0, 0.0, 0.0, 0.0, 0.0, 0.0, 0.0, 0.0, 0.0, 0.0, 1.644586642478092E9, 0.0, 2022-02-12 00:37:22.478
230.0, -14329.569259830627, -13573.633262352141, -9124.451473289904, -13468.915339579027, -14943.258755595536, -11131.056980020641, -13477.00667107185, -10684.647939759248, -13463.103886020648, -15326.948800915337, -12840.250175029061, -11602.72349151653, -11926.801434374027, -15076.69866999372, -13727.457967693565, -19577.289471303164, 0.009453125, -0.02546875, 0.98721875, 192.0, 0.0, 0.0, 0.0, 0.0, 0.0, 0.0, 0.0, 0.0, 0.0, 1.644586642489575E9, 0.0, 2022-02-12 00:37:22.489
232.0, -14274.382802770473, -13500.163078327547, -9086.185286782418, -13460.287566219278, -14915.81081340442, -11097.395252870949, -13435.678295573985, -10629.282668743452, -13444.574289867198, -15314.185954831357, -12834.818701126422, -11588.016043664938, -11931.160024542813, -15056.000954628105, -13705.57560987182, -19553.328401247072, 0.009453125, -0.02546875, 0.98721875, 192.0, 0.0, 0.0, 0.0, 0.0, 0.0, 0.0, 0.0, 0.0, 0.0, 1.64458664250211E9, 0.0, 2022-02-12 00:37:22.502
234.0, -14286.095116865054, -13533.333067099222, -9104.245496302306, -13443.434350899977, -14923.343351285857, -11107.364130898015, -13447.100036990649, -10648.616927697292, -13412.3654261071, -15287.07328880707, -12804.889715300766, -11567.117162599227, -11905.746091097128, -15019.947590821695, -13676.47363859101, -19538.28567722865, 0.014, -0.024, 0.986, 192.0, 0.0, 56.0, 127.5, 32.0, 15.0, 104.0, 0.0, 0.0, 0.0, 1.644586642508244E9, 0.0, 2022-02-12 00:37:22.508
236.0, -14281.200084829341, -13535.3447241002, -9101.384473012027, -13434.448949628944, -14899.225819018582, -11095.383595869971, -13432.258478672324, -10641.062038071399, -13440.103940976136, -15313.761271686706, -12830.01307606853, -11597.694349014086, -11930.109492553413, -15058.392591284823, -13706.268513949934, -19528.786185835146, 0.014, -0.024, 0.986, 192.0, 0.0, 0.0, 0.0, 0.0, 0.0, 0.0, 0.0, 0.0, 0.0, 1.644586642515218E9, 0.0, 2022-02-12 00:37:22.515
238.0, -14244.275002989174, -13486.036775831793, -9085.067699559653, -13420.859089000118, -14893.190848015649, -11086.420546343392, -13416.142870920048, -10611.043645267922, -13400.049614912226, -15265.682669363341, -12775.072488197386, -11543.133740798681, -11894.458460147198, -15012.25859072907, -13650.746780722951, -19507.14969720241, 0.014, -0.024, 0.986, 192.0, 0.0, 0.0, 0.0, 0.0, 0.0, 0.0, 0.0, 0.0, 0.0, 1.644586642523136E9, 0.0, 2022-02-12 00:37:22.523
240.0, -14275.925073137889, -13526.649895507086, -9119.467034276371, -13413.125385418582, -14902.109194053317, -11101.731491295277, -13424.949458235438, -10646.560567207405, -13421.060254700215, -15276.635024146442, -12815.238572983573, -11582.517514528932, -11899.912285794293, -15032.151643294294, -13672.651490289152, -19510.033072237144, 0.014, -0.024, 0.986, 192.0, 0.0, 0.0, 0.0, 0.0, 0.0, 0.0, 0.0, 0.0, 0.0, 1.644586642529643E9, 0.0, 2022-02-12 00:37:22.529
242.0, -14229.187575481841, -13460.04169703027, -9086.140583293509, -13401.122498646082, -14882.864342077297, -11078.28451136166, -13400.898981201528, -10598.839592795324, -13406.84454522664, -15270.421239187866, -12807.594276379858, -11576.393136548179, -11887.954102510705, -15022.11571003386, -13662.056763417337, -19489.536522571627, 0.014, -0.024, 0.986, 192.0, 0.0, 0.0, 0.0, 0.0, 0.0, 0.0, 0.0, 0.0, 0.0, 1.644586642537568E9, 0.0, 2022-02-12 00:37:22.537
244.0, -14238.821177342079, -13492.33996776819, -9110.235763816328, -13379.754230946808, -14886.820600845886, -11087.381671354971, -13416.724016275886, -10622.621848895771, -13375.797972178218, -15249.812930800073, -12782.985005734565, -11534.215394761015, -11868.575140067953, -15005.4413086702, -13634.161786337112, -19478.226539877243, 0.016, -0.02, 0.986, 192.0, 0.0, 64.0, 127.5, 48.0, 15.0, 104.0, 0.0, 0.0, 0.0, 1.644586642545725E9, 0.0, 2022-02-12 00:37:22.545
246.0, -14244.587927411549, -13496.117412581136, -9103.597295713103, -13380.111858858092, -14874.974176284573, -11079.379746839972, -13394.953417176417, -10610.90953480119, -13410.152603406026, -15283.45230620531, -12809.762395592023, -11579.656491238653, -11895.397233414322, -15034.051541572993, -13662.190873884068, -19470.962222929265, 0.016, -0.02, 0.986, 192.0, 0.0, 0.0, 0.0, 0.0, 0.0, 0.0, 0.0, 0.0, 0.0, 1.644586642551832E9, 0.0, 2022-02-12 00:37:22.551
248.0, -14218.548145121116, -13452.218586470914, -9078.60804541207, -13364.197416805913, -14872.314318694393, -11059.352583808015, -13393.813478209197, -10587.820182778858, -13372.221693065369, -15244.359105152978, -12756.565243788391, -11534.796540116851, -11855.387610839321, -14984.765945049043, -13611.430062226065, -19451.38209478642, 0.016, -0.02, 0.986, 192.0, 0.0, 0.0, 0.0, 0.0, 0.0, 0.0, 0.0, 0.0, 0.0, 1.644586642559273E9, 0.0, 2022-02-12 00:37:22.559
250.0, -14233.859090073001, -13490.95415961196, -9114.013208629276, -13355.033201579237, -14879.980967042562, -11068.986185668253, -13392.762946219797, -10617.615058137782, -13385.878608927562, -15262.553425139598, -12783.364985390304, -11559.294052039868, -11897.185372970745, -15013.890268074307, -13637.581603238774, -19452.9914203872, 0.016, -0.02, 0.986, 192.0, 0.0, 0.0, 0.0, 0.0, 0.0, 0.0, 0.0, 0.0, 0.0, 1.644586642567459E9, 0.0, 2022-02-12 00:37:22.567
252.0, -14192.441307597317, -13432.28083041678, -9078.786859367712, -13345.623117163554, -14850.856644017298, -11042.633478955446, -13348.841768365119, -10564.216740634054, -13375.105068100103, -15249.343544166511, -12780.213389422106, -11564.993746875973, -11880.44391637372, -14999.16046847826, -13624.997571110436, -19428.002170086165, 0.016, -0.02, 0.986, 192.0, 0.0, 0.0, 0.0, 0.0, 0.0, 0.0, 0.0, 0.0, 0.0, 1.644586642575283E9, 0.0, 2022-02-12 00:37:22.575
254.0, -14214.033092741143, -13448.843473058161, -9095.148336308997, -13330.580393145132, -14849.694353305622, -11046.500330746214, -13359.324736514656, -10584.109793199277, -13353.26741376727, -15230.188099168314, -12749.077409395864, -11522.212507988514, -11841.797750210495, -14968.493875085578, -13582.842181067728, -19414.434661201794, 0.012, -0.024, 0.992, 192.0, 0.0, 48.0, 127.5, 32.0, 15.5, 0.0, 0.0, 0.0, 0.0, 1.644586642582901E9, 0.0, 2022-02-12 00:37:22.582
0.0, -14207.171107193364, -13441.04271424326, -9090.365062995561, -13319.270410450747, -14842.877071246752, -11041.985278366243, -13333.061436779672, -10569.37999360323, -13376.736745445342, -15240.604012084486, -12776.793572520444, -11557.394153761168, -11878.052279717003, -15008.190573238204, -13613.374663993676, -19403.616416885427, 0.012, -0.024, 0.992, 192.0, 0.0, 0.0, 0.0, 0.0, 0.0, 0.0, 0.0, 0.0, 0.0, 1.644586642589643E9, 0.0, 2022-02-12 00:37:22.589
2.0, -14168.882568941424, -13401.413071324001, -9065.196998738886, -13301.947808497884, -14829.68954201812, -11029.200080537807, -13325.573602387143, -10543.764894457448, -13333.955506557884, -15206.048215156581, -12720.981266615543, -11490.316568650791, -11838.10971237537, -14966.81749425143, -13561.07158196826, -19380.728230563192, 0.012, -0.024, 0.992, 192.0, 0.0, 0.0, 0.0, 0.0, 0.0, 0.0, 0.0, 0.0, 0.0, 1.644586642597306E9, 0.0, 2022-02-12 00:37:22.597
4.0, -14182.114801658965, -13427.430501869978, -9101.697397434402, -13288.022671702227, -14831.41062634118, -11040.845339399022, -13333.799044346697, -10572.129258171231, -13344.483178196333, -15218.833412985017, -12752.273708852972, -11541.300897753346, -11849.263232858568, -14982.307253158959, -13585.189114235534, -19375.900253760847, 0.012, -0.024, 0.992, 192.0, 0.0, 0.0, 0.0, 0.0, 0.0, 0.0, 0.0, 0.0, 0.0, 1.644586642605235E9, 0.0, 2022-02-12 00:37:22.605
6.0, -14129.923478355824, -13356.575471946655, -9056.725687590324, -13275.371584340524, -14810.399986553191, -11008.79293785011, -13303.512430609755, -10520.072045334822, -13325.886526809518, -15205.131793633915, -12735.666362722679, -11515.194060229547, -11843.474131044642, -14961.453075582156, -13569.185265205535, -19354.2190616392, 0.012, -0.024, 0.992, 192.0, 0.0, 0.0, 0.0, 0.0, 0.0, 0.0, 0.0, 0.0, 0.0, 1.644586642613224E9, 0.0, 2022-02-12 00:37:22.613
8.0, -14151.247042566187, -13403.22356262488, -9080.060908801664, -13262.944014423372, -14814.400948810691, -11020.572307178058, -13316.387035416012, -10543.049638634879, -13305.635846333009, -15175.515732230633, -12703.792775129412, -11482.404051113612, -11834.53343326252, -14926.986685632073, -13531.701389753985, -19337.812881209004, 0.012, -0.03, 0.992, 192.0, 0.0, 48.0, 127.5, 8.0, 15.5, 0.0, 0.0, 0.0, 0.0, 1.644586642626833E9, 0.0, 2022-02-12 00:37:22.626
10.0, -14148.9895163762, -13379.754230946808, -9083.346615236595, -13256.596118998066, -14802.442765527103, -11014.738501875223, -13306.418157388945, -10537.953440899068, -13343.030314806738, -15205.265904100646, -12746.529310527958, -11528.962734814017, -11842.401247310789, -14950.813645221431, -13566.704221570995, -19334.124843373877, 0.012, -0.03, 0.992, 192.0, 0.0, 0.0, 0.0, 0.0, 0.0, 0.0, 0.0, 0.0, 0.0, 1.644586642634874E9, 0.0, 2022-02-12 00:37:22.634
12.0, -14116.423024704818, -13333.508471668778, -9058.69264110239, -13236.81482515512, -14787.400041508681, -10984.27307418264, -13286.815677501641, -10498.12263227971, -13303.668892820942, -15160.942394845772, -12702.295208250905, -11472.725745764465, -11821.703531945173, -14916.011979104518, -13516.748072713384, -19307.883895383347, 0.012, -0.03, 0.992, 192.0, 0.0, 0.0, 0.0, 0.0, 0.0, 0.0, 0.0, 0.0, 0.0, 1.644586642642869E9, 0.0, 2022-02-12 00:37:22.642
14.0, -14155.404467034874, -13402.105975402115, -9096.176516553942, -13219.603981924532, -14792.764460177954, -10995.717167343757, -13300.405538130468, -10524.609449459249, -13313.078977236626, -15171.581825206498, -12725.652781206702, -11492.79761228533, -11824.318686046445, -14936.620287492311, -13529.510918797365, -19296.81978187797, 0.012, -0.03, 0.992, 192.0, 0.0, 0.0, 0.0, 0.0, 0.0, 0.0, 0.0, 0.0, 0.0, 1.644586642649348E9, 0.0, 2022-02-12 00:37:22.649
16.0, -14114.120795025921, -13327.16057624347, -9056.166893978942, -13210.596228909044, -14768.334003488304, -10966.235216407207, -13277.830276230607, -10476.530847135884, -13304.138279454504, -15162.28349951309, -12709.715987410067, -11482.158181924604, -11835.651020485286, -14919.81177566192, -13518.826784947729, -19279.206607247186, 0.012, -0.03, 0.992, 192.0, 0.0, 0.0, 0.0, 0.0, 0.0, 0.0, 0.0, 0.0, 0.0, 1.644586642657518E9, 0.0, 2022-02-12 00:37:22.657
18.0, -14102.542591398073, -13332.122663512548, -9082.117269291553, -13193.452440911824, -14776.224169281028, -10973.231312421718, -13287.665043790943, -10499.26257124693, -13280.177209398415, -15120.75395831513, -12682.804487085878, -11463.025088670862, -11800.58113343491, -14905.014920832506, -13487.57904619921, -19268.18719723072, 0.012, -0.028, 0.99, 192.0, 0.0, 48.0, 127.5, 16.0, 15.0, 120.0, 0.0, 0.0, 0.0, 1.644586642665402E9, 0.0, 2022-02-12 00:37:22.665
20.0, -14053.659326274315, -13305.099404466082, -9077.557513422671, -13180.17550470537, -14749.178558490106, -10954.522902312625, -13259.85947368854, -10484.041033272868, -13297.700977051376, -15155.041534309572, -12721.115377082275, -11504.599333357732, -11821.725883689629, -14921.532859984978, -13515.786947701807, -19257.659525592273, 0.012, -0.028, 0.99, 192.0, 0.0, 0.0, 0.0, 0.0, 0.0, 0.0, 0.0, 0.0, 0.0, 1.644586642672471E9, 0.0, 2022-02-12 00:37:22.672
22.0, -14060.521311822095, -13273.494037806278, -9048.232024697307, -13166.160960931893, -14743.009477020441, -10937.267355593129, -13252.170473595916, -10451.519245090396, -13245.062618859127, -15101.777327272574, -12662.442047887094, -11442.707352960988, -11789.271150740524, -14862.144274967228, -13455.660755117031, -19229.697493278683, 0.012, -0.028, 0.99, 192.0, 0.0, 0.0, 0.0, 0.0, 0.0, 0.0, 0.0, 0.0, 0.0, 1.644586642679192E9, 0.0, 2022-02-12 00:37:22.679
24.0, -14104.755414099147, -13321.594991874099, -9081.22319951334, -13152.638155536433, -14746.608107877746, -10952.086562166996, -13254.71857246382, -10483.54929489485, -13271.281215105202, -15113.266123922602, -12674.511989892959, -11439.73457094843, -11800.357615990355, -14885.300682222925, -13480.694708906974, -19226.970580455134, 0.012, -0.028, 0.99, 192.0, 0.0, 0.0, 0.0, 0.0, 0.0, 0.0, 0.0, 0.0, 0.0, 1.644586642687584E9, 0.0, 2022-02-12 00:37:22.687
26.0, -14035.755578965614, -13257.110209120538, -9036.430303624906, -13138.221280362759, -14707.358444614227, -10913.73096868169, -13214.507784188723, -10426.284125600354, -13261.781723711698, -15108.4157953758, -12659.670431574636, -11441.209786082482, -11769.42280166421, -14865.206463957604, -13463.729734865396, -19205.199981355665, 0.012, -0.028, 0.99, 192.0, 0.0, 0.0, 0.0, 0.0, 0.0, 0.0, 0.0, 0.0, 0.0, 1.644586642695166E9, 0.0, 2022-02-12 00:37:22.695
28.0, -14035.979096410168, -13267.14614238097, -9050.89188228749, -13123.893812166907, -14717.595543574756, -10927.074960121508, -13224.09668256005, -10443.405561853118, -13224.275496515691, -15079.872617706373, -12624.73465499099, -11401.78130886332, -11757.397563147255, -14846.296888148414, -13417.573382565188, -19190.403126526253, 0.006, -0.024, 0.99, 192.0, 0.0, 24.0, 127.5, 32.0, 15.0, 120.0, 0.0, 0.0, 0.0, 1.644586642702177E9, 0.0, 2022-02-12 00:37:22.702
30.0, -14015.929581633758, -13247.543662493666, -9053.439981155394, -13114.64018996241, -14705.52560156889, -10916.748454183156, -13211.512650431712, -10437.035314683357, -13253.533930007688, -15106.314731397002, -12674.534341637414, -11455.224329855959, -11793.540333931487, -14877.879903063764, -13457.650060373553, -19184.591672967872, 0.006, -0.024, 0.99, 192.0, 0.0, 0.0, 0.0, 0.0, 0.0, 0.0, 0.0, 0.0, 0.0, 1.644586642709974E9, 0.0, 2022-02-12 00:37:22.709
32.0, -14015.795471167026, -13227.963534350818, -9032.630507067503, -13103.441965990301, -14689.991139172453, -10899.269390019106, -13197.721624102787, -10407.508660257896, -13216.117109789504, -15054.525739494055, -12616.911544431632, -11400.68607338501, -11736.856309992829, -14830.047169929407, -13406.263399870802, -19161.211748267622, 0.006, -0.024, 0.99, 192.0, 0.0, 0.0, 0.0, 0.0, 0.0, 0.0, 0.0, 0.0, 0.0, 1.644586642717668E9, 0.0, 2022-02-12 00:37:22.717
34.0, -14017.225982812166, -13271.080049405105, -9067.454524928871, -13088.980387327718, -14694.707357252522, -10913.775672170601, -13214.396025466445, -10449.194663667044, -13229.975191351796, -15062.08062911995, -12632.334248105795, -11419.819166638752, -11763.119609727813, -14845.715742792576, -13426.13410069157, -19157.970745321603, 0.006, -0.024, 0.99, 192.0, 0.0, 0.0, 0.0, 0.0, 0.0, 0.0, 0.0, 0.0, 0.0, 1.644586642725001E9, 0.0, 2022-02-12 00:37:22.725
36.0, -13961.793656563004, -13191.552542633122, -9019.01829469422, -13073.155352253361, -14654.451865488514, -10879.599854898437, -13173.447629624323, -10394.924628129558, -13214.485432444268, -15071.356603068902, -12618.789090965878, -11407.950390332984, -11746.378153130789, -14840.641896801222, -13411.85133598463, -19137.854175311826, 0.006, -0.024, 0.99, 192.0, 0.0, 0.0, 0.0, 0.0, 0.0, 0.0, 0.0, 0.0, 0.0, 1.644586642732297E9, 0.0, 2022-02-12 00:37:22.732
38.0, -13985.285339985532, -13220.498051702745, -9033.256355912252, -13060.481913147201, -14658.341069023738, -10875.8671135744, -13178.99086224924, -10406.72634920196, -13179.03556573815, -15028.128329292338, -12584.00977659342, -11360.877616510108, -11722.685304008164, -14781.186256550105, -13367.483123240843, -19119.995131492036, 0.014, -0.022, 0.99, 192.0, 0.0, 56.0, 127.5, 40.0, 15.0, 120.0, 0.0, 0.0, 0.0, 1.644586642748951E9, 0.0, 2022-02-12 00:37:22.748
40.0, -13959.737296073115, -13200.76146134871, -9029.277745399208, -13051.00477349815, -14647.299307262816, -10866.524084392082, -13167.390306876936, -10394.231724051444, -13210.037435297661, -15047.373181268356, -12620.443120055572, -11408.933867089017, -11749.686211310174, -14817.17256512315, -13402.441251568944, -19109.60157032032, 0.014, -0.022, 0.99, 192.0, 0.0, 0.0, 0.0, 0.0, 0.0, 0.0, 0.0, 0.0, 0.0, 1.644586642755051E9, 0.0, 2022-02-12 00:37:22.755
42.0, -13931.171766659232, -13153.80044624811, -9000.980436918788, -13037.459616358236, -14633.530632678347, -10851.727229562668, -13151.252347380203, -10356.1443514996, -13171.167751689882, -15005.754233092575, -12563.066192038797, -11346.572500058712, -11694.008015872005, -14789.635215954211, -13349.668782909965, -19082.48890429603, 0.014, -0.022, 0.99, 192.0, 0.0, 0.0, 0.0, 0.0, 0.0, 0.0, 0.0, 0.0, 0.0, 1.644586642761988E9, 0.0, 2022-02-12 00:37:22.761
44.0, -13944.269888910043, -13178.02973723766, -9035.290364657685, -13028.34010462047, -14636.525766435358, -10864.601834368925, -13158.31549862808, -10386.408613492085, -13188.80327806512, -15016.30425647548, -12587.9213318731, -11380.994186519883, -11715.286876593456, -14813.305713332382, -13367.684288940942, -19082.734773485037, 0.014, -0.022, 0.99, 192.0, 0.0, 0.0, 0.0, 0.0, 0.0, 0.0, 0.0, 0.0, 0.0, 1.644586642770029E9, 0.0, 2022-02-12 00:37:22.770
46.0, -13910.295237337976, -13158.002574205706, -8995.437204293872, -13020.248773127649, -14614.71046384698, -10837.399761366816, -13124.363198800469, -10338.978211757923, -13182.097754728527, -15003.139078991304, -12577.304253256829, -11376.926169029019, -11709.162498612703, -14799.380576536725, -13360.129399315048, -19061.947651141603, 0.015, -0.024, 0.989, 192.0, 0.0, 64.0, 127.5, 24.0, 15.0, 112.0, 0.0, 0.0, 0.0, 1.644586642778062E9, 0.0, 2022-02-12 00:37:22.778
48.0, -13900.84044943338, -13157.533187572144, -9009.608210278537, -13001.272142085094, -14602.282893929827, -10829.219022896174, -13121.658637721377, -10342.509787381863, -13154.627460792955, -14982.083735714405, -12548.984593031955, -11329.093435894662, -11670.941015594128, -14753.91712831463, -13311.313189424658, -19041.47345322054, 0.015, -0.024, 0.989, 192.0, 0.0, 0.0, 0.0, 0.0, 0.0, 0.0, 0.0, 0.0, 0.0, 1.644586642784737E9, 0.0, 2022-02-12 00:37:22.784
50.0, -13903.723824468116, -13150.358277601992, -9007.507146299738, -12991.370319291393, -14599.287760172816, -10824.994543194121, -13123.02209413315, -10341.839235048205, -13176.84509478153, -15007.20709648217, -12580.075869569288, -11361.995203732873, -11707.575524756376, -14769.7868668779, -13348.081809053638, -19031.48222344902, 0.015, -0.024, 0.989, 192.0, 0.0, 0.0, 0.0, 0.0, 0.0, 0.0, 0.0, 0.0, 0.0, 1.644586642793204E9, 0.0, 2022-02-12 00:37:22.793
52.0, -13876.141771810268, -13088.421593716335, -8977.39934651844, -12974.695917927733, -14581.31695763075, -10804.922676673255, -13094.16599204135, -10305.160022397045, -13136.656658250888, -14949.070209153917, -12522.073092707766, -11306.696987950443, -11653.171378752158, -14725.239840178472, -13294.39291887199, -19008.81755457134, 0.015, -0.024, 0.989, 192.0, 0.0, 0.0, 0.0, 0.0, 0.0, 0.0, 0.0, 0.0, 0.0, 1.644586642799649E9, 0.0, 2022-02-12 00:37:22.799
54.0, -13897.219466831622, -13137.818948962564, -9016.492547570771, -12957.08274329695, -14591.285835657816, -10818.244316368618, -13111.868573649952, -10342.71095308196, -13149.106579912494, -14960.581357548399, -12542.368476673184, -11326.254764348838, -11676.886579619239, -14755.369991704225, -13310.285009179714, -19007.05176675937, 0.015, -0.024, 0.989, 192.0, 0.0, 0.0, 0.0, 0.0, 0.0, 0.0, 0.0, 0.0, 0.0, 1.644586642806651E9, 0.0, 2022-02-12 00:37:22.806
56.0, -13851.465445931608, -13065.041669016084, -8979.746279686247, -12949.393743204326, -14564.821370222733, -10788.47179275415, -13069.556721396057, -10284.104679120146, -13156.415600349379, -14947.57264227541, -12536.020581247876, -11329.272249850304, -11668.705841148596, -14748.195081734071, -13305.34527365509, -18985.750554293463, 0.0135, -0.023, 0.9875, 192.0, 0.0, 48.0, 127.5, 40.0, 15.0, 104.0, 0.0, 0.0, 0.0, 1.644586642814438E9, 0.0, 2022-02-12 00:37:22.814
58.0, -13851.711315120616, -13109.320474782047, -8994.610189749026, -12930.37240867286, -14548.661058981546, -10786.795411920002, -13059.520788135624, -10292.88891469108, -13127.447739535302, -14926.00320887604, -12492.993473171411, -11293.867086633098, -11610.188974164603, -14699.445927077048, -13255.746752708765, -18964.784617994384, 0.0135, -0.023, 0.9875, 192.0, 0.0, 0.0, 0.0, 0.0, 0.0, 0.0, 0.0, 0.0, 0.0, 1.644586642822331E9, 0.0, 2022-02-12 00:37:22.822
60.0, -13826.49854737503, -13097.585808943011, -8993.313788570618, -12927.444330149214, -14543.87778566811, -10777.117106570853, -13053.686982832789, -10291.614865257128, -13155.543882315622, -14957.183892391193, -12535.975877758967, -11322.09733988015, -11656.92647182065, -14718.91429649762, -13286.4356978459, -18960.13545514768, 0.0135, -0.023, 0.9875, 192.0, 0.0, 0.0, 0.0, 0.0, 0.0, 0.0, 0.0, 0.0, 0.0, 1.644586642830467E9, 0.0, 2022-02-12 00:37:22.830
62.0, -13792.993282436524, -13033.369247122913, -8963.451857978327, -12903.729129282134, -14528.343323271672, -10746.808141089457, -13035.894994246364, -10243.782132122771, -13106.884134636419, -14896.968292828597, -12475.425002029539, -11272.275301489271, -11601.851773482773, -14674.702545965023, -13232.635048941976, -18935.526184502385, 0.0135, -0.023, 0.9875, 192.0, 0.0, 0.0, 0.0, 0.0, 0.0, 0.0, 0.0, 0.0, 0.0, 1.644586642837031E9, 0.0, 2022-02-12 00:37:22.837
64.0, -13827.124396219779, -13080.933759323807, -9002.075672397099, -12885.624216273334, -14516.474546965903, -10759.347469728884, -13037.683133802788, -10275.678071460494, -13115.109576595973, -14903.360891742814, -12491.272388848352, -11288.636778430555, -11609.808994508863, -14692.04749966234, -13245.643764214965, -18928.351274532233, 0.0135, -0.023, 0.9875, 192.0, 0.0, 0.0, 0.0, 0.0, 0.0, 0.0, 0.0, 0.0, 0.0, 1.644586642844934E9, 0.0, 2022-02-12 00:37:22.844
66.0, -13784.38786082123, -13007.396520065848, -8960.479075965772, -12879.231617359117, -14503.041148548264, -10725.953963512655, -13011.553944534535, -10224.894908058037, -13116.093053352006, -14900.5669236859, -12487.271426590853, -11280.388984726547, -11599.281322870413, -14679.530522767369, -13237.440673999869, -18904.814887620796, 0.01375, -0.0225, 0.98875, 192.0, 0.0, 56.0, 127.5, 40.0, 15.0, 120.0, 0.0, 0.0, 0.0, 1.64458664285319E9, 0.0, 2022-02-12 00:37:22.853
68.0, -13785.840724210826, -13030.843499999464, -8971.118506326498, -12858.265681060038, -14500.984788058377, -10729.50789088105, -13006.882429943375, -10229.40996043801, -13075.658747632355, -14853.449446374112, -12436.957649821956, -11236.959545249885, -11578.851828438263, -14640.414969970581, -13195.687615357354, -18883.804247832806, 0.01375, -0.0225, 0.98875, 192.0, 0.0, 0.0, 0.0, 0.0, 0.0, 0.0, 0.0, 0.0, 0.0, 1.64458664286157E9, 0.0, 2022-02-12 00:37:22.861
70.0, -13761.812598921371, -13035.649125057356, -8974.739488928257, -12846.016925098531, -14494.7710030998, -10724.277582678507, -13001.920342674297, -10235.109655274113, -13097.96578859875, -14889.458106691613, -12483.270464333353, -11273.951682323419, -11613.832308510819, -14666.633566216657, -13220.498051702745, -18873.902425039105, 0.01375, -0.0225, 0.98875, 192.0, 0.0, 0.0, 0.0, 0.0, 0.0, 0.0, 0.0, 0.0, 0.0, 1.64458664287461E9, 0.0, 2022-02-12 00:37:22.874
72.0, -13744.19942429059, -12976.215836550695, -8940.563671656093, -12828.001419067552, -14469.49118012085, -10699.288332377475, -12977.311072029004, -10181.666634281473, -13052.077657232006, -14843.547623580413, -12424.708893860448, -11207.946980946897, -11560.702211940554, -14616.006865025385, -13168.17261793287, -18849.628430560642, 0.01375, -0.0225, 0.98875, 192.0, 0.0, 0.0, 0.0, 0.0, 0.0, 0.0, 0.0, 0.0, 0.0, 1.644586642882663E9, 0.0, 2022-02-12 00:37:22.882
74.0, -13779.224607852055, -13016.6724940148, -8980.908570397922, -12818.63603814078, -14478.320119180695, -10713.816966273424, -12993.829011181477, -10218.345846932632, -13073.691794120288, -14841.133635179238, -12430.877975330111, -11232.019809725263, -11567.921825399617, -14635.542289679324, -13182.433030895358, -18844.711046780474, 0.01375, -0.0225, 0.98875, 192.0, 0.0, 0.0, 0.0, 0.0, 0.0, 0.0, 0.0, 0.0, 0.0, 1.644586642889651E9, 0.0, 2022-02-12 00:37:22.889
76.0, -13723.76992985844, -12931.110016239885, -8943.022363546177, -12814.702131116645, -14448.704057777413, -10682.099840891344, -12961.977775332663, -10166.57920677414, -13069.534369651601, -14838.943164222619, -12433.247260242375, -11236.601917338601, -11569.106467855749, -14620.36545519417, -13182.164809961892, -18829.288343106313, 0.012875000000000001, -0.02425, 0.987375, 192.0, 0.0, 48.0, 127.5, 24.0, 15.0, 104.0, 0.0, 0.0, 0.0, 1.644586642897451E9, 0.0, 2022-02-12 00:37:22.897
78.0, -13715.298618709878, -12953.685278139745, -8951.694840394835, -12795.524334373991, -14447.362953110094, -10680.44581180165, -12964.704688156211, -10173.843523722117, -13030.731741277188, -14797.994768380497, -12393.036471967278, -11202.940190188909, -11513.785900328863, -14588.693033301, -13132.901565182396, -18811.96574115345, 0.012875000000000001, -0.02425, 0.987375, 192.0, 0.0, 0.0, 0.0, 0.0, 0.0, 0.0, 0.0, 0.0, 0.0, 1.644586642905218E9, 0.0, 2022-02-12 00:37:22.905
80.0, -13715.343322198787, -12978.965101118696, -8949.43731420485, -12785.62251158029, -14436.410598326995, -10668.554683751427, -12953.819388606476, -10175.00581443379, -13044.701581561754, -14816.323198833848, -12425.088873516188, -11220.910992730975, -11574.5826452473, -14613.27995220184, -13165.93744348734, -18803.5391334938, 0.012875000000000001, -0.02425, 0.987375, 192.0, 0.0, 0.0, 0.0, 0.0, 0.0, 0.0, 0.0, 0.0, 0.0, 1.64458664291232E9, 0.0, 2022-02-12 00:37:22.912
82.0, -13679.938158981582, -12925.007990003585, -8914.278020176653, -12769.797476505933, -14408.806193924689, -10643.811302639402, -12926.304391181993, -10120.780482385217, -13017.7230260042, -14790.395175265692, -12375.155076403033, -11168.607910705556, -11516.825737574785, -14557.288832341294, -13113.16497482836, -18780.203912282457, 0.012875000000000001, -0.02425, 0.987375, 192.0, 0.0, 0.0, 0.0, 0.0, 0.0, 0.0, 0.0, 0.0, 0.0, 1.644586642920091E9, 0.0, 2022-02-12 00:37:22.920
84.0, -13694.064461477335, -12944.14108325733, -8945.212834502798, -12744.495301782526, -14408.672083457957, -10655.568320222894, -12938.46374016568, -10154.822189190649, -13021.656933028333, -14791.579817721822, -12379.78188750528, -11179.649672466478, -11511.260153205414, -14569.135256902608, -13117.21064057477, -18768.245728998867, 0.012875000000000001, -0.02425, 0.987375, 192.0, 0.0, 0.0, 0.0, 0.0, 0.0, 0.0, 0.0, 0.0, 0.0, 1.644586642926961E9, 0.0, 2022-02-12 00:37:22.926
86.0, -13631.568983980296, -12859.87500666082, -8906.119633450466, -12735.666362722679, -14375.144466774997, -10615.044607525422, -12896.084832678418, -10098.786365841195, -13008.223534610694, -14771.217378523039, -12380.11716367211, -11172.854742152065, -11505.13577522466, -14554.897195684576, -13111.376835271936, -18743.792920564763, 0.0144375, -0.026125000000000002, 0.9876875, 192.0, 0.0, 64.0, 127.5, 16.0, 15.0, 112.0, 0.0, 0.0, 0.0, 1.644586642934846E9, 0.0, 2022-02-12 00:37:22.934
88.0, -13651.283222589878, -12866.692288719689, -8915.730883566248, -12721.227135804551, -14370.160027761463, -10617.123319759765, -12898.007082701575, -10104.843688588582, -12977.288720284549, -14732.68297108209, -12342.722695198381, -11127.793625330165, -11483.275769147369, -14520.922544112509, -13064.259357960149, -18723.922219743996, 0.0144375, -0.026125000000000002, 0.9876875, 192.0, 0.0, 0.0, 0.0, 0.0, 0.0, 0.0, 0.0, 0.0, 0.0, 1.644586642942113E9, 0.0, 2022-02-12 00:37:22.942
90.0, -13651.551443523342, -12906.7466147836, -8917.38491265594, -12709.067786820864, -14364.527388158725, -10607.28855219943, -12889.31225410846, -10105.290723477689, -13000.713348473711, -14734.068779238318, -12362.97337567489, -11193.30658832867, -11499.279618177368, -14565.223701622928, -13097.45169847628, -18717.395510363043, 0.0144375, -0.026125000000000002, 0.9876875, 192.0, 0.0, 0.0, 0.0, 0.0, 0.0, 0.0, 0.0, 0.0, 0.0, 1.644586642949517E9, 0.0, 2022-02-12 00:37:22.949
92.0, -13601.572942921275, -12849.794369911477, -8886.718319263258, -12696.684920392623, -14339.515786113237, -10586.881409511734, -12865.708811963656, -10062.978871223793, -12955.674583396267, -14722.065892465818, -12318.24753501982, -11100.859773261522, -11471.78697249734, -14505.388081716072, -13041.460578615735, -18690.394603061035, 0.0144375, -0.026125000000000002, 0.9876875, 192.0, 0.0, 0.0, 0.0, 0.0, 0.0, 0.0, 0.0, 0.0, 0.0, 1.644586642957607E9, 0.0, 2022-02-12 00:37:22.957
94.0, -13637.469844516498, -12864.323003807427, -8924.939802281833, -12685.777269098435, -14339.739303557792, -10593.564581103872, -12873.151942867273, -10097.914647807438, -12966.202255034716, -14726.245668678961, -12327.076474079666, -11123.323276439105, -11469.395335840623, -14503.175259014995, -13050.378924653403, -18688.382946060057, 0.0144375, -0.026125000000000002, 0.9876875, 192.0, 0.0, 0.0, 0.0, 0.0, 0.0, 0.0, 0.0, 0.0, 0.0, 1.644586642965478E9, 0.0, 2022-02-12 00:37:22.965
96.0, -13585.367928191177, -12805.359101934328, -8884.840772729012, -12672.723850336535, -14317.141689913475, -10558.382935331218, -12834.081093559396, -10041.543548291153, -12953.573519417469, -14704.81034574632, -12332.463244493396, -11127.704218352344, -11467.406030584101, -14512.63004691959, -13042.108779204938, -18664.60068995961, 0.01421875, -0.0280625, 0.98684375, 192.0, 0.0, 56.0, 127.5, 8.0, 15.0, 104.0, 0.0, 0.0, 0.0, 1.644586642972078E9, 0.0, 2022-02-12 00:37:22.972
98.0, -13596.54380041883, -12826.034465555485, -8897.0001217127, -12658.754010051967, -14311.73256775529, -10562.003917932978, -12842.641811685779, -10051.758295507228, -12925.611487103879, -14686.683080993067, -12285.077546248145, -11076.697537505333, -11415.17000379205, -14467.390116142049, -12996.466517027202, -18646.518128695265, 0.01421875, -0.0280625, 0.98684375, 192.0, 0.0, 0.0, 0.0, 0.0, 0.0, 0.0, 0.0, 0.0, 0.0, 1.644586642980133E9, 0.0, 2022-02-12 00:37:22.980
100.0, -13569.185265205535, -12824.067512043419, -8895.323740878552, -12654.060143716353, -14305.049396163155, -10553.867882951246, -12835.913936604731, -10051.17715015139, -12951.338344971937, -14700.250589877438, -12325.645962434526, -11127.503052652246, -11455.134922878138, -14499.755442113334, -13032.63163955589, -18642.338352482122, 0.01421875, -0.0280625, 0.98684375, 192.0, 0.0, 0.0, 0.0, 0.0, 0.0, 0.0, 0.0, 0.0, 0.0, 1.644586642995348E9, 0.0, 2022-02-12 00:37:22.995
102.0, -13536.462311322966, -12784.90725575772, -8855.671746214837, -12625.427559069105, -14274.762782426213, -10525.637629704193, -12804.107404244829, -9995.945989602327, -12899.348187368892, -14650.249737530916, -12267.57613033964, -11065.208740855305, -11419.372131749646, -14458.04708695973, -12980.820295908487, -18616.164459724958, 0.01421875, -0.0280625, 0.98684375, 192.0, 0.0, 0.0, 0.0, 0.0, 0.0, 0.0, 0.0, 0.0, 0.0, 1.644586643001951E9, 0.0, 2022-02-12 00:37:23.001
104.0, -13568.045326238314, -12806.34257869036, -8892.105089676987, -12608.708454216536, -14270.29243353515, -10528.543356483384, -12811.930514804188, -10026.433769039366, -12901.98569321462, -14660.151560324617, -12262.61404307056, -11057.072705873574, -11424.557736463277, -14449.419313599983, -12975.008842350107, -18601.121735706536, 0.01421875, -0.0280625, 0.98684375, 192.0, 0.0, 0.0, 0.0, 0.0, 0.0, 0.0, 0.0, 0.0, 0.0, 1.644586643009917E9, 0.0, 2022-02-12 00:37:23.009
106.0, -13524.615886761652, -12747.848063450821, -8860.723240461737, -12598.717224445014, -14250.622898414482, -10495.865106089725, -12795.569037862902, -9982.69140514033, -12895.21311464466, -14648.126321807662, -12266.972633239346, -11060.693688475334, -11420.892050372608, -14443.607860041602, -12975.210008050206, -18578.88174997351, 0.014109375, -0.02903125, 0.988421875, 192.0, 0.0, 56.0, 127.5, 8.0, 15.0, 120.0, 0.0, 0.0, 0.0, 1.644586643017744E9, 0.0, 2022-02-12 00:37:23.017
108.0, -13522.783043716317, -12745.970516916575, -8869.663938243859, -12587.161372561619, -14253.193349026842, -10502.145946281666, -12793.222104695094, -9996.303617513611, -12868.055745131463, -14615.202202224995, -12227.588859509095, -11022.740426390223, -11383.899913299074, -14406.503964245792, -12929.478338894647, -18564.978964922306, 0.014109375, -0.02903125, 0.988421875, 192.0, 0.0, 0.0, 0.0, 0.0, 0.0, 0.0, 0.0, 0.0, 0.0, 1.644586643024308E9, 0.0, 2022-02-12 00:37:23.024
110.0, -13512.814165689251, -12742.237775592539, -8869.351013821484, -12577.214846279008, -14235.9601540518, -10493.495821177463, -12779.788706277455, -9993.777870390162, -12889.178143641728, -14629.79789135431, -12261.317641892152, -11061.543054764636, -11405.178774020527, -14439.249269872818, -12959.94376658723, -18559.413380552935, 0.014109375, -0.02903125, 0.988421875, 192.0, 0.0, 0.0, 0.0, 0.0, 0.0, 0.0, 0.0, 0.0, 0.0, 1.644586643032397E9, 0.0, 2022-02-12 00:37:23.032
112.0, -13464.199121498958, -12696.059071547876, -8834.974030849222, -12564.876683339678, -14210.367406650474, -10465.824361541792, -12754.888862954243, -9947.86738727896, -12842.440645985682, -14569.805809236266, -12212.032045368202, -10998.46643191176, -11338.235299376882, -14372.685774884912, -12912.960399742175, -18530.914906372418, 0.014109375, -0.02903125, 0.988421875, 192.0, 0.0, 0.0, 0.0, 0.0, 0.0, 0.0, 0.0, 0.0, 0.0, 1.644586643040465E9, 0.0, 2022-02-12 00:37:23.040
114.0, -13494.798659658272, -12727.66443820768, -8871.85440920048, -12546.212976719497, -14217.832889298546, -10479.21305647052, -12765.707107270611, -9983.496067940721, -12841.63598318529, -14581.808696008766, -12212.859059913048, -11025.46733921377, -11378.714308585442, -14384.599254679591, -12917.229582933138, -18527.80801389313, 0.014109375, -0.02903125, 0.988421875, 192.0, 0.0, 0.0, 0.0, 0.0, 0.0, 0.0, 0.0, 0.0, 0.0, 1.644586643047516E9, 0.0, 2022-02-12 00:37:23.047
116.0, -13469.988223312883, -12692.75101336849, -8838.84088263999, -12539.48510163845, -14186.316929616563, -10450.424009612085, -12735.018162133476, -9931.081227193026, -12847.223919299116, -14587.93307398952, -12218.268182071231, -11019.61118216648, -11369.840666036685, -14392.131792561031, -12916.939010255219, -18511.22301950729, 0.0140546875, -0.027515625000000002, 0.9902109375, 192.0, 0.0, 56.0, 127.5, 24.0, 15.5, 0.0, 0.0, 0.0, 0.0, 1.644586643054001E9, 0.0, 2022-02-12 00:37:23.054
118.0, -13471.686955891486, -12692.058109290376, -8837.857405883957, -12522.810700274791, -14179.298481857597, -10448.635870055661, -12731.620696976268, -9935.68568655082, -12813.852764827343, -14553.131407872608, -12166.54624540165, -10962.368364616439, -11326.522985282301, -14344.120245471031, -12865.842922430387, -18495.152115243927, 0.0140546875, -0.027515625000000002, 0.9902109375, 192.0, 0.0, 0.0, 0.0, 0.0, 0.0, 0.0, 0.0, 0.0, 0.0, 1.64458664306201E9, 0.0, 2022-02-12 00:37:23.062
120.0, -13446.697705590452, -12659.31280366335, -8844.294708287085, -12502.247095375908, -14166.692097984804, -10436.834148983258, -12719.506051481492, -9937.2950121516, -12834.282259259495, -14565.536626045303, -12208.344007533075, -11006.334245960028, -11356.29550889677, -14369.109495772063, -12891.92740820973, -18486.390231417445, 0.0140546875, -0.027515625000000002, 0.9902109375, 192.0, 0.0, 0.0, 0.0, 0.0, 0.0, 0.0, 0.0, 0.0, 0.0, 1.644586643070018E9, 0.0, 2022-02-12 00:37:23.070
122.0, -13414.064158685704, -12637.676315030612, -8805.581486890494, -12489.03721440282, -14142.395751761886, -10406.592238735228, -12693.55567616888, -9883.293197547579, -12791.188095949663, -14515.468718465414, -12153.135198728467, -10937.535576526592, -11302.09252859265, -14316.426434090905, -12836.338619749382, -18455.388361857935, 0.0140546875, -0.027515625000000002, 0.9902109375, 192.0, 0.0, 0.0, 0.0, 0.0, 0.0, 0.0, 0.0, 0.0, 0.0, 1.644586643077245E9, 0.0, 2022-02-12 00:37:23.077
124.0, -13425.70941754692, -12663.537283365404, -8836.784522150103, -12472.809847928269, -14146.0390861081, -10417.142262118134, -12713.51578396747, -9920.4417968323, -12785.15312494673, -14514.641703920568, -12148.776608559681, -10939.435474805294, -11302.070176848196, -14316.381730601996, -12838.551442450458, -18449.17457689936, 0.0140546875, -0.027515625000000002, 0.9902109375, 192.0, 0.0, 0.0, 0.0, 0.0, 0.0, 0.0, 0.0, 0.0, 0.0, 1.644586643084692E9, 0.0, 2022-02-12 00:37:23.084
126.0, -13385.297463571724, -12602.472317513504, -8797.02076876411, -12464.405592013072, -14108.331693211996, -10384.106383813189, -12671.941539280599, -9860.650880414352, -12781.666252811701, -14505.231619504884, -12161.338288943565, -10955.707544768757, -11312.888421164564, -14325.814166762135, -12844.005268097553, -18430.82379470155, 0.008, -0.024, 0.99, 192.0, 0.0, 32.0, 127.5, 32.0, 15.0, 120.0, 0.0, 0.0, 0.0, 1.644586643092585E9, 0.0, 2022-02-12 00:37:23.092
128.0, -13382.145867603525, -12596.862029655222, -8800.529992643595, -12443.864338858646, -14103.101385009455, -10381.401822734097, -12670.64513810219, -9861.90257810385, -12742.349534314817, -14457.421238114983, -12112.96911394228, -10900.275218519595, -11266.665013630989, -14272.974642869789, -12790.763412805012, -18407.510925234667, 0.008, -0.024, 0.99, 192.0, 0.0, 0.0, 0.0, 0.0, 0.0, 0.0, 0.0, 0.0, 0.0, 1.644586643100675E9, 0.0, 2022-02-12 00:37:23.100
130.0, -13389.633701996054, -12600.214791323519, -8810.141242759377, -12429.469815429427, -14088.662158091327, -10369.421287706053, -12660.542149608393, -9860.740287392175, -12772.09970618483, -14488.132534996574, -12146.429675391875, -10937.893204437876, -11298.024511101785, -14300.511992038726, -12818.814852096422, -18399.17372455284, 0.008, -0.024, 0.99, 192.0, 0.0, 0.0, 0.0, 0.0, 0.0, 0.0, 0.0, 0.0, 0.0, 1.644586643107359E9, 0.0, 2022-02-12 00:37:23.107
132.0, -13325.148919242492, -12524.129453197653, -8775.36192838692, -12423.054864770755, -14064.92460547979, -10341.973345514936, -12633.54124230638, -9811.208821679214, -12723.819938161367, -14450.067514189186, -12095.19947710031, -10883.91374157831, -11240.066437729172, -14252.276927504174, -12767.472895082581, -18368.708296860255, 0.008, -0.024, 0.99, 192.0, 0.0, 0.0, 0.0, 0.0, 0.0, 0.0, 0.0, 0.0, 0.0, 1.644586643123816E9, 0.0, 2022-02-12 00:37:23.123
134.0, -13381.296501314224, -12601.578247735293, -8811.795271849069, -12410.582591364693, -14071.227797416186, -10356.725496855439, -12638.950364464567, -9851.643127398864, -12729.832557419844, -14441.909127463, -12099.848639947015, -10894.01673007211, -11247.576623866156, -14256.30024150613, -12774.044307952441, -18364.126189246916, 0.008, -0.024, 0.99, 192.0, 0.0, 0.0, 0.0, 0.0, 0.0, 0.0, 0.0, 0.0, 0.0, 1.644586643130209E9, 0.0, 2022-02-12 00:37:23.130
136.0, -13342.15859677298, -12546.369438930684, -8781.463954623217, -12398.847925525657, -14047.758465738114, -10332.38444714361, -12617.604448509748, -9800.122356429381, -12740.293173824928, -14453.912014235499, -12107.314122595088, -10892.787384127067, -11242.301612174704, -14261.955232853323, -12786.896561014244, -18348.8822995284, 0.01, -0.024, 0.99, 192.0, 0.0, 40.0, 127.5, 32.0, 15.0, 120.0, 0.0, 0.0, 0.0, 1.644586643137456E9, 0.0, 2022-02-12 00:37:23.137
138.0, -13320.633866862521, -12530.209127689497, -8778.602931332938, -12382.151172417543, -14036.783759210559, -10324.1366534396, -12621.426596811605, -9798.311865128502, -12692.147516268196, -14396.982121107832, -12057.156808037378, -10843.47943585866, -11201.30851284367, -14231.62391562747, -12736.940412156631, -18332.00673246464, 0.01, -0.024, 0.99, 192.0, 0.0, 0.0, 0.0, 0.0, 0.0, 0.0, 0.0, 0.0, 0.0, 1.644586643144991E9, 0.0, 2022-02-12 00:37:23.144
140.0, -13331.407407689978, -12540.401523161117, -8793.511544884628, -12375.937387458967, -14026.993695139134, -10322.326162138721, -12619.705512488546, -9811.27587691258, -12719.506051481492, -14419.870307430067, -12098.954570168802, -10886.90887533532, -11235.50668186029, -14255.160302538909, -12773.8654939968, -18329.212764407726, 0.01, -0.024, 0.99, 192.0, 0.0, 0.0, 0.0, 0.0, 0.0, 0.0, 0.0, 0.0, 0.0, 1.644586643153882E9, 0.0, 2022-02-12 00:37:23.153
142.0, -13299.310302652158, -12484.23158934493, -8755.759448499615, -12364.15801813102, -14008.978189108157, -10294.922923436514, -12597.666692455614, -9768.896969425317, -12680.971644040543, -14398.390281008516, -12045.444493942798, -10810.778833720546, -11191.45139353888, -14219.397511410418, -12726.055112606897, -18310.14672638735, 0.01, -0.024, 0.99, 192.0, 0.0, 0.0, 0.0, 0.0, 0.0, 0.0, 0.0, 0.0, 0.0, 1.644586643159782E9, 0.0, 2022-02-12 00:37:23.159
144.0, -13312.274314436236, -12516.351046127207, -8784.660254080327, -12342.20860507591, -14011.906267631803, -10296.331083337198, -12598.381948278184, -9798.311865128502, -12684.302053964384, -14398.524391475248, -12050.63009865643, -10838.517348589581, -11196.324073830137, -14214.591886352526, -12725.406912017694, -18302.52478152809, 0.01, -0.024, 0.99, 192.0, 0.0, 0.0, 0.0, 0.0, 0.0, 0.0, 0.0, 0.0, 0.0, 1.64458664316798E9, 0.0, 2022-02-12 00:37:23.167
146.0, -13268.062563903639, -12469.479438004428, -8752.138465897855, -12336.687724195448, -13983.38544170683, -10269.173713824, -12568.654128152624, -9743.88536737983, -12685.50904816497, -14378.877208099033, -12051.881796345926, -10833.957592720699, -11195.675873240933, -14206.992293237721, -12730.458406264594, -18279.055449850017, 0.016, -0.026000000000000002, 0.99, 192.0, 0.0, 64.0, 127.5, 24.0, 15.0, 120.0, 0.0, 0.0, 0.0, 1.644586643174787E9, 0.0, 2022-02-12 00:37:23.174
148.0, -13252.125770107004, -12446.300679004275, -8757.033497933568, -12325.936535112445, -13981.932578317235, -10265.351565522144, -12562.596805405237, -9744.175940057748, -12639.240937142486, -14347.115379228042, -12009.055853969558, -10790.461098010672, -11135.661439378435, -14151.694077455293, -12679.787001584411, -18262.157531041805, 0.016, -0.026000000000000002, 0.99, 192.0, 0.0, 0.0, 0.0, 0.0, 0.0, 0.0, 0.0, 0.0, 0.0, 1.644586643182709E9, 0.0, 2022-02-12 00:37:23.182
150.0, -13256.417305042423, -12458.638841943604, -8762.219102647197, -12320.527412954261, -13974.71296485817, -10259.920091619504, -12569.861122353212, -9760.380954787846, -12654.283661160907, -14359.811170078656, -12035.654429871372, -10837.891499744834, -11180.16376258895, -14175.632795766925, -12714.56631595687, -18256.211967016694, 0.016, -0.026000000000000002, 0.99, 192.0, 0.0, 0.0, 0.0, 0.0, 0.0, 0.0, 0.0, 0.0, 0.0, 1.644586643189232E9, 0.0, 2022-02-12 00:37:23.189
152.0, -13210.015083553206, -12415.499975144861, -8725.83046267396, -12304.0541772907, -13949.209624434665, -10238.30595473122, -12548.425799420573, -9710.290695463502, -12624.332323590796, -14319.399216103462, -11985.005376935647, -10774.434897236217, -11141.271727236715, -14152.185815833309, -12669.259329945962, -18237.83883307443, 0.016, -0.026000000000000002, 0.99, 192.0, 0.0, 0.0, 0.0, 0.0, 0.0, 0.0, 0.0, 0.0, 0.0, 1.644586643197231E9, 0.0, 2022-02-12 00:37:23.197
154.0, -13238.848833900553, -12452.827388385223, -8759.671003779293, -12291.090165506623, -13957.032734994023, -10247.179597279977, -12565.524883928882, -9741.001992345095, -12628.757968992946, -14325.814166762135, -11992.649673539361, -10776.580664703926, -11142.545776670668, -14153.459865267261, -12669.371088668238, -18234.351960939402, 0.016, -0.026000000000000002, 0.99, 192.0, 0.0, 0.0, 0.0, 0.0, 0.0, 0.0, 0.0, 0.0, 0.0, 1.64458664320575E9, 0.0, 2022-02-12 00:37:23.205
156.0, -13228.455272728834, -12415.07529200021, -8733.050076133022, -12286.105726493088, -13925.405016589764, -10218.055274254713, -12522.76599678588, -9697.237276701604, -12634.815291740333, -14327.378788874006, -12004.674912056316, -10776.446554237195, -11141.562299914634, -14155.471522268239, -12675.920149793643, -18219.644513087813, 0.012, -0.024, 0.998, 192.0, 0.0, 48.0, 127.5, 32.0, 15.5, 24.0, 0.0, 0.0, 0.0, 1.644586643213762E9, 0.0, 2022-02-12 00:37:23.213
158.0, -13214.507784188723, -12412.415434410028, -8739.599137258427, -12274.348708909596, -13915.883173451803, -10210.388625906542, -12522.408368874594, -9699.539506380499, -12601.913523902122, -14273.44402950335, -11953.578824231485, -10727.384475157794, -11100.368034883504, -14098.765146585125, -12621.49365204497, -18204.37827162484, 0.012, -0.024, 0.998, 192.0, 0.0, 0.0, 0.0, 0.0, 0.0, 0.0, 0.0, 0.0, 0.0, 1.644586643220126E9, 0.0, 2022-02-12 00:37:23.220
160.0, -13209.545696919644, -12416.17052747852, -8760.274500879586, -12266.190322183409, -13911.368121071831, -10213.294352685733, -12518.362703128185, -9712.704683864677, -12627.394512581172, -14301.383710072483, -11993.677853784306, -10782.973263618143, -11123.792663072665, -14131.041065578589, -12658.686954818602, -18206.501687348093, 0.012, -0.024, 0.998, 192.0, 0.0, 0.0, 0.0, 0.0, 0.0, 0.0, 0.0, 0.0, 0.0, 1.644586643227931E9, 0.0, 2022-02-12 00:37:23.227
162.0, -13172.46415286829, -12361.744029729847, -8728.445616775229, -12257.204920912376, -13892.480897007097, -10192.149602431013, -12495.51922029486, -9658.904034960751, -12592.101108086243, -14283.748183697247, -11948.415571262309, -10727.250364691063, -11084.565351553601, -14107.012940289134, -12615.861012442234, -18184.440515570703, 0.012, -0.024, 0.998, 192.0, 0.0, 0.0, 0.0, 0.0, 0.0, 0.0, 0.0, 0.0, 0.0, 1.644586643241634E9, 0.0, 2022-02-12 00:37:23.241
164.0, -13192.84894381153, -12385.63804455257, -8764.186056159266, -12240.821092226637, -13890.089260350378, -10196.597599577619, -12511.14308966912, -9693.213962699649, -12588.703642929035, -14272.72877368078, -11953.2211963202, -10745.869367822334, -11069.299110090627, -14107.638789133882, -12614.631666497191, -18179.947814935185, 0.012, -0.024, 0.998, 192.0, 0.0, 0.0, 0.0, 0.0, 0.0, 0.0, 0.0, 0.0, 0.0, 1.644586643249533E9, 0.0, 2022-02-12 00:37:23.249
166.0, -13141.998725175707, -12351.573986002682, -8728.378561541864, -12234.89787994598, -13869.100972306846, -10162.399430560998, -12479.560074753772, -9650.611537767832, -12588.815401651313, -14273.466381247805, -11961.580748746484, -10747.858673078856, -11072.7636304812, -14100.955617541746, -12621.672466000613, -18165.26271882805, 0.014, -0.02, 0.992, 192.0, 0.0, 56.0, 127.5, 48.0, 15.5, 0.0, 0.0, 0.0, 0.0, 1.64458664325753E9, 0.0, 2022-02-12 00:37:23.257
168.0, -13142.781036231641, -12351.305765069219, -8740.1132273809, -12223.230269340309, -13869.816228129415, -10164.098163139603, -12486.891446935111, -9657.406468082247, -12547.397619175628, -14236.541299407638, -11916.83255634696, -10689.185343883675, -11062.414772798393, -14058.017916443101, -12571.9174828431, -18149.616497709336, 0.014, -0.02, 0.992, 192.0, 0.0, 0.0, 0.0, 0.0, 0.0, 0.0, 0.0, 0.0, 0.0, 1.644586643264689E9, 0.0, 2022-02-12 00:37:23.264
170.0, -13167.725583043764, -12365.54382628725, -8757.860512478414, -12213.954295391357, -13860.540254180463, -10161.661822993974, -12488.031385902332, -9661.586244295388, -12584.322701015795, -14260.01063108571, -11959.70320221224, -10736.302821195462, -11092.410813857416, -14097.155820984342, -12613.78230020789, -18150.242346554085, 0.014, -0.02, 0.992, 192.0, 0.0, 0.0, 0.0, 0.0, 0.0, 0.0, 0.0, 0.0, 0.0, 1.644586643272086E9, 0.0, 2022-02-12 00:37:23.272
172.0, -13115.444852762801, -12306.982255814346, -8714.878107890858, -12204.27599004221, -13829.806605554415, -10124.826148131628, -12450.882786617613, -9608.634961680766, -12551.44328492204, -14224.091377746032, -11908.674169620774, -10679.328224578885, -11052.602356982512, -14035.44265454324, -12563.781447861367, -18121.408596206737, 0.014, -0.02, 0.992, 192.0, 0.0, 0.0, 0.0, 0.0, 0.0, 0.0, 0.0, 0.0, 0.0, 1.644586643280084E9, 0.0, 2022-02-12 00:37:23.280
174.0, -13135.539071028123, -12335.257212550308, -8752.585500786961, -12190.552018946652, -13833.874623045282, -10136.493758737297, -12474.955615395978, -9652.19851162416, -12551.353877944217, -14217.028226498154, -11903.846192818428, -10676.422497799695, -11034.385685251438, -14034.772102209581, -12568.184741519064, -18114.367796703315, 0.014, -0.02, 0.992, 192.0, 0.0, 0.0, 0.0, 0.0, 0.0, 0.0, 0.0, 0.0, 0.0, 1.64458664328818E9, 0.0, 2022-02-12 00:37:23.288
176.0, -13074.384698198402, -12260.870607003048, -8717.850889903413, -12180.873713597503, -13804.862058742292, -10110.453976446865, -12445.048981314778, -9617.776825162986, -12547.799950575823, -14201.069080957066, -11911.825765588972, -10687.35250083834, -11055.061048872596, -14041.119997634889, -12570.218750264496, -18101.694357597156, 0.014, -0.022, 0.992, 192.0, 0.0, 56.0, 127.5, 40.0, 15.5, 0.0, 0.0, 0.0, 0.0, 1.644586643295341E9, 0.0, 2022-02-12 00:37:23.295
178.0, -13085.337052981504, -12283.088240991621, -8726.366904540886, -12176.381012961987, -13802.090442429835, -10118.031217817213, -12441.316239990741, -9608.679665169677, -12494.08870864972, -14145.904975641368, -11857.667488773763, -10632.210747267098, -10984.295425927094, -13997.645854669316, -12518.966200228477, -18088.305662668427, 0.014, -0.022, 0.992, 192.0, 0.0, 0.0, 0.0, 0.0, 0.0, 0.0, 0.0, 0.0, 0.0, 1.64458664330218E9, 0.0, 2022-02-12 00:37:23.302
180.0, -13116.45068126329, -12309.262133748787, -8740.783779714558, -12172.60356814904, -13803.677416286162, -10111.370397969533, -12458.147103565587, -9628.393903779257, -12544.983630774455, -14216.871764286967, -11904.852021318917, -10690.772317740002, -11041.538243477136, -14051.759427995614, -12559.512264670404, -18092.86541853731, 0.014, -0.022, 0.992, 192.0, 0.0, 0.0, 0.0, 0.0, 0.0, 0.0, 0.0, 0.0, 0.0, 1.644586643311226E9, 0.0, 2022-02-12 00:37:23.311
182.0, -13076.01637554364, -12270.124229207544, -8702.830517629447, -12163.662870366916, -13783.270273598466, -10084.593008112075, -12424.865356071634, -9577.208408976605, -12509.243191390418, -14181.779525492137, -11855.208796883679, -10628.857985598801, -11000.209867979273, -13993.980168578646, -12520.463767106983, -18070.938357226652, 0.014, -0.022, 0.992, 192.0, 0.0, 0.0, 0.0, 0.0, 0.0, 0.0, 0.0, 0.0, 0.0, 1.644586643317751E9, 0.0, 2022-02-12 00:37:23.317
184.0, -13093.428384474324, -12299.405014443995, -8731.619564487883, -12147.703724825828, -13784.276102098955, -10096.841764073582, -12429.000428795867, -9606.489194213056, -12508.505583823393, -14185.065231927067, -11856.639308528818, -10637.262241513998, -10992.833792309022, -13983.832476595937, -12518.51916533937, -18065.462179835104, 0.014, -0.022, 0.992, 192.0, 0.0, 0.0, 0.0, 0.0, 0.0, 0.0, 0.0, 0.0, 0.0, 1.644586643324489E9, 0.0, 2022-02-12 00:37:23.324
186.0, -13037.191395424772, -12228.304115331664, -8697.86843036037, -12136.30433515362, -13761.097343098802, -10066.979833481293, -12412.88482104359, -9562.478609380558, -12513.445319348017, -14175.453981811284, -11873.82780001495, -10651.634413198759, -11008.658827383379, -13993.801354623003, -12526.565793343281, -18048.407798815704, 0.014, -0.028, 0.994, 192.0, 0.0, 56.0, 127.5, 16.0, 15.5, 8.0, 0.0, 0.0, 0.0, 1.644586643332361E9, 0.0, 2022-02-12 00:37:23.332
188.0, -13016.024293425597, -12195.93878936038, -8702.159965295788, -12126.693085037838, -13748.580366203829, -10063.336499135077, -12399.563181348227, -9565.786667559942, -12461.70103093398, -14122.74856838567, -11823.066988356948, -10600.895953285213, -10945.157521385852, -13938.011400462558, -12473.41334502856, -18029.833499173343, 0.014, -0.028, 0.994, 192.0, 0.0, 0.0, 0.0, 0.0, 0.0, 0.0, 0.0, 0.0, 0.0, 1.644586643340433E9, 0.0, 2022-02-12 00:37:23.340
190.0, -13025.747302263655, -12240.195243381888, -8722.053017861012, -12119.473471578774, -13750.614374949262, -10066.08576370308, -12410.381425664596, -9580.963502045095, -12486.734984723924, -14137.925402870824, -11869.178637168246, -10646.337049762851, -10988.65401609588, -13976.81402883697, -12507.745624511914, -18031.107548607295, 0.014, -0.028, 0.994, 192.0, 0.0, 0.0, 0.0, 0.0, 0.0, 0.0, 0.0, 0.0, 0.0, 1.644586643346931E9, 0.0, 2022-02-12 00:37:23.346
192.0, -13014.772595736098, -12192.340158503075, -8676.47781091664, -12109.437538318341, -13723.278191480422, -10031.328801075078, -12380.45243983894, -9525.620582773756, -12455.174321553031, -14116.89241133838, -11824.117520346346, -10585.361490888774, -10951.617175533436, -13943.66639180975, -12475.067374118255, -18012.51089722048, 0.014, -0.028, 0.994, 192.0, 0.0, 0.0, 0.0, 0.0, 0.0, 0.0, 0.0, 0.0, 0.0, 1.644586643355211E9, 0.0, 2022-02-12 00:37:23.355
194.0, -13021.478119072692, -12220.972743150323, -8711.838270644936, -12093.992482899725, -13726.966229315547, -10039.151911634435, -12387.627349809092, -9562.009222746996, -12449.161702294554, -14095.367681427919, -11813.120462074336, -10583.685110054626, -10943.950527185265, -13932.535223071007, -12467.959519381468, -18005.291283761417, 0.016, -0.028999999999999998, 0.993, 192.0, 0.0, 72.0, 127.5, 8.0, 15.5, 0.0, 0.0, 0.0, 0.0, 1.644586643370348E9, 0.0, 2022-02-12 00:37:23.370
196.0, -12989.42571752378, -12172.447105937852, -8684.345624964908, -12088.069270619068, -13706.626141861218, -10010.921658387382, -12368.673070510993, -9523.854794961786, -12460.426981500028, -14120.289876495586, -11819.468357499643, -10586.747299045002, -10953.11474241194, -13927.617839290839, -12485.483287034427, -17991.723774877046, 0.016, -0.028999999999999998, 0.993, 192.0, 0.0, 0.0, 0.0, 0.0, 0.0, 0.0, 0.0, 0.0, 0.0, 1.644586643376722E9, 0.0, 2022-02-12 00:37:23.376
198.0, -12971.767839404089, -12156.532663885673, -8687.877200588848, -12075.976976868747, -13705.66501684964, -10009.468794997787, -12386.286245141775, -9523.787739728421, -12424.21715548243, -14069.864341004413, -11773.177894732702, -10535.181824586609, -10916.614343716425, -13884.255455047543, -12442.478530702416, -17982.961891050567, 0.016, -0.028999999999999998, 0.993, 192.0, 0.0, 0.0, 0.0, 0.0, 0.0, 0.0, 0.0, 0.0, 0.0, 1.644586643384733E9, 0.0, 2022-02-12 00:37:23.384
200.0, -12949.483150182146, -12152.934033028369, -8698.986017583135, -12065.62811918594, -13691.426955631609, -10009.088815342047, -12376.697346770448, -9536.818806745865, -12433.135501520099, -14084.281216178086, -11810.661770184252, -10574.56559831686, -10935.479216036703, -13910.474051293619, -12481.012938143365, -17984.526513162436, 0.016, -0.028999999999999998, 0.993, 192.0, 0.0, 0.0, 0.0, 0.0, 0.0, 0.0, 0.0, 0.0, 0.0, 1.644586643392806E9, 0.0, 2022-02-12 00:37:23.392
202.0, -12927.667847593768, -12108.319951095576, -8662.575025865439, -12058.207340026778, -13662.660260517629, -9986.044166808626, -12341.87332890908, -9482.369957252737, -12400.211381937432, -14049.1666256388, -11775.167199989224, -10530.242089061987, -10875.82241008549, -13881.729707924094, -12437.315277733242, -17965.169902464142, 0.016, -0.028999999999999998, 0.993, 192.0, 0.0, 0.0, 0.0, 0.0, 0.0, 0.0, 0.0, 0.0, 0.0, 1.644586643399644E9, 0.0, 2022-02-12 00:37:23.399
204.0, -12975.210008050206, -12162.880559310981, -8692.660473902282, -12048.461979444264, -13665.722449508006, -9995.096623313026, -12351.953965658424, -9519.876184448742, -12392.768251033815, -14048.585480282962, -11764.214845206125, -10516.853394133257, -10878.281101975574, -13872.297271763955, -12431.995562552878, -17962.822969296332, 0.017, -0.0295, 0.9915, 192.0, 0.0, 72.0, 127.5, 8.0, 15.0, 120.0, 0.0, 0.0, 0.0, 1.644586643407392E9, 0.0, 2022-02-12 00:37:23.407
206.0, -12937.234394220639, -12115.405454087908, -8657.300014173987, -12045.042162542602, -13647.773998710394, -9973.706003869296, -12339.34758178563, -9494.775175425431, -12405.441690139973, -14059.671945532793, -11774.943682544672, -10537.662868221149, -10905.460823233227, -13874.398335742753, -12455.174321553031, -17957.436198882606, 0.017, -0.0295, 0.9915, 192.0, 0.0, 0.0, 0.0, 0.0, 0.0, 0.0, 0.0, 0.0, 0.0, 1.644586643415286E9, 0.0, 2022-02-12 00:37:23.415
208.0, -12925.432673148236, -12092.785488699137, -8655.62363333984, -12028.054836756568, -13633.513585747909, -9964.564140387076, -12337.805311418213, -9479.307768262359, -12359.240634350854, -14014.074386843968, -11720.69599875164, -10471.702870333538, -10831.968287464177, -13833.047608500436, -12405.59815235116, -17940.538280074394, 0.017, -0.0295, 0.9915, 192.0, 0.0, 0.0, 0.0, 0.0, 0.0, 0.0, 0.0, 0.0, 0.0, 1.644586643422291E9, 0.0, 2022-02-12 00:37:23.422
210.0, -12936.966173287175, -12107.180012128356, -8672.208627725677, -12021.61753435344, -13630.071417101792, -9959.803218818095, -12332.686761937948, -9487.756727666465, -12391.896533000057, -14038.929526678268, -11763.141961472269, -10518.328609267308, -10872.983738539666, -13861.590786169862, -12437.605850411159, -17935.285620127397, 0.017, -0.0295, 0.9915, 192.0, 0.0, 0.0, 0.0, 0.0, 0.0, 0.0, 0.0, 0.0, 0.0, 1.644586643429251E9, 0.0, 2022-02-12 00:37:23.429
212.0, -12886.898265707287, -12050.026601556136, -8629.047409182478, -12013.883830771903, -13610.848916870227, -9930.00834345917, -12320.236840276342, -9443.813198067332, -12360.022945406788, -14001.490354715628, -11717.164423127702, -10475.167390724111, -10837.846796255923, -13812.68516930165, -12391.091870199665, -17909.98344540399, 0.017, -0.0295, 0.9915, 192.0, 0.0, 0.0, 0.0, 0.0, 0.0, 0.0, 0.0, 0.0, 0.0, 1.644586643437711E9, 0.0, 2022-02-12 00:37:23.437
214.0, -12919.12948121184, -12105.548334783118, -8663.558502621472, -11995.555400318552, -13616.570963450786, -9949.476712879743, -12330.138663070044, -9483.73341366451, -12355.642003493549, -13999.09871805891, -11721.053626662926, -10470.540579621862, -10832.057694441997, -13818.295457159933, -12384.20753290743, -17910.296369826363, 0.0165, -0.02675, 0.99175, 192.0, 0.0, 64.0, 127.5, 32.0, 15.5, 0.0, 0.0, 0.0, 0.0, 1.644586643445075E9, 0.0, 2022-02-12 00:37:23.445
216.0, -12906.903076994788, -12042.471711930242, -8630.544976060984, -11993.2308188952, -13593.347500961721, -9910.182346127314, -12302.556610412194, -9426.53529960338, -12373.165771146509, -13992.862581355881, -11738.622097804797, -10489.807783342336, -10830.828348496956, -13831.907669533215, -12398.60205633665, -17896.862971408722, 0.0165, -0.02675, 0.99175, 192.0, 0.0, 0.0, 0.0, 0.0, 0.0, 0.0, 0.0, 0.0, 0.0, 1.644586643452333E9, 0.0, 2022-02-12 00:37:23.452
218.0, -12906.053710705484, -12058.497912704697, -8635.395304607786, -11983.530161801596, -13593.660425384096, -9907.969523426238, -12321.44383447693, -9437.48765438648, -12322.516718210783, -13955.356354159876, -11678.45120173111, -10429.927459946568, -10796.786641691524, -13774.798962449904, -12345.717828955392, -17874.533578697872, 0.0165, -0.02675, 0.99175, 192.0, 0.0, 0.0, 0.0, 0.0, 0.0, 0.0, 0.0, 0.0, 0.0, 1.644586643459689E9, 0.0, 2022-02-12 00:37:23.459
220.0, -12921.61052484638, -12071.350165766498, -8656.450647884685, -11982.323167601011, -13588.698338115018, -9915.680875263319, -12304.925895324457, -9440.326325932303, -12357.20662560542, -13995.947122090713, -11720.539536540455, -10477.290806447365, -10837.355057877905, -13824.799814796426, -12386.040375952767, -17886.424706748094, 0.0165, -0.02675, 0.99175, 192.0, 0.0, 0.0, 0.0, 0.0, 0.0, 0.0, 0.0, 0.0, 0.0, 1.644586643467455E9, 0.0, 2022-02-12 00:37:23.467
222.0, -12851.068419345429, -11982.814905979027, -8614.854051453358, -11974.410650063832, -13555.528349343342, -9880.208656812747, -12266.905578005979, -9381.384775803659, -12325.15422405651, -13951.780075047027, -11689.224742558568, -10442.064457185801, -10794.015025379065, -13783.292625342921, -12339.414637018996, -17860.42962794657, 0.0165, -0.02675, 0.99175, 192.0, 0.0, 0.0, 0.0, 0.0, 0.0, 0.0, 0.0, 0.0, 0.0, 1.644586643475801E9, 0.0, 2022-02-12 00:37:23.475
224.0, -12871.676727733224, -12031.161729235857, -8651.42150538224, -11966.74400171566, -13558.523483100354, -9897.777127954618, -12272.605272842084, -9415.068854697807, -12306.266999991776, -13953.255290181076, -11686.743698924029, -10422.752549976416, -10755.190045260197, -13770.216854836566, -12326.67414267947, -17852.38299994266, 0.01525, -0.026375000000000003, 0.9878750000000001, 192.0, 0.0, 56.0, 127.5, 24.0, 15.0, 96.0, 0.0, 0.0, 0.0, 1.644586643489333E9, 0.0, 2022-02-12 00:37:23.489
226.0, -12884.014890672552, -12027.764264078649, -8614.138795630788, -11960.485513268175, -13540.552680558287, -9879.269883545623, -12264.335127393619, -9391.398357319636, -12328.037599091245, -13963.157112974777, -11711.4647282916, -10458.537692849362, -10814.109243644387, -13788.791154478928, -12350.523454013284, -17850.684267364057, 0.01525, -0.026375000000000003, 0.9878750000000001, 192.0, 0.0, 0.0, 0.0, 0.0, 0.0, 0.0, 0.0, 0.0, 0.0, 1.644586643497176E9, 0.0, 2022-02-12 00:37:23.497
228.0, -12851.20252981216, -11987.75464150365, -8604.32637981491, -11942.291193281555, -13519.43028204802, -9866.931720606295, -12251.706391776372, -9389.654921252122, -12267.129095450533, -13916.598429274372, -11630.171433707648, -10381.62534017865, -10741.533129398005, -13734.76698813045, -12298.667406876972, -17835.283915434353, 0.01525, -0.026375000000000003, 0.9878750000000001, 192.0, 0.0, 0.0, 0.0, 0.0, 0.0, 0.0, 0.0, 0.0, 0.0, 1.644586643505232E9, 0.0, 2022-02-12 00:37:23.505
230.0, -12891.88270472082, -12027.294877445089, -8635.149435418778, -11943.431132248776, -13519.877316937127, -9864.830656627495, -12260.244758158298, -9390.95132243053, -12315.967657085379, -13938.905470240768, -11676.104268563304, -10417.656352240605, -10763.259025008563, -13742.746560900994, -12335.145453828032, -17830.0089037429, 0.01525, -0.026375000000000003, 0.9878750000000001, 192.0, 0.0, 0.0, 0.0, 0.0, 0.0, 0.0, 0.0, 0.0, 0.0, 1.644586643512297E9, 0.0, 2022-02-12 00:37:23.512
232.0, -12822.748759120555, -11961.89367316886, -8597.352635544854, -11936.569146700996, -13492.652892190563, -9838.634412125875, -12230.18166186591, -9341.978650328952, -12293.660616118983, -13917.939533941691, -11662.045021300915, -10393.404709506596, -10742.74012359859, -13731.928316584626, -12301.841354589624, -17809.49000233293, 0.01525, -0.026375000000000003, 0.9878750000000001, 192.0, 0.0, 0.0, 0.0, 0.0, 0.0, 0.0, 0.0, 0.0, 0.0, 1.64458664351975E9, 0.0, 2022-02-12 00:37:23.519
234.0, -12875.253006846073, -11996.248304396666, -8631.886080728304, -11922.532251183064, -13495.759784669852, -9840.131979004382, -12251.125246420534, -9373.18168558856, -12284.585807870128, -13896.481859264597, -11659.608681155287, -10383.257017523887, -10729.530242625504, -13726.407435704165, -12292.811249829681, -17807.56775230977, 0.013625, -0.0281875, 0.9869375, 192.0, 0.0, 48.0, 127.5, 8.0, 15.0, 104.0, 0.0, 0.0, 0.0, 1.644586643529295E9, 0.0, 2022-02-12 00:37:23.529
236.0, -12858.82447467142, -11967.816885449516, -8608.863783939336, -11923.158100027813, -13474.391516970578, -9813.511051358111, -12221.173908850422, -9342.090409051229, -12295.046424275211, -13902.56153375644, -11688.531838480454, -10405.094671856723, -10744.975298044123, -13729.00023806098, -12313.330151239652, -17794.42492657005, 0.013625, -0.0281875, 0.9869375, 192.0, 0.0, 0.0, 0.0, 0.0, 0.0, 0.0, 0.0, 0.0, 0.0, 1.644586643535365E9, 0.0, 2022-02-12 00:37:23.535
238.0, -12869.665070732246, -11950.673097452296, -8598.26905706752, -11915.334989468454, -13465.584929655186, -9805.509126843112, -12226.404217052963, -9329.260507733883, -12262.770505281747, -13857.36630646781, -11638.598041367299, -10368.817790605759, -10699.44479458866, -13688.94591199707, -12258.680136046427, -17782.734964219926, 0.013625, -0.0281875, 0.9869375, 192.0, 0.0, 0.0, 0.0, 0.0, 0.0, 0.0, 0.0, 0.0, 0.0, 1.644586643541659E9, 0.0, 2022-02-12 00:37:23.541
240.0, -12876.102373135374, -11987.218199636722, -8622.788920734993, -11903.756785840606, -13463.57327265421, -9813.332237402468, -12228.75115022077, -9356.127304569161, -12288.00562477179, -13875.605329943339, -11653.551358407898, -10382.877037868147, -10700.78589925598, -13703.742766826483, -12297.14748825401, -17781.550321763792, 0.013625, -0.0281875, 0.9869375, 192.0, 0.0, 0.0, 0.0, 0.0, 0.0, 0.0, 0.0, 0.0, 0.0, 1.644586643549844E9, 0.0, 2022-02-12 00:37:23.549
242.0, -12827.39792196726, -11931.987039087659, -8585.997949361557, -11900.381672427855, -13444.171958467003, -9789.617036535386, -12197.168135305421, -9299.085652719219, -12260.892958747501, -13854.438227944163, -11623.77883479343, -10330.99863898738, -10682.479820547083, -13675.892493235171, -12261.451752358886, -17762.394876765597, 0.013625, -0.0281875, 0.9869375, 192.0, 0.0, 0.0, 0.0, 0.0, 0.0, 0.0, 0.0, 0.0, 0.0, 1.644586643558064E9, 0.0, 2022-02-12 00:37:23.558
244.0, -12842.038314585485, -11949.466103251709, -8617.022170665523, -11893.944370024727, -13457.962984795928, -9807.498432099634, -12233.243850856286, -9351.209920788995, -12254.545063322195, -13852.560681409917, -11626.215174939058, -10343.403857160076, -10713.727559295603, -13679.200551414557, -12261.00471746978, -17765.680583200527, 0.012812500000000001, -0.02709375, 0.98646875, 192.0, 0.0, 48.0, 127.5, 24.0, 15.0, 104.0, 0.0, 0.0, 0.0, 1.64458664356482E9, 0.0, 2022-02-12 00:37:23.564
