%OpenBCI Raw EEG Data
%Number of channels = 16
%Sample Rate = 125 Hz
%Board = OpenBCI_GUI$BoardCytonSerialDaisy
Sample Index, EXG Channel 0, EXG Channel 1, EXG Channel 2, EXG Channel 3, EXG Channel 4, EXG Channel 5, EXG Channel 6, EXG Channel 7, EXG Channel 8, EXG Channel 9, EXG Channel 10, EXG Channel 11, EXG Channel 12, EXG Channel 13, EXG Channel 14, EXG Channel 15, Accel Channel 0, Accel Channel 1, Accel Channel 2, Other, Other, Other, Other, Other, Other, Other, Analog Channel 0, Analog Channel 1, Analog Channel 2, Timestamp, Other, Timestamp (Formatted)
26.0, -13378.480181512856, -12721.94239162712, -8291.73723360744, -13883.27197829151, -13092.981349585218, -9820.104815972427, -12266.749115794793, -9718.806710100975, -12668.052335745375, -14838.049094444406, -11856.259328873079, -9701.640570359299, -9526.894632207708, -13116.987123130219, -13141.998725175707, -19657.867510064545, 0.014, -0.026000000000000002, 0.99, 192.0, 0.0, 56.0, 127.5, 24.0, 15.0, 120.0, 0.0, 0.0, 0.0, 1.644586744778284E9, 0.0, 2022-02-12 00:39:04.778
28.0, -13347.746532886807, -12686.380766198727, -8277.879152045149, -13883.473143991607, -13084.465334947747, -9809.599496078432, -12270.57126409665, -9700.008893014061, -12632.244841127973, -14784.78488740741, -11814.819194652939, -9657.585282037888, -9464.488561688491, -13077.223369744226, -13099.530410710622, -19650.22321346083, 0.014, -0.026000000000000002, 0.99, 192.0, 0.0, 0.0, 0.0, 0.0, 0.0, 0.0, 0.0, 0.0, 0.0, 1.644586744778289E9, 0.0, 2022-02-12 00:39:04.778
0.0, -7008.255363494798, -6804.385102317942, -4471.757050962097, -6952.3536506120745, -7156.872112378134, -5287.23809566952, -6484.28576997349, -5154.9381202385575, -6333.25503268898, -7417.851080638299, -5931.951812738396, -4850.619119479552, -4768.185885928379, -6554.716116752162, -6572.3963466163095, -9829.80547306603, 0.012, -0.024, 0.99, 192.0, 0.0, 48.0, 127.5, 32.0, 15.0, 120.0, 0.0, 0.0, 0.0, 1.644586744892599E9, 0.0, 2022-02-12 00:39:04.892
2.0, -14022.366884036886, -13626.338675777755, -8948.789113615647, -13922.767510744037, -14329.613963319536, -10594.481002626539, -12966.559882946001, -10312.08906317819, -13238.021819355705, -15389.153705734458, -12579.047689324343, -10350.109380496668, -10691.174649140197, -13904.953170413159, -13774.217817094066, -19866.431637577014, 0.012, -0.024, 0.99, 192.0, 0.0, 0.0, 0.0, 0.0, 0.0, 0.0, 0.0, 0.0, 0.0, 1.644586744900177E9, 0.0, 2022-02-12 00:39:04.900
4.0, -14016.644837456328, -13598.533105675353, -8943.849378091023, -13911.435176305196, -14332.631448821003, -10586.792002533914, -12963.654156166811, -10299.013292671836, -13218.799319124142, -15358.241243152768, -12575.87374161169, -10351.137560741612, -10687.68777700517, -13914.095033895379, -13755.82233140735, -19852.059465892253, 0.012, -0.024, 0.99, 192.0, 0.0, 0.0, 0.0, 0.0, 0.0, 0.0, 0.0, 0.0, 0.0, 1.644586744906607E9, 0.0, 2022-02-12 00:39:04.906
6.0, -14009.313465274987, -13592.83341083925, -8958.623881175981, -13904.84141169088, -14343.941431515388, -10602.639389352726, -12972.326633015471, -10326.818862774237, -13214.060749299617, -15382.626996353507, -12586.58022720578, -10375.00922381988, -10702.998721957056, -13905.914295424736, -13766.841741423816, -19853.46762579294, 0.012, -0.025, 0.992, 192.0, 0.0, 48.0, 127.5, 24.0, 15.5, 8.0, 0.0, 0.0, 0.0, 1.644586744914758E9, 0.0, 2022-02-12 00:39:04.914
8.0, -14007.994712352123, -13606.222105767978, -8963.116581811499, -13914.854993206858, -14368.505998671772, -10625.43816869714, -12982.340214531449, -10311.194993399977, -13205.544734662144, -15373.194560193368, -12594.023358109398, -10364.705069625983, -10696.986102698578, -13923.907449711258, -13769.546302502908, -19846.091550122685, 0.012, -0.025, 0.992, 192.0, 0.0, 0.0, 0.0, 0.0, 0.0, 0.0, 0.0, 0.0, 0.0, 1.644586744921632E9, 0.0, 2022-02-12 00:39:04.921
10.0, -14014.588476966439, -13628.327981034277, -8967.408116746918, -13880.723879423605, -14356.03372526571, -10609.367264433773, -12965.486999212146, -10318.638124303596, -13207.176412007382, -15363.538606588676, -12582.579264948281, -10357.843084078204, -10703.26694289052, -13924.488595067096, -13760.650308209695, -19836.100320351165, 0.012, -0.025, 0.992, 192.0, 0.0, 0.0, 0.0, 0.0, 0.0, 0.0, 0.0, 0.0, 0.0, 1.644586744936307E9, 0.0, 2022-02-12 00:39:04.936
12.0, -14003.032625083046, -13595.78384110735, -8977.600512218538, -13893.196152829667, -14372.574016162636, -10617.726816860059, -12975.165304561295, -10321.745016782883, -13209.724510875287, -15366.556092090143, -12587.966035362011, -10372.774049374348, -10712.699379050659, -13934.993914961091, -13768.451067024598, -19832.07700634921, 0.012, -0.025, 0.992, 192.0, 0.0, 0.0, 0.0, 0.0, 0.0, 0.0, 0.0, 0.0, 0.0, 1.644586744944546E9, 0.0, 2022-02-12 00:39:04.944
14.0, -13969.259139211075, -13583.73625084594, -8972.951349371833, -13875.582978198885, -14376.574978420136, -10621.14663376172, -12974.382993505358, -10321.208574915956, -13179.594359349532, -15322.433748535366, -12597.420823266606, -10375.545665686806, -10735.40875141725, -13933.541051571496, -13761.097343098802, -19819.269456776317, 0.012, -0.025, 0.992, 192.0, 0.0, 0.0, 0.0, 0.0, 0.0, 0.0, 0.0, 0.0, 0.0, 1.644586744952249E9, 0.0, 2022-02-12 00:39:04.952
16.0, -14008.173526307766, -13603.31637898879, -8984.663663466414, -13859.847350102347, -14377.133772031519, -10623.940601818635, -12976.349947017427, -10331.557432598762, -13179.75082156072, -15316.801108932628, -12591.519962730405, -10375.478610453441, -10741.242556720086, -13938.413731862753, -13760.940880887614, -19820.11882306562, 0.011, -0.0235, 0.99, 192.0, 0.0, 40.0, 127.5, 40.0, 15.0, 112.0, 0.0, 0.0, 0.0, 1.64458674495935E9, 0.0, 2022-02-12 00:39:04.959
18.0, -14004.574895450462, -13577.969500776471, -8990.497468769248, -13883.070812591412, -14401.117193832064, -10642.9619363501, -12986.676452955779, -10336.296002423287, -13173.782905791153, -15345.679562768884, -12588.211904551019, -10382.541761701317, -10749.535053913005, -13936.536185328507, -13762.48315125503, -19802.930331579486, 0.011, -0.0235, 0.99, 192.0, 0.0, 0.0, 0.0, 0.0, 0.0, 0.0, 0.0, 0.0, 0.0, 1.644586744966913E9, 0.0, 2022-02-12 00:39:04.966
20.0, -13981.709060872683, -13612.16766979309, -8997.493564783761, -13849.923175564192, -14390.388356493517, -10637.508110703006, -12966.51517945709, -10330.842176776192, -13158.248443394714, -15326.054731137125, -12586.82609639479, -10394.231724051444, -10744.371800943829, -13953.635269836817, -13748.647421437196, -19798.080003032686, 0.011, -0.0235, 0.99, 192.0, 0.0, 0.0, 0.0, 0.0, 0.0, 0.0, 0.0, 0.0, 0.0, 1.644586744974684E9, 0.0, 2022-02-12 00:39:04.974
22.0, -13970.421429922751, -13592.632245139152, -9009.362341089529, -13857.545120423452, -14406.302798545696, -10651.612061454303, -12976.417002250791, -10342.912118782058, -13156.84028349403, -15320.958533401315, -12602.517021002415, -10413.320113816275, -10746.048181777976, -13956.920976271747, -13759.599776220295, -19794.950758808944, 0.011, -0.0235, 0.99, 192.0, 0.0, 0.0, 0.0, 0.0, 0.0, 0.0, 0.0, 0.0, 0.0, 1.644586744983067E9, 0.0, 2022-02-12 00:39:04.983
24.0, -13956.898624527292, -13551.72855278594, -8999.505221784739, -13835.55100387943, -14398.524391475248, -10646.940546863145, -12959.809656120498, -10325.813034273748, -13130.353466314491, -15296.237504033747, -12599.477183756493, -10393.024729850857, -10750.116199268843, -13957.055086738479, -13743.52887195693, -19776.33175567767, 0.011, -0.0235, 0.99, 192.0, 0.0, 0.0, 0.0, 0.0, 0.0, 0.0, 0.0, 0.0, 0.0, 1.644586744989E9, 0.0, 2022-02-12 00:39:04.989
26.0, -13985.262988241077, -13593.2580939839, -9007.104814899541, -13817.155518192712, -14396.937417618921, -10648.48281723056, -12955.294603740527, -10326.550641840773, -13126.084283123528, -15285.642777161931, -12581.34991900324, -10393.494116484419, -10764.868350609346, -13954.037601237012, -13739.326743999332, -19772.464903886903, 0.0115, -0.02275, 0.989, 192.0, 0.0, 48.0, 127.5, 40.0, 15.0, 112.0, 0.0, 0.0, 0.0, 1.644586744996523E9, 0.0, 2022-02-12 00:39:04.996
28.0, -13973.394211935309, -13572.269805940368, -9011.038721923676, -13830.745378821539, -14419.132699863041, -10668.845256429346, -12972.170170804284, -10344.655554849573, -13122.239783077215, -15276.679727635352, -12578.801820135335, -10389.403747249096, -10762.767286630546, -13961.1454559738, -13735.14696778619, -19759.92557524748, 0.0115, -0.02275, 0.989, 192.0, 0.0, 0.0, 0.0, 0.0, 0.0, 0.0, 0.0, 0.0, 0.0, 1.644586745003767E9, 0.0, 2022-02-12 00:39:05.003
30.0, -13946.505063355573, -13563.574977347253, -9013.810338236135, -13799.11766041728, -14415.019978883265, -10663.547892993438, -12960.480208454157, -10329.791644786794, -13099.105727565971, -15283.4076027164, -12571.515151442904, -10398.500907242407, -10760.219187762641, -13955.915147771258, -13726.586249659807, -19754.20352866692, 0.0115, -0.02275, 0.989, 192.0, 0.0, 0.0, 0.0, 0.0, 0.0, 0.0, 0.0, 0.0, 0.0, 1.644586745011817E9, 0.0, 2022-02-12 00:39:05.011
32.0, -13933.09401668239, -13568.827637294251, -9022.661629040436, -13806.761957020994, -14426.66523774448, -10668.0182418845, -12971.343156259438, -10343.515615882352, -13103.777242157132, -15276.12093402397, -12587.071965583798, -10418.997456907924, -10766.65649016577, -13971.136685745321, -13736.108092797767, -19745.48634832935, 0.0115, -0.02275, 0.989, 192.0, 0.0, 0.0, 0.0, 0.0, 0.0, 0.0, 0.0, 0.0, 0.0, 1.644586745019754E9, 0.0, 2022-02-12 00:39:05.019
34.0, -13931.887022481802, -13541.759674758874, -9017.297210371162, -13789.81933472387, -14426.754644722301, -10665.514846505504, -12963.94472884473, -10335.781912300816, -13071.948358052774, -15240.425198128843, -12574.309119499818, -10404.11119510069, -10767.639966921803, -13955.065781481957, -13720.104243767768, -19726.777938220257, 0.0115, -0.02275, 0.989, 192.0, 0.0, 0.0, 0.0, 0.0, 0.0, 0.0, 0.0, 0.0, 0.0, 1.644586745026945E9, 0.0, 2022-02-12 00:39:05.026
36.0, -13915.860821707347, -13521.441939048998, -9025.612059308536, -13770.753296703495, -14411.667217214968, -10663.994927882544, -12941.950612300709, -10328.115263952644, -13066.002794027663, -15236.848919015994, -12567.849465352234, -10404.737043945437, -10781.65451069528, -13972.231921223633, -13720.618333890241, -19723.849859696613, 0.00975, -0.023375, 0.9864999999999999, 192.0, 0.0, 32.0, 127.5, 32.0, 15.0, 96.0, 0.0, 0.0, 0.0, 1.644586745034588E9, 0.0, 2022-02-12 00:39:05.034
38.0, -13903.030920390001, -13533.578936288231, -9019.755902261246, -13778.151724118201, -14420.13852836353, -10669.202884340631, -12943.112903012385, -10321.90147899407, -13050.468331631224, -15231.149224179891, -12578.421840479594, -10419.846823197226, -10781.22982755063, -13962.598319363395, -13707.006121516959, -19700.224065807353, 0.00975, -0.023375, 0.9864999999999999, 192.0, 0.0, 0.0, 0.0, 0.0, 0.0, 0.0, 0.0, 0.0, 0.0, 1.644586745042408E9, 0.0, 2022-02-12 00:39:05.042
40.0, -13910.205830360155, -13519.206764603468, -9021.342876117573, -13742.903023112181, -14408.493269502314, -10660.306890047419, -12931.244126706617, -10319.42043535953, -13023.66859002931, -15193.486534772699, -12562.261529238407, -10402.546572988818, -10766.678841910225, -13954.931671015225, -13691.494010864975, -19687.75179240129, 0.00975, -0.023375, 0.9864999999999999, 192.0, 0.0, 0.0, 0.0, 0.0, 0.0, 0.0, 0.0, 0.0, 0.0, 1.644586745056283E9, 0.0, 2022-02-12 00:39:05.056
42.0, -13907.724786725616, -13529.175642630535, -9035.871510013523, -13748.245090037, -14424.206545854397, -10678.098878633844, -12927.98077201614, -10328.294077908287, -13034.95622097924, -15207.076395401526, -12569.369383975194, -10412.873078927169, -10773.205551291174, -13958.150322216788, -13699.831211546805, -19683.348498743595, 0.00975, -0.023375, 0.9864999999999999, 192.0, 0.0, 0.0, 0.0, 0.0, 0.0, 0.0, 0.0, 0.0, 0.0, 1.644586745064059E9, 0.0, 2022-02-12 00:39:05.064
44.0, -13890.64805396176, -13503.113508595647, -9030.64120181098, -13737.359790487266, -14426.262906344284, -10676.198980355142, -12929.970077272663, -10319.912173737548, -13009.855211955932, -15197.509848774655, -12563.356764716716, -10399.86436365418, -10755.145341771287, -13966.62163336535, -13688.297711407866, -19668.149312513986, 0.00975, -0.023375, 0.9864999999999999, 192.0, 0.0, 0.0, 0.0, 0.0, 0.0, 0.0, 0.0, 0.0, 0.0, 1.644586745072122E9, 0.0, 2022-02-12 00:39:05.072
46.0, -13890.46924000612, -13486.260293276346, -9034.843329768579, -13719.880726323216, -14422.865441187078, -10677.025994899988, -12912.133385197329, -10312.536098067296, -13011.509241045624, -15188.680909714809, -12548.895186054133, -10413.923610916569, -10778.592321704904, -13973.461267168674, -13686.218999173523, -19666.092952024097, 0.009875, -0.0246875, 0.98725, 192.0, 0.0, 40.0, 127.5, 24.0, 15.0, 112.0, 0.0, 0.0, 0.0, 1.644586745079378E9, 0.0, 2022-02-12 00:39:05.079
48.0, -13886.445926004164, -13500.274837049823, -9030.820015766623, -13725.111034525757, -14433.460168058893, -10685.519657793006, -12914.368559642859, -10312.558449811751, -12995.661854226812, -15165.166874547826, -12550.862139566201, -10419.690360986038, -10794.70792945718, -13979.809162593981, -13682.285092149388, -19647.384541915006, 0.009875, -0.0246875, 0.98725, 192.0, 0.0, 0.0, 0.0, 0.0, 0.0, 0.0, 0.0, 0.0, 0.0, 1.644586745088922E9, 0.0, 2022-02-12 00:39:05.088
50.0, -13868.497475206552, -13494.99982535837, -9033.92690824591, -13686.688385807085, -14430.800310468712, -10668.621738984793, -12911.351074141392, -10317.051150447269, -12971.052583581519, -15153.499263942154, -12538.501624882416, -10395.86340139668, -10785.27549329704, -13958.798522805993, -13667.242368130966, -19630.754844040257, 0.009875, -0.0246875, 0.98725, 192.0, 0.0, 0.0, 0.0, 0.0, 0.0, 0.0, 0.0, 0.0, 0.0, 1.644586745095257E9, 0.0, 2022-02-12 00:39:05.095
52.0, -13862.93189083718, -13487.735508410397, -9044.611042095548, -13691.941045754082, -14443.898432719521, -10685.564361281915, -12921.051731234997, -10323.108473194656, -12975.210008050206, -15161.992926835172, -12550.951546544022, -10413.789500449837, -10796.116089357864, -13969.616767122361, -13675.601920557252, -19630.084291706597, 0.009875, -0.0246875, 0.98725, 192.0, 0.0, 0.0, 0.0, 0.0, 0.0, 0.0, 0.0, 0.0, 0.0, 1.644586745102629E9, 0.0, 2022-02-12 00:39:05.102
54.0, -13840.133111492767, -13462.85801683164, -9038.799588537167, -13671.533903066385, -14440.52331930677, -10676.243683844052, -12912.759234042078, -10302.187240384488, -12942.755275101099, -15129.38173167488, -12541.317944683784, -10401.317227043775, -10782.950911873688, -13958.306784427976, -13659.575719782797, -19603.575122782604, 0.009875, -0.0246875, 0.98725, 192.0, 0.0, 0.0, 0.0, 0.0, 0.0, 0.0, 0.0, 0.0, 0.0, 1.644586745108818E9, 0.0, 2022-02-12 00:39:05.108
56.0, -13820.620038583284, -13429.352751893133, -9043.761675806247, -13653.585452268775, -14429.034522656742, -10675.148448365742, -12897.180068156727, -10309.920943966024, -12930.12653948385, -15116.641237335354, -12543.575470873771, -10408.53684050284, -10769.517513456049, -13954.708153570671, -13656.759399981429, -19599.618864014014, 0.0119375, -0.02634375, 0.987625, 192.0, 0.0, 56.0, 127.5, 16.0, 15.0, 112.0, 0.0, 0.0, 0.0, 1.644586745116463E9, 0.0, 2022-02-12 00:39:05.116
58.0, -13826.677361330672, -13432.236126927868, -9038.285498414696, -13665.18600764108, -14442.24440362983, -10691.97931194059, -12896.822440245443, -10298.99094092738, -12926.349094670904, -15109.13105119837, -12532.690171324037, -10410.436738781542, -10796.853696924889, -13965.705211842682, -13651.640850501162, -19584.084401617576, 0.0119375, -0.02634375, 0.987625, 192.0, 0.0, 0.0, 0.0, 0.0, 0.0, 0.0, 0.0, 0.0, 0.0, 1.64458674512571E9, 0.0, 2022-02-12 00:39:05.125
60.0, -13811.92520999017, -13440.573327609698, -9028.517786087727, -13621.890678631149, -14420.339694063628, -10681.563399024415, -12884.461925561658, -10300.130879894601, -12893.872009977344, -15081.37018458488, -12504.23640063243, -10374.20456101949, -10778.189990304709, -13960.0949239844, -13634.184138081568, -19570.38278226647, 0.0119375, -0.02634375, 0.987625, 192.0, 0.0, 0.0, 0.0, 0.0, 0.0, 0.0, 0.0, 0.0, 0.0, 1.644586745132374E9, 0.0, 2022-02-12 00:39:05.132
62.0, -13843.776445838983, -13465.964909310927, -9035.849158269068, -13630.429045013076, -14429.883888946044, -10695.600294542348, -12882.897303449787, -10297.828650215704, -12907.171297928251, -15110.785080288064, -12515.85930774919, -10403.507698000396, -10788.225923565142, -13971.293147956509, -13633.804158425828, -19564.39251475245, 0.0119375, -0.02634375, 0.987625, 192.0, 0.0, 0.0, 0.0, 0.0, 0.0, 0.0, 0.0, 0.0, 0.0, 1.6445867451389E9, 0.0, 2022-02-12 00:39:05.138
64.0, -13809.131241933257, -13433.264307172813, -9019.130053416498, -13611.184193037057, -14418.99858939631, -10676.35544256633, -12863.652451473768, -10268.391402768064, -12871.54261726649, -15082.264254363092, -12505.62220878866, -10388.688491426527, -10775.597187947893, -13958.396191405796, -13611.40771048161, -19540.096168529533, 0.0119375, -0.02634375, 0.987625, 192.0, 0.0, 0.0, 0.0, 0.0, 0.0, 0.0, 0.0, 0.0, 0.0, 1.644586745146891E9, 0.0, 2022-02-12 00:39:05.146
66.0, -13801.129317418256, -13412.588943551655, -9034.172777434918, -13592.475782927964, -14405.498135745303, -10664.598424982838, -12853.907090891254, -10267.720850434405, -12860.947890394675, -15068.69674547872, -12507.298589622807, -10400.803136921304, -10764.264853509052, -13954.529339615028, -13609.88779185865, -19526.036921267143, 0.01396875, -0.026171875, 0.9888125, 192.0, 0.0, 64.0, 127.5, 24.0, 15.0, 120.0, 0.0, 0.0, 0.0, 1.644586745155187E9, 0.0, 2022-02-12 00:39:05.155
68.0, -13813.556887335408, -13418.646266299042, -9034.463350112837, -13604.411614467099, -14416.361083550584, -10682.837448458367, -12855.292899047483, -10261.641175942561, -12851.135474578796, -15055.352754038902, -12505.778670999845, -10400.266695054377, -10771.32800475693, -13945.43217962172, -13603.271675499878, -19508.043766980623, 0.01396875, -0.026171875, 0.9888125, 192.0, 0.0, 0.0, 0.0, 0.0, 0.0, 0.0, 0.0, 0.0, 0.0, 1.644586745161682E9, 0.0, 2022-02-12 00:39:05.161
70.0, -13803.431547097152, -13425.396493124545, -9030.842367511079, -13570.235797194935, -14405.811060167678, -10668.0182418845, -12840.674858173712, -10260.858864886626, -12835.332791248893, -15043.88630913333, -12494.267522605363, -10390.096651327212, -10768.064650066453, -13950.90835701327, -13586.68668111404, -19498.566627331573, 0.01396875, -0.026171875, 0.9888125, 192.0, 0.0, 0.0, 0.0, 0.0, 0.0, 0.0, 0.0, 0.0, 0.0, 1.644586745168606E9, 0.0, 2022-02-12 00:39:05.168
72.0, -13782.890293942726, -13408.543277805244, -9035.335068146594, -13570.034631494837, -14413.053025371199, -10672.287425075463, -12849.481445489104, -10264.301033532744, -12824.849823099354, -15025.02143681305, -12488.634883002625, -10395.326959529753, -10758.967490073144, -13951.556557602473, -13588.4077654371, -19487.99425220421, 0.01396875, -0.026171875, 0.9888125, 192.0, 0.0, 0.0, 0.0, 0.0, 0.0, 0.0, 0.0, 0.0, 0.0, 1.644586745184494E9, 0.0, 2022-02-12 00:39:05.184
74.0, -13759.599776220295, -13385.878608927562, -9024.427416852406, -13552.197939419502, -14406.839240412623, -10666.945358150644, -12834.885756359787, -10250.93469034847, -12795.613741351814, -15012.683273873721, -12478.487191019916, -10387.168572803566, -10775.8430571369, -13935.195080661188, -13568.760582060884, -19462.13328386942, 0.01396875, -0.026171875, 0.9888125, 192.0, 0.0, 0.0, 0.0, 0.0, 0.0, 0.0, 0.0, 0.0, 0.0, 1.644586745191836E9, 0.0, 2022-02-12 00:39:05.191
76.0, -13753.207177306078, -13366.521998229266, -9029.143634932476, -13528.326276341233, -14388.980196592833, -10662.989099382055, -12817.183174751184, -10253.169864794001, -12790.629302338279, -14994.891285287296, -12471.424039772039, -10374.271616252854, -10775.820705392445, -13940.939478986202, -13558.702297055996, -19455.092484366, 0.014, -0.028, 0.998, 192.0, 0.0, 56.0, 127.5, 16.0, 15.5, 24.0, 0.0, 0.0, 0.0, 1.644586745199228E9, 0.0, 2022-02-12 00:39:05.199
78.0, -13747.351020258788, -13349.065285809671, -9025.053265697154, -13538.384561346122, -14400.267827542762, -10670.320471563396, -12823.48636668758, -10247.872501358093, -12774.759563775011, -14985.257683427059, -12469.010051370866, -10383.793459390816, -10759.168655773241, -13933.1387201713, -13554.030782464837, -19430.572620698527, 0.014, -0.028, 0.998, 192.0, 0.0, 0.0, 0.0, 0.0, 0.0, 0.0, 0.0, 0.0, 0.0, 1.644586745207173E9, 0.0, 2022-02-12 00:39:05.207
80.0, -13729.134348527712, -13340.079884538638, -9023.9803819633, -13498.441994004488, -14382.677004656436, -10656.39533476774, -12804.017997267008, -10232.650963384029, -12750.262051851994, -14973.075982698916, -12453.229719785419, -10369.175418517045, -10761.403830218773, -13920.979371187614, -13539.926831713537, -19416.17809726931, 0.014, -0.028, 0.998, 192.0, 0.0, 0.0, 0.0, 0.0, 0.0, 0.0, 0.0, 0.0, 0.0, 1.644586745214309E9, 0.0, 2022-02-12 00:39:05.214
82.0, -13718.494918166985, -13319.516279639754, -9023.801568007657, -13495.603322458664, -14390.544818704704, -10664.129038349276, -12809.047139769453, -10239.848225098638, -12748.85389195131, -14962.123627915817, -12460.672850689036, -10377.087936054222, -10752.932519070211, -13936.200909161676, -13542.430227092533, -19408.42204194332, 0.014, -0.028, 0.998, 192.0, 0.0, 0.0, 0.0, 0.0, 0.0, 0.0, 0.0, 0.0, 0.0, 1.64458674522188E9, 0.0, 2022-02-12 00:39:05.221
84.0, -13675.110182179234, -13308.496869623288, -9016.02316093721, -13480.3817844846, -14376.262053997763, -10660.284538302963, -12782.24739816754, -10221.07275975618, -12717.784967158434, -14927.031389120984, -12452.715629662947, -10373.064622052267, -10746.182292244708, -13923.505118311063, -13515.42931979052, -19383.9245300203, 0.014, -0.028, 0.998, 192.0, 0.0, 0.0, 0.0, 0.0, 0.0, 0.0, 0.0, 0.0, 0.0, 1.644586745231273E9, 0.0, 2022-02-12 00:39:05.231
86.0, -13710.515345396441, -13327.428797176934, -9021.387579606484, -13450.341039936668, -14375.256225497274, -10644.034820083954, -12787.790630792455, -10217.809405065706, -12714.119281067764, -14930.205336833638, -12442.232661513408, -10351.71870609745, -10754.832417348913, -13918.207754875155, -13514.758767456862, -19377.107247961434, 0.018000000000000002, -0.028, 0.992, 192.0, 0.0, 72.0, 127.5, 16.0, 15.5, 0.0, 0.0, 0.0, 0.0, 1.644586745237464E9, 0.0, 2022-02-12 00:39:05.237
88.0, -13709.017778517937, -13322.757282585775, -9019.755902261246, -13460.175807497002, -14388.287292514719, -10655.009526611511, -12789.176438948685, -10218.323495188177, -12703.569257684858, -14932.373456045802, -12418.986847279888, -10329.411665131052, -10756.821722605435, -13902.427423289708, -13515.183450601513, -19358.778817508082, 0.018000000000000002, -0.028, 0.992, 192.0, 0.0, 0.0, 0.0, 0.0, 0.0, 0.0, 0.0, 0.0, 0.0, 1.644586745243994E9, 0.0, 2022-02-12 00:39:05.243
90.0, -13677.881798491693, -13276.466819818834, -9018.951239460856, -13431.386760638567, -14368.03661203821, -10638.357476992307, -12765.57299680388, -10213.406111408009, -12682.111583007763, -14904.18790628766, -12403.474736627906, -10331.42332213203, -10746.74108585609, -13904.215562846133, -13492.988168357393, -19344.25018361213, 0.018000000000000002, -0.028, 0.992, 192.0, 0.0, 0.0, 0.0, 0.0, 0.0, 0.0, 0.0, 0.0, 0.0, 1.644586745251437E9, 0.0, 2022-02-12 00:39:05.251
92.0, -13652.289051090367, -13244.10149384755, -9025.142672674976, -13431.476167616389, -14375.65855689747, -10651.67911668767, -12772.412630607205, -10217.407073665509, -12681.329271951829, -14908.166516800704, -12412.862469299134, -10346.823674061738, -10745.422332933227, -13904.75200471306, -13497.77144167083, -19338.461081798207, 0.018000000000000002, -0.028, 0.992, 192.0, 0.0, 0.0, 0.0, 0.0, 0.0, 0.0, 0.0, 0.0, 0.0, 1.644586745259474E9, 0.0, 2022-02-12 00:39:05.259
94.0, -13648.824530699794, -13277.62911053051, -9015.754940003746, -13408.789146994251, -14366.337879459606, -10643.118398561288, -12754.173607131674, -10187.34397737312, -12656.876463517721, -14880.98679554305, -12406.380463407097, -10340.364019914154, -10736.235765962098, -13904.550839012962, -13476.80550537175, -19312.64481695233, 0.018000000000000002, -0.028, 0.992, 192.0, 0.0, 0.0, 0.0, 0.0, 0.0, 0.0, 0.0, 0.0, 0.0, 1.644586745267532E9, 0.0, 2022-02-12 00:39:05.267
96.0, -13631.3678182802, -13254.852682930552, -9022.192242406874, -13387.353824061613, -14356.07842875462, -10632.098988544822, -12743.243604093028, -10192.082547197646, -12646.058219201353, -14868.782743070453, -12389.25902715433, -10316.358246369153, -10739.253251463562, -13886.22240855961, -13473.00570881435, -19303.614712192382, 0.012, -0.03, 0.988, 192.0, 0.0, 48.0, 127.5, 8.0, 15.0, 112.0, 0.0, 0.0, 0.0, 1.644586745274106E9, 0.0, 2022-02-12 00:39:05.274
98.0, -13625.198736810535, -13237.440673999869, -9018.414797593929, -13395.288693343246, -14363.678021869424, -10640.637354926748, -12737.879185423755, -10188.573323318164, -12637.273983630417, -14851.7060103066, -12382.106468928632, -10321.47679584942, -10722.198870444165, -13883.339033524875, -13462.299223220256, -19283.788714860526, 0.012, -0.03, 0.988, 192.0, 0.0, 0.0, 0.0, 0.0, 0.0, 0.0, 0.0, 0.0, 0.0, 1.644586745282146E9, 0.0, 2022-02-12 00:39:05.282
100.0, -13609.418405225088, -13220.118072047004, -9018.817128994124, -13358.967108603372, -14360.325260201129, -10623.00182855151, -12729.653743464201, -10178.2021138909, -12618.051483398853, -14840.530138078946, -12367.577835032682, -10304.668284019028, -10740.437893919694, -13872.900768864247, -13444.70840033393, -19268.768342586558, 0.012, -0.03, 0.988, 192.0, 0.0, 0.0, 0.0, 0.0, 0.0, 0.0, 0.0, 0.0, 0.0, 1.6445867452901E9, 0.0, 2022-02-12 00:39:05.290
102.0, -13603.226972010967, -13197.118127002494, -9019.73355051679, -13360.308213270691, -14364.661498625459, -10626.064017541888, -12730.905441153698, -10178.738555757827, -12619.839622955278, -14840.619545056767, -12380.050108438743, -10314.592458557185, -10749.199777746175, -13885.46244924813, -13451.905662048539, -19258.106560481378, 0.012, -0.03, 0.988, 192.0, 0.0, 0.0, 0.0, 0.0, 0.0, 0.0, 0.0, 0.0, 0.0, 1.644586745303867E9, 0.0, 2022-02-12 00:39:05.303
104.0, -13582.953939790004, -13175.526341858667, -9008.132995144486, -13350.78637013273, -14356.190187476897, -10621.526613417462, -12718.366112514272, -10163.226445105845, -12590.91646563011, -14809.684730730622, -12357.988936661355, -10320.694484793483, -10723.942306511677, -13883.137867824778, -13429.710379804419, -19234.14549042529, 0.012, -0.03, 0.988, 192.0, 0.0, 0.0, 0.0, 0.0, 0.0, 0.0, 0.0, 0.0, 0.0, 1.644586745312267E9, 0.0, 2022-02-12 00:39:05.312
106.0, -13585.569093891276, -13200.537943904155, -9018.526556316205, -13319.560983128666, -14345.707219327358, -10615.402235436706, -12705.536211196926, -10174.603483033596, -12580.63466318067, -14810.556448764379, -12350.814026691203, -10302.209592128944, -10705.077434191398, -13871.93964385267, -13423.541298334754, -19229.42927234522, 0.016, -0.026000000000000002, 0.988, 192.0, 0.0, 64.0, 127.5, 24.0, 15.0, 112.0, 0.0, 0.0, 0.0, 1.644586745319963E9, 0.0, 2022-02-12 00:39:05.319
108.0, -13583.937416546038, -13194.860600812508, -9011.195184134864, -13329.529861155732, -14357.330126444118, -10622.063055284389, -12713.627542689746, -10161.43830554942, -12584.277997526884, -14800.386405037214, -12344.175558587976, -10288.016234399824, -10728.010324002544, -13869.905635107236, -13415.60642905312, -19213.157202381757, 0.016, -0.026000000000000002, 0.988, 192.0, 0.0, 0.0, 0.0, 0.0, 0.0, 0.0, 0.0, 0.0, 0.0, 1.644586745326283E9, 0.0, 2022-02-12 00:39:05.326
110.0, -13548.286384139823, -13160.818894007076, -9006.277800354696, -13288.179133913414, -14332.519690098727, -10596.0009212495, -12686.760745854468, -10144.003944874281, -12558.797008847834, -14783.823762395832, -12326.741197912837, -10290.98901641238, -10709.279562148997, -13852.918309321203, -13396.115707888093, -19192.61594922733, 0.016, -0.026000000000000002, 0.988, 192.0, 0.0, 0.0, 0.0, 0.0, 0.0, 0.0, 0.0, 0.0, 0.0, 1.644586745334493E9, 0.0, 2022-02-12 00:39:05.334
112.0, -13542.609041048176, -13143.965678687773, -9010.904611456945, -13288.000319957771, -14332.609097076547, -10601.186525963132, -12680.234036473517, -10145.546215241697, -12552.516168655893, -14780.180428049616, -12333.379666016062, -10285.065804131724, -10705.189192913675, -13848.984402297068, -13391.332434574657, -19179.45077174315, 0.016, -0.026000000000000002, 0.988, 192.0, 0.0, 0.0, 0.0, 0.0, 0.0, 0.0, 0.0, 0.0, 0.0, 1.644586745342354E9, 0.0, 2022-02-12 00:39:05.342
114.0, -13518.513860525354, -13104.35838751297, -8994.185506604375, -13271.616491272032, -14328.541079585682, -10594.101022970799, -12673.394402670194, -10121.920421352437, -12533.293668424329, -14758.767456861433, -12324.215450789387, -10273.241731314865, -10702.506983579038, -13837.495605647042, -13371.417030264978, -19151.399332451743, 0.016, -0.026000000000000002, 0.988, 192.0, 0.0, 0.0, 0.0, 0.0, 0.0, 0.0, 0.0, 0.0, 0.0, 1.644586745349731E9, 0.0, 2022-02-12 00:39:05.349
116.0, -13508.969665642939, -13108.046425348095, -8989.0222536352, -13247.163682837927, -14309.78796598768, -10578.588912318815, -12654.730696050012, -10124.379113242521, -12510.986627457933, -14734.672276338611, -12312.39137797253, -10270.537170235773, -10698.30485562144, -13834.746341079039, -13361.805780149196, -19143.106835258823, 0.014, -0.022, 0.984, 192.0, 0.0, 56.0, 127.5, 40.0, 15.0, 96.0, 0.0, 0.0, 0.0, 1.644586745355943E9, 0.0, 2022-02-12 00:39:05.355
118.0, -13509.595514487686, -13093.517791452145, -8977.533456985171, -13249.510616005733, -14309.49739330976, -10590.882371769236, -12647.868710502233, -10116.734816638806, -12498.871981963157, -14710.621799304701, -12293.928837052446, -10258.55663520773, -10693.11925090781, -13837.40619866922, -13352.21688177787, -19123.146727460233, 0.014, -0.022, 0.984, 192.0, 0.0, 0.0, 0.0, 0.0, 0.0, 0.0, 0.0, 0.0, 0.0, 1.644586745364097E9, 0.0, 2022-02-12 00:39:05.364
120.0, -13477.453705960956, -13091.819058873542, -8969.732698170268, -13211.870278342996, -14292.219494845807, -10579.348871630296, -12636.938707463589, -10109.895182835482, -12474.866208418156, -14723.496404110958, -12273.320528664653, -10232.092169772646, -10682.63628275827, -13826.051512485923, -13331.049779778694, -19107.858134252805, 0.014, -0.022, 0.984, 192.0, 0.0, 0.0, 0.0, 0.0, 0.0, 0.0, 0.0, 0.0, 0.0, 1.644586745372015E9, 0.0, 2022-02-12 00:39:05.372
122.0, -13481.745240896375, -13077.02220404413, -8974.583026717071, -13215.938295833863, -14297.807430959634, -10582.366357131763, -12647.444027357582, -10126.793101643694, -12485.595045756703, -14717.05910170783, -12281.031880501734, -10241.055219299224, -10683.195076369653, -13832.757035822517, -13337.129454270536, -19100.50441032701, 0.014, -0.022, 0.984, 192.0, 0.0, 0.0, 0.0, 0.0, 0.0, 0.0, 0.0, 0.0, 0.0, 1.644586745378868E9, 0.0, 2022-02-12 00:39:05.378
124.0, -13464.71321162143, -13045.819168784521, -8967.855151636024, -13204.85183058403, -14289.783154700179, -10572.151609915687, -12631.887213216689, -10093.757223338751, -12461.544568722793, -14690.728746739478, -12263.932795993423, -10233.07564652868, -10662.832637170868, -13810.025311711468, -13318.041064505705, -19077.325651326853, 0.014, -0.022, 0.984, 192.0, 0.0, 0.0, 0.0, 0.0, 0.0, 0.0, 0.0, 0.0, 0.0, 1.644586745386645E9, 0.0, 2022-02-12 00:39:05.386
126.0, -13462.61214764263, -13047.71906706322, -8967.899855124933, -13179.70611807181, -14275.165113826408, -10563.725002256037, -12616.59862000926, -10097.199391984868, -12454.950804108477, -14675.864836676697, -12260.848255258592, -10221.162166734, -10655.903596389722, -13809.421814611176, -13309.68151207942, -19069.033154133936, 0.012, -0.02, 0.986, 192.0, 0.0, 48.0, 127.5, 48.0, 15.0, 104.0, 0.0, 0.0, 0.0, 1.6445867453947E9, 0.0, 2022-02-12 00:39:05.394
128.0, -13438.51696711981, -13022.059264428528, -8962.244863777742, -13187.104545486516, -14280.887160406966, -10567.971833702544, -12613.916410674621, -10076.412269641432, -12446.166568537543, -14667.594691228234, -12244.129150406021, -10216.490652142842, -10648.371058508284, -13804.839706997838, -13301.411366630957, -19049.251860290988, 0.012, -0.02, 0.986, 192.0, 0.0, 0.0, 0.0, 0.0, 0.0, 0.0, 0.0, 0.0, 0.0, 1.644586745401789E9, 0.0, 2022-02-12 00:39:05.401
130.0, -13425.843528013651, -13028.116587175917, -8950.443142705339, -13156.169731160371, -14254.86972986099, -10551.453894550074, -12583.674500426592, -10065.28110090269, -12417.064597256733, -14646.651106673611, -12227.90178393147, -10203.817213036682, -10662.139733092754, -13801.375186607265, -13275.751563996264, -19031.1916507711, 0.012, -0.02, 0.986, 192.0, 0.0, 0.0, 0.0, 0.0, 0.0, 0.0, 0.0, 0.0, 0.0, 1.644586745409275E9, 0.0, 2022-02-12 00:39:05.409
132.0, -13424.077740201681, -13013.05151141304, -8960.143799798941, -13159.991879462228, -14263.25163403173, -10547.609394503761, -12597.979616877989, -10070.824333527606, -12428.575745651216, -14648.819225885776, -12231.969801422334, -10207.30408517171, -10659.479875502573, -13804.01269245299, -13278.456125075356, -19022.161546011157, 0.012, -0.02, 0.986, 192.0, 0.0, 0.0, 0.0, 0.0, 0.0, 0.0, 0.0, 0.0, 0.0, 1.644586745417861E9, 0.0, 2022-02-12 00:39:05.417
134.0, -13387.622044995076, -12978.406307507314, -8953.751200884724, -13143.630402520945, -14256.456703717316, -10548.458760793063, -12586.624930694692, -10056.362754865022, -12407.766271563325, -14631.496623932913, -12229.488757787796, -10199.235105423344, -10642.134921805255, -13792.233323125045, -13260.261805088736, -18998.93808352209, 0.012, -0.02, 0.986, 192.0, 0.0, 0.0, 0.0, 0.0, 0.0, 0.0, 0.0, 0.0, 0.0, 1.644586745431868E9, 0.0, 2022-02-12 00:39:05.431
136.0, -13388.672576984476, -12966.738696901644, -8955.58404393006, -13113.433195761823, -14246.666639645891, -10533.550147241373, -12579.517075957905, -10056.049830442647, -12393.841134767668, -14629.753187865399, -12222.157385606455, -10185.667596538973, -10624.812319852392, -13777.63763399573, -13253.869206174519, -18989.393888639675, 0.012, -0.026000000000000002, 0.992, 192.0, 0.0, 48.0, 127.5, 24.0, 15.5, 0.0, 0.0, 0.0, 0.0, 1.644586745438985E9, 0.0, 2022-02-12 00:39:05.438
138.0, -13386.12447811657, -12958.379144475359, -8941.569500156582, -13119.31170455357, -14243.805616355612, -10531.158510584655, -12577.147791045641, -10038.593118023053, -12386.912093986522, -14606.46267014297, -12205.617094709527, -10168.389698075021, -10635.563508935395, -13777.414116551176, -13247.320145049114, -18967.869158729216, 0.012, -0.026000000000000002, 0.992, 192.0, 0.0, 0.0, 0.0, 0.0, 0.0, 0.0, 0.0, 0.0, 0.0, 1.644586745447126E9, 0.0, 2022-02-12 00:39:05.447
140.0, -13362.565739460677, -12956.211025263194, -8932.71820935228, -13085.493515192691, -14212.267304929175, -10510.617257430227, -12537.518148126383, -10020.89053641445, -12359.374744817585, -14591.330539146727, -12187.93686484538, -10161.080677638136, -10605.276895198453, -13761.812598921371, -13216.206516767326, -18947.79729220835, 0.012, -0.026000000000000002, 0.992, 192.0, 0.0, 0.0, 0.0, 0.0, 0.0, 0.0, 0.0, 0.0, 0.0, 1.644586745455025E9, 0.0, 2022-02-12 00:39:05.455
142.0, -13354.720277156865, -12936.027400020052, -8935.534529153649, -13082.297215735582, -14211.015607239677, -10510.058463818845, -12542.010848761898, -10027.193728350847, -12361.699326240938, -14585.116754188151, -12183.377108976498, -10163.114686383567, -10596.470307883063, -13764.047773366901, -13215.603019667033, -18937.426082781087, 0.012, -0.026000000000000002, 0.992, 192.0, 0.0, 0.0, 0.0, 0.0, 0.0, 0.0, 0.0, 0.0, 0.0, 1.644586745462146E9, 0.0, 2022-02-12 00:39:05.462
144.0, -13331.452111178889, -12894.631969288823, -8929.141930239432, -13073.49062842019, -14209.76390955018, -10498.0779287908, -12536.668781837081, -9996.705948913806, -12337.58179397366, -14550.002163648864, -12165.383954689974, -10147.937851898414, -10612.205935979599, -13757.275194796945, -13197.90043805843, -18914.26967552539, 0.012, -0.026000000000000002, 0.992, 192.0, 0.0, 0.0, 0.0, 0.0, 0.0, 0.0, 0.0, 0.0, 0.0, 1.644586745469716E9, 0.0, 2022-02-12 00:39:05.469
146.0, -13318.130471483526, -12886.920617451742, -8932.00295352971, -13035.6267733129, -14191.547237819104, -10487.46085017453, -12518.027426961355, -10002.98678910575, -12337.313573040197, -14559.814579464744, -12162.791152333159, -10144.093351852101, -10598.258447439486, -13735.303429997377, -13190.479658899267, -18908.190001033545, 0.014, -0.026000000000000002, 0.996, 192.0, 0.0, 56.0, 127.5, 24.0, 15.5, 16.0, 0.0, 0.0, 0.0, 1.644586745477527E9, 0.0, 2022-02-12 00:39:05.477
148.0, -13322.801986074684, -12907.03718746152, -8925.677409848859, -13046.48972111818, -14198.319816389063, -10499.933123580591, -12521.223726418464, -9999.343454759533, -12330.093959581132, -14547.431713036503, -12160.377163931986, -10124.33440975361, -10590.927075258145, -13744.422941735142, -13186.791621064142, -18892.387317703644, 0.014, -0.026000000000000002, 0.996, 192.0, 0.0, 0.0, 0.0, 0.0, 0.0, 0.0, 0.0, 0.0, 0.0, 1.64458674548377E9, 0.0, 2022-02-12 00:39:05.483
150.0, -13310.419119646445, -12885.333643595415, -8917.697837078314, -13014.638485269366, -14174.895188199902, -10480.084774504277, -12500.123679652654, -9990.64862616642, -12306.95990406989, -14539.005105376853, -12129.665867050395, -10111.884488092004, -10575.794944261903, -13727.14504327119, -13156.907338727397, -18873.88007329465, 0.014, -0.026000000000000002, 0.996, 192.0, 0.0, 0.0, 0.0, 0.0, 0.0, 0.0, 0.0, 0.0, 0.0, 1.644586745491139E9, 0.0, 2022-02-12 00:39:05.491
152.0, -13278.366718097535, -12872.481390533614, -8921.832909802546, -13014.660837013822, -14174.00111842169, -10477.581379125284, -12499.09549940771, -9978.69044288283, -12305.81996510267, -14540.100340855162, -12131.58811707355, -10111.348046225077, -10587.283740911931, -13729.134348527712, -13157.197911405316, -18865.498169123908, 0.014, -0.026000000000000002, 0.996, 192.0, 0.0, 0.0, 0.0, 0.0, 0.0, 0.0, 0.0, 0.0, 0.0, 1.644586745499231E9, 0.0, 2022-02-12 00:39:05.499
154.0, -13263.413401056934, -12841.010134340542, -8901.895153748412, -13005.496621787146, -14162.17704560483, -10469.601806354738, -12485.505638778883, -9962.664242108374, -12281.903598535491, -14513.166488786519, -12115.897192465925, -10102.116775765035, -10557.980603931022, -13719.52309841193, -13134.22031810526, -18839.704256022484, 0.014, -0.029, 0.996, 192.0, 0.0, 56.0, 127.5, 0.0, 15.5, 16.0, 0.0, 0.0, 0.0, 1.644586745507199E9, 0.0, 2022-02-12 00:39:05.507
156.0, -13250.00235438375, -12815.573849150402, -8901.13519443693, -12969.487961469647, -14143.356876773463, -10454.648489314139, -12465.187903069009, -9954.77407631565, -12269.81130478517, -14493.116974010109, -12095.355939311497, -10091.365586682032, -10555.94659518559, -13710.895325052183, -13125.458434278778, -18831.568221040754, 0.014, -0.029, 0.996, 192.0, 0.0, 0.0, 0.0, 0.0, 0.0, 0.0, 0.0, 0.0, 0.0, 1.644586745513858E9, 0.0, 2022-02-12 00:39:05.513
158.0, -13252.5281015072, -12807.259000213027, -8899.794089769613, -12983.547208732034, -14157.460827524761, -10463.008041740422, -12479.8953509206, -9953.365916414967, -12265.273900660743, -14479.34829942564, -12092.740785210228, -10082.134316221991, -10554.270214351442, -13718.651380378173, -13122.418597032858, -18813.731528965418, 0.014, -0.029, 0.996, 192.0, 0.0, 0.0, 0.0, 0.0, 0.0, 0.0, 0.0, 0.0, 0.0, 1.644586745521744E9, 0.0, 2022-02-12 00:39:05.521
160.0, -13230.310467518624, -12816.15499450624, -8890.629874542938, -12949.28198448205, -14131.286934767597, -10440.991573451945, -12451.75450465137, -9940.312497653067, -12242.89980446098, -14479.214188958907, -12087.376366540953, -10075.026461485204, -10538.646344977182, -13688.051842218858, -13098.50223046568, -18799.135839836104, 0.014, -0.029, 0.996, 192.0, 0.0, 0.0, 0.0, 0.0, 0.0, 0.0, 0.0, 0.0, 0.0, 1.644586745530142E9, 0.0, 2022-02-12 00:39:05.530
162.0, -13223.940220348863, -12799.078261742385, -8893.33443562203, -12952.94767057272, -14135.042027836089, -10445.327811876276, -12461.075182089233, -9946.25806167818, -12256.71318253436, -14478.856561047622, -12082.68250020534, -10073.148914950958, -10555.052525407378, -13692.701005065563, -13099.955093855275, -18790.731583920908, 0.014, -0.029, 0.996, 192.0, 0.0, 0.0, 0.0, 0.0, 0.0, 0.0, 0.0, 0.0, 0.0, 1.644586745537827E9, 0.0, 2022-02-12 00:39:05.537
164.0, -13200.068557270593, -12769.730421272567, -8878.917560448357, -12931.713513340177, -14125.251963764664, -10437.92938446157, -12449.742847650392, -9917.91604970885, -12233.37796132302, -14455.633098558557, -12064.48818021872, -10055.423981597898, -10540.322725811331, -13702.021682503426, -13081.224332001726, -18769.653888899553, 0.016, -0.0315, 0.993, 192.0, 0.0, 72.0, 127.0, 120.0, 15.0, 120.0, 0.0, 0.0, 0.0, 1.644586745552981E9, 0.0, 2022-02-12 00:39:05.552
166.0, -13186.836324553053, -12762.644918280235, -8873.351976078984, -12894.45315533318, -14102.69905360926, -10413.521279516373, -12436.465911443938, -9914.831508974017, -12218.290533815687, -14456.169540425486, -12043.678706130828, -10032.334629575567, -10514.595867943272, -13673.500856578454, -13068.908520806852, -18757.628650382598, 0.016, -0.0315, 0.993, 192.0, 0.0, 0.0, 0.0, 0.0, 0.0, 0.0, 0.0, 0.0, 0.0, 1.644586745560831E9, 0.0, 2022-02-12 00:39:05.560
168.0, -13166.496237098723, -12735.599307489314, -8867.674632987337, -12906.813670016965, -14102.631998375893, -10415.175308606065, -12427.927545062012, -9900.258171589157, -12205.70650168735, -14438.288144861239, -12037.867252572449, -10034.055713898626, -10525.548222726373, -13674.3278711233, -13058.961994524241, -18734.51694661581, 0.016, -0.0315, 0.993, 192.0, 0.0, 0.0, 0.0, 0.0, 0.0, 0.0, 0.0, 0.0, 0.0, 1.644586745567124E9, 0.0, 2022-02-12 00:39:05.567
170.0, -13164.708097542298, -12736.00163888951, -8859.628004983426, -12872.615501000346, -14073.552378839539, -10394.924628129558, -12402.848887783157, -9875.939473621784, -12186.931036344891, -14418.193926595919, -12023.852708798971, -10020.018818380693, -10498.547315424361, -13662.056763417337, -13033.995095967663, -18714.55683881722, 0.016, -0.0315, 0.993, 192.0, 0.0, 0.0, 0.0, 0.0, 0.0, 0.0, 0.0, 0.0, 0.0, 1.644586745574084E9, 0.0, 2022-02-12 00:39:05.574
172.0, -13162.495274841223, -12736.493377267525, -8868.412240554362, -12874.470695790136, -14076.748678296648, -10405.094671856723, -12411.700178587458, -9889.439927272788, -12194.88825737098, -14428.028694156254, -12023.226859954222, -10013.246239810735, -10502.615332915228, -13650.657373745129, -13028.653029042844, -18705.169106145993, 0.016, -0.0315, 0.993, 192.0, 0.0, 0.0, 0.0, 0.0, 0.0, 0.0, 0.0, 0.0, 0.0, 1.644586745582085E9, 0.0, 2022-02-12 00:39:05.582
174.0, -13138.221280362759, -12710.028911832442, -8857.906920660367, -12866.558178252957, -14072.390088127862, -10400.49021249893, -12402.73712906088, -9868.384583995889, -12172.60356814904, -14415.42231028346, -12016.834261040005, -10019.728245702774, -10489.248989730953, -13651.998478412448, -13012.917400946308, -18686.192475103435, 0.018000000000000002, -0.03275, 0.9895, 192.0, 0.0, 80.0, 127.0, 120.0, 15.0, 104.0, 0.0, 0.0, 0.0, 1.644586745589194E9, 0.0, 2022-02-12 00:39:05.589
176.0, -13122.664466221866, -12684.234998731017, -8847.558062977561, -12842.910032619242, -14048.786645983058, -10381.491229711919, -12374.64098628056, -9859.421534469311, -12172.60356814904, -14402.882981644034, -11994.61662705143, -10000.59515244903, -10487.505553663439, -13642.610745741218, -12999.975740906686, -18675.59774823162, 0.018000000000000002, -0.03275, 0.9895, 192.0, 0.0, 0.0, 0.0, 0.0, 0.0, 0.0, 0.0, 0.0, 0.0, 1.644586745596935E9, 0.0, 2022-02-12 00:39:05.596
178.0, -13101.363253755959, -12678.200027728086, -8841.456036741261, -12845.212262298139, -14051.670021017793, -10383.212314034978, -12374.909207214023, -9861.030860070094, -12146.943765514347, -14381.22414126684, -11994.348406117966, -10010.944010131838, -10490.45598393154, -13640.442626529053, -12990.967987891197, -18655.816454388674, 0.018000000000000002, -0.03275, 0.9895, 192.0, 0.0, 0.0, 0.0, 0.0, 0.0, 0.0, 0.0, 0.0, 0.0, 1.644586745603823E9, 0.0, 2022-02-12 00:39:05.603
180.0, -13106.459451491768, -12676.545998638392, -8831.822434881024, -12808.689511858167, -14018.544735735028, -10357.843084078204, -12350.612860991105, -9831.526557389088, -12128.011837960701, -14382.922873845444, -11971.08024013999, -9966.754611343697, -10444.746666520437, -13627.143338578146, -12963.989432333641, -18636.750416368297, 0.018000000000000002, -0.03275, 0.9895, 192.0, 0.0, 0.0, 0.0, 0.0, 0.0, 0.0, 0.0, 0.0, 0.0, 1.644586745611872E9, 0.0, 2022-02-12 00:39:05.611
182.0, -13112.78499517262, -12680.859885318267, -8832.090655814489, -12805.940247290166, -14014.543773477528, -10362.514598669362, -12349.91995691299, -9837.494473158655, -12132.54924208513, -14373.065754540654, -11955.74694344365, -9965.994652032216, -10454.134399191666, -13617.733254162462, -12959.004993320108, -18625.172212740446, 0.018000000000000002, -0.03275, 0.9895, 192.0, 0.0, 0.0, 0.0, 0.0, 0.0, 0.0, 0.0, 0.0, 0.0, 1.644586745619065E9, 0.0, 2022-02-12 00:39:05.619
184.0, -13082.274863991126, -12638.123349919719, -8825.228670266708, -12794.339691917861, -14012.1074333319, -10356.077296266234, -12334.005514860812, -9819.70248457223, -12120.881631479459, -14370.540007417203, -11951.969498630704, -9963.088925253025, -10448.032372955367, -13616.88388787316, -12945.102208268907, -18605.614436342054, 0.019000000000000003, -0.032375, 0.98875, 192.0, 0.0, 80.0, 127.5, 0.0, 15.0, 112.0, 0.0, 0.0, 0.0, 1.644586745626241E9, 0.0, 2022-02-12 00:39:05.626
186.0, -13053.575224110511, -12624.757006735446, -8822.32294348752, -12757.19109263314, -13987.654624897794, -10337.637107090606, -12314.850069862614, -9814.315714158502, -12097.524058523662, -14344.991963504788, -11933.350495499433, -9948.783808801629, -10427.49111980094, -13608.300818002323, -12929.813615061477, -18595.712613548352, 0.019000000000000003, -0.032375, 0.98875, 192.0, 0.0, 0.0, 0.0, 0.0, 0.0, 0.0, 0.0, 0.0, 0.0, 1.64458674563449E9, 0.0, 2022-02-12 00:39:05.634
188.0, -13049.328392664003, -12592.30227378634, -8813.158728260843, -12769.730421272567, -13992.683767400238, -10333.546737855284, -12327.76937815778, -9809.08540595596, -12092.271398576666, -14328.45167260786, -11928.83544311946, -9949.744933813206, -10410.146166103623, -13600.969445820981, -12921.74463531311, -18575.797209238674, 0.019000000000000003, -0.032375, 0.98875, 192.0, 0.0, 0.0, 0.0, 0.0, 0.0, 0.0, 0.0, 0.0, 0.0, 1.64458674564369E9, 0.0, 2022-02-12 00:39:05.643
190.0, -13009.989322422663, -12583.518038215405, -8797.937190286779, -12735.599307489314, -13961.413676907263, -10310.412682344042, -12293.928837052446, -9790.622865035875, -12063.907034862881, -14330.798605775668, -11907.757748098105, -9922.095825921991, -10409.654427725605, -13572.850951296205, -12894.900190222286, -18555.881804928995, 0.019000000000000003, -0.032375, 0.98875, 192.0, 0.0, 0.0, 0.0, 0.0, 0.0, 0.0, 0.0, 0.0, 0.0, 1.644586745650128E9, 0.0, 2022-02-12 00:39:05.650
192.0, -13013.655008513333, -12572.342165987751, -8795.83612630798, -12730.391351031227, -13947.555595344973, -10304.243600874377, -12275.91333102147, -9782.620940520876, -12066.253968030689, -14306.21168687483, -11904.315579451988, -9918.810119487061, -10399.238514809433, -13556.198901677002, -12886.942969196198, -18541.19670882186, 0.019000000000000003, -0.032375, 0.98875, 192.0, 0.0, 0.0, 0.0, 0.0, 0.0, 0.0, 0.0, 0.0, 0.0, 1.644586745656938E9, 0.0, 2022-02-12 00:39:05.656
194.0, -13022.23807838417, -12557.8135320918, -8784.772012802603, -12712.599362444802, -13947.086208711411, -10300.08617640569, -12275.354537410085, -9751.015573861072, -12048.14905502189, -14297.002768159244, -11876.130029693846, -9900.504040778165, -10370.829447606737, -13562.256224424389, -12863.943024151687, -18513.23467650827, 0.014500000000000002, -0.0311875, 0.989375, 192.0, 0.0, 40.0, 127.5, 8.0, 15.0, 120.0, 0.0, 0.0, 0.0, 1.644586745664025E9, 0.0, 2022-02-12 00:39:05.664
196.0, -12997.04766238304, -12555.980689046466, -8783.341501157463, -12682.245693474495, -13929.249516636077, -10286.093984376668, -12265.89974950549, -9761.74441119962, -12035.877947315927, -14272.43820100286, -11865.512951077575, -9885.751889437663, -10384.709880913482, -13557.2494336664, -12856.16461708124, -18505.65743513792, 0.014500000000000002, -0.0311875, 0.989375, 192.0, 0.0, 0.0, 0.0, 0.0, 0.0, 0.0, 0.0, 0.0, 0.0, 1.644586745678699E9, 0.0, 2022-02-12 00:39:05.678
198.0, -12976.260540039604, -12534.791235302835, -8771.651538807339, -12688.906513322177, -13930.210641647654, -10292.397176313065, -12260.423572113941, -9752.624899461855, -12032.011095525158, -14293.046509390655, -11866.92111097826, -9887.785898183096, -10382.318244256765, -13559.708125556484, -12852.007192612553, -18490.52530414168, 0.014500000000000002, -0.0311875, 0.989375, 192.0, 0.0, 0.0, 0.0, 0.0, 0.0, 0.0, 0.0, 0.0, 0.0, 1.644586745686642E9, 0.0, 2022-02-12 00:39:05.686
200.0, -12942.688219867734, -12521.268429907374, -8762.532027069572, -12654.395419883183, -13906.026054147012, -10264.3233852772, -12230.606345010561, -9729.31202999497, -12010.151089447867, -14276.573273727094, -11839.026133898036, -9856.135828034381, -10359.675927123539, -13537.848119479195, -12824.514546932525, -18464.619632317976, 0.014500000000000002, -0.0311875, 0.989375, 192.0, 0.0, 0.0, 0.0, 0.0, 0.0, 0.0, 0.0, 0.0, 0.0, 1.644586745694631E9, 0.0, 2022-02-12 00:39:05.694
202.0, -12958.647365408822, -12506.404519844595, -8770.802172518037, -12660.45274263057, -13901.600408744862, -10271.610053969629, -12228.795853709682, -9722.472396191644, -12012.654484826862, -14271.678241691381, -11848.39151482481, -9862.059040315038, -10353.685659609517, -13531.544927542798, -12825.475671944103, -18455.187196157836, 0.014500000000000002, -0.0311875, 0.989375, 192.0, 0.0, 0.0, 0.0, 0.0, 0.0, 0.0, 0.0, 0.0, 0.0, 1.644586745701705E9, 0.0, 2022-02-12 00:39:05.701
204.0, -12947.985583303642, -12480.364737554162, -8752.20552113122, -12647.60048956877, -13892.592655729373, -10262.669356187505, -12223.90082167397, -9706.893230306296, -11990.235685138188, -14235.66958137388, -11822.307029045467, -9855.733496634186, -10348.365944429153, -13523.699465238986, -12804.576790878391, -18434.489480792225, 0.011250000000000001, -0.02859375, 0.9876875, 192.0, 0.0, 32.0, 127.5, 24.0, 15.0, 104.0, 0.0, 0.0, 0.0, 1.64458674570922E9, 0.0, 2022-02-12 00:39:05.709
206.0, -12922.996333002608, -12476.90021716359, -8748.271614107087, -12606.316817559817, -13861.635489658773, -10229.387608693554, -12203.627789453005, -9698.623084857833, -11979.775068733104, -14233.568517395082, -11799.083566556403, -9849.117380275415, -10315.888859735593, -13508.276761564823, -12788.707052315123, -18417.68096896183, 0.011250000000000001, -0.02859375, 0.9876875, 192.0, 0.0, 0.0, 0.0, 0.0, 0.0, 0.0, 0.0, 0.0, 0.0, 1.644586745718846E9, 0.0, 2022-02-12 00:39:05.718
208.0, -12904.958475227175, -12465.32201353574, -8742.102532637422, -12619.236125854984, -13865.45763796063, -10234.707323873918, -12203.873658642015, -9694.242142944591, -11973.695394241262, -14220.269229444175, -11808.359540505355, -9833.784083579074, -10317.185260914, -13501.14655508358, -12781.509790600514, -18397.139715807407, 0.011250000000000001, -0.02859375, 0.9876875, 192.0, 0.0, 0.0, 0.0, 0.0, 0.0, 0.0, 0.0, 0.0, 0.0, 1.644586745724892E9, 0.0, 2022-02-12 00:39:05.724
210.0, -12868.88275967631, -12443.931394092011, -8729.049113875522, -12580.075869569288, -13846.995097040546, -10228.560594148707, -12182.572446176106, -9678.282997403503, -11951.589518974963, -14202.700758302302, -11784.66669138273, -9815.746225803641, -10321.90147899407, -13504.454613262966, -12758.398086833728, -18383.77337262313, 0.011250000000000001, -0.02859375, 0.9876875, 192.0, 0.0, 0.0, 0.0, 0.0, 0.0, 0.0, 0.0, 0.0, 0.0, 1.644586745731282E9, 0.0, 2022-02-12 00:39:05.731
212.0, -12892.866181476855, -12439.997487067878, -8726.0092766296, -12573.079773554777, -13838.88141380327, -10217.317666687688, -12175.68810888387, -9672.069212444927, -11945.196920060745, -14212.133194462443, -11778.028223279503, -9808.928943744773, -10313.117243423134, -13500.81127891675, -12757.861644966799, -18373.82684634052, 0.011250000000000001, -0.02859375, 0.9876875, 192.0, 0.0, 0.0, 0.0, 0.0, 0.0, 0.0, 0.0, 0.0, 0.0, 1.644586745739523E9, 0.0, 2022-02-12 00:39:05.739
214.0, -12871.632024244313, -12414.807071066747, -8706.116224064377, -12562.887378083156, -13826.520899119485, -10205.270076426277, -12163.506408155728, -9644.733028976087, -11932.635239676863, -14193.022452953155, -11753.106028211836, -9783.582065532455, -10286.451612287952, -13476.179656527001, -12728.223231819062, -18343.71904655922, 0.011625, -0.028296875, 0.98684375, 192.0, 0.0, 48.0, 127.5, 16.0, 15.0, 104.0, 0.0, 0.0, 0.0, 1.64458674574693E9, 0.0, 2022-02-12 00:39:05.746
216.0, -12841.747741907568, -12396.813916780224, -8706.473851975663, -12538.725142326968, -13802.671587785673, -10186.785183761738, -12147.010820747713, -9645.492988287568, -11919.984152315159, -14159.248967081186, -11740.834920505873, -9775.423678806268, -10266.312690533721, -13460.309917963734, -12715.549792712904, -18336.879412755898, 0.011625, -0.028296875, 0.98684375, 192.0, 0.0, 0.0, 0.0, 0.0, 0.0, 0.0, 0.0, 0.0, 0.0, 1.644586745754044E9, 0.0, 2022-02-12 00:39:05.754
218.0, -12836.718599405123, -12381.726489272893, -8700.617694928373, -12549.901014554622, -13809.801794266916, -10198.072814711668, -12156.577367374584, -9647.929328433196, -11919.850041848427, -14157.460827524761, -11737.929193726683, -9788.812373734996, -10276.326272049699, -13469.72000237942, -12713.784004900934, -18325.43531959478, 0.011625, -0.028296875, 0.98684375, 192.0, 0.0, 0.0, 0.0, 0.0, 0.0, 0.0, 0.0, 0.0, 0.0, 1.644586745761559E9, 0.0, 2022-02-12 00:39:05.761
220.0, -12807.974256035597, -12381.525323572794, -8690.805279112492, -12510.8525169912, -13785.930131188648, -10181.77839300375, -12137.556032843118, -9628.95269739064, -11898.727643338161, -14168.167313118855, -11716.069187649393, -9761.520893755067, -10247.917204847003, -13457.203025484447, -12691.387556956715, -18308.96208393122, 0.011625, -0.028296875, 0.98684375, 192.0, 0.0, 0.0, 0.0, 0.0, 0.0, 0.0, 0.0, 0.0, 0.0, 1.644586745769512E9, 0.0, 2022-02-12 00:39:05.769
222.0, -12785.354290646826, -12354.792637204248, -8694.381558225341, -12508.974970456955, -13778.263482840477, -10181.48782032583, -12131.20813741781, -9627.499834001044, -11893.944370024727, -14153.66103096736, -11720.98657142956, -9762.012632133083, -10262.155266065034, -13463.483865676388, -12690.091155778307, -18304.04470015105, 0.011625, -0.028296875, 0.98684375, 192.0, 0.0, 0.0, 0.0, 0.0, 0.0, 0.0, 0.0, 0.0, 0.0, 1.644586745777742E9, 0.0, 2022-02-12 00:39:05.777
224.0, -12802.475726899593, -12353.987974403855, -8674.689671360216, -12499.587237785727, -13774.776610705449, -10163.807590461684, -12131.386951373453, -9612.23359253807, -11862.316651620467, -14127.285972510097, -11697.964274640593, -9743.818312146463, -10246.732562390873, -13452.732676593385, -12671.941539280599, -18280.396554517338, 0.01, -0.028, 0.99, 192.0, 0.0, 40.0, 127.5, 16.0, 15.0, 120.0, 0.0, 0.0, 0.0, 1.64458674578407E9, 0.0, 2022-02-12 00:39:05.784
226.0, -12793.467973884104, -12329.356352014107, -8670.085212002423, -12461.633975700615, -13750.1449883157, -10142.260508806767, -12103.849602204515, -9599.671912154188, -11866.697593533707, -14134.617344691438, -11676.774820896962, -9724.886384592817, -10230.639306383051, -13442.942612521962, -12664.02902174342, -18268.6618886783, 0.01, -0.028, 0.99, 192.0, 0.0, 0.0, 0.0, 0.0, 0.0, 0.0, 0.0, 0.0, 0.0, 1.644586745799138E9, 0.0, 2022-02-12 00:39:05.799
228.0, -12772.90436898522, -12329.1104828251, -8664.206703210677, -12476.22966482993, -13750.614374949262, -10142.573433229141, -12098.507535279696, -9592.5640574174, -11866.272910389056, -14120.200469517766, -11674.897274362716, -9724.841681103908, -10225.029018524769, -13417.349865120634, -12651.065009959342, -18248.925298324266, 0.01, -0.028, 0.99, 192.0, 0.0, 0.0, 0.0, 0.0, 0.0, 0.0, 0.0, 0.0, 0.0, 1.644586745806315E9, 0.0, 2022-02-12 00:39:05.806
230.0, -12732.335952798838, -12304.590619157627, -8657.367069407353, -12443.12673129162, -13732.084778795814, -10126.569584199142, -12075.86521814647, -9578.616568877289, -11841.373067065844, -14118.881716594902, -11662.559111423387, -9706.379140183824, -10195.34590188812, -13407.358635349112, -12627.17099513662, -18237.347094696415, 0.01, -0.028, 0.99, 192.0, 0.0, 0.0, 0.0, 0.0, 0.0, 0.0, 0.0, 0.0, 0.0, 1.644586745813782E9, 0.0, 2022-02-12 00:39:05.813
232.0, -12728.558507985892, -12293.951188796902, -8652.025002482535, -12433.470777686927, -13727.14504327119, -10111.705674136361, -12083.129535094446, -9564.378507659258, -11839.71903797615, -14103.906047809845, -11652.277308973946, -9708.72607335163, -10216.848280054126, -13407.716263260398, -12627.17099513662, -18221.387949155327, 0.01, -0.028, 0.99, 192.0, 0.0, 0.0, 0.0, 0.0, 0.0, 0.0, 0.0, 0.0, 0.0, 1.644586745821713E9, 0.0, 2022-02-12 00:39:05.821
234.0, -12715.415682246172, -12276.606235099584, -8637.809293008959, -12431.012085796845, -13715.499784409974, -10112.33152298111, -12063.594110440506, -9562.098629724816, -11822.91052614576, -14090.159724969832, -11636.318163432858, -9692.968093510639, -10178.760907502283, -13393.075870642171, -12607.702625716047, -18201.27137914555, 0.014, -0.026000000000000002, 0.986, 192.0, 0.0, 56.0, 127.5, 24.0, 15.0, 104.0, 0.0, 0.0, 0.0, 1.644586745829777E9, 0.0, 2022-02-12 00:39:05.829
236.0, -12710.654760677191, -12260.445923858397, -8634.747104018583, -12393.125878945099, -13687.425993374109, -10094.159554738946, -12044.058685786567, -9549.894577252218, -11806.705511415663, -14062.845893245447, -11613.899363744184, -9686.82136378543, -10185.757003516794, -13397.702681744418, -12593.799840664846, -18196.957492465674, 0.014, -0.026000000000000002, 0.986, 192.0, 0.0, 0.0, 0.0, 0.0, 0.0, 0.0, 0.0, 0.0, 0.0, 1.64458674583649E9, 0.0, 2022-02-12 00:39:05.836
238.0, -12708.553696698393, -12247.079580674123, -8631.28258362801, -12401.954818004944, -13694.913827766637, -10104.53076416621, -12047.925537577335, -9542.183225415138, -11802.168107291236, -14062.130637422877, -11615.732206789518, -9671.86804674483, -10181.957206959392, -13402.150678891025, -12586.669634183603, -18178.494951545592, 0.014, -0.026000000000000002, 0.986, 192.0, 0.0, 0.0, 0.0, 0.0, 0.0, 0.0, 0.0, 0.0, 0.0, 1.644586745844389E9, 0.0, 2022-02-12 00:39:05.844
240.0, -12676.344832938294, -12254.500359833284, -8619.436159066696, -12378.35137586014, -13677.390060113677, -10083.721290078318, -12031.675819358328, -9522.983076928029, -11789.47231644062, -14068.679698548282, -11603.036415938905, -9658.81462798293, -10161.415953804964, -13382.88347517055, -12567.000099062932, -18161.820550181932, 0.014, -0.026000000000000002, 0.986, 192.0, 0.0, 0.0, 0.0, 0.0, 0.0, 0.0, 0.0, 0.0, 0.0, 1.644586745851495E9, 0.0, 2022-02-12 00:39:05.851
242.0, -12666.174789211129, -12244.106798661567, -8619.816138722437, -12373.322233357696, -13674.126705423201, -10078.826258042605, -12028.814796068049, -9527.78870198592, -11783.884380326794, -14075.698146307248, -11594.67686351262, -9670.593997310878, -10162.15356137199, -13377.74257394583, -12568.117686285697, -18156.21026232365, 0.014, -0.026000000000000002, 0.986, 192.0, 0.0, 0.0, 0.0, 0.0, 0.0, 0.0, 0.0, 0.0, 0.0, 1.644586745859418E9, 0.0, 2022-02-12 00:39:05.859
244.0, -12655.7365245505, -12213.216687824332, -8601.308894313443, -12367.957814688423, -13668.114086164724, -10069.796153282661, -12024.009171010157, -9502.553582495879, -11766.919406285217, -14053.63697452986, -11571.408697534645, -9654.657203514244, -10149.658936221473, -13366.164370317982, -12548.224633720474, -18131.35512248935, 0.012, -0.02, 0.988, 192.0, 0.0, 48.0, 127.5, 48.0, 15.0, 112.0, 0.0, 0.0, 0.0, 1.644586745867614E9, 0.0, 2022-02-12 00:39:05.867
246.0, -12649.299222147372, -12198.308074272642, -8607.589734505384, -12335.34661952813, -13645.404713798132, -10050.819522240106, -11996.717691030228, -9501.950085395585, -11763.633699850287, -14045.433884314763, -11556.18715956058, -9643.14605511976, -10128.603592944573, -13355.077905068149, -12533.450130635516, -18123.666122396724, 0.012, -0.02, 0.988, 192.0, 0.0, 0.0, 0.0, 0.0, 0.0, 0.0, 0.0, 0.0, 0.0, 1.644586745874133E9, 0.0, 2022-02-12 00:39:05.874
248.0, -12642.705457533057, -12199.716234173327, -8596.726786700105, -12346.075456866678, -13648.645716744151, -10050.059562928625, -11999.623417809418, -9495.892762648196, -11761.644394593763, -14049.97128843919, -11560.881025896195, -9635.76997944951, -10149.591880988108, -13355.435532979434, -12524.487081108939, -18108.623398378302, 0.012, -0.02, 0.988, 192.0, 0.0, 0.0, 0.0, 0.0, 0.0, 0.0, 0.0, 0.0, 0.0, 1.644586745882055E9, 0.0, 2022-02-12 00:39:05.882
250.0, -12606.45092802655, -12165.182788989878, -8577.79485914646, -12313.084282050644, -13617.867364629194, -10028.2666120847, -11975.639996008873, -9472.691651903588, -11725.903955209727, -14006.228924540153, -11534.729484883486, -9625.130549088783, -10122.255697519267, -13338.917593826962, -12499.810755230279, -18091.569017358903, 0.012, -0.02, 0.988, 192.0, 0.0, 0.0, 0.0, 0.0, 0.0, 0.0, 0.0, 0.0, 0.0, 1.644586745889268E9, 0.0, 2022-02-12 00:39:05.889
252.0, -12599.9242186456, -12176.984510062279, -8575.35851900083, -12309.932686082446, -13602.511716188397, -10026.836100439561, -11957.468027766708, -9470.948215836075, -11723.98170518657, -14025.20555558271, -11526.973429557494, -9607.517374458, -10112.443281703387, -13330.267468722757, -12490.71359523697, -18081.890712009754, 0.012, -0.02, 0.988, 192.0, 0.0, 0.0, 0.0, 0.0, 0.0, 0.0, 0.0, 0.0, 0.0, 1.644586745896801E9, 0.0, 2022-02-12 00:39:05.896
254.0, -12570.464619453505, -12138.427750876876, -8560.919292082703, -12300.76847085577, -13598.734271375451, -10010.944010131838, -11955.948109143748, -9458.520645918923, -11703.55221075442, -14014.811994410991, -11514.456452662524, -9608.210278536115, -10076.591083597075, -13322.600820374588, -12469.680603704526, -18058.689601265145, 0.014, -0.022, 0.986, 192.0, 0.0, 56.0, 127.5, 40.0, 15.0, 104.0, 0.0, 0.0, 0.0, 1.644586745905202E9, 0.0, 2022-02-12 00:39:05.905
0.0, -12555.779523346368, -12128.905907738914, -8555.465466435608, -12269.297214662698, -13583.177457234557, -9995.118975057481, -11940.45835023622, -9448.864692314231, -11695.147954839225, -13997.86937211387, -11511.99776077244, -9595.000397563028, -10099.52397340822, -13317.661084849964, -12457.141275065098, -18043.468063291082, 0.014, -0.022, 0.986, 192.0, 0.0, 0.0, 0.0, 0.0, 0.0, 0.0, 0.0, 0.0, 0.0, 1.644586745911744E9, 0.0, 2022-02-12 00:39:05.911
2.0, -12574.15265728863, -12124.480262336763, -8552.537387911963, -12281.568322368661, -13585.367928191177, -9997.868239625483, -11946.470969494698, -9443.656735856144, -11694.142126338736, -13974.668261369261, -11508.644999104143, -9590.239475994049, -10099.389862941487, -13311.067320235648, -12458.392972754595, -18026.123109593762, 0.014, -0.022, 0.986, 192.0, 0.0, 0.0, 0.0, 0.0, 0.0, 0.0, 0.0, 0.0, 0.0, 1.644586745926395E9, 0.0, 2022-02-12 00:39:05.926
4.0, -12570.218750264496, -12134.627954319472, -8546.703582609127, -12252.242833643299, -13565.92191051506, -9980.97032081727, -11932.009390832114, -9435.76657006342, -11670.181056282647, -13965.436990909218, -11480.280635390358, -9571.151086229216, -10061.883635745482, -13296.829259017619, -12437.851719600169, -18012.868525131766, 0.014, -0.022, 0.986, 192.0, 0.0, 0.0, 0.0, 0.0, 0.0, 0.0, 0.0, 0.0, 0.0, 1.644586745934392E9, 0.0, 2022-02-12 00:39:05.934
6.0, -12546.05651450831, -12110.577477285562, -8545.943623297648, -12242.27395561623, -13557.338840644223, -9978.601035905009, -11922.956934327714, -9430.156282205138, -11679.41232674269, -13981.418488194764, -11478.827772000763, -9572.738060085543, -10077.216932441823, -13294.39291887199, -12439.058713800754, -18005.537152950426, 0.014, -0.022, 0.986, 192.0, 0.0, 0.0, 0.0, 0.0, 0.0, 0.0, 0.0, 0.0, 0.0, 1.64458674594177E9, 0.0, 2022-02-12 00:39:05.941
8.0, -12508.28206637884, -12073.920616378859, -8525.849405032326, -12236.149577635477, -13546.25237539439, -9966.888721810428, -11914.619733645884, -9414.867688997709, -11653.618413641265, -13964.721735086649, -11462.332184592746, -9557.494170367023, -10058.195597910357, -13276.243302374281, -12411.45430939845, -17981.55373114988, 0.014, -0.026000000000000002, 0.99, 192.0, 0.0, 56.0, 127.5, 24.0, 15.0, 120.0, 0.0, 0.0, 0.0, 1.644586745948972E9, 0.0, 2022-02-12 00:39:05.948
10.0, -12501.934170953533, -12064.376421496443, -8521.848442774826, -12201.772594663214, -13519.944372170494, -9943.821721532551, -11889.54107636703, -9405.167031904106, -11634.552375620888, -13946.750932544583, -11446.373039051658, -9534.449521833601, -10024.757388205218, -13267.302604592158, -12395.159887690532, -17971.964832778554, 0.014, -0.026000000000000002, 0.99, 192.0, 0.0, 0.0, 0.0, 0.0, 0.0, 0.0, 0.0, 0.0, 0.0, 1.644586745957084E9, 0.0, 2022-02-12 00:39:05.957
12.0, -12497.508525551382, -12051.635927156918, -8510.627867058261, -12213.440205268886, -13518.759729714362, -9943.642907576908, -11893.206762457701, -9404.250610381438, -11629.523233118443, -13935.083321938911, -11439.712219203975, -9550.006335974496, -10030.79235920815, -13266.587348769588, -12392.16475393352, -17954.0387337254, 0.014, -0.026000000000000002, 0.99, 192.0, 0.0, 0.0, 0.0, 0.0, 0.0, 0.0, 0.0, 0.0, 0.0, 1.644586745965047E9, 0.0, 2022-02-12 00:39:05.965
14.0, -12483.315167822262, -12061.314232506065, -8503.162384410189, -12179.867885097014, -13494.15045906907, -9924.375703856434, -11862.182541153734, -9372.645243721634, -11600.175392648625, -13922.678103766217, -11414.074768313738, -9519.473853048547, -10010.988713620749, -13249.778836939196, -12368.360146088618, -17932.178727648108, 0.014, -0.026000000000000002, 0.99, 192.0, 0.0, 0.0, 0.0, 0.0, 0.0, 0.0, 0.0, 0.0, 0.0, 1.644586745971797E9, 0.0, 2022-02-12 00:39:05.971
16.0, -12476.252016574386, -12057.559139437573, -8506.358683867298, -12175.330480972587, -13485.343871753677, -9917.938401453304, -11865.02121269956, -9373.338147799748, -11610.501898586977, -13927.32726661292, -11418.187489293516, -9520.814957715864, -10014.386178777955, -13249.421209027912, -12367.935462943968, -17929.56357354684, 0.014, -0.026000000000000002, 0.99, 192.0, 0.0, 0.0, 0.0, 0.0, 0.0, 0.0, 0.0, 0.0, 0.0, 1.64458674597864E9, 0.0, 2022-02-12 00:39:05.978
18.0, -12451.575690695727, -12002.32797888851, -8491.964160438081, -12174.481114683285, -13480.851171118162, -9899.3864535554, -11862.137837664824, -9361.916406383087, -11592.53109604491, -13917.80542347496, -11402.16128851906, -9515.137614624216, -9980.277416739156, -13228.879955873485, -12354.837340693157, -17907.658863980636, 0.012, -0.028, 0.99, 192.0, 0.0, 48.0, 127.5, 16.0, 15.0, 120.0, 0.0, 0.0, 0.0, 1.644586745986852E9, 0.0, 2022-02-12 00:39:05.986
20.0, -12419.210364724442, -12008.631170824907, -8487.24794235801, -12136.393742131442, -13450.586909125675, -9878.264055045134, -11839.71903797615, -9352.305156267304, -11570.000537633961, -13891.787992928981, -11383.095250498684, -9490.461288745557, -9968.319233455568, -13209.165717263904, -12338.274698051775, -17895.611273719227, 0.012, -0.028, 0.99, 192.0, 0.0, 0.0, 0.0, 0.0, 0.0, 0.0, 0.0, 0.0, 0.0, 1.644586745994716E9, 0.0, 2022-02-12 00:39:05.994
22.0, -12416.550507134261, -11974.678870997295, -8472.2499218285, -12148.35192541503, -13450.944537036961, -9882.19796206927, -11833.907584417771, -9347.23131027595, -11574.739107458487, -13895.31956855292, -11387.163267989548, -9483.934579364608, -9984.658358652398, -13213.27843824368, -12340.509872497305, -17883.518979968903, 0.012, -0.028, 0.99, 192.0, 0.0, 0.0, 0.0, 0.0, 0.0, 0.0, 0.0, 0.0, 0.0, 1.644586746001277E9, 0.0, 2022-02-12 00:39:06.001
24.0, -12406.916905274024, -11989.296911871066, -8454.636747197717, -12109.325779596065, -13423.407187868022, -9848.580938408488, -11807.66663642724, -9315.380074427138, -11551.582700202787, -13866.55287343894, -11360.229415920903, -9473.295149003881, -9959.043259506614, -13197.22988572477, -12308.43511920394, -17859.379095957174, 0.012, -0.028, 0.99, 192.0, 0.0, 0.0, 0.0, 0.0, 0.0, 0.0, 0.0, 0.0, 0.0, 1.644586746009249E9, 0.0, 2022-02-12 00:39:06.009
26.0, -12397.17154469151, -11976.712879742729, -8451.015764595957, -12103.491974293229, -13411.158431906515, -9847.508054674632, -11793.652092653763, -9314.84363256021, -11547.71584841202, -13857.45571344563, -11347.175997159005, -9459.794695352877, -9944.536977355121, -13194.950007790329, -12305.797613358214, -17849.700790608025, 0.012, -0.028, 0.99, 192.0, 0.0, 0.0, 0.0, 0.0, 0.0, 0.0, 0.0, 0.0, 0.0, 1.644586746017611E9, 0.0, 2022-02-12 00:39:06.017
28.0, -12372.003480434834, -11932.009390832114, -8438.923470845637, -12097.121727123467, -13403.827059725174, -9844.289403473069, -11786.767755361529, -9293.609475327668, -11524.157109756126, -13862.574262925895, -11326.411226560025, -9449.892872559176, -9917.67018051984, -13175.727507558764, -12285.9492642819, -17826.186755441042, 0.012, -0.028, 0.992, 192.0, 0.0, 48.0, 127.5, 16.0, 15.5, 0.0, 0.0, 0.0, 0.0, 1.644586746024397E9, 0.0, 2022-02-12 00:39:06.024
30.0, -12352.579814503171, -11911.78106210006, -8436.28596499991, -12063.594110440506, -13380.424783280467, -9823.390522407357, -11767.209978963136, -9289.295588647794, -11504.37581591318, -13853.45475118813, -11326.791206215765, -9437.398247408659, -9919.748892754185, -13157.019097449673, -12274.058136231677, -17816.32963613625, 0.012, -0.028, 0.992, 192.0, 0.0, 0.0, 0.0, 0.0, 0.0, 0.0, 0.0, 0.0, 0.0, 1.644586746032086E9, 0.0, 2022-02-12 00:39:06.032
32.0, -12344.086151610156, -11926.868489607394, -8427.658191640163, -12074.077078590046, -13381.609425736598, -9827.302077687034, -11773.893150555272, -9286.434565357515, -11502.632379845665, -13842.949431294135, -11314.520098509802, -9424.814215280321, -9902.091014634492, -13155.610937548989, -12273.745211809304, -17805.1537639086, 0.012, -0.028, 0.992, 192.0, 0.0, 0.0, 0.0, 0.0, 0.0, 0.0, 0.0, 0.0, 0.0, 1.64458674604718E9, 0.0, 2022-02-12 00:39:06.047
34.0, -12333.804349160713, -11921.146443026835, -8417.644610124184, -12042.136435763412, -13357.648355680509, -9801.619923307888, -11752.99426948956, -9261.98175692341, -11487.343786638236, -13835.394541668242, -11292.816554643698, -9401.657808024622, -9889.082299361504, -13139.495329796711, -12249.001830697278, -17780.410382796574, 0.012, -0.028, 0.992, 192.0, 0.0, 0.0, 0.0, 0.0, 0.0, 0.0, 0.0, 0.0, 0.0, 1.644586746053607E9, 0.0, 2022-02-12 00:39:06.053
36.0, -12319.655694920504, -11895.196067714223, -8418.538679902396, -12035.09563625999, -13344.907861340984, -9801.374054118878, -11732.005981446026, -9261.534722034303, -11490.18245818406, -13822.698750817628, -11286.647473174033, -9415.180613420083, -9903.610933257452, -13146.156149644394, -12247.638374285505, -17773.771914693345, 0.012, -0.028, 0.99, 192.0, 0.0, 48.0, 127.5, 16.0, 15.0, 112.0, 0.0, 0.0, 0.0, 1.644586746061882E9, 0.0, 2022-02-12 00:39:06.061
38.0, -12325.981238601356, -11882.455573374698, -8403.764176817438, -12031.966392036247, -13343.186777017925, -9796.970760461183, -11739.18089141618, -9254.605681253157, -11473.575112053766, -13807.276047143467, -11285.194609784437, -9392.80651722032, -9879.471049245722, -13122.664466221866, -12226.538327519695, -17753.61064119466, 0.012, -0.028, 0.99, 192.0, 0.0, 0.0, 0.0, 0.0, 0.0, 0.0, 0.0, 0.0, 0.0, 1.644586746069534E9, 0.0, 2022-02-12 00:39:06.069
40.0, -12315.542973940728, -11874.364241881876, -8400.746691315971, -11993.297874128566, -13317.146994727493, -9777.681204996254, -11724.22757437558, -9245.01678288183, -11462.846274715219, -13785.01370966598, -11262.932272306953, -9382.010624648408, -9872.251435786657, -13116.16010858537, -12213.440205268886, -17748.961478347956, 0.012, -0.028, 0.99, 192.0, 0.0, 0.0, 0.0, 0.0, 0.0, 0.0, 0.0, 0.0, 0.0, 1.644586746076547E9, 0.0, 2022-02-12 00:39:06.076
42.0, -12303.875363335057, -11858.762724252072, -8392.14126970068, -12013.123871460422, -13309.636808590509, -9781.771574231574, -11722.975876686083, -9235.025553110308, -11457.012469412384, -13795.854305726803, -11254.259795458293, -9385.698662483534, -9865.367098494424, -13111.26507654966, -12210.51212674524, -17736.958591575454, 0.012, -0.028, 0.99, 192.0, 0.0, 0.0, 0.0, 0.0, 0.0, 0.0, 0.0, 0.0, 0.0, 1.644586746084372E9, 0.0, 2022-02-12 00:39:06.084
44.0, -12274.639281587515, -11856.907529462282, -8376.89737998216, -11982.971368190214, -13283.753488511264, -9761.07385886596, -11692.309283293402, -9212.383235977082, -11435.174815079548, -13773.480209527042, -11237.227766183349, -9373.852237922221, -9835.393409179856, -13101.229143289227, -12185.36641423302, -17717.9819605329, 0.012, -0.028, 0.99, 192.0, 0.0, 0.0, 0.0, 0.0, 0.0, 0.0, 0.0, 0.0, 0.0, 1.644586746092143E9, 0.0, 2022-02-12 00:39:06.092
46.0, -12264.75981053827, -11822.687008701207, -8380.652473050652, -11975.37177507541, -13278.634939030999, -9756.491751252623, -11696.824335673373, -9217.68059941299, -11433.029047611839, -13780.811581708382, -11237.563042350179, -9353.087467323241, -9838.701467359242, -13110.572172471544, -12180.158457774933, -17710.717643584925, 0.009000000000000001, -0.027000000000000003, 0.988, 192.0, 0.0, 24.0, 127.5, 24.0, 15.0, 104.0, 0.0, 0.0, 0.0, 1.64458674609926E9, 0.0, 2022-02-12 00:39:06.099
48.0, -12240.70933350436, -11790.768717619028, -8367.241426377466, -11983.75367924615, -13272.421154072423, -9752.64725120631, -11687.146030324226, -9200.760328860322, -11409.91734384505, -13773.323747315855, -11226.565984078168, -9355.18853130204, -9810.225344923181, -13085.247646003681, -12166.613300635017, -17692.7244892984, 0.009000000000000001, -0.027000000000000003, 0.988, 192.0, 0.0, 0.0, 0.0, 0.0, 0.0, 0.0, 0.0, 0.0, 0.0, 1.644586746106283E9, 0.0, 2022-02-12 00:39:06.106
50.0, -12247.437208585407, -11825.123348846835, -8359.284205351378, -11953.802341676039, -13242.313354291124, -9735.63757367582, -11659.49692243301, -9189.897381055043, -11396.953332060973, -13752.894252883703, -11205.845916968097, -9337.307135737794, -9818.674304327287, -13070.830770830009, -12146.697896325339, -17683.24734964935, 0.009000000000000001, -0.027000000000000003, 0.988, 192.0, 0.0, 0.0, 0.0, 0.0, 0.0, 0.0, 0.0, 0.0, 0.0, 1.644586746113783E9, 0.0, 2022-02-12 00:39:06.113
52.0, -12241.692810260392, -11802.90571485826, -8359.798295473849, -11968.554493016542, -13248.61654622752, -9737.425713232245, -11663.766105623974, -9192.356072945127, -11407.548058932789, -13754.213005806567, -11200.772070976744, -9341.688077651033, -9810.672379812286, -13077.156314510861, -12152.129370227978, -17675.35718385663, 0.009000000000000001, -0.027000000000000003, 0.988, 192.0, 0.0, 0.0, 0.0, 0.0, 0.0, 0.0, 0.0, 0.0, 0.0, 1.644586746121803E9, 0.0, 2022-02-12 00:39:06.121
54.0, -12230.047551399179, -11784.040842537981, -8351.32698432529, -11935.205690289224, -13225.393083738458, -9710.737730352608, -11645.817654826362, -9164.326985398173, -11382.245884209382, -13725.915697326149, -11184.701166713377, -9337.128321782151, -9790.019367935583, -13064.952262038263, -12128.59298331654, -17655.620593502594, 0.009000000000000001, -0.027000000000000003, 0.988, 192.0, 0.0, 0.0, 0.0, 0.0, 0.0, 0.0, 0.0, 0.0, 0.0, 1.644586746129947E9, 0.0, 2022-02-12 00:39:06.129
56.0, -12211.853231412559, -11782.14094425928, -8354.255062848933, -11916.474928435675, -13210.305656231125, -9705.485070405612, -11643.582480380832, -9166.763325543801, -11377.820238807231, -13742.43363647862, -11184.589407991101, -9314.17308022655, -9781.525705042566, -13058.090276490484, -12122.982695458257, -17643.304782307718, 0.007500000000000001, -0.025500000000000002, 0.987, 192.0, 0.0, 24.0, 127.5, 32.0, 15.0, 104.0, 0.0, 0.0, 0.0, 1.644586746136369E9, 0.0, 2022-02-12 00:39:06.136
58.0, -12202.957237119346, -11747.898071753749, -8343.70503946603, -11925.88501285136, -13203.51072591671, -9696.454965645667, -11637.569861122354, -9151.452380591916, -11362.799866533263, -13727.212098504557, -11172.407707262959, -9303.287780676816, -9753.720134940164, -13043.20401468325, -12106.308294094599, -17623.143508809033, 0.007500000000000001, -0.025500000000000002, 0.987, 192.0, 0.0, 0.0, 0.0, 0.0, 0.0, 0.0, 0.0, 0.0, 0.0, 1.644586746144755E9, 0.0, 2022-02-12 00:39:06.144
60.0, -12180.31491998612, -11750.826150277395, -8338.117103352202, -11891.977416512658, -13185.338757674546, -9673.499724090067, -11619.375541135734, -9149.194854401929, -11358.687145553487, -13712.2364297195, -11154.883939609997, -9308.339274923715, -9751.663774450275, -13029.658857543332, -12095.53475326714, -17618.069662817677, 0.007500000000000001, -0.025500000000000002, 0.987, 192.0, 0.0, 0.0, 0.0, 0.0, 0.0, 0.0, 0.0, 0.0, 0.0, 1.644586746152403E9, 0.0, 2022-02-12 00:39:06.152
62.0, -12188.450954967851, -11748.300403153946, -8331.210414315512, -11906.818974830983, -13195.195876979336, -9681.68046256071, -11625.991657494505, -9158.090848695141, -11354.999107718362, -13724.90986882566, -11152.425247719913, -9300.002074241886, -9782.12920214286, -13037.236098913681, -12098.507535279696, -17609.91127609149, 0.007500000000000001, -0.025500000000000002, 0.987, 192.0, 0.0, 0.0, 0.0, 0.0, 0.0, 0.0, 0.0, 0.0, 0.0, 1.644586746158552E9, 0.0, 2022-02-12 00:39:06.158
64.0, -12160.757143587727, -11720.181908629169, -8319.989838598947, -11882.656739074797, -13173.000594735217, -9657.317061104424, -11606.903267729673, -9123.959734911889, -11330.747464984353, -13705.24033370499, -11126.519575896213, -9278.164419909052, -9749.74152442712, -13022.841575484465, -12074.43470650133, -17590.934645048936, 0.007500000000000001, -0.025500000000000002, 0.987, 192.0, 0.0, 0.0, 0.0, 0.0, 0.0, 0.0, 0.0, 0.0, 0.0, 1.64458674617414E9, 0.0, 2022-02-12 00:39:06.174
66.0, -12158.969004031302, -11735.89518498125, -8322.582640955763, -11872.911378492283, -13157.823760250063, -9655.886549459285, -11601.29297987139, -9129.145339625518, -11329.607526017133, -13708.280170950911, -11124.44086366187, -9269.268425615839, -9737.805692887985, -13015.912534703319, -12073.183008811833, -17583.871493801056, 0.00875, -0.02375, 0.9884999999999999, 192.0, 0.0, 40.0, 127.5, 40.0, 15.0, 120.0, 0.0, 0.0, 0.0, 1.644586746182094E9, 0.0, 2022-02-12 00:39:06.182
68.0, -12163.349945944543, -11716.627981260775, -8307.003475070414, -11872.173770925257, -13147.072571167062, -9646.968203421618, -11584.171543618626, -9109.364045782571, -11323.930182925485, -13703.631008104207, -11122.719779338811, -9263.8369517132, -9726.361599726868, -13009.81050846702, -12053.535825435618, -17564.29136565821, 0.00875, -0.02375, 0.9884999999999999, 192.0, 0.0, 0.0, 0.0, 0.0, 0.0, 0.0, 0.0, 0.0, 0.0, 1.64458674618866E9, 0.0, 2022-02-12 00:39:06.188
70.0, -12145.937937013858, -11718.304362094923, -8308.970428582481, -11842.781226966528, -13125.637248234421, -9623.521223488, -11564.122028842216, -9108.738196937824, -11311.971999641895, -13688.655339319152, -11110.783947799677, -9257.332594076704, -9705.216849472148, -12995.438336782257, -12035.274450215633, -17556.8929382435, 0.00875, -0.02375, 0.9884999999999999, 192.0, 0.0, 0.0, 0.0, 0.0, 0.0, 0.0, 0.0, 0.0, 0.0, 1.644586746196713E9, 0.0, 2022-02-12 00:39:06.196
72.0, -12154.386896417964, -11717.879678950272, -8314.066626318292, -11856.438142828722, -13129.057065136083, -9623.632982210276, -11568.234749821991, -9100.51275497827, -11309.446252518446, -13668.739935009473, -11111.700369322345, -9263.591082524192, -9691.179953954215, -12991.817354180499, -12034.223918226233, -17544.107740415067, 0.00875, -0.02375, 0.9884999999999999, 192.0, 0.0, 0.0, 0.0, 0.0, 0.0, 0.0, 0.0, 0.0, 0.0, 1.644586746204725E9, 0.0, 2022-02-12 00:39:06.204
74.0, -12164.378126189486, -11720.830109218372, -8304.16480352459, -11836.321572818944, -13115.176631829338, -9599.89542959874, -11559.361107273235, -9082.720766391845, -11305.914676894508, -13677.211246158035, -11105.553639597136, -9259.634823755601, -9686.307273662958, -12983.211932565206, -12014.800252294572, -17528.193298362887, 0.00875, -0.02375, 0.9884999999999999, 192.0, 0.0, 0.0, 0.0, 0.0, 0.0, 0.0, 0.0, 0.0, 0.0, 1.644586746211848E9, 0.0, 2022-02-12 00:39:06.211
76.0, -12177.74446937376, -11736.27516463699, -8302.041387801337, -11839.517872276054, -13103.106689823473, -9596.497964441534, -11542.865519865218, -9076.439926199904, -11307.255781561826, -13678.217074658523, -11107.855869276033, -9273.805829740266, -9698.265456946547, -12967.699821913222, -12016.633095339907, -17524.16998436093, 0.010375, -0.022875, 0.98725, 192.0, 0.0, 48.0, 127.5, 40.0, 15.0, 104.0, 0.0, 0.0, 0.0, 1.644586746219298E9, 0.0, 2022-02-12 00:39:06.219
78.0, -12199.760937662237, -11743.85240600734, -8302.220201756978, -11841.730694977128, -13106.168878813849, -9605.863345368309, -11546.687668167075, -9073.824772098635, -11303.47833674888, -13684.542618339376, -11117.981209514286, -9273.671719273534, -9684.139154450793, -12973.667737682788, -12002.126813188412, -17509.931923142904, 0.010375, -0.022875, 0.98725, 192.0, 0.0, 0.0, 0.0, 0.0, 0.0, 0.0, 0.0, 0.0, 0.0, 1.644586746226423E9, 0.0, 2022-02-12 00:39:06.226
80.0, -12240.239946870799, -11774.13901974428, -8311.004437327914, -11801.47520321312, -13088.153372782872, -9590.775917860976, -11528.85097609174, -9070.628472641525, -11312.396682786546, -13670.237501887977, -11112.616790845012, -9260.059506900252, -9671.577474066911, -12966.582234690457, -11991.353272360955, -17509.820164420624, 0.010375, -0.022875, 0.98725, 192.0, 0.0, 0.0, 0.0, 0.0, 0.0, 0.0, 0.0, 0.0, 0.0, 1.644586746234438E9, 0.0, 2022-02-12 00:39:06.234
82.0, -12244.643240528494, -11766.315909184923, -8309.17159428258, -11820.742406933596, -13096.088242064507, -9596.788537119453, -11534.327153483291, -9066.806324339668, -11332.490901051868, -13681.525132837909, -11111.096872222051, -9237.752465933856, -9698.556029624466, -12976.126429572872, -11997.589409063985, -17502.444088750373, 0.010375, -0.022875, 0.98725, 192.0, 0.0, 0.0, 0.0, 0.0, 0.0, 0.0, 0.0, 0.0, 0.0, 1.644586746242179E9, 0.0, 2022-02-12 00:39:06.242
84.0, -12204.007769108746, -11742.89128099576, -8289.703224862007, -11798.681235156208, -13069.288500462593, -9568.22300770557, -11512.824775317285, -9044.231062439807, -11308.105147851127, -13656.737048236973, -11090.175639411884, -9246.35788754915, -9660.491008817078, -12947.315030969981, -11972.488400040675, -17481.70166989585, 0.010375, -0.022875, 0.98725, 192.0, 0.0, 0.0, 0.0, 0.0, 0.0, 0.0, 0.0, 0.0, 0.0, 1.644586746249301E9, 0.0, 2022-02-12 00:39:06.249
86.0, -12193.971835848313, -11742.958336229127, -8289.055024272802, -11786.208961750146, -13058.090276490484, -9564.087934981339, -11497.938513510051, -9043.135826961498, -11293.665920933, -13655.75357148094, -11079.513857306703, -9227.917698373521, -9645.113008631828, -12938.955478543698, -11969.113286627924, -17475.621995404006, 0.0121875, -0.021437499999999998, 0.987625, 192.0, 0.0, 56.0, 127.5, 48.0, 15.0, 112.0, 0.0, 0.0, 0.0, 1.644586746256994E9, 0.0, 2022-02-12 00:39:06.256
88.0, -12180.560789175128, -11681.491038977032, -8273.744079320917, -11789.271150740524, -13050.088351975484, -9560.89163552423, -11492.529391351867, -9029.277745399208, -11276.298615491225, -13636.911050905115, -11064.292319332639, -9221.033361081287, -9647.90697668874, -12928.763083072077, -11948.08029509548, -17457.092399250556, 0.0121875, -0.021437499999999998, 0.987625, 192.0, 0.0, 0.0, 0.0, 0.0, 0.0, 0.0, 0.0, 0.0, 0.0, 1.644586746265055E9, 0.0, 2022-02-12 00:39:06.265
90.0, -12146.45202713633, -11694.365643783289, -8272.134753720136, -11752.815455533917, -13021.925153961796, -9530.336800853825, -11473.753926009409, -9006.054282910143, -11254.237443713839, -13608.278466257867, -11042.700534188813, -9209.25399175334, -9629.891470657763, -12912.714530553167, -11931.338838498456, -17446.520024123194, 0.0121875, -0.021437499999999998, 0.987625, 192.0, 0.0, 0.0, 0.0, 0.0, 0.0, 0.0, 0.0, 0.0, 0.0, 1.644586746271817E9, 0.0, 2022-02-12 00:39:06.271
92.0, -12120.278134379165, -11665.397782969212, -8265.250416427902, -11762.605519605342, -13027.781311009086, -9540.328030625347, -11488.975463983472, -9009.407044578438, -11256.89730130402, -13605.238629011945, -11047.975545880265, -9188.221000220896, -9622.783615920975, -12912.289847408516, -11931.02591407608, -17433.69012280585, 0.0121875, -0.021437499999999998, 0.987625, 192.0, 0.0, 0.0, 0.0, 0.0, 0.0, 0.0, 0.0, 0.0, 0.0, 1.644586746280335E9, 0.0, 2022-02-12 00:39:06.280
94.0, -12081.453154260296, -11630.529061618932, -8248.128980175135, -11740.3208303834, -13005.608380509422, -9521.709027494077, -11465.55083579431, -8997.582971761582, -11222.02857995374, -13601.304721987812, -11021.488728700726, -9167.52328485528, -9604.633999423266, -12895.347225111393, -11908.137727753847, -17415.965189452792, 0.0121875, -0.021437499999999998, 0.987625, 192.0, 0.0, 0.0, 0.0, 0.0, 0.0, 0.0, 0.0, 0.0, 0.0, 1.644586746293835E9, 0.0, 2022-02-12 00:39:06.293
96.0, -12066.499837219697, -11615.843965511796, -8248.151331919591, -11733.212975646613, -12991.57148499149, -9515.383483813224, -11454.59848101121, -8995.414852549417, -11218.98874270782, -13588.765393348383, -11006.982446549231, -9173.178276202474, -9597.861420853307, -12900.912809480764, -11905.053187019013, -17413.662959773894, 0.013093750000000001, -0.02171875, 0.9908125, 192.0, 0.0, 56.0, 127.5, 40.0, 15.5, 8.0, 0.0, 0.0, 0.0, 1.644586746301351E9, 0.0, 2022-02-12 00:39:06.301
98.0, -12056.463903959264, -11588.127802387215, -8231.946317189493, -11733.905879724727, -12982.563731976, -9506.174565097639, -11448.831730941742, -8973.040756349654, -11195.966445918852, -13552.510863841875, -10986.530600372625, -9159.901339996022, -9561.718650069077, -12887.12178315184, -11888.691710077728, -17395.088660131536, 0.013093750000000001, -0.02171875, 0.9908125, 192.0, 0.0, 0.0, 0.0, 0.0, 0.0, 0.0, 0.0, 0.0, 0.0, 1.644586746309571E9, 0.0, 2022-02-12 00:39:06.309
100.0, -12029.507700146163, -11565.641947465176, -8228.72766598793, -11703.4628037766, -12953.953499073208, -9483.934579364608, -11432.291440044813, -8977.712270940814, -11173.88292239701, -13540.351514858188, -10962.301309383072, -9152.94994747042, -9548.642879562722, -12867.742820709089, -11869.670375546262, -17385.29859606011, 0.013093750000000001, -0.02171875, 0.9908125, 192.0, 0.0, 0.0, 0.0, 0.0, 0.0, 0.0, 0.0, 0.0, 0.0, 1.644586746317344E9, 0.0, 2022-02-12 00:39:06.317
102.0, -12017.057778484557, -11578.270683082425, -8231.253413111379, -11707.307303822912, -12965.755220145611, -9487.44380324409, -11441.545062249312, -8962.066049822099, -11175.02286136423, -13550.96859347446, -10958.725030270223, -9139.002458930308, -9572.671004852176, -12870.961471910654, -11869.692727290718, -17375.77675292215, 0.013093750000000001, -0.02171875, 0.9908125, 192.0, 0.0, 0.0, 0.0, 0.0, 0.0, 0.0, 0.0, 0.0, 0.0, 1.644586746324043E9, 0.0, 2022-02-12 00:39:06.324
104.0, -11978.389260576876, -11531.6225924042, -8226.671305498041, -11693.3598152828, -12943.51523441258, -9472.266968758937, -11420.869698628152, -8949.794942116136, -11156.627375677512, -13538.183395646025, -10955.573434302025, -9114.974333640854, -9551.727420297555, -12849.146169322274, -11849.263232858568, -17363.10331381599, 0.013093750000000001, -0.02171875, 0.9908125, 192.0, 0.0, 0.0, 0.0, 0.0, 0.0, 0.0, 0.0, 0.0, 0.0, 1.644586746331964E9, 0.0, 2022-02-12 00:39:06.331
106.0, -11986.413536836331, -11529.610935403221, -8223.67617174103, -11680.842838387829, -12937.010876776085, -9463.974471566018, -11421.674361428542, -8957.43923871985, -11159.890730367986, -13524.146500128092, -10943.905823696354, -9098.724615421846, -9544.753676027498, -12848.11798907733, -11848.324459591444, -17361.58339519303, 0.013546875, -0.023859375000000002, 0.9924062499999999, 192.0, 0.0, 56.0, 127.5, 24.0, 15.5, 8.0, 0.0, 0.0, 0.0, 1.644586746339847E9, 0.0, 2022-02-12 00:39:06.339
108.0, -11975.483533797686, -11507.259190947914, -8208.208764577957, -11690.007053614505, -12929.813615061477, -9463.81800935483, -11419.372131749646, -8941.05541003411, -11144.266860993726, -13492.474078234922, -10913.887430892877, -9093.471955474848, -9524.637106017723, -12843.290012274983, -11835.360447807367, -17343.612592650963, 0.013546875, -0.023859375000000002, 0.9924062499999999, 192.0, 0.0, 0.0, 0.0, 0.0, 0.0, 0.0, 0.0, 0.0, 0.0, 1.644586746347204E9, 0.0, 2022-02-12 00:39:06.347
110.0, -11938.334934512966, -11491.32239715128, -8202.57612497522, -11656.412381698177, -12905.673731049745, -9433.732561317987, -11393.511163414856, -8931.19829072932, -11121.781006071687, -13493.47990673541, -10897.861230118422, -9092.197906040896, -9503.224134829537, -12827.464977200625, -11822.06115985646, -17339.00813329317, 0.013546875, -0.023859375000000002, 0.9924062499999999, 192.0, 0.0, 0.0, 0.0, 0.0, 0.0, 0.0, 0.0, 0.0, 0.0, 1.644586746353753E9, 0.0, 2022-02-12 00:39:06.353
112.0, -11920.051207548524, -11465.908463705597, -8194.082462082204, -11661.39682071171, -12898.230600146127, -9436.48182588599, -11393.980550048418, -8935.400418686917, -11114.360226912526, -13488.294302021779, -10892.943846338254, -9080.910275090966, -9503.291190062904, -12817.429043940192, -11820.451834255677, -17329.866269810947, 0.013546875, -0.023859375000000002, 0.9924062499999999, 192.0, 0.0, 0.0, 0.0, 0.0, 0.0, 0.0, 0.0, 0.0, 0.0, 1.644586746361608E9, 0.0, 2022-02-12 00:39:06.361
114.0, -11890.725718823162, -11437.186472080526, -8177.408060718544, -11634.150044220693, -12870.64854748828, -9407.826889494287, -11369.72890731441, -8897.558915324082, -11082.553694552624, -13459.125275507604, -10867.52991289257, -9047.69558283038, -9462.901587832164, -12793.713843073112, -11792.221581008624, -17307.268656166634, 0.013546875, -0.023859375000000002, 0.9924062499999999, 192.0, 0.0, 0.0, 0.0, 0.0, 0.0, 0.0, 0.0, 0.0, 0.0, 1.644586746369528E9, 0.0, 2022-02-12 00:39:06.369
116.0, -11863.009555698582, -11433.36432377867, -8176.603397918153, -11623.287096415414, -12865.708811963656, -9404.116499914706, -11382.648215609577, -8911.86403177548, -11082.129011407973, -13457.337135951178, -10863.461895401704, -9037.167911191931, -9471.842285614286, -12783.409688879216, -11794.210886265146, -17301.457202608253, 0.014, -0.026000000000000002, 0.988, 192.0, 0.0, 56.0, 127.5, 24.0, 15.0, 112.0, 0.0, 0.0, 0.0, 1.644586746376174E9, 0.0, 2022-02-12 00:39:06.376
118.0, -11860.595567297409, -11385.308073199758, -8167.573293158209, -11631.937221519616, -12864.635928229802, -9407.916296472109, -11364.811523534241, -8890.831040243034, -11071.891912447443, -13435.253612429335, -10857.136351720852, -9034.910385001944, -9459.01238429694, -12782.090935956352, -11784.554932660454, -17288.314376868533, 0.014, -0.026000000000000002, 0.988, 192.0, 0.0, 0.0, 0.0, 0.0, 0.0, 0.0, 0.0, 0.0, 0.0, 1.644586746384235E9, 0.0, 2022-02-12 00:39:06.384
120.0, -11861.44493358671, -11398.942637317496, -8165.561636157231, -11601.471793827033, -12847.91682337723, -9380.580113003269, -11357.882482753097, -8889.914618720368, -11056.558615751102, -13398.105013144615, -10839.210252667697, -9022.259297640241, -9458.766515107933, -12768.344613116338, -11772.70850809914, -17284.3804698444, 0.014, -0.026000000000000002, 0.988, 192.0, 0.0, 0.0, 0.0, 0.0, 0.0, 0.0, 0.0, 0.0, 0.0, 1.644586746392125E9, 0.0, 2022-02-12 00:39:06.392
122.0, -11859.992070197115, -11384.928093544018, -8165.85220883515, -11616.670980056642, -12858.042163615486, -9389.118479385195, -11379.608378363655, -8897.201287412798, -11052.04356337113, -13414.242972641347, -10826.827386239456, -9016.581954548592, -9459.414715697136, -12766.28825262645, -11778.877589568805, -17274.70216449525, 0.014, -0.026000000000000002, 0.988, 192.0, 0.0, 0.0, 0.0, 0.0, 0.0, 0.0, 0.0, 0.0, 0.0, 1.644586746399159E9, 0.0, 2022-02-12 00:39:06.399
124.0, -11842.177729866235, -11372.053488737762, -8158.945519798461, -11598.141383903192, -12833.20937552564, -9372.622891977178, -11353.09920943966, -8879.878685459935, -11046.746199935222, -13415.181745908469, -10817.931391946244, -9015.01733243672, -9421.640267567667, -12749.926775685166, -11759.99036550407, -17263.883920178883, 0.014, -0.026000000000000002, 0.988, 192.0, 0.0, 0.0, 0.0, 0.0, 0.0, 0.0, 0.0, 0.0, 0.0, 1.644586746406092E9, 0.0, 2022-02-12 00:39:06.406
126.0, -11819.893040644294, -11356.67548855251, -8157.671470364508, -11579.567084260832, -12820.737102119578, -9367.057307607807, -11353.613299562134, -8884.863124473468, -11049.450761014314, -13407.246876626836, -10805.101490628898, -8994.654893237936, -9425.283601913881, -12744.227080849061, -11756.70465906914, -17257.513673009118, 0.01, -0.026000000000000002, 0.988, 192.0, 0.0, 40.0, 127.5, 24.0, 15.0, 112.0, 0.0, 0.0, 0.0, 1.644586746423287E9, 0.0, 2022-02-12 00:39:06.423
128.0, -11783.794973348973, -11347.511273325834, -8150.608319116631, -11595.52622980192, -12814.903296816743, -9367.727859941466, -11339.107017410639, -8857.593996237993, -11032.955173606299, -13381.788239692241, -10806.308484829484, -8990.139840857964, -9425.976505991997, -12749.591499518336, -11744.478254852087, -17242.02391410159, 0.01, -0.026000000000000002, 0.988, 192.0, 0.0, 0.0, 0.0, 0.0, 0.0, 0.0, 0.0, 0.0, 0.0, 1.644586746429409E9, 0.0, 2022-02-12 00:39:06.429
130.0, -11812.315799273945, -11338.659982521533, -8144.32747892469, -11558.399982261657, -12790.58459884937, -9342.671554407067, -11328.400531816547, -8852.475446757728, -11025.444987469315, -13386.303292072213, -10792.204534078186, -8975.812372662112, -9402.082491169274, -12736.605135989803, -11728.966144200105, -17232.54677445254, 0.01, -0.026000000000000002, 0.988, 192.0, 0.0, 0.0, 0.0, 0.0, 0.0, 0.0, 0.0, 0.0, 0.0, 1.644586746436389E9, 0.0, 2022-02-12 00:39:06.436
132.0, -11810.617066695342, -11326.277116093293, -8137.443141632455, -11574.403831291656, -12787.790630792455, -9345.823150375265, -11319.169261356505, -8833.69998141527, -11031.636420683435, -13384.761021704797, -10784.292016541007, -8980.953273886833, -9406.351674360238, -12733.319429554873, -11727.736798255062, -17223.44961445923, 0.01, -0.026000000000000002, 0.988, 192.0, 0.0, 0.0, 0.0, 0.0, 0.0, 0.0, 0.0, 0.0, 0.0, 1.644586746444345E9, 0.0, 2022-02-12 00:39:06.444
134.0, -11762.829037049894, -11258.528978649258, -8116.432501844467, -11553.884929881684, -12758.129865900262, -9301.767862053855, -11293.017720343796, -8814.276315483608, -11000.723958101746, -13330.468634422856, -10765.404792476273, -8968.212779547308, -9374.18751408905, -12705.580914685836, -11696.60081822882, -17195.867561801384, 0.01, -0.026000000000000002, 0.988, 192.0, 0.0, 0.0, 0.0, 0.0, 0.0, 0.0, 0.0, 0.0, 0.0, 1.644586746452534E9, 0.0, 2022-02-12 00:39:06.452
136.0, -11756.324679413401, -11296.303426778726, -8116.030170444271, -11533.56719417181, -12742.841272692833, -9285.02640545683, -11292.503630221323, -8809.537745659083, -10988.788126562611, -13317.884602294518, -10756.397039460784, -8945.369296713985, -9347.678345165055, -12687.230132488028, -11687.168382068681, -17186.54688436352, 0.01, -0.028, 0.99, 192.0, 0.0, 40.0, 127.5, 16.0, 15.0, 120.0, 0.0, 0.0, 0.0, 1.644586746458978E9, 0.0, 2022-02-12 00:39:06.458
138.0, -11738.376228615789, -11295.744633167344, -8102.999103426827, -11538.439874463067, -12739.354400557804, -9293.073033460741, -11289.955531353418, -8803.636885122882, -10979.690966569302, -13344.21495726287, -10742.248385220575, -8921.899965035911, -9337.642411904622, -12689.286492977917, -11670.985719083039, -17170.29716614451, 0.01, -0.028, 0.99, 192.0, 0.0, 0.0, 0.0, 0.0, 0.0, 0.0, 0.0, 0.0, 0.0, 1.644586746467101E9, 0.0, 2022-02-12 00:39:06.467
140.0, -11720.964219685105, -11274.219903256882, -8103.602600527121, -11511.126042738682, -12714.208688045584, -9270.944806449987, -11278.578493425668, -8792.751585573147, -10954.746419757179, -13335.78834960322, -10728.233841447096, -8914.747406810213, -9332.70267638, -12676.121315493741, -11656.747657865008, -17171.370049878366, 0.01, -0.028, 0.99, 192.0, 0.0, 0.0, 0.0, 0.0, 0.0, 0.0, 0.0, 0.0, 0.0, 1.644586746474042E9, 0.0, 2022-02-12 00:39:06.474
142.0, -11725.523975553988, -11232.958582992385, -8100.182783625458, -11530.035618547872, -12716.220345046562, -9280.913684477055, -11263.424010684968, -8790.292893683063, -10954.724068012723, -13320.276238951235, -10728.83733854739, -8922.302296436108, -9327.450016433004, -12672.477981147525, -11657.999355554504, -17163.88221548584, 0.01, -0.028, 0.99, 192.0, 0.0, 0.0, 0.0, 0.0, 0.0, 0.0, 0.0, 0.0, 0.0, 1.644586746481257E9, 0.0, 2022-02-12 00:39:06.481
144.0, -11708.69311197914, -11230.142263191017, -8091.778527710263, -11511.506022394422, -12697.37782447074, -9261.199445867473, -11255.84676931462, -8765.549512571039, -10943.995230674176, -13280.400726842969, -10708.519602837516, -8920.000066757211, -9319.895126807109, -12669.751068323978, -11635.222927954546, -17145.48672979912, 0.01, -0.028, 0.99, 192.0, 0.0, 0.0, 0.0, 0.0, 0.0, 0.0, 0.0, 0.0, 0.0, 1.644586746488702E9, 0.0, 2022-02-12 00:39:06.488
146.0, -11694.164478083192, -11251.287013445737, -8095.578324267665, -11500.41955714459, -12689.912341822666, -9254.918605675532, -11244.872062787064, -8770.39984111784, -10948.398524331871, -13314.151860970482, -10711.35827438334, -8890.585171054026, -9311.31205693627, -12649.768608780934, -11639.805035567884, -17142.2457268531, 0.012, -0.028, 0.986, 192.0, 0.0, 48.0, 127.5, 16.0, 15.0, 104.0, 0.0, 0.0, 0.0, 1.64458674649666E9, 0.0, 2022-02-12 00:39:06.496
148.0, -11698.277199062968, -11217.55823106268, -8075.2605885577905, -11507.438004903557, -12683.028004530432, -9254.7844952088, -11242.458074385891, -8755.602986288428, -10939.681343994302, -13301.478421864322, -10698.103689921343, -8891.367482109963, -9297.498678862892, -12641.78903601039, -11623.868241771252, -17128.700569713186, 0.012, -0.028, 0.986, 192.0, 0.0, 0.0, 0.0, 0.0, 0.0, 0.0, 0.0, 0.0, 0.0, 1.644586746504663E9, 0.0, 2022-02-12 00:39:06.504
150.0, -11674.830219129351, -11193.21718135085, -8069.717355932875, -11468.434210829046, -12658.374030396228, -9229.079989085198, -11227.035370711728, -8746.997564673135, -10918.603648972947, -13278.791401242186, -10671.438058786161, -8864.835961441513, -9256.885559187598, -12627.841547470278, -11603.885782228206, -17117.971732374637, 0.012, -0.028, 0.986, 192.0, 0.0, 0.0, 0.0, 0.0, 0.0, 0.0, 0.0, 0.0, 0.0, 1.644586746511311E9, 0.0, 2022-02-12 00:39:06.511
152.0, -11657.64172764322, -11178.241512565794, -8070.007928610794, -11483.365176125191, -12656.474132117526, -9233.527986231802, -11230.07520795765, -8744.807093716514, -10909.707654679734, -13265.022726657717, -10671.996852397544, -8873.553141779083, -9269.626053527123, -12628.534451548392, -11604.891610728695, -17110.48389798211, 0.012, -0.028, 0.986, 192.0, 0.0, 0.0, 0.0, 0.0, 0.0, 0.0, 0.0, 0.0, 0.0, 1.644586746519386E9, 0.0, 2022-02-12 00:39:06.519
154.0, -11640.766160579464, -11148.625451162512, -8060.128457561548, -11465.170856138571, -12642.034905199398, -9209.25399175334, -11219.815757252665, -8743.309526838008, -10876.984700797166, -13239.631144956487, -10658.228177813075, -8855.627042725926, -9252.526969018814, -12614.989294408477, -11586.920808186629, -17097.85516236486, 0.012, -0.028, 0.986, 192.0, 0.0, 0.0, 0.0, 0.0, 0.0, 0.0, 0.0, 0.0, 0.0, 1.644586746527924E9, 0.0, 2022-02-12 00:39:06.527
156.0, -11665.040155057926, -11181.303701556171, -8061.916597117973, -11456.78895196783, -12627.729788748002, -9198.145174759053, -11215.07718742814, -8743.82361696048, -10900.409328986327, -13225.258973271726, -10651.947337621134, -8853.213054324753, -9260.819466211733, -12594.224523809497, -11586.406718064156, -17096.24583676408, 0.012, -0.026000000000000002, 0.99, 192.0, 0.0, 48.0, 127.5, 24.0, 15.0, 120.0, 0.0, 0.0, 0.0, 1.644586746540888E9, 0.0, 2022-02-12 00:39:06.540
158.0, -11657.753486365496, -11154.72747739881, -8054.719335403363, -11466.579016039255, -12628.489748059483, -9198.972189303899, -11211.187983892916, -8721.114244593888, -10901.571619698003, -13248.102456105049, -10646.717029418593, -8840.651373940871, -9250.336498062194, -12598.784279678379, -11572.883912668696, -17077.42566793271, 0.012, -0.026000000000000002, 0.99, 192.0, 0.0, 0.0, 0.0, 0.0, 0.0, 0.0, 0.0, 0.0, 0.0, 1.644586746549069E9, 0.0, 2022-02-12 00:39:06.549
160.0, -11636.653439599686, -11152.469951208825, -8055.769867392763, -11436.918251147063, -12599.074852356298, -9172.060688979709, -11178.487381754801, -8707.546735709517, -10879.778668854078, -13229.841080885064, -10631.361380977796, -8817.919649829824, -9231.225756552907, -12581.372270747695, -11556.90241538315, -17070.56368238493, 0.012, -0.026000000000000002, 0.99, 192.0, 0.0, 0.0, 0.0, 0.0, 0.0, 0.0, 0.0, 0.0, 0.0, 1.644586746556906E9, 0.0, 2022-02-12 00:39:06.556
162.0, -11621.275439414436, -11140.690581880877, -8056.909806359984, -11460.499341547411, -12601.198268079552, -9170.227845934372, -11191.07141388314, -8698.650741416304, -10886.797116613045, -13233.707932675832, -10641.576128193872, -8828.51437670164, -9226.531890217291, -12578.220674779497, -11558.489389239478, -17063.031144503493, 0.012, -0.026000000000000002, 0.99, 192.0, 0.0, 0.0, 0.0, 0.0, 0.0, 0.0, 0.0, 0.0, 0.0, 1.644586746564085E9, 0.0, 2022-02-12 00:39:06.564
164.0, -11619.733169047018, -11105.553639597136, -8037.1061607725815, -11436.962954635974, -12569.10116304173, -9151.05004919172, -11170.26193979525, -8686.916075577268, -10860.466761644693, -13207.824612596585, -10631.160215277698, -8817.584373662994, -9196.11116601362, -12555.690116368547, -11533.611897660721, -17048.18958618517, 0.012, -0.026000000000000002, 0.99, 192.0, 0.0, 0.0, 0.0, 0.0, 0.0, 0.0, 0.0, 0.0, 0.0, 1.644586746571571E9, 0.0, 2022-02-12 00:39:06.571
166.0, -11613.809956766363, -11113.53321236768, -8041.800027108196, -11425.429454497034, -12558.752305358925, -9148.94898521292, -11170.284291539705, -8686.29022673252, -10857.046944743031, -13194.36886243449, -10614.15053774721, -8810.163594503832, -9212.718512143912, -12558.797008847834, -11533.254269749435, -17047.675496062697, 0.014, -0.028, 0.984, 192.0, 0.0, 56.0, 127.5, 16.0, 15.0, 96.0, 0.0, 0.0, 0.0, 1.644586746579674E9, 0.0, 2022-02-12 00:39:06.579
168.0, -11600.175392648625, -11101.575029084092, -8033.507529915278, -11429.676285943544, -12556.9641658025, -9141.52820605376, -11175.894579397987, -8676.231941727632, -10838.942031734232, -13169.871350511474, -10605.81333706538, -8819.148995774865, -9194.39008169056, -12549.833959321257, -11525.386455701168, -17030.26348713201, 0.014, -0.028, 0.984, 192.0, 0.0, 0.0, 0.0, 0.0, 0.0, 0.0, 0.0, 0.0, 0.0, 1.644586746586784E9, 0.0, 2022-02-12 00:39:06.586
170.0, -11570.380517289701, -11095.76357552571, -8028.4113321794675, -11398.853230339675, -12527.795139288324, -9119.13175810954, -11156.292099510682, -8664.161999721766, -10827.743807762125, -13159.589548062033, -10587.015519978468, -8762.420268347296, -9174.787601803257, -12532.310191668295, -11513.42827241758, -17027.201298141634, 0.014, -0.028, 0.984, 192.0, 0.0, 0.0, 0.0, 0.0, 0.0, 0.0, 0.0, 0.0, 0.0, 1.644586746593165E9, 0.0, 2022-02-12 00:39:06.593
172.0, -11584.417412807634, -11069.56733102409, -8025.438550166911, -11413.493622957902, -12529.203299189008, -9123.691513978423, -11153.073448309118, -8664.609034610872, -10837.042133455532, -13181.985996006251, -10581.00290071999, -8765.549512571039, -9161.845941763633, -12533.71835156898, -11514.255286962425, -17021.680417261174, 0.014, -0.028, 0.984, 192.0, 0.0, 0.0, 0.0, 0.0, 0.0, 0.0, 0.0, 0.0, 0.0, 1.644586746601226E9, 0.0, 2022-02-12 00:39:06.601
174.0, -11554.488426981978, -11044.935708634343, -8008.495927869789, -11402.585971663711, -12509.600819301704, -9104.75958642478, -11143.909233082442, -8642.033772711013, -10809.437729053227, -13150.98412644674, -10563.389726089206, -8766.935320727269, -9142.019944431775, -12513.758243770391, -11490.51773435089, -17005.855382186815, 0.014, -0.028, 0.984, 192.0, 0.0, 0.0, 0.0, 0.0, 0.0, 0.0, 0.0, 0.0, 0.0, 1.64458674660933E9, 0.0, 2022-02-12 00:39:06.609
176.0, -11554.443723493066, -11058.726734963268, -8011.021674993239, -11383.877561554618, -12498.782574985335, -9087.03465307172, -11140.176491758406, -8648.80635128097, -10802.285170827528, -13120.921030154352, -10557.42181031964, -8762.375564858385, -9156.459171349905, -12512.28302863634, -11496.597408842732, -17008.761108966006, 0.014, -0.028, 0.984, 192.0, 0.0, 56.0, 127.5, 16.0, 15.0, 96.0, 0.0, 0.0, 0.0, 1.644586746616437E9, 0.0, 2022-02-12 00:39:06.616
178.0, -11531.175557515093, -11025.13206304694, -7992.916761984439, -11389.107869757161, -12484.365699811662, -9075.925836077433, -11126.58663112958, -8624.644115524783, -10786.281321797529, -13129.235879091726, -10551.319784083342, -8742.706029737716, -9137.549595540715, -12488.925455680544, -11480.6606150461, -16986.141143577235, 0.014, -0.028, 0.984, 192.0, 0.0, 0.0, 0.0, 0.0, 0.0, 0.0, 0.0, 0.0, 0.0, 1.644586746625207E9, 0.0, 2022-02-12 00:39:06.625
180.0, -11518.479766664477, -11014.291466986117, -7990.122793927526, -11359.603567076156, -12460.426981500028, -9056.680984101413, -11108.369959398504, -8619.525566044518, -10770.344528000895, -13096.803497887076, -10531.627897218215, -8727.708009208203, -9100.46805148936, -12473.279234561829, -11465.46142881649, -16979.569730707375, 0.014, -0.028, 0.984, 192.0, 0.0, 0.0, 0.0, 0.0, 0.0, 0.0, 0.0, 0.0, 0.0, 1.644586746631863E9, 0.0, 2022-02-12 00:39:06.631
182.0, -11523.419502189101, -11009.865821583966, -7991.15097417247, -11372.075840482217, -12467.981871125921, -9071.723708119835, -11119.38936941497, -8626.879289970313, -10779.151115316286, -13120.250477820693, -10531.203214073565, -8720.331933537953, -9113.007380128787, -12484.432755045029, -11471.451696330512, -16979.256806285, 0.014, -0.028, 0.984, 192.0, 0.0, 0.0, 0.0, 0.0, 0.0, 0.0, 0.0, 0.0, 0.0, 1.644586746641324E9, 0.0, 2022-02-12 00:39:06.641
184.0, -11507.058025247816, -10987.55878061757, -7985.317168869636, -11359.625918820611, -12454.637879686104, -9049.729591575813, -11108.05703497613, -8602.426481536208, -10759.03454530651, -13096.065890320051, -10513.32181850932, -8705.803299642002, -9084.821830370645, -12458.303565776774, -11456.163103123083, -16965.756352633995, 0.012, -0.027000000000000003, 0.985, 192.0, 0.0, 40.0, 127.5, 24.0, 15.0, 104.0, 0.0, 0.0, 0.0, 1.644586746647603E9, 0.0, 2022-02-12 00:39:06.647
186.0, -11479.833600501252, -10977.679309568324, -7986.926494470417, -11351.467532094424, -12434.610716654148, -9038.151387947964, -11103.921962251898, -8608.394397305776, -10757.067591794443, -13070.62960512991, -10515.959324355046, -8715.481604991151, -9084.441850714904, -12459.197635554987, -11456.252510100903, -16963.767047377474, 0.012, -0.027000000000000003, 0.985, 192.0, 0.0, 0.0, 0.0, 0.0, 0.0, 0.0, 0.0, 0.0, 0.0, 1.644586746653683E9, 0.0, 2022-02-12 00:39:06.653
188.0, -11494.719862308486, -10979.512152613659, -7970.4309070624, -11361.592872332678, -12431.526175919316, -9042.509978116748, -11104.346645396548, -8596.570324488917, -10739.476768908116, -13063.588805626488, -10499.530792180394, -8701.288247262031, -9070.851990086077, -12441.249184757375, -11439.891033159618, -16948.07612276985, 0.012, -0.027000000000000003, 0.985, 192.0, 0.0, 0.0, 0.0, 0.0, 0.0, 0.0, 0.0, 0.0, 0.0, 1.644586746669524E9, 0.0, 2022-02-12 00:39:06.669
190.0, -11489.958940739507, -10964.067097195042, -7974.163648386437, -11334.793130730764, -12420.12678624711, -9031.26705065573, -11095.450651103336, -8604.594600748373, -10733.464149649639, -13070.696660363277, -10472.64164360066, -8682.088098774922, -9069.846161585589, -12427.659324128548, -11429.631582454633, -16944.008105278983, 0.012, -0.027000000000000003, 0.985, 192.0, 0.0, 0.0, 0.0, 0.0, 0.0, 0.0, 0.0, 0.0, 0.0, 1.644586746676139E9, 0.0, 2022-02-12 00:39:06.676
192.0, -11470.714088763487, -10954.902881968366, -7981.9867589457945, -11346.416037847524, -12420.953800791956, -9041.437094382894, -11094.444822602847, -8594.60337097685, -10753.51366442605, -13048.076694974507, -10489.60661764224, -8693.62159891386, -9078.65274890098, -12452.849740129679, -11440.315716304269, -16951.026553037947, 0.012, -0.027000000000000003, 0.985, 192.0, 0.0, 0.0, 0.0, 0.0, 0.0, 0.0, 0.0, 0.0, 0.0, 1.644586746684174E9, 0.0, 2022-02-12 00:39:06.684
194.0, -11459.918196191573, -10953.718239512235, -7967.949863427862, -11332.312087096225, -12398.266780169819, -9020.761730761735, -11071.958967680808, -8561.16516127171, -10724.098768722864, -13035.716180290721, -10477.961358781024, -8659.065801985957, -9041.45944612735, -12439.483396945405, -11410.766710134354, -16929.993561505504, 0.011, -0.0245, 0.9864999999999999, 192.0, 0.0, 40.0, 127.5, 40.0, 15.0, 112.0, 0.0, 0.0, 0.0, 1.644586746692293E9, 0.0, 2022-02-12 00:39:06.692
196.0, -11468.054231173306, -10942.005925417654, -7974.521276297722, -11325.315991081714, -12395.808088279735, -9012.290419613173, -11077.949235194832, -8569.07767880889, -10730.021981003521, -13039.448921614758, -10469.199474954543, -8665.011366011067, -9046.399181651972, -12418.092777501677, -11409.537364189311, -16928.451291138088, 0.011, -0.0245, 0.9864999999999999, 192.0, 0.0, 0.0, 0.0, 0.0, 0.0, 0.0, 0.0, 0.0, 0.0, 1.644586746698652E9, 0.0, 2022-02-12 00:39:06.698
198.0, -11458.308870590792, -10937.960259671243, -7966.228779104803, -11336.134235398084, -12394.668149312514, -9009.362341089529, -11067.779191467667, -8556.158370513722, -10721.483614621595, -13028.317752876015, -10466.383155153175, -8658.350546163387, -9030.507091344249, -12415.410568167039, -11402.87654434163, -16917.789509032908, 0.011, -0.0245, 0.9864999999999999, 192.0, 0.0, 0.0, 0.0, 0.0, 0.0, 0.0, 0.0, 0.0, 0.0, 1.644586746707041E9, 0.0, 2022-02-12 00:39:06.707
200.0, -11442.640297727621, -10906.421948244804, -7962.183113358393, -11309.669769962999, -12371.06470716771, -8981.10973609802, -11051.28360405965, -8544.200187230133, -10707.69258829267, -13002.054453141029, -10449.529939833874, -8648.404019880774, -9038.844292026079, -12401.328969160197, -11384.25754121036, -16909.58641881781, 0.011, -0.0245, 0.9864999999999999, 192.0, 0.0, 0.0, 0.0, 0.0, 0.0, 0.0, 0.0, 0.0, 0.0, 1.644586746714689E9, 0.0, 2022-02-12 00:39:06.714
202.0, -11416.533460203822, -10900.811660386522, -7965.111191882038, -11323.974886414397, -12374.68568976947, -8986.742375700758, -11058.682031474356, -8546.770637842494, -10714.26400116253, -13001.741528718654, -10455.900187003635, -8658.931691519225, -9030.97647797781, -12396.858620269135, -11385.285721455302, -16903.372633859235, 0.011, -0.0245, 0.9864999999999999, 192.0, 0.0, 0.0, 0.0, 0.0, 0.0, 0.0, 0.0, 0.0, 0.0, 1.644586746723561E9, 0.0, 2022-02-12 00:39:06.723
204.0, -11426.25646904188, -10892.027424815587, -7948.973232385306, -11301.08670009216, -12362.056954152222, -8972.973701116289, -11061.94538616483, -8533.851329547326, -10697.142564909765, -12987.034080867063, -10443.629079297672, -8644.134836689811, -8991.637407736469, -12394.243466167864, -11367.337270657692, -16892.375575587223, 0.0125, -0.02425, 0.98425, 192.0, 0.0, 56.0, 127.5, 32.0, 15.0, 88.0, 0.0, 0.0, 0.0, 1.644586746729356E9, 0.0, 2022-02-12 00:39:06.729
206.0, -11449.614041997676, -10918.44718676176, -7952.14718009796, -11287.027452829774, -12350.59050924665, -8962.82600913358, -11046.321516790571, -8540.579204628373, -10701.076471933899, -13004.133165375373, -10428.049913412324, -8616.843356709882, -9005.942524187867, -12386.554466075238, -11361.43641012149, -16893.046127920883, 0.0125, -0.02425, 0.98425, 192.0, 0.0, 0.0, 0.0, 0.0, 0.0, 0.0, 0.0, 0.0, 0.0, 1.644586746736437E9, 0.0, 2022-02-12 00:39:06.736
208.0, -11419.68505617202, -10899.671721419301, -7941.530101481689, -11309.110976351616, -12342.834453920657, -8960.68024166587, -11039.168958564873, -8520.082654962856, -10694.035672430477, -12991.862057669408, -10432.006172180912, -8611.478938040607, -8994.721948471302, -12373.903378713534, -11348.718267526421, -16878.472790536023, 0.0125, -0.02425, 0.98425, 192.0, 0.0, 0.0, 0.0, 0.0, 0.0, 0.0, 0.0, 0.0, 0.0, 1.644586746744342E9, 0.0, 2022-02-12 00:39:06.744
210.0, -11400.641369896099, -10864.735944835656, -7934.802226400641, -11279.740784137342, -12309.15037502651, -8941.033058289655, -11015.252591997694, -8521.937849752647, -10671.39335529725, -12961.7095543992, -10409.721482958972, -8609.534336272996, -8980.617997720003, -12362.34752683014, -11331.663886507022, -16874.00244164496, 0.0125, -0.02425, 0.98425, 192.0, 0.0, 0.0, 0.0, 0.0, 0.0, 0.0, 0.0, 0.0, 0.0, 1.64458674675155E9, 0.0, 2022-02-12 00:39:06.751
212.0, -11386.693881355988, -10855.079991230965, -7922.687580905865, -11289.150868553028, -12305.395281958019, -8936.316840209585, -11024.282696757638, -8504.056454188401, -10672.175666353187, -12977.914569129298, -10407.799232935815, -8611.255420596055, -8975.097116839543, -12354.591471504149, -11334.413151075025, -16869.845017176274, 0.0125, -0.02425, 0.98425, 192.0, 0.0, 0.0, 0.0, 0.0, 0.0, 0.0, 0.0, 0.0, 0.0, 1.644586746758995E9, 0.0, 2022-02-12 00:39:06.758
214.0, -11406.564582176756, -10855.549377864525, -7918.150176781438, -11271.448286944424, -12291.134868995532, -8921.743502824726, -11011.98923730722, -8494.311093605887, -10647.611099196803, -12931.825272062455, -10380.127773300144, -8572.542199199463, -8942.396514701428, -12343.706171954414, -11314.698912465443, -16852.075380334303, 0.01125, -0.024125, 0.985125, 192.0, 0.0, 40.0, 127.5, 32.0, 15.0, 104.0, 0.0, 0.0, 0.0, 1.644586746767065E9, 0.0, 2022-02-12 00:39:06.767
216.0, -11399.277913484326, -10872.290834461552, -7927.359095497024, -11266.709717119898, -12276.315662421664, -8915.216793443775, -10993.526696387136, -8486.219762113067, -10672.198018097642, -12965.263481767593, -10403.194773578021, -8586.98142611759, -8937.367372198984, -12342.610936476105, -11314.14011885406, -16851.203662300548, 0.01125, -0.024125, 0.985125, 192.0, 0.0, 0.0, 0.0, 0.0, 0.0, 0.0, 0.0, 0.0, 0.0, 1.644586746775003E9, 0.0, 2022-02-12 00:39:06.775
218.0, -11379.071936496728, -10853.694183074735, -7917.457272703323, -11283.89820860603, -12283.423517158451, -8915.976752755256, -11001.215696479761, -8476.519105019463, -10656.529445234471, -12931.042961006518, -10407.441605024529, -8616.664542754239, -8952.320689239585, -12334.29608753873, -11309.647418218545, -16842.777054640897, 0.01125, -0.024125, 0.985125, 192.0, 0.0, 0.0, 0.0, 0.0, 0.0, 0.0, 0.0, 0.0, 0.0, 1.644586746788828E9, 0.0, 2022-02-12 00:39:06.788
220.0, -11382.134125487104, -10840.327839890462, -7915.04328430215, -11250.459998900891, -12257.450790101384, -8895.435499600828, -10983.714280571257, -8476.340291063821, -10643.766599150491, -12938.955478543698, -10392.957674617492, -8578.085431824378, -8910.679389319348, -12329.669276436482, -11294.068252333194, -16839.29018250587, 0.01125, -0.024125, 0.985125, 192.0, 0.0, 0.0, 0.0, 0.0, 0.0, 0.0, 0.0, 0.0, 0.0, 1.644586746796999E9, 0.0, 2022-02-12 00:39:06.796
222.0, -11411.861945612663, -10863.707764590712, -7902.101624262527, -11266.553254908713, -12261.451752358886, -8899.19059266932, -10991.60444636398, -8476.116773619267, -10655.009526611511, -12959.049696809017, -10378.764316888371, -8562.50626593903, -8928.851357561512, -12329.043427591734, -11299.007987857818, -16836.540917937866, 0.01125, -0.024125, 0.985125, 192.0, 0.0, 0.0, 0.0, 0.0, 0.0, 0.0, 0.0, 0.0, 0.0, 1.644586746804634E9, 0.0, 2022-02-12 00:39:06.804
224.0, -11379.183695219004, -10829.710761274191, -7881.470964130279, -11256.159693736994, -12241.737513749304, -8877.956435436778, -10977.925178757332, -8454.90496813118, -10618.57618314936, -12912.915696253265, -10357.373697444642, -8540.109817994811, -8902.342188637518, -12299.896752822013, -11275.292786990738, -16823.643961387155, 0.009625, -0.0250625, 0.9875625, 192.0, 0.0, 32.0, 127.5, 24.0, 15.0, 120.0, 0.0, 0.0, 0.0, 1.644586746811622E9, 0.0, 2022-02-12 00:39:06.811
226.0, -11366.733773557398, -10823.42992108225, -7888.8917432894405, -11238.345353406115, -12233.37796132302, -8861.594958495494, -10979.176876446829, -8460.135276333724, -10629.81911061038, -12910.859335763376, -10355.876130566136, -8543.775504085483, -8894.742595522714, -12323.187270544442, -11277.080926547162, -16823.88983057616, 0.009625, -0.0250625, 0.9875625, 192.0, 0.0, 0.0, 0.0, 0.0, 0.0, 0.0, 0.0, 0.0, 0.0, 1.644586746819377E9, 0.0, 2022-02-12 00:39:06.819
228.0, -11357.748372286365, -10793.679749212235, -7878.676996073365, -11253.27631870226, -12223.99022865179, -8863.271339329642, -10969.990309475697, -8448.557072705875, -10615.67045637017, -12914.50267010959, -10345.348458927687, -8546.055382019924, -8896.798956012603, -12296.85691557609, -11268.073173531673, -16807.640112357156, 0.009625, -0.0250625, 0.9875625, 192.0, 0.0, 0.0, 0.0, 0.0, 0.0, 0.0, 0.0, 0.0, 0.0, 1.644586746827633E9, 0.0, 2022-02-12 00:39:06.827
230.0, -11339.822273233209, -10790.528153244037, -7874.6089785825, -11225.6495625555, -12200.386786506986, -8838.170330306331, -10947.280937109106, -8428.529909673918, -10604.136956231232, -12888.038204674507, -10328.919926753037, -8523.413064886698, -8867.428763798329, -12283.825848558647, -11252.717525090877, -16804.309702433315, 0.009625, -0.0250625, 0.9875625, 192.0, 0.0, 0.0, 0.0, 0.0, 0.0, 0.0, 0.0, 0.0, 0.0, 1.644586746834131E9, 0.0, 2022-02-12 00:39:06.834
232.0, -11337.542395298768, -10783.599112462893, -7872.418507625879, -11234.858481271087, -12200.096213829067, -8842.998307108677, -10957.36157385845, -8435.86128185526, -10610.641313867727, -12894.006120444075, -10329.679886064516, -8518.20510842861, -8883.700833761792, -12282.462392146874, -11258.193702482427, -16801.5157343764, 0.009625, -0.0250625, 0.9875625, 192.0, 0.0, 0.0, 0.0, 0.0, 0.0, 0.0, 0.0, 0.0, 0.0, 1.644586746840905E9, 0.0, 2022-02-12 00:39:06.840
234.0, -11334.882537708585, -10777.318272270952, -7854.224187639259, -11219.346370619103, -12185.321710744109, -8822.904088843357, -10943.63760276289, -8418.136348502201, -10590.658854324682, -12880.259797604062, -10318.682827792505, -8498.1555936522, -8858.17514159383, -12263.418705870952, -11237.317173161171, -16787.836466769753, 0.0098125, -0.022531250000000003, 0.9897812500000001, 192.0, 0.0, 40.0, 127.5, 48.0, 15.5, 0.0, 0.0, 0.0, 0.0, 1.644586746850579E9, 0.0, 2022-02-12 00:39:06.850
236.0, -11308.395720529046, -10755.07828653792, -7847.988050936228, -11199.609780265067, -12165.003975034235, -8808.397806691863, -10931.388846801383, -8414.627124622719, -10585.160325188675, -12853.6835734467, -10300.220286872422, -8487.694977247116, -8833.521167459628, -12248.286574874708, -11235.640792327022, -16784.439001612547, 0.0098125, -0.022531250000000003, 0.9897812500000001, 192.0, 0.0, 0.0, 0.0, 0.0, 0.0, 0.0, 0.0, 0.0, 0.0, 1.644586746856972E9, 0.0, 2022-02-12 00:39:06.856
238.0, -11288.56972319719, -10727.675047835713, -7837.907414186885, -11212.998475193795, -12168.669661124904, -8810.945905559767, -10937.446169548772, -8402.825403550316, -10564.864941223257, -12834.841052870877, -10289.312635578231, -8472.451087528598, -8823.954620832756, -12242.966859694347, -11225.291934644216, -16771.787914250843, 0.0098125, -0.022531250000000003, 0.9897812500000001, 192.0, 0.0, 0.0, 0.0, 0.0, 0.0, 0.0, 0.0, 0.0, 0.0, 1.644586746863814E9, 0.0, 2022-02-12 00:39:06.863
240.0, -11275.315138735192, -10720.701303565658, -7830.061951883073, -11187.428079536925, -12140.327649155575, -8778.178248188287, -10916.167308827318, -8412.838985066293, -10538.80280718837, -12803.302741444439, -10282.27183607481, -8453.496808230497, -8808.800138092058, -12240.0387811707, -11211.143280404005, -16773.3078328738, 0.0098125, -0.022531250000000003, 0.9897812500000001, 192.0, 0.0, 0.0, 0.0, 0.0, 0.0, 0.0, 0.0, 0.0, 0.0, 1.644586746871498E9, 0.0, 2022-02-12 00:39:06.871
242.0, -11297.041034345752, -10730.379608914805, -7829.301992571592, -11198.581600020123, -12144.462721879807, -8786.113117469922, -10922.761073441634, -8388.60969407674, -10550.783342216415, -12851.850730401366, -10267.765553923316, -8453.697973930595, -8811.102367770955, -12226.806548453158, -11213.914896716464, -16766.7587717484, 0.0098125, -0.022531250000000003, 0.9897812500000001, 192.0, 0.0, 0.0, 0.0, 0.0, 0.0, 0.0, 0.0, 0.0, 0.0, 1.64458674687971E9, 0.0, 2022-02-12 00:39:06.879
244.0, -11281.260702760304, -10696.293198620462, -7822.372951790447, -11189.730309215822, -12124.457910592308, -8770.73511728467, -10906.77957615609, -8372.002347946447, -10538.042847876888, -12825.095692288363, -10256.992013095858, -8464.605625224785, -8790.829335549992, -12213.976647135813, -11195.497059285291, -16751.13490237414, 0.01190625, -0.023265625, 0.988890625, 192.0, 0.0, 56.0, 127.5, 32.0, 15.0, 112.0, 0.0, 0.0, 0.0, 1.64458674688677E9, 0.0, 2022-02-12 00:39:06.886
