%OpenBCI Raw EEG Data
%Number of channels = 16
%Sample Rate = 125 Hz
%Board = OpenBCI_GUI$BoardCytonSerialDaisy
Sample Index, EXG Channel 0, EXG Channel 1, EXG Channel 2, EXG Channel 3, EXG Channel 4, EXG Channel 5, EXG Channel 6, EXG Channel 7, EXG Channel 8, EXG Channel 9, EXG Channel 10, EXG Channel 11, EXG Channel 12, EXG Channel 13, EXG Channel 14, EXG Channel 15, Accel Channel 0, Accel Channel 1, Accel Channel 2, Other, Other, Other, Other, Other, Other, Other, Analog Channel 0, Analog Channel 1, Analog Channel 2, Timestamp, Other, Timestamp (Formatted)
160.0, -10713.079358706398, -10678.30004433394, -7676.438412241747, -13125.190213345315, -11259.333641449648, -7950.649613219454, -10929.958335156243, -8380.160734672634, -10999.18168773433, -14218.48108988775, -8396.768080802927, -7112.727417078903, -7821.2106610787705, -10543.004935145967, -13024.942639463263, -18539.922659387907, 0.0, 0.0, 0.0, 192.0, 0.0, 0.0, 0.0, 0.0, 0.0, 0.0, 0.0, 0.0, 0.0, 1.644586982836118E9, 0.0, 2022-02-12 00:43:02.836
162.0, -10723.830547789401, -10681.473992046595, -7678.315958775993, -13118.037655119617, -11263.647528129522, -7954.1588370989375, -10932.148806112864, -8382.485316095986, -10978.774545046634, -14186.76396450567, -8371.711775268528, -7074.438878826962, -7798.9036201123745, -10528.543356483384, -12996.131240860372, -18539.296810543157, 0.0, 0.0, 0.0, 192.0, 0.0, 0.0, 0.0, 0.0, 0.0, 0.0, 0.0, 0.0, 0.0, 1.644586982836123E9, 0.0, 2022-02-12 00:43:02.836
0.0, -5303.756034821991, -5396.225201633597, -3801.1600138139743, -6523.200157070179, -5788.43126159087, -4233.554510301889, -5485.27455154354, -4356.422049572712, -5505.860508186878, -7118.7623880818355, -4202.954972142574, -3564.477391776728, -3918.126692548596, -5273.9835112075225, -6520.517947735542, -9271.391841339093, 0.008, -0.022, 0.988, 192.0, 0.0, 32.0, 127.5, 40.0, 15.0, 112.0, 0.0, 0.0, 0.0, 1.644586982872133E9, 0.0, 2022-02-12 00:43:02.872
2.0, -10635.563508935395, -10811.359979076384, -7613.048864966496, -13031.96108722223, -11579.924712172116, -8471.57936949484, -10974.773582789134, -8707.032645587045, -11038.096074831019, -14401.586580465626, -8279.264960201379, -7078.462192828917, -7853.106600416494, -10800.452327782194, -12870.693250977189, -18467.748876541722, 0.008, -0.022, 0.988, 192.0, 0.0, 0.0, 0.0, 0.0, 0.0, 0.0, 0.0, 0.0, 0.0, 1.6445869828803E9, 0.0, 2022-02-12 00:43:02.880
4.0, -10635.027067068466, -10812.701083743703, -7627.6222023513565, -13027.28957263107, -11583.121011629226, -8475.423869541153, -10972.426649621326, -8708.306695020998, -11064.269967588183, -14421.524336519758, -8315.07245481878, -7115.700199091459, -7893.071519502583, -10824.502804816104, -12897.26947513455, -18466.98891723024, 0.008, -0.022, 0.988, 192.0, 0.0, 0.0, 0.0, 0.0, 0.0, 0.0, 0.0, 0.0, 0.0, 1.644586982887398E9, 0.0, 2022-02-12 00:43:02.887
6.0, -10616.34100870383, -10788.13651658732, -7599.727225271133, -13025.121453418906, -11562.467999752522, -8462.079878101335, -10947.347992342471, -8684.882066831835, -11036.03971434113, -14400.871324643056, -8285.746966093417, -7083.468983586906, -7861.264987142681, -10797.27838006954, -12865.977032897119, -18453.376704856957, 0.008, -0.019, 0.989, 192.0, 0.0, 32.0, 127.5, 64.0, 15.0, 120.0, 0.0, 0.0, 0.0, 1.644586982894809E9, 0.0, 2022-02-12 00:43:02.894
8.0, -10642.91723286119, -10830.470720585672, -7616.893365012809, -13008.715272988711, -11570.961662645539, -8478.284892831432, -10961.854274493966, -8716.420378258274, -11036.7549701637, -14403.821754911156, -8268.78199205184, -7081.658492286026, -7866.517647089679, -10802.933371416733, -12869.150980609773, -18457.824702003563, 0.008, -0.019, 0.989, 192.0, 0.0, 0.0, 0.0, 0.0, 0.0, 0.0, 0.0, 0.0, 0.0, 1.644586982903408E9, 0.0, 2022-02-12 00:43:02.903
10.0, -10597.856116039291, -10777.98882460461, -7594.005178690574, -13029.658857543332, -11555.717772927019, -8466.460820014576, -10945.40339057486, -8691.609941912882, -11043.885176644942, -14407.308627046184, -8286.775146338361, -7096.88003026009, -7869.915112246885, -10804.430938295238, -12878.896341192287, -18458.137626425938, 0.008, -0.019, 0.989, 192.0, 0.0, 0.0, 0.0, 0.0, 0.0, 0.0, 0.0, 0.0, 0.0, 1.64458698291016E9, 0.0, 2022-02-12 00:43:02.910
12.0, -10603.600514364305, -10770.121010556342, -7605.985713718619, -13009.318770089003, -11559.986956117984, -8472.831067184337, -10948.376172587416, -8695.946180337212, -11018.314780988072, -14364.326222458629, -8269.407840896589, -7077.21049513942, -7821.568288990055, -10790.148173588297, -12845.279317531506, -18447.587603043034, 0.008, -0.019, 0.989, 192.0, 0.0, 0.0, 0.0, 0.0, 0.0, 0.0, 0.0, 0.0, 0.0, 1.644586982917388E9, 0.0, 2022-02-12 00:43:02.917
14.0, -10632.255450756009, -10814.086891899931, -7613.026513222041, -13011.486889301168, -11571.565159745833, -8480.497715532509, -10964.044745450587, -8708.261991532087, -11048.422580769371, -14408.783842180233, -8289.703224862007, -7094.488393603372, -7877.537057106145, -10824.14517690482, -12883.50080055008, -18456.260079891694, 0.008, -0.019, 0.989, 192.0, 0.0, 0.0, 0.0, 0.0, 0.0, 0.0, 0.0, 0.0, 0.0, 1.644586982925446E9, 0.0, 2022-02-12 00:43:02.925
16.0, -10593.18460144813, -10772.602054190882, -7593.111108912362, -13024.71912201871, -11558.95877587304, -8468.830104926838, -10950.410181332849, -8683.451555186695, -11028.194252037318, -14400.401938009494, -8260.198922181002, -7063.151247877032, -7853.263062627681, -10793.031548623032, -12852.789503668488, -18448.660486776887, 0.01, -0.0195, 0.9904999999999999, 192.0, 0.0, 48.0, 127.5, 48.0, 15.5, 0.0, 0.0, 0.0, 0.0, 1.64458698293989E9, 0.0, 2022-02-12 00:43:02.939
18.0, -10603.064072497376, -10785.119031085853, -7614.233507422628, -13009.877563700387, -11561.57392997431, -8486.376224324255, -10948.063248165041, -8716.599192213916, -11028.507176459692, -14392.914103616966, -8278.125021234158, -7082.261989386319, -7857.845170241019, -10796.026682380043, -12857.103390348362, -18452.862614734488, 0.01, -0.0195, 0.9904999999999999, 192.0, 0.0, 0.0, 0.0, 0.0, 0.0, 0.0, 0.0, 0.0, 0.0, 1.644586982950658E9, 0.0, 2022-02-12 00:43:02.950
20.0, -10595.95621776059, -10759.258062751063, -7596.59798104739, -13016.314866103516, -11560.143418329171, -8479.223666098556, -10952.734762756201, -8695.074462303455, -11041.8064644106, -14392.42236523895, -8281.678948602552, -7094.980131981389, -7863.321347632569, -10812.723435488157, -12866.334660808405, -18452.437931589833, 0.01, -0.0195, 0.9904999999999999, 192.0, 0.0, 0.0, 0.0, 0.0, 0.0, 0.0, 0.0, 0.0, 0.0, 1.644586982957248E9, 0.0, 2022-02-12 00:43:02.957
22.0, -10577.784249518425, -10762.230844763619, -7606.812728263465, -13002.546191519046, -11561.61863346322, -8483.291683589421, -10957.518036069636, -8704.573953696961, -11010.156394261885, -14376.8431993536, -8254.007488966881, -7061.452515298429, -7825.681009969832, -10784.22496130764, -12843.133550063796, -18449.621611788465, 0.01, -0.0195, 0.9904999999999999, 192.0, 0.0, 0.0, 0.0, 0.0, 0.0, 0.0, 0.0, 0.0, 0.0, 1.644586982963458E9, 0.0, 2022-02-12 00:43:02.963
24.0, -10617.168023248676, -10780.156943816775, -7612.802995777488, -13002.501488030135, -11571.431049279101, -8488.969026681068, -10970.638510064902, -8716.353323024909, -11035.056237585097, -14388.555513448182, -8275.174590966057, -7085.570047565705, -7872.172638436871, -10813.416339566273, -12874.716564979144, -18454.762513013186, 0.01, -0.0195, 0.9904999999999999, 192.0, 0.0, 0.0, 0.0, 0.0, 0.0, 0.0, 0.0, 0.0, 0.0, 1.644586982970365E9, 0.0, 2022-02-12 00:43:02.970
26.0, -10596.962046261078, -10774.479600725128, -7593.31227461246, -13005.787194465065, -11558.399982261657, -8477.569637008863, -10946.02923941961, -8690.090023289922, -11022.785129879134, -14388.622568681547, -8242.786913250317, -7053.830570439169, -7853.754801005698, -10798.41831903676, -12846.598070454369, -18445.84416697552, 0.011, -0.018750000000000003, 0.99025, 192.0, 0.0, 48.0, 127.5, 56.0, 15.0, 120.0, 0.0, 0.0, 0.0, 1.644586982977687E9, 0.0, 2022-02-12 00:43:02.977
28.0, -10596.559714860883, -10781.65451069528, -7615.641667323312, -12995.706557715721, -11564.144380586671, -8489.863096459281, -10951.21484413324, -8715.72747418016, -11026.540222947624, -14391.03655708272, -8255.81798026776, -7058.189160607953, -7847.295146858114, -10798.887705670322, -12845.63694544279, -18446.492367564722, 0.011, -0.018750000000000003, 0.99025, 192.0, 0.0, 0.0, 0.0, 0.0, 0.0, 0.0, 0.0, 0.0, 0.0, 1.644586982985627E9, 0.0, 2022-02-12 00:43:02.985
30.0, -10562.920339455646, -10723.852899533857, -7601.7388822721105, -13011.933924190274, -11568.234749821991, -8487.985549925035, -10951.483065066705, -8703.09873856291, -11030.161205549384, -14377.334937731617, -8267.999680995903, -7083.625445798093, -7869.289263402136, -10803.38040630584, -12860.389096783292, -18442.759626240688, 0.011, -0.018750000000000003, 0.99025, 192.0, 0.0, 0.0, 0.0, 0.0, 0.0, 0.0, 0.0, 0.0, 0.0, 1.644586982992123E9, 0.0, 2022-02-12 00:43:02.992
32.0, -10575.124391928244, -10770.791562890001, -7606.656266052279, -12999.19342985075, -11572.727450457509, -8497.596800040817, -10950.87956796641, -8708.261991532087, -11007.384777949426, -14348.389428661994, -8249.179512164535, -7068.068631657199, -7842.198949122304, -10790.975188133143, -12834.505776704047, -18442.13377739594, 0.011, -0.018750000000000003, 0.99025, 192.0, 0.0, 0.0, 0.0, 0.0, 0.0, 0.0, 0.0, 0.0, 0.0, 1.644586982999237E9, 0.0, 2022-02-12 00:43:02.999
34.0, -10617.10096801531, -10792.13747884482, -7615.082873711929, -12998.277008328083, -11572.638043479687, -8511.745454281026, -10963.240082650194, -8727.953878397213, -11036.598507952513, -14411.08607185913, -8269.83252404124, -7072.49427705935, -7852.011364938184, -10817.462005312682, -12864.904149163265, -18448.7051902658, 0.011, -0.018750000000000003, 0.99025, 192.0, 0.0, 0.0, 0.0, 0.0, 0.0, 0.0, 0.0, 0.0, 0.0, 1.644586983007542E9, 0.0, 2022-02-12 00:43:03.007
36.0, -10576.577255317838, -10755.972356316133, -7590.518306555547, -13005.00488340913, -11561.596281718765, -8503.475308832563, -10958.970899459231, -8702.763462396082, -11015.051426297598, -14378.072545298643, -8231.365171833655, -7043.5711197341825, -7854.358298105991, -10796.317255057962, -12838.953773850653, -18437.97635292725, 0.0085, -0.022375000000000003, 0.993125, 192.0, 0.0, 24.0, 127.5, 24.0, 15.5, 16.0, 0.0, 0.0, 0.0, 1.644586983015416E9, 0.0, 2022-02-12 00:43:03.015
38.0, -10584.355662388285, -10767.103525054876, -7615.172280689751, -12991.839705924953, -11568.972357389017, -8512.192489170133, -10950.253719121662, -8723.416474272784, -11018.18067052134, -14366.31552771515, -8244.463294084466, -7057.049221640733, -7853.866559727974, -10801.480508027138, -12845.391076253782, -18437.5516697826, 0.0085, -0.022375000000000003, 0.993125, 192.0, 0.0, 0.0, 0.0, 0.0, 0.0, 0.0, 0.0, 0.0, 0.0, 1.644586983022055E9, 0.0, 2022-02-12 00:43:03.022
40.0, -10571.436354093117, -10742.360143942851, -7592.909943212265, -13002.166211863305, -11565.396078276168, -8505.218744900078, -10949.896091210378, -8706.987942098134, -11021.399321722904, -14378.139600532008, -8257.404954124087, -7061.810143209714, -7870.786830280642, -10813.23752561063, -12854.667050202734, -18431.22612610175, 0.0085, -0.022375000000000003, 0.993125, 192.0, 0.0, 0.0, 0.0, 0.0, 0.0, 0.0, 0.0, 0.0, 0.0, 1.644586983029951E9, 0.0, 2022-02-12 00:43:03.029
42.0, -10588.647197323704, -10763.303728497474, -7598.587286303912, -12993.739604203654, -11571.252235323458, -8507.96800946808, -10950.45488482176, -8709.67015143277, -10998.242914467206, -14367.634280638014, -8223.67617174103, -7041.782980177758, -7834.93463217433, -10788.292978798507, -12823.598125409857, -18428.11923362246, 0.0085, -0.022375000000000003, 0.993125, 192.0, 0.0, 0.0, 0.0, 0.0, 0.0, 0.0, 0.0, 0.0, 0.0, 1.644586983038087E9, 0.0, 2022-02-12 00:43:03.038
44.0, -10586.501429855995, -10768.22111227764, -7613.6970655557, -12997.405290294326, -11575.990805147983, -8506.984532712047, -10960.289652382095, -8725.91986965178, -11033.424560239859, -14390.99185359381, -8260.020108225359, -7083.536038820272, -7850.536149804134, -10810.220040109163, -12858.042163615486, -18436.188213370828, 0.0085, -0.022375000000000003, 0.993125, 192.0, 0.0, 0.0, 0.0, 0.0, 0.0, 0.0, 0.0, 0.0, 0.0, 1.644586983045042E9, 0.0, 2022-02-12 00:43:03.045
46.0, -10563.590891789305, -10738.672106107726, -7587.009082676063, -12989.313958801504, -11567.966528888528, -8501.620114042773, -10950.477236566216, -8704.641008930326, -11004.747272103701, -14367.902501571478, -8232.371000334144, -7049.874311670579, -7850.402039337402, -10782.392118262305, -12834.215204026128, -18423.559477753577, 0.009250000000000001, -0.0211875, 0.9925625, 192.0, 0.0, 40.0, 127.5, 48.0, 15.5, 0.0, 0.0, 0.0, 0.0, 1.644586983059533E9, 0.0, 2022-02-12 00:43:03.059
48.0, -10584.109793199277, -10778.525266471537, -7614.926411500742, -12978.562769718501, -11576.236674336991, -8515.16527118269, -10958.45680933676, -8736.671058734782, -11007.697702371801, -14379.279539499228, -8234.896747457595, -7043.995802878833, -7851.787847493631, -10801.592266749414, -12838.037352327985, -18431.360236568482, 0.009250000000000001, -0.0211875, 0.9925625, 192.0, 0.0, 0.0, 0.0, 0.0, 0.0, 0.0, 0.0, 0.0, 0.0, 1.644586983067844E9, 0.0, 2022-02-12 00:43:03.067
50.0, -10560.014612676456, -10737.68862935169, -7592.127632156329, -12991.884409413864, -11563.563235230833, -8504.749358266516, -10943.749361485168, -8707.837308387436, -11014.336170475028, -14384.733365146323, -8254.543930833808, -7064.917035689001, -7863.813086010586, -10813.438691310726, -12849.481445489104, -18430.26500109017, 0.009250000000000001, -0.0211875, 0.9925625, 192.0, 0.0, 0.0, 0.0, 0.0, 0.0, 0.0, 0.0, 0.0, 0.0, 1.644586983074796E9, 0.0, 2022-02-12 00:43:03.074
52.0, -10552.079743394821, -10741.376667186818, -7596.933257214219, -12985.938845388753, -11565.083153853793, -8500.01078844199, -10949.471408065727, -8711.81591890048, -10984.943626516299, -14351.07163799663, -8217.417683293545, -7028.237823037842, -7823.490539013213, -10785.677824697235, -12816.043235783964, -18422.441890530812, 0.009250000000000001, -0.0211875, 0.9925625, 192.0, 0.0, 0.0, 0.0, 0.0, 0.0, 0.0, 0.0, 0.0, 0.0, 1.644586983082228E9, 0.0, 2022-02-12 00:43:03.082
54.0, -10565.334327856819, -10758.02871680602, -7613.562955088968, -12984.485981999158, -11573.018023135428, -8504.794061755427, -10949.717277254735, -8720.220174815677, -11006.8483360825, -14369.712992872357, -8258.567244835764, -7070.773192736291, -7856.325251618058, -10806.733167974135, -12847.000401854564, -18427.873364433453, 0.009250000000000001, -0.0211875, 0.9925625, 192.0, 0.0, 0.0, 0.0, 0.0, 0.0, 0.0, 0.0, 0.0, 0.0, 1.644586983090222E9, 0.0, 2022-02-12 00:43:03.090
56.0, -10573.090383182811, -10733.844129305378, -7590.115975155351, -12997.874676927886, -11559.562272973333, -8507.163346667689, -10946.54332954208, -8705.020988586068, -10998.533487145125, -14360.861702068056, -8235.947279446993, -7047.862654669601, -7843.227129367248, -10784.627292707837, -12822.994628309563, -18421.391358541412, 0.011625, -0.021593750000000002, 0.99028125, 192.0, 0.0, 56.0, 127.5, 40.0, 15.0, 112.0, 0.0, 0.0, 0.0, 1.644586983097309E9, 0.0, 2022-02-12 00:43:03.097
58.0, -10569.983490703522, -10759.928615084722, -7605.337513129415, -12982.004938364618, -11563.250310808458, -8515.478195605063, -10954.947585457276, -8730.881956920857, -11002.579152891536, -14374.630376652525, -8228.235927609912, -7053.785866950258, -7848.010402680684, -10795.222019579653, -12828.180233023195, -18431.51669877967, 0.011625, -0.021593750000000002, 0.99028125, 192.0, 0.0, 0.0, 0.0, 0.0, 0.0, 0.0, 0.0, 0.0, 0.0, 1.644586983104776E9, 0.0, 2022-02-12 00:43:03.104
60.0, -10565.647252279194, -10742.293088709484, -7591.45707982267, -12983.703670943221, -11558.735258428485, -8509.175003668666, -10929.06426537803, -8709.24546828812, -11023.656847912891, -14382.60994942307, -8234.293250357301, -7057.764477463303, -7854.112428916983, -10826.46975832817, -12831.935326091687, -18424.610009742977, 0.011625, -0.021593750000000002, 0.99028125, 192.0, 0.0, 0.0, 0.0, 0.0, 0.0, 0.0, 0.0, 0.0, 0.0, 1.644586983111923E9, 0.0, 2022-02-12 00:43:03.111
62.0, -10558.762914986959, -10737.375704929318, -7595.078062424429, -12970.404382992314, -11562.646813708165, -8516.819300272382, -10943.704657996257, -8709.223116543664, -10988.7434230737, -14360.816998579145, -8215.070750125737, -7020.660581667493, -7826.128044858939, -10798.463022525671, -12803.593314122358, -18421.41371028587, 0.011625, -0.021593750000000002, 0.99028125, 192.0, 0.0, 0.0, 0.0, 0.0, 0.0, 0.0, 0.0, 0.0, 0.0, 1.64458698311985E9, 0.0, 2022-02-12 00:43:03.119
64.0, -10564.32849935633, -10755.927652827222, -7603.348207872893, -12975.768801661588, -11578.33773831579, -8520.68615206315, -10967.21869316324, -8732.245413332632, -11013.75502511919, -14376.8431993536, -8245.759695262874, -7060.6478524980375, -7852.816027738575, -10816.567935534471, -12838.909070361742, -18432.12019587996, 0.011625, -0.021593750000000002, 0.99028125, 192.0, 0.0, 0.0, 0.0, 0.0, 0.0, 0.0, 0.0, 0.0, 0.0, 1.644586983127144E9, 0.0, 2022-02-12 00:43:03.127
66.0, -10558.04765916439, -10732.860652549345, -7571.228751090616, -12982.80960116501, -11561.216302063025, -8512.840689759338, -10938.340239326983, -8704.05986357449, -10998.332321445027, -14354.89378629849, -8215.808357692762, -7031.836453895146, -7828.497329771201, -10799.13357485933, -12814.500965416548, -18424.989989398717, 0.0118125, -0.023796875000000002, 0.987140625, 192.0, 0.0, 48.0, 127.5, 24.0, 15.0, 96.0, 0.0, 0.0, 0.0, 1.644586983134506E9, 0.0, 2022-02-12 00:43:03.134
68.0, -10566.720136013048, -10762.27554825253, -7588.976036188131, -12973.310109771504, -11563.518531741922, -8515.008808971503, -10945.40339057486, -8737.363962812897, -10992.99025452021, -14351.339858930096, -8214.24373558089, -7038.653735954015, -7839.025001409651, -10793.322121300951, -12811.505831659537, -18423.89475392041, 0.0118125, -0.023796875000000002, 0.987140625, 192.0, 0.0, 0.0, 0.0, 0.0, 0.0, 0.0, 0.0, 0.0, 0.0, 1.644586983142481E9, 0.0, 2022-02-12 00:43:03.142
70.0, -10556.259519607964, -10714.532222095993, -7580.92940818422, -12981.177923819772, -11566.267796309925, -8512.795986270427, -10946.900957453367, -8711.502994478107, -11013.46445244127, -14374.071583041143, -8235.05320966878, -7065.855808956124, -7852.1454754049155, -10801.189935349219, -12829.521337690514, -18420.944323652308, 0.0118125, -0.023796875000000002, 0.987140625, 192.0, 0.0, 0.0, 0.0, 0.0, 0.0, 0.0, 0.0, 0.0, 0.0, 1.644586983153917E9, 0.0, 2022-02-12 00:43:03.153
72.0, -10560.528702798927, -10734.291164194485, -7586.673806509234, -12967.789228891043, -11564.09967709776, -8519.434454373653, -10936.68621023729, -8720.220174815677, -10991.783260319622, -14355.944318287888, -8201.436186007999, -7018.715979899881, -7827.044466381606, -10797.054862624987, -12803.414500166715, -18420.16201259637, 0.0118125, -0.023796875000000002, 0.987140625, 192.0, 0.0, 0.0, 0.0, 0.0, 0.0, 0.0, 0.0, 0.0, 0.0, 1.644586983160486E9, 0.0, 2022-02-12 00:43:03.160
74.0, -10554.13610388471, -10737.107483995853, -7597.201478147684, -12966.828103879465, -11567.184217832591, -8514.159442682201, -10955.305213368561, -8730.233756331654, -11011.005760551187, -14377.17847552043, -8231.365171833655, -7055.4845995288615, -7849.083286414539, -10813.32693258845, -12833.164672036728, -18425.16880335436, 0.0118125, -0.023796875000000002, 0.987140625, 192.0, 0.0, 0.0, 0.0, 0.0, 0.0, 0.0, 0.0, 0.0, 0.0, 1.644586983166659E9, 0.0, 2022-02-12 00:43:03.166
76.0, -10529.258612305954, -10703.982198713089, -7576.615521504345, -12981.513199986603, -11540.943269842062, -8510.180832169155, -10901.504564464638, -8692.52636343555, -10988.855181795978, -14342.26505068124, -8214.400197792078, -7018.403055477507, -7810.794748162598, -10785.521362486048, -12802.945113533153, -18410.461355502768, 0.014, -0.022, 0.992, 192.0, 0.0, 56.0, 127.5, 40.0, 15.5, 0.0, 0.0, 0.0, 0.0, 1.644586983173139E9, 0.0, 2022-02-12 00:43:03.173
78.0, -10558.070010908845, -10730.245498448074, -7592.954646701175, -12961.262519510094, -11551.113313569227, -8519.702675307117, -10930.49477702317, -8726.903346407813, -10988.475202140236, -14334.866623266535, -8213.841404180695, -7028.707209671404, -7832.878271684441, -10794.03737712352, -12803.146279233251, -18412.204791570282, 0.014, -0.022, 0.992, 192.0, 0.0, 0.0, 0.0, 0.0, 0.0, 0.0, 0.0, 0.0, 0.0, 1.644586983186718E9, 0.0, 2022-02-12 00:43:03.186
80.0, -10530.84558616228, -10717.102672708354, -7579.141268627795, -12973.33246151596, -11549.056953079338, -8511.611343814295, -10929.176024100307, -8711.547697967017, -11005.03784478162, -14369.020088794243, -8213.90845941406, -7042.922919144979, -7846.222263124259, -10799.267685326062, -12816.467918928614, -18409.20965781327, 0.014, -0.022, 0.992, 192.0, 0.0, 0.0, 0.0, 0.0, 0.0, 0.0, 0.0, 0.0, 0.0, 1.64458698319484E9, 0.0, 2022-02-12 00:43:03.194
82.0, -10532.03022861841, -10714.845146518368, -7584.729204741622, -12968.28096726906, -11546.844130378262, -8507.25275364551, -10921.039989118575, -8705.468023475174, -10976.472315367737, -14332.45263486536, -8192.651950437064, -7005.975485560356, -7813.253440052681, -10768.779905889023, -12786.404822636227, -18405.521619978146, 0.014, -0.022, 0.992, 192.0, 0.0, 0.0, 0.0, 0.0, 0.0, 0.0, 0.0, 0.0, 0.0, 1.644586983202838E9, 0.0, 2022-02-12 00:43:03.202
84.0, -10551.006859660967, -10727.719751324625, -7591.032396678019, -12959.541435187035, -11545.972412344505, -8522.049608474923, -10927.231422332696, -8725.785759185048, -10997.304141200084, -14364.37092594754, -8224.123206630136, -7035.591546963638, -7838.600318265, -10797.077214369443, -12817.987837551575, -18411.154259580882, 0.014, -0.022, 0.992, 192.0, 0.0, 0.0, 0.0, 0.0, 0.0, 0.0, 0.0, 0.0, 0.0, 1.644586983210363E9, 0.0, 2022-02-12 00:43:03.210
86.0, -10514.238240031988, -10679.104707134331, -7556.521303239025, -12969.175037047273, -11536.987011073472, -8508.236230401544, -10915.899087893855, -8691.341720979419, -10980.830905536523, -14337.459425623349, -8184.0241770773155, -6995.984255788834, -7811.375893518436, -10782.034490351021, -12792.708014572623, -18401.63241644292, 0.014, -0.024, 0.992, 192.0, 0.0, 56.0, 127.5, 32.0, 15.5, 0.0, 0.0, 0.0, 0.0, 1.644586983217455E9, 0.0, 2022-02-12 00:43:03.217
88.0, -10531.382028029208, -10697.12021316531, -7585.31035009746, -12955.51812118508, -11540.250365763946, -8522.384884641753, -10926.851442676956, -8723.39412252833, -10964.849408250977, -14324.45071035036, -8179.196200274969, -7015.743197887326, -7793.650960165377, -10785.834286908423, -12795.323168673895, -18403.30879727707, 0.014, -0.024, 0.992, 192.0, 0.0, 0.0, 0.0, 0.0, 0.0, 0.0, 0.0, 0.0, 0.0, 1.644586983225399E9, 0.0, 2022-02-12 00:43:03.225
90.0, -10527.068141349333, -10704.943323724667, -7571.362861557349, -12964.302356756016, -11540.719752397508, -8515.791120027438, -10920.235326318185, -8712.419416000774, -11009.642304139412, -14361.308736957162, -8220.882203684116, -7033.222262051376, -7839.740257232221, -10795.959627146678, -12813.808061338434, -18399.486648975213, 0.014, -0.024, 0.992, 192.0, 0.0, 0.0, 0.0, 0.0, 0.0, 0.0, 0.0, 0.0, 0.0, 1.644586983232649E9, 0.0, 2022-02-12 00:43:03.232
92.0, -10527.85045240527, -10701.389396356273, -7573.26275983605, -12950.46662693818, -11540.04920006385, -8513.377131626265, -10919.721236195712, -8709.938372366236, -10974.59476883349, -14324.093082439076, -8184.560618944242, -6994.57609588815, -7811.018265607151, -10764.063687808954, -12781.420383622693, -18392.60231168298, 0.014, -0.024, 0.992, 192.0, 0.0, 0.0, 0.0, 0.0, 0.0, 0.0, 0.0, 0.0, 0.0, 1.644586983239053E9, 0.0, 2022-02-12 00:43:03.239
94.0, -10541.239147333998, -10716.320361652419, -7591.9935216895965, -12954.534644429046, -11547.112351311725, -8522.653105575217, -10932.618192746424, -8732.513634266095, -11008.949400061298, -14339.761655302245, -8214.087273369703, -7029.467168982884, -7841.953079933296, -10787.533019487026, -12812.109328759829, -18399.419593741848, 0.014, -0.024, 0.992, 192.0, 0.0, 0.0, 0.0, 0.0, 0.0, 0.0, 0.0, 0.0, 0.0, 1.644586983247019E9, 0.0, 2022-02-12 00:43:03.247
96.0, -10531.31497279584, -10690.168820639708, -7568.814762689443, -12969.532664958557, -11541.300897753346, -8506.1575181672, -10920.749416440656, -8705.535078708539, -10995.292484199106, -14345.193129204885, -8199.648046451575, -6999.582886646139, -7824.675181469343, -10775.485429225617, -12793.110345972818, -18395.73155590672, 0.01, -0.026000000000000002, 0.986, 192.0, 0.0, 40.0, 127.5, 24.0, 15.0, 104.0, 0.0, 0.0, 0.0, 1.64458698325566E9, 0.0, 2022-02-12 00:43:03.255
98.0, -10550.090438138299, -10705.524469080505, -7597.9167339702535, -12952.545339172524, -11549.459284479533, -8516.573431083374, -10921.06234086303, -8734.815863944992, -10990.106879485475, -14338.085274468098, -8201.167965074535, -7016.1008257986105, -7819.780149433631, -10786.281321797529, -12795.43492739617, -18402.146506565394, 0.01, -0.026000000000000002, 0.986, 192.0, 0.0, 0.0, 0.0, 0.0, 0.0, 0.0, 0.0, 0.0, 0.0, 1.64458698326214E9, 0.0, 2022-02-12 00:43:03.262
100.0, -10510.55020219686, -10668.755849451525, -7575.900265681776, -12962.42481022177, -11551.67210718061, -8519.903841007213, -10920.861175162932, -8717.783834670048, -11006.289542471117, -14333.59257383258, -8223.698523485486, -7032.305840528708, -7854.604167295, -10799.781775448535, -12815.01505553902, -18399.732518164223, 0.01, -0.026000000000000002, 0.986, 192.0, 0.0, 0.0, 0.0, 0.0, 0.0, 0.0, 0.0, 0.0, 0.0, 1.644586983269917E9, 0.0, 2022-02-12 00:43:03.269
102.0, -10538.199310088075, -10697.075509676399, -7573.866256936343, -12951.807731605499, -11547.469979223011, -8523.904803264715, -10927.231422332696, -8724.422302773273, -10980.182704947318, -14301.473117050306, -8197.323465028223, -7000.588715146628, -7832.587699006522, -10784.828458407934, -12788.751755804034, -18397.653805929876, 0.01, -0.026000000000000002, 0.986, 192.0, 0.0, 0.0, 0.0, 0.0, 0.0, 0.0, 0.0, 0.0, 0.0, 1.644586983277732E9, 0.0, 2022-02-12 00:43:03.277
104.0, -10548.838740448802, -10726.468053635128, -7583.566914029946, -12948.097342025918, -11549.235767034981, -8535.281841192465, -10935.345105569972, -8740.984945414657, -11006.982446549231, -14351.228100207818, -8212.209726835457, -7021.778168890259, -7852.4360480828345, -10803.335702816928, -12819.418349196714, -18402.97352111024, 0.01, -0.026000000000000002, 0.986, 192.0, 0.0, 0.0, 0.0, 0.0, 0.0, 0.0, 0.0, 0.0, 0.0, 1.644586983285683E9, 0.0, 2022-02-12 00:43:03.285
106.0, -10509.857298118746, -10687.128983393786, -7560.276396307516, -12955.831045607454, -11535.958830828527, -8523.681285820161, -10908.567715712514, -8705.222154286164, -10987.64818759539, -14343.31558267064, -8185.6111509336415, -6991.022168519756, -7826.508024514678, -10777.56414145996, -12794.004415751031, -18394.569265195045, 0.012, -0.024, 0.988, 192.0, 0.0, 48.0, 127.5, 32.0, 15.0, 112.0, 0.0, 0.0, 0.0, 1.644586983292305E9, 0.0, 2022-02-12 00:43:03.292
108.0, -10519.379141256708, -10698.01428294352, -7588.640760021301, -12942.554109401002, -11543.983107087983, -8524.016561986991, -10926.024428132108, -8729.607907486905, -10985.904751527876, -14332.340876143084, -8205.660665710053, -7006.4672239383735, -7830.866614683464, -10780.536923472515, -12797.021901252498, -18396.245646029194, 0.012, -0.024, 0.988, 192.0, 0.0, 0.0, 0.0, 0.0, 0.0, 0.0, 0.0, 0.0, 0.0, 1.644586983307796E9, 0.0, 2022-02-12 00:43:03.307
110.0, -10519.826176145814, -10659.189302824654, -7576.302597081972, -12955.048734551518, -11538.171653529604, -8517.221631672577, -10915.966143127222, -8711.592401455928, -10996.36536793296, -14325.478890595305, -8209.415758778543, -7016.793729876725, -7832.207719350782, -10788.13651658732, -12815.842070083865, -18390.523599448636, 0.012, -0.024, 0.988, 192.0, 0.0, 0.0, 0.0, 0.0, 0.0, 0.0, 0.0, 0.0, 0.0, 1.644586983315976E9, 0.0, 2022-02-12 00:43:03.315
112.0, -10514.79703364337, -10666.25245407253, -7575.319120325938, -12933.501652896603, -11541.658525664632, -8524.016561986991, -10918.223669317207, -8716.330971280453, -10966.54814082958, -14298.701500737847, -8175.575217673209, -6975.867685779058, -7806.391454504902, -10767.461152966162, -12788.19296219265, -18387.282596502613, 0.012, -0.024, 0.988, 192.0, 0.0, 0.0, 0.0, 0.0, 0.0, 0.0, 0.0, 0.0, 0.0, 1.644586983322014E9, 0.0, 2022-02-12 00:43:03.322
114.0, -10525.36940877073, -10700.852954489346, -7584.93037044172, -12934.686295352734, -11541.90439485364, -8528.621021344785, -10926.44911127676, -8744.047134405033, -10995.516001643658, -14331.26799240923, -8194.90947662705, -7002.712130869882, -7847.205739880293, -10806.934333674233, -12818.501927674048, -18398.190247796803, 0.012, -0.024, 0.988, 192.0, 0.0, 0.0, 0.0, 0.0, 0.0, 0.0, 0.0, 0.0, 0.0, 1.644586983330238E9, 0.0, 2022-02-12 00:43:03.330
116.0, -10495.015739800423, -10646.381753251762, -7562.7350881976, -12949.214929248683, -11533.209566260526, -8513.555945581908, -10920.704712951745, -8708.261991532087, -10981.255588681173, -14319.689788781381, -8176.357528729145, -6981.746194570804, -7819.1543005888825, -10763.840170364401, -12796.083127985374, -18387.30494824707, 0.01, -0.03, 0.984, 192.0, 0.0, 40.0, 127.5, 8.0, 15.0, 96.0, 0.0, 0.0, 0.0, 1.644586983338031E9, 0.0, 2022-02-12 00:43:03.338
118.0, -10515.266420276932, -10687.866590960812, -7590.540658300002, -12935.08862675293, -11542.172615787103, -8529.06805623389, -10926.11383510993, -8740.783779714558, -10975.377079889427, -14312.425471833405, -8195.356511516156, -6995.134889499533, -7823.334076802025, -10774.747821658591, -12797.625398352791, -18391.73059364922, 0.01, -0.03, 0.984, 192.0, 0.0, 0.0, 0.0, 0.0, 0.0, 0.0, 0.0, 0.0, 0.0, 1.644586983344693E9, 0.0, 2022-02-12 00:43:03.344
120.0, -10530.487958250995, -10687.799535727447, -7576.123783126329, -12953.75233337311, -11547.782903645386, -8525.245907932032, -10925.823262432012, -8728.289154564041, -10996.27596095514, -14340.476911124815, -8197.971665617426, -6998.331188956641, -7846.579891035544, -10792.718624200657, -12813.986875294075, -18394.479858217222, 0.01, -0.03, 0.984, 192.0, 0.0, 0.0, 0.0, 0.0, 0.0, 0.0, 0.0, 0.0, 0.0, 1.644586983352927E9, 0.0, 2022-02-12 00:43:03.352
122.0, -10515.981676099502, -10682.502172291539, -7579.0742133944295, -12940.542452400025, -11541.792636131364, -8523.033085230958, -10916.323771038506, -8722.589459727938, -10975.488838611704, -14316.761710257735, -8166.746278613363, -6978.974578258345, -7797.9648468452515, -10763.393135475295, -12783.029709223476, -18390.054212815074, 0.01, -0.03, 0.984, 192.0, 0.0, 0.0, 0.0, 0.0, 0.0, 0.0, 0.0, 0.0, 0.0, 1.644586983359496E9, 0.0, 2022-02-12 00:43:03.359
124.0, -10510.12551905221, -10685.787878726469, -7589.780698988521, -12937.569670387467, -11547.447627478556, -8530.565623112396, -10924.593916486969, -8753.010183931612, -10995.627760365935, -14341.907422769955, -8197.77049991733, -7007.71892162787, -7850.916129459874, -10783.33089152943, -12808.644808369258, -18397.139715807407, 0.01, -0.03, 0.984, 192.0, 0.0, 0.0, 0.0, 0.0, 0.0, 0.0, 0.0, 0.0, 0.0, 1.644586983367723E9, 0.0, 2022-02-12 00:43:03.367
126.0, -10483.191666983565, -10655.970651623089, -7566.110201610351, -12949.46079843769, -11535.511795939421, -8522.83191953086, -10908.165384312319, -8705.266857775076, -10979.713318313756, -14295.9745879143, -8177.5645229297315, -6988.362310929574, -7831.358353061481, -10774.70311816968, -12788.975273248587, -18390.16597153735, 0.012, -0.028, 0.986, 192.0, 0.0, 48.0, 127.5, 16.0, 15.0, 104.0, 0.0, 0.0, 0.0, 1.644586983374717E9, 0.0, 2022-02-12 00:43:03.374
128.0, -10526.241126804487, -10695.68970152017, -7587.187896631706, -12935.468606408669, -11541.770284386908, -8536.712352837605, -10926.270297321118, -8733.184186599754, -10984.429536393827, -14329.055169708154, -8182.526610198809, -6992.027997020245, -7827.647963481899, -10771.171542545742, -12786.226008680584, -18392.423497727337, 0.012, -0.028, 0.986, 192.0, 0.0, 0.0, 0.0, 0.0, 0.0, 0.0, 0.0, 0.0, 0.0, 1.644586983390703E9, 0.0, 2022-02-12 00:43:03.390
130.0, -10513.277115020408, -10666.185398839165, -7569.082983622907, -12950.108999026896, -11538.730447140986, -8527.25756493301, -10915.988494871675, -8718.096759092423, -10999.8969435569, -14343.31558267064, -8185.231171277902, -7007.517755927773, -7839.784960721131, -10798.41831903676, -12805.426157167693, -18393.742250650197, 0.012, -0.028, 0.986, 192.0, 0.0, 0.0, 0.0, 0.0, 0.0, 0.0, 0.0, 0.0, 0.0, 1.644586983407294E9, 0.0, 2022-02-12 00:43:03.407
132.0, -10520.697894179571, -10682.166896124709, -7574.469754036636, -12942.643516378823, -11542.664354165121, -8524.016561986991, -10929.600707244957, -8724.39995102882, -10978.17104794634, -14317.946352713867, -8165.09224952367, -6972.1349444550215, -7810.3477132734915, -10773.764344902558, -12779.229912666073, -18392.22233202724, 0.012, -0.028, 0.986, 192.0, 0.0, 0.0, 0.0, 0.0, 0.0, 0.0, 0.0, 0.0, 0.0, 1.644586983413397E9, 0.0, 2022-02-12 00:43:03.413
132.0, -10519.334437767797, -10690.59350378436, -7590.540658300002, -12942.643516378823, -11539.468054708012, -8531.16912021269, -10928.103140366453, -8736.224023845676, -10978.17104794634, -14317.946352713867, -8165.09224952367, -6972.1349444550215, -7810.3477132734915, -10773.764344902558, -12779.229912666073, -18392.22233202724, 0.012, -0.028, 0.986, 192.0, 0.0, 0.0, 0.0, 0.0, 0.0, 0.0, 0.0, 0.0, 0.0, 1.644586983413407E9, 0.0, 2022-02-12 00:43:03.413
136.0, -10472.775754067392, -10656.48474174556, -7562.444515519681, -12948.56672865948, -11528.739217369464, -8523.368361397786, -10910.78053841359, -8706.093872319922, -10976.092335711997, -14314.951218956856, -8171.887179838083, -7001.773357602759, -7834.487597285223, -10779.642853694302, -12785.823677280388, -18386.790858124597, 0.014, -0.03, 0.986, 192.0, 0.0, 56.0, 127.5, 8.0, 15.0, 104.0, 0.0, 0.0, 0.0, 1.644586983419639E9, 0.0, 2022-02-12 00:43:03.419
138.0, -10505.789280627881, -10700.003588200045, -7583.745727985589, -12930.84179530642, -11540.563290186321, -8531.951431268624, -10936.552099770559, -8743.130712882366, -10975.757059545167, -14301.696634494858, -8181.118450298125, -6989.815174319169, -7829.436103038323, -10780.402813005783, -12785.62251158029, -18390.434192470813, 0.014, -0.03, 0.986, 192.0, 0.0, 0.0, 0.0, 0.0, 0.0, 0.0, 0.0, 0.0, 0.0, 1.644586983425967E9, 0.0, 2022-02-12 00:43:03.425
140.0, -10525.503519237462, -10671.438058786161, -7567.026623133019, -12935.759179086588, -11532.51666218241, -8519.16623344019, -10919.855346662443, -8724.846985917924, -11001.32745520204, -14343.293230926185, -8187.175773045514, -6987.602351618094, -7838.846187454008, -10790.595208477404, -12806.610799623824, -18391.8423523715, 0.014, -0.03, 0.986, 192.0, 0.0, 0.0, 0.0, 0.0, 0.0, 0.0, 0.0, 0.0, 0.0, 1.644586983432108E9, 0.0, 2022-02-12 00:43:03.432
142.0, -10504.671693405115, -10661.983270881567, -7567.45130627767, -12933.591059874423, -11539.222185519004, -8525.3129631654, -10924.884489164888, -8729.451445275718, -10970.16912343134, -14317.231096891297, -8152.910548795528, -6964.691813551404, -7806.682027182821, -10760.93444358521, -12769.126924172275, -18384.756849379166, 0.014, -0.03, 0.986, 192.0, 0.0, 0.0, 0.0, 0.0, 0.0, 0.0, 0.0, 0.0, 0.0, 1.644586983438275E9, 0.0, 2022-02-12 00:43:03.438
144.0, -10505.431652716596, -10689.610027028326, -7584.93037044172, -12936.139158742328, -11544.407790232633, -8531.727913824072, -10935.568623014526, -8747.645765262338, -10992.632626608924, -14337.772350045723, -8189.947389357972, -7000.722825613359, -7832.632402495433, -10795.579647490937, -12801.604008865836, -18395.239817528705, 0.014, -0.03, 0.986, 192.0, 0.0, 0.0, 0.0, 0.0, 0.0, 0.0, 0.0, 0.0, 0.0, 1.644586983444694E9, 0.0, 2022-02-12 00:43:03.444
146.0, -10452.078038701778, -10638.268070014487, -7556.16367532774, -12943.001144290107, -11528.247478991447, -8512.572468825874, -10908.612419201425, -8708.239639787631, -10978.931007257821, -14310.458518321338, -8168.690880380975, -6984.920142283457, -7825.21162333627, -10762.454362208171, -12779.118153943797, -18380.644128399388, 0.014, -0.024, 0.986, 192.0, 0.0, 56.0, 127.5, 32.0, 15.0, 104.0, 0.0, 0.0, 0.0, 1.6445869834597E9, 0.0, 2022-02-12 00:43:03.459
148.0, -10488.086699019277, -10671.706279719625, -7584.371576830337, -12917.944838755708, -11538.909261096629, -8522.340181152842, -10921.107044351942, -8738.436846546752, -10963.441248350293, -14299.662625749424, -8180.984339831393, -6982.3496916710965, -7815.958001131774, -10767.215283777152, -12775.340709130849, -18379.01245105415, 0.014, -0.024, 0.986, 192.0, 0.0, 0.0, 0.0, 0.0, 0.0, 0.0, 0.0, 0.0, 0.0, 1.644586983467825E9, 0.0, 2022-02-12 00:43:03.467
150.0, -10514.953495854557, -10674.187323354165, -7571.452268535169, -12938.955478543698, -11535.020057561405, -8516.662838061195, -10914.289762293072, -8717.225041058666, -10984.898923027387, -14333.302001154661, -8188.874505624117, -6986.149488228499, -7846.892815457919, -10780.8945513838, -12798.810040808921, -18382.611081911455, 0.014, -0.024, 0.986, 192.0, 0.0, 0.0, 0.0, 0.0, 0.0, 0.0, 0.0, 0.0, 0.0, 1.644586983475696E9, 0.0, 2022-02-12 00:43:03.475
152.0, -10508.896173107169, -10667.504151762027, -7567.004271388563, -12936.474434909158, -11538.372819229702, -8519.702675307117, -10921.285858307583, -8706.742072909126, -10967.352803629972, -14299.506163538237, -8149.46838014941, -6960.400278615985, -7817.9249546438405, -10764.13074304232, -12765.751810759522, -18374.54210216309, 0.014, -0.024, 0.986, 192.0, 0.0, 0.0, 0.0, 0.0, 0.0, 0.0, 0.0, 0.0, 0.0, 1.64458698348227E9, 0.0, 2022-02-12 00:43:03.482
154.0, -10500.022530558412, -10673.203846598131, -7577.1966668601835, -12939.871900066364, -11530.102673781237, -8530.856195790315, -10920.235326318185, -8724.534061495551, -10993.70551034278, -14333.458463365849, -8182.638368921086, -6997.593581389616, -7838.443856053813, -10794.082080612432, -12793.937360517664, -18382.54402667809, 0.013000000000000001, -0.025, 0.988, 192.0, 0.0, 48.0, 127.5, 24.0, 15.0, 120.0, 0.0, 0.0, 0.0, 1.644586983489081E9, 0.0, 2022-02-12 00:43:03.489
156.0, -10436.051837927324, -10622.219517495576, -7549.145227568773, -12942.285888467537, -11520.558478898822, -8511.164308925188, -10915.228535560196, -8697.935485593734, -10965.765829773645, -14311.151422399453, -8168.087383280681, -6976.091203223611, -7810.526527229134, -10761.023850563031, -12769.28338638346, -18374.765619607642, 0.013000000000000001, -0.025, 0.988, 192.0, 0.0, 0.0, 0.0, 0.0, 0.0, 0.0, 0.0, 0.0, 0.0, 1.644586983497145E9, 0.0, 2022-02-12 00:43:03.497
158.0, -10496.245085745464, -10680.199942612642, -7577.397832560281, -12922.929277769243, -11532.360199971225, -8523.614230586796, -10935.389809058883, -8736.648706990327, -10950.007849932654, -14294.54407626916, -8152.262348206324, -6959.126229182033, -7819.936611644818, -10758.31928948394, -12770.311566628405, -18380.755887121664, 0.013000000000000001, -0.025, 0.988, 192.0, 0.0, 0.0, 0.0, 0.0, 0.0, 0.0, 0.0, 0.0, 0.0, 1.644586983503952E9, 0.0, 2022-02-12 00:43:03.503
160.0, -10489.539562408872, -10650.405067253718, -7560.768134685533, -12934.507481397091, -11521.89958356614, -8507.856250745805, -10917.240192561174, -8712.642933445328, -10984.675405582835, -14325.858870251044, -8176.961025829438, -6994.799613332702, -7825.4351407808235, -10774.7925251475, -12787.030671480976, -18376.240834741693, 0.013000000000000001, -0.025, 0.988, 192.0, 0.0, 0.0, 0.0, 0.0, 0.0, 0.0, 0.0, 0.0, 0.0, 1.644586983510601E9, 0.0, 2022-02-12 00:43:03.510
162.0, -10486.343262951763, -10642.984288094556, -7559.40467827376, -12930.908850539787, -11522.5701358998, -8511.790157769938, -10916.994323372164, -8711.905325878302, -10950.074905166019, -14297.226285603796, -8152.776438328796, -6952.197188400887, -7800.557649202067, -10749.646812635281, -12757.459313566604, -18365.981384036706, 0.013000000000000001, -0.025, 0.988, 192.0, 0.0, 0.0, 0.0, 0.0, 0.0, 0.0, 0.0, 0.0, 0.0, 1.644586983518621E9, 0.0, 2022-02-12 00:43:03.518
164.0, -10512.181879542099, -10694.192134641664, -7577.911922682753, -12937.346152942915, -11521.340789954756, -8522.139015452745, -10909.037102346076, -8723.260012061597, -10978.685138068813, -14320.159175414941, -8190.819107391729, -7006.690741382926, -7829.972544905251, -10779.352281016385, -12787.00831973652, -18377.11255277545, 0.0125, -0.025500000000000002, 0.989, 192.0, 0.0, 48.0, 127.5, 24.0, 15.0, 120.0, 0.0, 0.0, 0.0, 1.644586983526882E9, 0.0, 2022-02-12 00:43:03.526
166.0, -10490.970074054012, -10681.317529835407, -7545.099561822362, -12942.37529544536, -11508.913220037606, -8504.592896055328, -10904.499698221649, -8699.164831538777, -10974.013623477653, -14322.573163816114, -8174.23411300589, -6973.5431043557055, -7805.027998093128, -10759.123952284332, -12764.120133414286, -18368.194206737782, 0.0125, -0.025500000000000002, 0.989, 192.0, 0.0, 0.0, 0.0, 0.0, 0.0, 0.0, 0.0, 0.0, 0.0, 1.644586983534845E9, 0.0, 2022-02-12 00:43:03.534
168.0, -10495.686292134082, -10679.01530015651, -7564.120896353829, -12928.427806905247, -11504.755795568919, -8509.554983324408, -10904.879677877389, -8718.521442237074, -10952.041858678087, -14304.915285696423, -8162.208874488935, -6967.105801952577, -7810.906506884874, -10741.399018931274, -12755.04532516543, -18368.64124162689, 0.0125, -0.025500000000000002, 0.989, 192.0, 0.0, 0.0, 0.0, 0.0, 0.0, 0.0, 0.0, 0.0, 0.0, 1.644586983542667E9, 0.0, 2022-02-12 00:43:03.542
170.0, -10494.479297933496, -10651.96968936559, -7547.781771157, -12939.804844833, -11509.89669679364, -8508.415044357187, -10907.740701167668, -8709.044302588023, -10964.380021617417, -14319.801547503657, -8181.453726464954, -6989.725767341348, -7819.646038966899, -10762.141437785798, -12771.317395128894, -18368.909462560354, 0.0125, -0.025500000000000002, 0.989, 192.0, 0.0, 0.0, 0.0, 0.0, 0.0, 0.0, 0.0, 0.0, 0.0, 1.644586983549234E9, 0.0, 2022-02-12 00:43:03.549
172.0, -10496.669768890115, -10645.666497429193, -7543.646698432768, -12929.768911572566, -11509.159089226616, -8508.705617035106, -10906.243134289161, -8704.998636841612, -10937.669686993324, -14267.453761989327, -8135.766760798307, -6949.8279034886245, -7786.1631257728495, -10741.063742764443, -12743.154197115207, -18366.584881137, 0.0125, -0.025500000000000002, 0.989, 192.0, 0.0, 0.0, 0.0, 0.0, 0.0, 0.0, 0.0, 0.0, 0.0, 1.64458698355617E9, 0.0, 2022-02-12 00:43:03.556
174.0, -10496.245085745464, -10677.607140255826, -7563.785620186999, -12926.863184793376, -11513.741196839954, -8517.713370050595, -10916.882564649888, -8723.68469520625, -10964.625890806425, -14310.011483432232, -8166.008671046337, -6985.545991128206, -7822.171786090349, -10773.049089079988, -12774.848970752833, -18376.97844230872, 0.01225, -0.02775, 0.9915, 192.0, 0.0, 48.0, 127.5, 8.0, 15.5, 8.0, 0.0, 0.0, 0.0, 1.644586983564146E9, 0.0, 2022-02-12 00:43:03.564
176.0, -10475.949701780046, -10651.455599243118, -7540.115122808829, -12938.508443654591, -11502.185344956559, -8500.97191345357, -10902.622151687403, -8686.29022673252, -10952.064210422543, -14305.78700373018, -8156.66564186402, -6954.477066335329, -7805.8326608935195, -10753.178388259219, -12755.447656565626, -18365.579052636513, 0.01225, -0.02775, 0.9915, 192.0, 0.0, 0.0, 0.0, 0.0, 0.0, 0.0, 0.0, 0.0, 0.0, 1.64458698357889E9, 0.0, 2022-02-12 00:43:03.578
178.0, -10492.422937443607, -10656.015355112, -7564.8138004319435, -12929.143062727817, -11505.672217091587, -8513.332428137353, -10899.53761095257, -8709.49133747713, -10947.415047575838, -14304.289436851674, -8153.201121473447, -6958.120400681544, -7795.081471810517, -10748.864501579345, -12749.010354162498, -18371.770485850633, 0.01225, -0.02775, 0.9915, 192.0, 0.0, 0.0, 0.0, 0.0, 0.0, 0.0, 0.0, 0.0, 0.0, 1.644586983588489E9, 0.0, 2022-02-12 00:43:03.588
180.0, -10462.78452429587, -10641.9114043607, -7550.709849680645, -12932.853452307398, -11503.99583625744, -8489.170192381167, -10900.811660386522, -8706.63031418685, -10955.707544768757, -14302.59070427307, -8177.318653740723, -6990.843354564114, -7823.825815180042, -10756.441742949693, -12768.076392182875, -18372.10576201746, 0.01225, -0.02775, 0.9915, 192.0, 0.0, 0.0, 0.0, 0.0, 0.0, 0.0, 0.0, 0.0, 0.0, 1.64458698359472E9, 0.0, 2022-02-12 00:43:03.594
182.0, -10466.003175497435, -10639.698581659626, -7543.713753666134, -12929.74655982811, -11505.783975813863, -8491.785346482438, -10904.164422054819, -8703.948104852212, -10924.705675209247, -14261.955232853323, -8142.89696727955, -6951.683098278416, -7798.702454412277, -10735.676972350713, -12742.528348270458, -18367.322488704027, 0.01225, -0.02775, 0.9915, 192.0, 0.0, 0.0, 0.0, 0.0, 0.0, 0.0, 0.0, 0.0, 0.0, 1.644586983601405E9, 0.0, 2022-02-12 00:43:03.601
184.0, -10481.247065215954, -10659.658689458214, -7562.198646330673, -12922.906926024787, -11508.935571782062, -8502.000093698513, -10918.246021061663, -8735.844044189937, -10948.175006887319, -14287.838552932568, -8169.562598414732, -6977.074679979644, -7815.30980054257, -10760.80033311848, -12778.29113939895, -18377.64899464238, 0.012125, -0.026875000000000003, 0.99375, 192.0, 0.0, 48.0, 127.5, 24.0, 15.5, 16.0, 0.0, 0.0, 0.0, 1.644586983609577E9, 0.0, 2022-02-12 00:43:03.609
186.0, -10480.710623349027, -10630.467311199583, -7538.952832097153, -12933.009914518585, -11500.263094933403, -8488.432584814142, -10896.095442306452, -8695.454441959197, -10942.654126006857, -14293.471192535306, -8145.757990569829, -6958.500380337284, -7804.379797503924, -10741.354315442362, -12760.588557790346, -18368.39537243788, 0.012125, -0.026875000000000003, 0.99375, 192.0, 0.0, 0.0, 0.0, 0.0, 0.0, 0.0, 0.0, 0.0, 0.0, 1.644586983617492E9, 0.0, 2022-02-12 00:43:03.617
188.0, -10494.255780488942, -10656.887073145757, -7559.918768396231, -12923.018684747063, -11506.476879891978, -8498.1555936522, -10907.517183723116, -8715.794529413526, -10949.180835387808, -14290.051375633642, -8140.639441089564, -6949.47027557734, -7809.967733617751, -10746.182292244708, -12754.844159465332, -18373.558625407055, 0.012125, -0.026875000000000003, 0.99375, 192.0, 0.0, 0.0, 0.0, 0.0, 0.0, 0.0, 0.0, 0.0, 0.0, 1.644586983625548E9, 0.0, 2022-02-12 00:43:03.625
190.0, -10455.699021303537, -10624.968782063579, -7550.061649091441, -12941.99531578962, -11500.307798422313, -8488.365529580777, -10891.96036958222, -8706.183279297744, -10957.31687036954, -14288.531457010682, -8169.607301903642, -6975.085374723122, -7819.467225011257, -10762.186141274708, -12775.38541261976, -18371.92694806182, 0.012125, -0.026875000000000003, 0.99375, 192.0, 0.0, 0.0, 0.0, 0.0, 0.0, 0.0, 0.0, 0.0, 0.0, 1.64458698363148E9, 0.0, 2022-02-12 00:43:03.631
192.0, -10472.574588367295, -10635.697619402126, -7547.960585112642, -12938.486091910136, -11495.4127663866, -8495.227515128556, -10900.29757026405, -8700.349473994907, -10934.004000902654, -14264.68214567687, -8139.074818977692, -6949.604386044072, -7773.355576199959, -10732.257155449051, -12741.299002325417, -18363.96972703573, 0.012125, -0.026875000000000003, 0.99375, 192.0, 0.0, 0.0, 0.0, 0.0, 0.0, 0.0, 0.0, 0.0, 0.0, 1.644586983639666E9, 0.0, 2022-02-12 00:43:03.639
194.0, -10500.290751491875, -10657.11059059031, -7566.154905099262, -12938.620202376867, -11497.826754787775, -8500.72604426456, -10910.333503524484, -8721.762445183092, -10967.151637929874, -14302.54600078416, -8166.52276116881, -6980.069813736655, -7830.710152472277, -10765.22597852063, -12772.703203285124, -18374.698564374277, 0.009062500000000001, -0.025437500000000002, 0.990875, 192.0, 0.0, 24.0, 127.5, 32.0, 15.0, 112.0, 0.0, 0.0, 0.0, 1.644586983645654E9, 0.0, 2022-02-12 00:43:03.645
196.0, -10482.766983838914, -10631.651953655715, -7542.327945509905, -12942.241184978628, -11493.758737296908, -8488.544343536418, -10899.179983041286, -8692.258142502087, -10948.957317943254, -14277.243826060752, -8143.880444035583, -6973.185476444421, -7810.235954551215, -10748.328059712418, -12750.418514063182, -18361.421628167824, 0.009062500000000001, -0.025437500000000002, 0.990875, 192.0, 0.0, 0.0, 0.0, 0.0, 0.0, 0.0, 0.0, 0.0, 0.0, 1.644586983653866E9, 0.0, 2022-02-12 00:43:03.653
198.0, -10494.41224270013, -10655.456561500618, -7564.411469031748, -12921.387007401825, -11503.817022301797, -8500.077843675357, -10910.15468956884, -8713.29113403453, -10949.046724921076, -14283.994052886255, -8147.1661504705135, -6959.193284415399, -7815.242745309204, -10755.301803982473, -12745.501130283015, -18363.522692146624, 0.009062500000000001, -0.025437500000000002, 0.990875, 192.0, 0.0, 0.0, 0.0, 0.0, 0.0, 0.0, 0.0, 0.0, 0.0, 1.644586983663174E9, 0.0, 2022-02-12 00:43:03.663
200.0, -10452.905053246624, -10628.0086193095, -7549.815779902432, -12933.076969751952, -11494.026958230372, -8493.595837783318, -10904.164422054819, -8697.466098960174, -10963.910634983855, -14299.796736216156, -8170.3449094706675, -6964.311833895664, -7829.771379205154, -10765.583606431916, -12764.947147959132, -18363.701506102265, 0.009062500000000001, -0.025437500000000002, 0.990875, 192.0, 0.0, 0.0, 0.0, 0.0, 0.0, 0.0, 0.0, 0.0, 0.0, 1.644586983669385E9, 0.0, 2022-02-12 00:43:03.669
202.0, -10462.270434173399, -10616.922154059668, -7546.485369978592, -12930.148891228306, -11483.365176125191, -8484.498677790009, -10900.543439453058, -8699.053072816501, -10936.97678291521, -14270.82887540208, -8133.531586352777, -6933.265260847243, -7785.939608328296, -10735.386399672794, -12733.408836532693, -18358.761770577643, 0.009062500000000001, -0.025437500000000002, 0.990875, 192.0, 0.0, 0.0, 0.0, 0.0, 0.0, 0.0, 0.0, 0.0, 0.0, 1.644586983676275E9, 0.0, 2022-02-12 00:43:03.676
204.0, -10491.104184520744, -10647.275823029975, -7561.014003874541, -12931.154719728795, -11483.678100547564, -8491.58418078234, -10904.63380868838, -8716.398026513818, -10959.328527370517, -14295.013462902722, -8152.3294034396895, -6969.765659542759, -7815.846242409497, -10754.228920248619, -12755.71587749909, -18368.373020693423, 0.009531250000000002, -0.02471875, 0.9874375, 192.0, 0.0, 40.0, 127.5, 32.0, 15.0, 96.0, 0.0, 0.0, 0.0, 1.644586983684713E9, 0.0, 2022-02-12 00:43:03.684
206.0, -10455.16257943661, -10590.480040369039, -7535.711829151133, -12942.531757656547, -11470.64703353012, -8476.340291063821, -10906.086672077976, -8689.128898278344, -10937.35676257095, -14258.267195018196, -8133.75510379733, -6949.13499941051, -7801.295256769092, -10729.150262969764, -12744.160025615696, -18358.605308366456, 0.009531250000000002, -0.02471875, 0.9874375, 192.0, 0.0, 0.0, 0.0, 0.0, 0.0, 0.0, 0.0, 0.0, 0.0, 1.644586983691304E9, 0.0, 2022-02-12 00:43:03.691
208.0, -10478.877780303692, -10619.984343050044, -7565.573759743424, -12926.12557722635, -11480.593559812733, -8485.929189435148, -10916.748454183156, -8717.046227103023, -10936.820320704022, -14264.72684916578, -8132.615164830109, -6952.733630267815, -7801.027035835628, -10736.436931662194, -12739.890842424733, -18363.522692146624, 0.009531250000000002, -0.02471875, 0.9874375, 192.0, 0.0, 0.0, 0.0, 0.0, 0.0, 0.0, 0.0, 0.0, 0.0, 1.644586983705959E9, 0.0, 2022-02-12 00:43:03.705
210.0, -10461.823399284292, -10628.790930365436, -7557.415373017237, -12940.765969844577, -11477.17374291107, -8482.44231730012, -10901.146936553352, -8700.081253061444, -10972.471353110237, -14292.107736123531, -8166.768630357818, -6980.405089903485, -7834.599356007499, -10764.823647120435, -12763.516636313992, -18367.501302659668, 0.009531250000000002, -0.02471875, 0.9874375, 192.0, 0.0, 0.0, 0.0, 0.0, 0.0, 0.0, 0.0, 0.0, 0.0, 1.644586983713824E9, 0.0, 2022-02-12 00:43:03.713
212.0, -10478.698966348049, -10639.273898514975, -7550.128704324807, -12935.55801338649, -11473.150428909115, -8477.055546886391, -10897.123622551397, -8689.777098867547, -10935.63567824789, -14286.609206987527, -8142.606394601631, -6939.568452783639, -7805.966771360251, -10736.146358984275, -12735.241679578028, -18360.34874443397, 0.009531250000000002, -0.02471875, 0.9874375, 192.0, 0.0, 0.0, 0.0, 0.0, 0.0, 0.0, 0.0, 0.0, 0.0, 1.644586983721133E9, 0.0, 2022-02-12 00:43:03.721
214.0, -10508.382082984697, -10655.188340567152, -7570.289977823494, -12941.145949500316, -11483.588693569744, -8492.612361027284, -10910.78053841359, -8724.265840562086, -10971.957262987766, -14320.69561728187, -8154.3857639295775, -6972.201999688387, -7833.16884436236, -10757.31346098345, -12763.42722933617, -18368.797703838078, 0.009765625, -0.023359375, 0.98471875, 192.0, 0.0, 40.0, 127.5, 40.0, 15.0, 88.0, 0.0, 0.0, 0.0, 1.644586983728701E9, 0.0, 2022-02-12 00:43:03.728
216.0, -10455.900187003635, -10606.327427187853, -7548.251157790561, -12946.599775147411, -11479.386565612145, -8467.95838689308, -10900.20816328623, -8681.95398830819, -10957.786257003101, -14287.100945365542, -8140.997069000849, -6962.18841817241, -7816.449739509791, -10745.467036422138, -12751.156121630207, -18363.768561335633, 0.009765625, -0.023359375, 0.98471875, 192.0, 0.0, 0.0, 0.0, 0.0, 0.0, 0.0, 0.0, 0.0, 0.0, 1.644586983736634E9, 0.0, 2022-02-12 00:43:03.736
218.0, -10456.257814914921, -10637.48575895855, -7568.144210355785, -12926.013818504074, -11482.26994064688, -8477.01084339748, -10909.864116890922, -8710.832442144447, -10938.20612886025, -14279.322538295095, -8131.184653184969, -6949.738496510804, -7818.371989532947, -10733.710018838647, -12742.640106992736, -18357.7335903327, 0.009765625, -0.023359375, 0.98471875, 192.0, 0.0, 0.0, 0.0, 0.0, 0.0, 0.0, 0.0, 0.0, 0.0, 1.644586983743571E9, 0.0, 2022-02-12 00:43:03.743
220.0, -10468.998309254446, -10627.650991398215, -7558.912939895742, -12938.575498887956, -11477.12903942216, -8478.77663120945, -10909.662951190825, -8701.601171684406, -10960.110838426452, -14312.000788688754, -8162.097115766659, -6969.408031631474, -7838.64502175391, -10764.93540584271, -12766.131790415264, -18365.087314258493, 0.009765625, -0.023359375, 0.98471875, 192.0, 0.0, 0.0, 0.0, 0.0, 0.0, 0.0, 0.0, 0.0, 0.0, 1.644586983751468E9, 0.0, 2022-02-12 00:43:03.751
222.0, -10472.865161045214, -10610.082520256343, -7548.765247913033, -12933.233431963139, -11467.36132709519, -8461.230511812033, -10899.336445252473, -8695.208572770187, -10940.709524239246, -14285.603378487038, -8127.295449649746, -6943.32354585213, -7805.229163793227, -10729.731408325602, -12735.196976089119, -18356.794817065576, 0.009765625, -0.023359375, 0.98471875, 192.0, 0.0, 0.0, 0.0, 0.0, 0.0, 0.0, 0.0, 0.0, 0.0, 1.644586983758181E9, 0.0, 2022-02-12 00:43:03.758
224.0, -10480.442402415563, -10618.084444771344, -7563.360937042348, -12926.12557722635, -11472.368117853179, -8468.852456671293, -10910.132337824385, -8710.988904355634, -10961.563701816047, -14301.137840883475, -8151.949423783949, -6987.110613240077, -7821.635344223421, -10756.374687716328, -12760.14152290124, -18362.181587479306, 0.016, -0.022, 0.988, 192.0, 0.0, 64.0, 127.5, 40.0, 15.0, 112.0, 0.0, 0.0, 0.0, 1.644586983766399E9, 0.0, 2022-02-12 00:43:03.766
226.0, -10445.171349665088, -10593.922209015156, -7529.095712792363, -12936.586193631434, -11463.673289260065, -8453.005069852481, -10887.557075924526, -8677.751860350592, -10942.698829495768, -14267.073782333588, -8132.168129941003, -6955.393487857997, -7798.054253823073, -10743.768303843535, -12740.784912202944, -18353.084427485996, 0.016, -0.022, 0.988, 192.0, 0.0, 0.0, 0.0, 0.0, 0.0, 0.0, 0.0, 0.0, 0.0, 1.644586983773255E9, 0.0, 2022-02-12 00:43:03.773
228.0, -10468.774791809892, -10632.657782156204, -7550.419277002726, -12919.218888189662, -11467.227216628458, -8457.654232699184, -10906.35489301144, -8703.881049618847, -10929.980686900699, -14272.035869602665, -8118.980600712372, -6935.6792492484155, -7783.458564693758, -10720.678951821203, -12731.643048720724, -18353.687924586287, 0.016, -0.022, 0.988, 192.0, 0.0, 0.0, 0.0, 0.0, 0.0, 0.0, 0.0, 0.0, 0.0, 1.644586983781119E9, 0.0, 2022-02-12 00:43:03.781
230.0, -10443.87494848668, -10612.407101679695, -7544.473712977614, -12936.98852503163, -11455.939585678529, -8451.10517157378, -10886.931227079776, -8679.987034796124, -10947.839730720489, -14307.418681075416, -8145.646231847553, -6951.839560489602, -7794.902657854875, -10739.476768908116, -12758.107514155809, -18348.658782083843, 0.016, -0.022, 0.988, 192.0, 0.0, 0.0, 0.0, 0.0, 0.0, 0.0, 0.0, 0.0, 0.0, 1.644586983790177E9, 0.0, 2022-02-12 00:43:03.790
232.0, -10423.73602673245, -10598.392557906218, -7539.712791408634, -12927.712551082677, -11449.16700710857, -8450.591081451306, -10881.276235732585, -8672.47684865914, -10913.306285537039, -14267.25259628923, -8121.193423413447, -6935.008696914756, -7790.991102575195, -10717.616762830827, -12723.819938161367, -18346.937697760786, 0.016, -0.022, 0.988, 192.0, 0.0, 0.0, 0.0, 0.0, 0.0, 0.0, 0.0, 0.0, 0.0, 1.644586983796856E9, 0.0, 2022-02-12 00:43:03.796
234.0, -10466.964300509013, -10616.028084281455, -7559.49408525158, -12913.899173009298, -11464.567359038278, -8461.47638100104, -10892.943846338254, -8698.67309316076, -10945.425742319316, -14289.291416322163, -8150.965947027916, -6962.255473405776, -7806.860841138464, -10734.22410896112, -12750.396162318726, -18350.11164547344, 0.018000000000000002, -0.02, 0.988, 192.0, 0.0, 72.0, 127.5, 48.0, 15.0, 112.0, 0.0, 0.0, 0.0, 1.644586983803865E9, 0.0, 2022-02-12 00:43:03.803
236.0, -10451.027506712378, -10587.95429324559, -7532.046143060464, -12926.259687693082, -11457.146579879116, -8448.758238405971, -10883.958445067221, -8671.940406792213, -10933.624021246913, -14272.77347716969, -8123.138025181059, -6948.084467421111, -7792.73453864271, -10722.35533265535, -12739.80143544691, -18345.97657274921, 0.018000000000000002, -0.02, 0.988, 192.0, 0.0, 0.0, 0.0, 0.0, 0.0, 0.0, 0.0, 0.0, 0.0, 1.644586983811672E9, 0.0, 2022-02-12 00:43:03.811
238.0, -10462.717469062503, -10604.516935886972, -7552.520340981525, -12908.17712642874, -11450.12813212015, -8451.485151229519, -10889.099346291941, -8693.19691576921, -10935.255698592151, -14266.425581744383, -8123.294487392246, -6921.75411245276, -7792.198096775783, -10719.539012853982, -12729.340819041827, -18346.96004950524, 0.018000000000000002, -0.02, 0.988, 192.0, 0.0, 0.0, 0.0, 0.0, 0.0, 0.0, 0.0, 0.0, 0.0, 1.644586983826573E9, 0.0, 2022-02-12 00:43:03.826
240.0, -10450.491064845452, -10585.76382228897, -7543.020849588019, -12921.632876590835, -11449.703448975499, -8434.609584165762, -10881.633863643869, -8676.187238238721, -10959.328527370517, -14273.309919036617, -8146.719115581408, -6949.671441277438, -7809.900678384385, -10732.950059527167, -12754.128903642762, -18344.16608144833, 0.018000000000000002, -0.02, 0.988, 192.0, 0.0, 0.0, 0.0, 0.0, 0.0, 0.0, 0.0, 0.0, 0.0, 1.644586983833209E9, 0.0, 2022-02-12 00:43:03.833
242.0, -10403.15007008911, -10574.722060528047, -7535.689477406679, -12911.261667163571, -11445.79189369582, -8432.508520186964, -10882.952616566732, -8668.81116256847, -10923.699846708758, -14254.556805438615, -8113.906754721017, -6908.097196590566, -7769.309910453548, -10701.098823678354, -12721.741225927022, -18334.82305226601, 0.018000000000000002, -0.02, 0.988, 192.0, 0.0, 0.0, 0.0, 0.0, 0.0, 0.0, 0.0, 0.0, 0.0, 1.644586983841017E9, 0.0, 2022-02-12 00:43:03.841
244.0, -10453.553253835827, -10612.675322613159, -7552.095657836874, -12912.60277183089, -11449.16700710857, -8448.825293639338, -10891.178058526286, -8701.288247262031, -10944.934003941298, -14265.799732899635, -8143.902795780039, -6962.076659450133, -7809.766567917653, -10728.144434469275, -12744.51765352698, -18346.423607638313, 0.018000000000000002, -0.026000000000000002, 0.99, 192.0, 0.0, 72.0, 127.5, 24.0, 15.0, 120.0, 0.0, 0.0, 0.0, 1.644586983849199E9, 0.0, 2022-02-12 00:43:03.849
246.0, -10437.63881178365, -10572.732755271525, -7527.464035447126, -12916.201402688195, -11439.443998270512, -8434.944860332593, -10883.645520644846, -8668.118258490356, -10939.793102716578, -14269.733639923768, -8129.597679328643, -6937.377981827019, -7792.935704342807, -10712.364102883828, -12730.927792898154, -18341.64033432488, 0.018000000000000002, -0.026000000000000002, 0.99, 192.0, 0.0, 0.0, 0.0, 0.0, 0.0, 0.0, 0.0, 0.0, 0.0, 1.644586983856205E9, 0.0, 2022-02-12 00:43:03.856
248.0, -10448.054724699823, -10608.048511510911, -7549.435800246692, -12903.192687415205, -11435.5994982242, -8443.594985436795, -10874.72717460718, -8676.701328361194, -10919.83299491799, -14263.341041009551, -8125.46260660441, -6917.0155426282345, -7771.053346521062, -10703.132832423787, -12717.80731890289, -18340.120415701916, 0.018000000000000002, -0.026000000000000002, 0.99, 192.0, 0.0, 0.0, 0.0, 0.0, 0.0, 0.0, 0.0, 0.0, 0.0, 1.644586983864175E9, 0.0, 2022-02-12 00:43:03.864
250.0, -10446.534806076861, -10578.343043129807, -7541.992669343075, -12918.973019000652, -11432.783178422831, -8441.560976691362, -10865.808828569512, -8668.744107335104, -10947.750323742668, -14274.136933581465, -8149.736601082874, -6952.845388990091, -7809.297181284092, -10728.74793156957, -12739.264993579984, -18342.512052358634, 0.018000000000000002, -0.026000000000000002, 0.99, 192.0, 0.0, 0.0, 0.0, 0.0, 0.0, 0.0, 0.0, 0.0, 0.0, 1.644586983871798E9, 0.0, 2022-02-12 00:43:03.871
252.0, -10428.1616721346, -10574.498543083495, -7530.5932796708685, -12914.12269045385, -11425.407102752579, -8426.250031739477, -10870.43563967176, -8667.00067126759, -10920.235326318185, -14257.998974084732, -8115.426673343978, -6910.2653158027315, -7770.0251662761175, -10691.420518329205, -12704.932714096632, -18334.599534821456, 0.018000000000000002, -0.026000000000000002, 0.99, 192.0, 0.0, 0.0, 0.0, 0.0, 0.0, 0.0, 0.0, 0.0, 0.0, 1.644586983879145E9, 0.0, 2022-02-12 00:43:03.879
254.0, -10450.40165786763, -10614.441110425128, -7554.688460193689, -12913.005103231086, -11435.93477439103, -8432.754389375972, -10884.58429391197, -8687.340758721919, -10948.376172587416, -14269.197198056841, -8138.493673621854, -6952.398354100986, -7792.041634564595, -10714.68868430718, -12733.006505132498, -18341.61798258042, 0.014, -0.022, 0.986, 192.0, 0.0, 56.0, 127.5, 40.0, 15.0, 104.0, 0.0, 0.0, 0.0, 1.644586983885529E9, 0.0, 2022-02-12 00:43:03.885
0.0, -10450.200492167533, -10567.055412179878, -7528.11223603633, -12920.537641112523, -11425.429454497034, -8426.585307906307, -10877.007052541621, -8665.860732300369, -10938.831977705, -14263.564558454103, -8128.4353886169665, -6933.667592247438, -7765.264244707138, -10706.35148362535, -12722.702350938602, -18336.231212166695, 0.014, -0.022, 0.986, 192.0, 0.0, 0.0, 0.0, 0.0, 0.0, 0.0, 0.0, 0.0, 0.0, 1.644586983894915E9, 0.0, 2022-02-12 00:43:03.894
2.0, -10448.322945633287, -10582.299301898396, -7548.005288601553, -12897.135364667818, -11428.156367320582, -8433.581403920818, -10876.135334507864, -8680.635235385327, -10924.236288575685, -14251.62872691497, -8116.186632655458, -6921.441188030385, -7774.830791334009, -10705.792690013968, -12710.207725788085, -18338.86871801242, 0.014, -0.022, 0.986, 192.0, 0.0, 0.0, 0.0, 0.0, 0.0, 0.0, 0.0, 0.0, 0.0, 1.644586983901748E9, 0.0, 2022-02-12 00:43:03.901
4.0, -10426.619401767184, -10566.362508101764, -7542.953794354653, -12909.764100285067, -11428.40223650959, -8427.702895129072, -10881.119773521397, -8672.275682959042, -10945.358687085949, -14263.54220670965, -8146.093266736659, -6943.748228996781, -7798.814213134553, -10725.618687345826, -12739.689676724634, -18338.48873835668, 0.014, -0.022, 0.986, 192.0, 0.0, 0.0, 0.0, 0.0, 0.0, 0.0, 0.0, 0.0, 0.0, 1.644586983909066E9, 0.0, 2022-02-12 00:43:03.909
6.0, -10399.305570042798, -10540.590946744795, -7534.884814606287, -12906.03135896103, -11413.583029935722, -8415.990581034492, -10860.10913373341, -8653.120237960844, -10911.249925047152, -14220.470395144272, -8111.55982155321, -6908.141900079478, -7763.029070261607, -10677.115401877809, -12704.508030951982, -18329.257467896638, 0.014, -0.022, 0.986, 192.0, 0.0, 0.0, 0.0, 0.0, 0.0, 0.0, 0.0, 0.0, 0.0, 1.644586983916205E9, 0.0, 2022-02-12 00:43:03.916
8.0, -10439.806930995814, -10599.867773040269, -7556.722468939122, -12901.426899603237, -11425.585916708222, -8421.846738081782, -10877.521142664093, -8671.895703303302, -10929.712465967235, -14248.700648391325, -8135.677353820486, -6933.153502124966, -7780.77635535912, -10702.954018468145, -12727.70914169659, -18335.71712204422, 0.016, -0.022, 0.99, 192.0, 0.0, 64.0, 127.5, 40.0, 15.0, 120.0, 0.0, 0.0, 0.0, 1.644586983924154E9, 0.0, 2022-02-12 00:43:03.924
10.0, -10442.667954286093, -10565.602548790283, -7531.263832004528, -12915.016760232063, -11417.472233470946, -8407.698083841573, -10856.57755810947, -8642.592566322395, -10943.592899273981, -14263.452799731827, -8126.870766505095, -6915.249754816265, -7775.814268090042, -10690.057061917432, -12717.449690991603, -18324.317732372016, 0.016, -0.022, 0.99, 192.0, 0.0, 0.0, 0.0, 0.0, 0.0, 0.0, 0.0, 0.0, 0.0, 1.644586983932145E9, 0.0, 2022-02-12 00:43:03.932
12.0, -10452.122742190688, -10591.932903758634, -7549.435800246692, -12899.236428646616, -11428.044608598306, -8425.199499750079, -10860.936148278255, -8662.887950287814, -10932.193509601773, -14240.452854687317, -8116.27603963328, -6910.980571625301, -7765.957148785252, -10676.73542222207, -12704.172754785151, -18324.876525983396, 0.016, -0.022, 0.99, 192.0, 0.0, 0.0, 0.0, 0.0, 0.0, 0.0, 0.0, 0.0, 0.0, 1.644586983938771E9, 0.0, 2022-02-12 00:43:03.938
14.0, -10428.20637562351, -10564.909644712168, -7543.579643199402, -12904.042053704508, -11423.328390518236, -8415.118863000735, -10861.763162823101, -8658.104676974377, -10952.645355778379, -14266.760857911213, -8145.333307425179, -6943.390601085496, -7785.559628672556, -10705.88209699179, -12729.497281253014, -18329.615095807923, 0.016, -0.022, 0.99, 192.0, 0.0, 0.0, 0.0, 0.0, 0.0, 0.0, 0.0, 0.0, 0.0, 1.644586983953894E9, 0.0, 2022-02-12 00:43:03.953
16.0, -10417.656352240605, -10554.449028307085, -7530.302706992949, -12903.21503915966, -11416.332294503725, -8405.641723351684, -10859.282119188561, -8636.199967408176, -10916.837861160977, -14227.175918480865, -8114.13027216557, -6900.497603475762, -7768.237026719693, -10671.818038441901, -12699.300074493894, -18321.456709081736, 0.016, -0.022, 0.99, 192.0, 0.0, 0.0, 0.0, 0.0, 0.0, 0.0, 0.0, 0.0, 0.0, 1.644586983961942E9, 0.0, 2022-02-12 00:43:03.961
18.0, -10449.820512511793, -10577.337214629319, -7538.997535586064, -12893.603789043878, -11414.25358226938, -8418.203403735568, -10865.63001461387, -8659.401078152785, -10937.06618989303, -14241.302220976619, -8131.855205518628, -6925.911536921446, -7779.614064647444, -10690.861724717823, -12724.937525384132, -18329.235116152184, 0.012, -0.022, 0.984, 192.0, 0.0, 48.0, 127.5, 40.0, 15.0, 96.0, 0.0, 0.0, 0.0, 1.644586983969717E9, 0.0, 2022-02-12 00:43:03.969
20.0, -10397.29391304182, -10537.104074609766, -7503.212392713117, -12908.870030506854, -11399.277913484326, -8399.271476181922, -10849.447351628227, -8632.42252259523, -10911.406387258337, -14225.410130668895, -8108.4752808183775, -6909.035969857689, -7759.318680682026, -10691.956960196134, -12711.258257777485, -18320.96497070372, 0.012, -0.022, 0.984, 192.0, 0.0, 0.0, 0.0, 0.0, 0.0, 0.0, 0.0, 0.0, 0.0, 1.644586983976484E9, 0.0, 2022-02-12 00:43:03.976
22.0, -10415.91291617309, -10569.335290114319, -7519.05977953193, -12892.97794019913, -11403.234172252915, -8398.243295936978, -10854.38708715285, -8652.941424005201, -10897.905933607333, -14227.824119070068, -8096.360635323601, -6901.592838954072, -7743.046610718562, -10660.463352258606, -12696.193182014607, -18319.377996847394, 0.012, -0.022, 0.984, 192.0, 0.0, 0.0, 0.0, 0.0, 0.0, 0.0, 0.0, 0.0, 0.0, 1.644586983984266E9, 0.0, 2022-02-12 00:43:03.984
24.0, -10426.641753511638, -10557.354755086275, -7511.706055606134, -12897.291826879005, -11398.585009406212, -8400.880801782705, -10853.761238308101, -8638.65865929826, -10927.410236288339, -14255.562633939104, -8124.121501937092, -6919.675400218416, -7770.338090698492, -10687.061928160421, -12722.99292361652, -18319.66856952531, 0.012, -0.022, 0.984, 192.0, 0.0, 0.0, 0.0, 0.0, 0.0, 0.0, 0.0, 0.0, 0.0, 1.644586983991022E9, 0.0, 2022-02-12 00:43:03.991
26.0, -10398.34444503122, -10551.94563292809, -7508.308590448927, -12896.196591400694, -11398.361491961658, -8393.214153434534, -10854.588252852947, -8631.461397583651, -10897.615360929414, -14229.902831304411, -8087.889324175039, -6894.2391150282765, -7735.067037948017, -10659.502227247027, -12690.068804033854, -18310.63846476537, 0.012, -0.022, 0.984, 192.0, 0.0, 0.0, 0.0, 0.0, 0.0, 0.0, 0.0, 0.0, 0.0, 1.644586983998919E9, 0.0, 2022-02-12 00:43:03.998
28.0, -10416.739930717937, -10554.13610388471, -7535.801236128955, -12891.83800123191, -11399.456727439969, -8409.530926886908, -10847.212177182697, -8656.897682773792, -10931.880585179399, -14234.239069728741, -8136.7725892987955, -6931.678286990916, -7761.911483038841, -10693.253361374542, -12717.583801458335, -18324.76476726112, 0.012, -0.022, 0.992, 192.0, 0.0, 48.0, 127.5, 40.0, 15.5, 0.0, 0.0, 0.0, 0.0, 1.644586984006194E9, 0.0, 2022-02-12 00:43:04.006
30.0, -10414.460052783495, -10536.612336231748, -7507.861555559821, -12900.823402502943, -11397.623884394632, -8393.57178134582, -10841.758351535602, -8629.986182449602, -10925.711503709736, -14212.96020900729, -8116.968943711394, -6912.992228626279, -7762.693794094777, -10682.412765313717, -12705.536211196926, -18318.796851491556, 0.012, -0.022, 0.992, 192.0, 0.0, 0.0, 0.0, 0.0, 0.0, 0.0, 0.0, 0.0, 0.0, 1.644586984013827E9, 0.0, 2022-02-12 00:43:04.013
32.0, -10451.742762534948, -10582.008729220477, -7527.821663358411, -12880.148038881784, -11404.77644262033, -8396.589266847286, -10865.63001461387, -8652.628499582828, -10916.770805927612, -14236.474244174273, -8091.152678865515, -6892.741548149771, -7748.72395381021, -10665.648956972236, -12703.099871051298, -18317.14282240186, 0.012, -0.022, 0.992, 192.0, 0.0, 0.0, 0.0, 0.0, 0.0, 0.0, 0.0, 0.0, 0.0, 1.64458698402076E9, 0.0, 2022-02-12 00:43:04.020
34.0, -10434.442512326541, -10586.121450200255, -7525.139454023773, -12897.492992579102, -11405.40229146508, -8399.51734537093, -10870.167418738296, -8648.0910954584, -10940.329544583505, -14270.091267835054, -8120.634629802064, -6916.210879827843, -7774.383756444902, -10692.113422407321, -12734.258202821995, -18321.76963350411, 0.012, -0.022, 0.992, 192.0, 0.0, 0.0, 0.0, 0.0, 0.0, 0.0, 0.0, 0.0, 0.0, 1.644586984028979E9, 0.0, 2022-02-12 00:43:04.028
36.0, -10405.29583755682, -10547.341173570298, -7513.20362248464, -12900.6445885473, -11390.337215702202, -8390.442537122075, -10844.015877725587, -8630.500272572073, -10907.293666278561, -14240.698723876325, -8103.244972615836, -6893.4791557167955, -7744.879453763897, -10666.140695350254, -12696.729623881534, -18316.13699390137, 0.012, -0.023, 0.991, 192.0, 0.0, 48.0, 127.5, 32.0, 15.0, 120.0, 0.0, 0.0, 0.0, 1.644586984036755E9, 0.0, 2022-02-12 00:43:04.036
38.0, -10423.870137199181, -10542.803769445869, -7530.950907582153, -12901.65041704779, -11392.393576192091, -8385.368691130721, -10849.603813839414, -8645.341830890398, -10929.556003756048, -14250.645250158937, -8120.053484446226, -6926.760903210748, -7766.739459841187, -10681.16106762422, -12714.65572293469, -18321.322598615003, 0.012, -0.023, 0.991, 192.0, 0.0, 0.0, 0.0, 0.0, 0.0, 0.0, 0.0, 0.0, 0.0, 1.644586984043618E9, 0.0, 2022-02-12 00:43:04.043
40.0, -10398.992645620423, -10509.253801018454, -7503.704131091134, -12904.578495571435, -11386.269198211337, -8385.592208575274, -10842.071275957976, -8616.776301476515, -10928.326657811005, -14226.43831091384, -8110.777510497273, -6926.649144488471, -7756.278843436104, -10674.164971609709, -12708.330179253839, -18316.092290412464, 0.012, -0.023, 0.991, 192.0, 0.0, 0.0, 0.0, 0.0, 0.0, 0.0, 0.0, 0.0, 0.0, 1.644586984051397E9, 0.0, 2022-02-12 00:43:04.051
42.0, -10414.549459761318, -10576.934883229123, -7521.898451077754, -12883.724317994633, -11390.91836105804, -8394.175278446111, -10854.76706680859, -8638.055162197967, -10907.49483197866, -14212.177897951353, -8097.612333013098, -6878.88346658748, -7739.604442072445, -10655.188340567152, -12695.455574447582, -18316.80754623503, 0.012, -0.023, 0.991, 192.0, 0.0, 0.0, 0.0, 0.0, 0.0, 0.0, 0.0, 0.0, 0.0, 1.644586984059762E9, 0.0, 2022-02-12 00:43:04.059
44.0, -10408.179212591554, -10557.935900442113, -7517.293991719961, -12896.531867567524, -11385.308073199758, -8386.307464397843, -10853.269499930084, -8646.459418113163, -10931.299439823562, -14234.86491857349, -8126.937821738461, -6920.457711274352, -7759.095163237473, -10690.101765406343, -12726.591554473825, -18322.998979449152, 0.012, -0.023, 0.991, 192.0, 0.0, 0.0, 0.0, 0.0, 0.0, 0.0, 0.0, 0.0, 0.0, 1.644586984073218E9, 0.0, 2022-02-12 00:43:04.073
46.0, -10419.645657497127, -10538.9369176551, -7504.754663080534, -12895.83896348941, -11385.4868871554, -8370.571836301307, -10852.017802240587, -8618.787958477493, -10904.20912554373, -14226.013627769189, -8087.732861963852, -6881.744489877759, -7742.867796762919, -10658.317584790897, -12693.242751746506, -18316.181697390282, 0.013000000000000001, -0.0225, 0.9904999999999999, 192.0, 0.0, 56.0, 127.5, 40.0, 15.0, 120.0, 0.0, 0.0, 0.0, 1.644586984081021E9, 0.0, 2022-02-12 00:43:04.081
48.0, -10432.900241959125, -10538.959269399556, -7526.6593726467345, -12899.41524260226, -11387.655006367566, -8385.368691130721, -10859.997375011131, -8636.579947063918, -10932.774654957611, -14257.998974084732, -8113.392664598545, -6917.775501939715, -7759.072811493017, -10669.426401785184, -12715.594496201813, -18318.01454043562, 0.013000000000000001, -0.0225, 0.9904999999999999, 192.0, 0.0, 0.0, 0.0, 0.0, 0.0, 0.0, 0.0, 0.0, 0.0, 1.644586984088759E9, 0.0, 2022-02-12 00:43:04.088
50.0, -10401.049006110312, -10517.836870889292, -7496.506869376525, -12898.208248401672, -11371.852323037663, -8370.080097923292, -10840.976040479665, -8614.22820260861, -10920.369436784917, -14228.829947570557, -8096.673559745975, -6904.811490155636, -7752.747267812165, -10654.696602189137, -12707.100833308798, -18311.934865943775, 0.013000000000000001, -0.0225, 0.9904999999999999, 192.0, 0.0, 0.0, 0.0, 0.0, 0.0, 0.0, 0.0, 0.0, 0.0, 1.644586984095935E9, 0.0, 2022-02-12 00:43:04.095
52.0, -10410.190869592532, -10550.917452683147, -7514.5670788964135, -12877.97991966962, -11372.388764904592, -8369.588359545274, -10839.366714878883, -8620.844318967382, -10908.768881412612, -14214.18955495233, -8086.369405552078, -6890.774594637704, -7738.553910083046, -10654.741305678048, -12690.784059856423, -18312.784232233076, 0.013000000000000001, -0.0225, 0.9904999999999999, 192.0, 0.0, 0.0, 0.0, 0.0, 0.0, 0.0, 0.0, 0.0, 0.0, 1.644586984103447E9, 0.0, 2022-02-12 00:43:04.103
54.0, -10415.868212684181, -10552.727943984026, -7515.05881727443, -12893.335568110415, -11373.215779449438, -8363.374574586698, -10839.970211979176, -8620.397284078275, -10932.953468913254, -14228.606430126005, -8122.646286803042, -6904.207993055344, -7762.984366772696, -10664.553721493927, -12720.757749170989, -18312.00192117714, 0.013000000000000001, -0.0225, 0.9904999999999999, 192.0, 0.0, 0.0, 0.0, 0.0, 0.0, 0.0, 0.0, 0.0, 0.0, 1.644586984111634E9, 0.0, 2022-02-12 00:43:04.111
56.0, -10387.973235603957, -10509.052635318356, -7500.8878112897655, -12888.798163985988, -11367.784305546798, -8347.057801134324, -10840.841930012934, -8604.46049028164, -10900.856363875433, -14206.634665326437, -8080.625007227065, -6872.222646739799, -7730.14965416785, -10633.417741467685, -12689.13003076673, -18301.94363617225, 0.013500000000000002, -0.02325, 0.98825, 192.0, 0.0, 56.0, 127.5, 32.0, 15.0, 104.0, 0.0, 0.0, 0.0, 1.644586984119501E9, 0.0, 2022-02-12 00:43:04.119
58.0, -10413.320113816275, -10532.700780952071, -7520.53499466598, -12887.07707966293, -11370.824142792719, -8364.760382742928, -10847.838026027444, -8628.37685684882, -10912.479270992193, -14227.019456269678, -8097.813498713196, -6911.22644081431, -7742.890148507375, -10665.179570338676, -12710.878278121743, -18313.164211888816, 0.013500000000000002, -0.02325, 0.98825, 192.0, 0.0, 0.0, 0.0, 0.0, 0.0, 0.0, 0.0, 0.0, 0.0, 1.644586984125843E9, 0.0, 2022-02-12 00:43:04.125
60.0, -10415.979971406457, -10521.726074424514, -7495.38928215376, -12899.303483879983, -11363.470418866924, -8353.65156574864, -10847.838026027444, -8604.907525170747, -10919.520070495615, -14223.689046345837, -8094.103109133614, -6911.069978603123, -7747.405200887347, -10655.188340567152, -12704.03864431842, -18312.24779036615, 0.013500000000000002, -0.02325, 0.98825, 192.0, 0.0, 0.0, 0.0, 0.0, 0.0, 0.0, 0.0, 0.0, 0.0, 1.644586984133012E9, 0.0, 2022-02-12 00:43:04.133
62.0, -10416.985799906946, -10536.254708320464, -7519.462110932125, -12884.171352883739, -11368.521913113824, -8347.974222656992, -10853.135389463352, -8624.621763780327, -10915.362646026928, -14214.770700308169, -8081.563780494187, -6867.752297848738, -7733.167139669316, -10637.10577930281, -12695.723795381045, -18315.064110167517, 0.013500000000000002, -0.02325, 0.98825, 192.0, 0.0, 0.0, 0.0, 0.0, 0.0, 0.0, 0.0, 0.0, 0.0, 1.644586984141303E9, 0.0, 2022-02-12 00:43:04.141
64.0, -10387.190924548022, -10512.494803964473, -7508.196831726651, -12893.715547766156, -11356.653136808054, -8345.671992978096, -10840.819578268478, -8614.094092141879, -10933.624021246913, -14224.091377746032, -8118.980600712372, -6912.969876881823, -7751.249700933659, -10643.453674728116, -12718.164946814173, -18316.38286309038, 0.013500000000000002, -0.02325, 0.98825, 192.0, 0.0, 0.0, 0.0, 0.0, 0.0, 0.0, 0.0, 0.0, 0.0, 1.644586984149421E9, 0.0, 2022-02-12 00:43:04.149
66.0, -10407.195735835521, -10503.88938234918, -7492.014168741009, -12885.73597499561, -11362.15166594406, -8343.07919062128, -10835.030476454554, -8593.418728520719, -10893.68145390528, -14188.686214528825, -8081.4743735163665, -6872.759088606726, -7724.964049454218, -10622.398331451217, -12682.26804521895, -18308.15742113083, 0.014750000000000001, -0.023625, 0.9881249999999999, 192.0, 0.0, 64.0, 127.5, 32.0, 15.0, 112.0, 0.0, 0.0, 0.0, 1.644586984155856E9, 0.0, 2022-02-12 00:43:04.155
68.0, -10441.840939741247, -10541.574423500828, -7518.523337665002, -12882.427916816225, -11361.056430465751, -8358.636004762175, -10834.404627609805, -8624.308839357953, -10926.382056043394, -14229.120520248476, -8090.1692021094805, -6890.573428937606, -7749.81918928852, -10659.368116780295, -12706.832612375334, -18318.729796258187, 0.014750000000000001, -0.023625, 0.9881249999999999, 192.0, 0.0, 0.0, 0.0, 0.0, 0.0, 0.0, 0.0, 0.0, 0.0, 1.644586984164255E9, 0.0, 2022-02-12 00:43:04.164
70.0, -10403.351235789209, -10495.440422945074, -7490.29308441795, -12895.391928600304, -11352.160436172539, -8324.460187490009, -10829.911926974288, -8593.575190731906, -10915.58616347148, -14210.769738050669, -8086.324702063168, -6896.876620874003, -7727.176872155294, -10646.20293929612, -12697.243714004007, -18312.024272921597, 0.014750000000000001, -0.023625, 0.9881249999999999, 192.0, 0.0, 0.0, 0.0, 0.0, 0.0, 0.0, 0.0, 0.0, 0.0, 1.644586984171846E9, 0.0, 2022-02-12 00:43:04.171
72.0, -10422.752549976416, -10531.94082164059, -7508.509756149025, -12882.673786005234, -11363.49277061138, -8334.138492839158, -10841.132502690853, -8614.407016564253, -10910.668779691314, -14192.530714575138, -8072.5560274786985, -6881.722138133305, -7725.187566898771, -10630.53436643295, -12688.41477494416, -18310.303188598537, 0.014750000000000001, -0.023625, 0.9881249999999999, 192.0, 0.0, 0.0, 0.0, 0.0, 0.0, 0.0, 0.0, 0.0, 0.0, 1.64458698417921E9, 0.0, 2022-02-12 00:43:04.179
74.0, -10389.113174571177, -10528.073969849822, -7506.252229959039, -12886.607693029368, -11358.709497297943, -8332.015077115902, -10833.756427020602, -8612.261249096544, -10938.720218982724, -14237.077741274565, -8114.867879732595, -6890.931056848891, -7764.169009228827, -10642.179625294164, -12720.08719683733, -18313.946522944752, 0.014750000000000001, -0.023625, 0.9881249999999999, 192.0, 0.0, 0.0, 0.0, 0.0, 0.0, 0.0, 0.0, 0.0, 0.0, 1.644586984186311E9, 0.0, 2022-02-12 00:43:04.186
76.0, -10399.529087487352, -10496.647417145661, -7495.635151342768, -12883.12082089434, -11345.030229691296, -8316.50296646392, -10824.011066438088, -8582.868705137815, -10896.631884173381, -14191.457830841284, -8082.971940394872, -6862.209065223821, -7729.47910183419, -10618.933811060646, -12685.46434467606, -18299.66375823781, 0.013375000000000001, -0.0248125, 0.9880625, 192.0, 0.0, 48.0, 127.5, 24.0, 15.0, 112.0, 0.0, 0.0, 0.0, 1.64458698420885E9, 0.0, 2022-02-12 00:43:04.208
78.0, -10422.953715676513, -10522.84366164728, -7508.442700915659, -12877.73405048061, -11351.735753027888, -8333.31147829431, -10835.835139254945, -8617.424502065718, -10916.7261024387, -14185.288749371619, -8099.288713847246, -6897.79304239667, -7745.482950864191, -10641.866700871791, -12705.80443213039, -18306.190467618762, 0.013375000000000001, -0.0248125, 0.9880625, 192.0, 0.0, 0.0, 0.0, 0.0, 0.0, 0.0, 0.0, 0.0, 0.0, 1.644586984222416E9, 0.0, 2022-02-12 00:43:04.222
80.0, -10404.401767778609, -10483.012853027923, -7474.088069687852, -12887.5911697854, -11337.028305176294, -8317.93347810906, -10825.888612972334, -8585.774431917003, -10916.63669546088, -14205.025339725655, -8072.488972245333, -6879.866943343514, -7733.502415836146, -10638.849215370325, -12698.94244658261, -18305.072880395994, 0.013375000000000001, -0.0248125, 0.9880625, 192.0, 0.0, 0.0, 0.0, 0.0, 0.0, 0.0, 0.0, 0.0, 0.0, 1.644586984228819E9, 0.0, 2022-02-12 00:43:04.228
82.0, -10400.244343309922, -10509.544373696372, -7488.48259311707, -12876.683518491212, -11336.871842965109, -8312.524355950876, -10817.149080890309, -8597.419690778219, -10893.212067271717, -14185.042880182611, -8048.282033000235, -6854.140085475456, -7711.083616147473, -10608.786119077937, -12677.060088760863, -18302.033043150073, 0.013375000000000001, -0.0248125, 0.9880625, 192.0, 0.0, 0.0, 0.0, 0.0, 0.0, 0.0, 0.0, 0.0, 0.0, 1.644586984234759E9, 0.0, 2022-02-12 00:43:04.234
84.0, -10392.331825772742, -10509.0302835739, -7487.834392527866, -12889.535771553014, -11337.251822620849, -8310.758568138906, -10821.462967570182, -8595.139812843778, -10923.16340484183, -14226.572421380572, -8096.539449279243, -6899.491774975273, -7736.028162959596, -10637.82103512538, -12705.737376897023, -18305.542267029556, 0.013375000000000001, -0.0248125, 0.9880625, 192.0, 0.0, 0.0, 0.0, 0.0, 0.0, 0.0, 0.0, 0.0, 0.0, 1.644586984240823E9, 0.0, 2022-02-12 00:43:04.240
86.0, -10416.739930717937, -10509.74553939647, -7475.138601677251, -12891.010986687064, -11334.43550281948, -8306.891716348138, -10815.584458778438, -8582.332263270888, -10898.643541174359, -14200.689101301325, -8075.908789146994, -6869.831010083081, -7713.676418504288, -10608.875526055757, -12674.668452104146, -18298.635577992867, 0.0106875, -0.02340625, 0.98703125, 192.0, 0.0, 32.0, 127.5, 40.0, 15.0, 104.0, 0.0, 0.0, 0.0, 1.644586984247051E9, 0.0, 2022-02-12 00:43:04.247
88.0, -10448.077076444279, -10539.786283944402, -7495.322226920393, -12876.415297557747, -11336.000124931352, -8322.001495599925, -10831.14127291933, -8605.645132737773, -10921.174099585307, -14217.117633475977, -8082.83782992814, -6900.117623820022, -7743.717163052222, -10643.699543917126, -12700.171792527652, -18306.23517110767, 0.0106875, -0.02340625, 0.98703125, 192.0, 0.0, 0.0, 0.0, 0.0, 0.0, 0.0, 0.0, 0.0, 0.0, 1.644586984252964E9, 0.0, 2022-02-12 00:43:04.252
90.0, -10416.11408187319, -10508.963228340535, -7471.629377797768, -12897.202419901183, -11328.28877309427, -8309.439815216043, -10812.634028510336, -8581.013510348024, -10912.658084947836, -14212.379063651451, -8074.612387968587, -6880.068109043612, -7730.350819867947, -10637.999849081023, -12693.46626919106, -18303.262389095114, 0.0106875, -0.02340625, 0.98703125, 192.0, 0.0, 0.0, 0.0, 0.0, 0.0, 0.0, 0.0, 0.0, 0.0, 1.644586984259272E9, 0.0, 2022-02-12 00:43:04.259
92.0, -10411.353160304208, -10510.818423130326, -7492.818831541399, -12881.422088315736, -11337.900023210052, -8300.230896500456, -10829.196671151718, -8604.616952492828, -10901.772785398101, -14197.537505333126, -8069.784411166241, -6870.88154207248, -7720.001962185141, -10618.9561628051, -12679.049394017387, -18300.826048949486, 0.0106875, -0.02340625, 0.98703125, 192.0, 0.0, 0.0, 0.0, 0.0, 0.0, 0.0, 0.0, 0.0, 0.0, 1.644586984265282E9, 0.0, 2022-02-12 00:43:04.265
94.0, -10409.319151558775, -10526.352885526763, -7492.014168741009, -12889.960454697664, -11336.737732498375, -8293.860649330694, -10820.099511158409, -8599.632513479295, -10925.085654864986, -14207.10405196, -8102.283847604257, -6909.304190791153, -7752.00966024514, -10638.312773503396, -12714.901592123699, -18304.983473418175, 0.0106875, -0.02340625, 0.98703125, 192.0, 0.0, 0.0, 0.0, 0.0, 0.0, 0.0, 0.0, 0.0, 0.0, 1.644586984271331E9, 0.0, 2022-02-12 00:43:04.271
96.0, -10401.116061343679, -10490.098356020255, -7478.334901134361, -12887.233541874117, -11330.970982428908, -8288.160954494591, -10822.8040722375, -8589.46246975213, -10905.81845114451, -14203.52777284715, -8077.540466492233, -6852.419001152397, -7722.706523264233, -10598.52666837295, -12679.898760306689, -18294.969891902198, 0.01034375, -0.022703124999999998, 0.988515625, 192.0, 0.0, 40.0, 127.5, 40.0, 15.0, 120.0, 0.0, 0.0, 0.0, 1.644586984279389E9, 0.0, 2022-02-12 00:43:04.279
98.0, -10451.586300323761, -10513.187708042587, -7500.172555467196, -12886.115954651352, -11331.52977604029, -8299.962675566992, -10820.814766980979, -8597.665559967227, -10927.410236288339, -14208.914543260878, -8101.657998759509, -6891.825126627104, -7734.374133869903, -10629.327372232363, -12701.423490217148, -18302.703595483734, 0.01034375, -0.022703124999999998, 0.988515625, 192.0, 0.0, 0.0, 0.0, 0.0, 0.0, 0.0, 0.0, 0.0, 0.0, 1.644586984285625E9, 0.0, 2022-02-12 00:43:04.285
100.0, -10408.425081780564, -10508.963228340535, -7473.328110376372, -12899.012911202064, -11316.308238066225, -8282.282445702846, -10798.977112648143, -8566.060193307423, -10920.30238155155, -14199.079775700544, -8084.067175873181, -6892.294513260665, -7735.1564449258385, -10626.064017541888, -12690.001748800487, -18295.059298880016, 0.01034375, -0.022703124999999998, 0.988515625, 192.0, 0.0, 0.0, 0.0, 0.0, 0.0, 0.0, 0.0, 0.0, 0.0, 1.644586984291811E9, 0.0, 2022-02-12 00:43:04.291
102.0, -10427.155843634111, -10521.122577324222, -7490.069566973397, -12881.690309249201, -11318.833985189674, -8284.562323637287, -10813.192822121719, -8598.023187878513, -10896.989512084665, -14197.71631928877, -8075.014719368783, -6866.969986792802, -7715.263392360615, -10601.678264341148, -12676.858923060767, -18296.62392099189, 0.01034375, -0.022703124999999998, 0.988515625, 192.0, 0.0, 0.0, 0.0, 0.0, 0.0, 0.0, 0.0, 0.0, 0.0, 1.644586984299521E9, 0.0, 2022-02-12 00:43:04.299
104.0, -10415.175308606065, -10501.877725348202, -7490.941285007154, -12891.212152387161, -11319.057502634229, -8280.82958231325, -10811.024702909554, -8588.546048229462, -10922.805776930545, -14214.435424141338, -8101.210963870402, -6897.368359252019, -7742.510168851634, -10617.48094767105, -12710.677112421647, -18301.295435583048, 0.01034375, -0.022703124999999998, 0.988515625, 192.0, 0.0, 0.0, 0.0, 0.0, 0.0, 0.0, 0.0, 0.0, 0.0, 1.644586984307243E9, 0.0, 2022-02-12 00:43:04.307
106.0, -10397.875058397658, -10488.444326930563, -7471.785840008955, -12886.540637796003, -11313.33545605367, -8267.664404829075, -10803.492165028116, -8570.50819045403, -10890.194581770253, -14177.890321956913, -8064.30823377469, -6862.656100112928, -7705.741549222655, -10595.844459038313, -12679.429373673127, -18288.890217410353, 0.01, -0.02, 0.99, 192.0, 0.0, 40.0, 127.5, 48.0, 15.0, 120.0, 0.0, 0.0, 0.0, 1.644586984314108E9, 0.0, 2022-02-12 00:43:04.314
108.0, -10414.035369638845, -10513.299466764864, -7491.634189085268, -12878.426954558725, -11316.397645044046, -8281.768355580372, -10824.882784471845, -8595.631551221795, -10910.087634335476, -14199.035072211633, -8086.928199163462, -6868.31109146012, -7732.049552446551, -10621.012523294989, -12701.46819370606, -18297.80856344802, 0.01, -0.02, 0.99, 192.0, 0.0, 0.0, 0.0, 0.0, 0.0, 0.0, 0.0, 0.0, 0.0, 1.644586984329113E9, 0.0, 2022-02-12 00:43:04.329
110.0, -10410.727311459459, -10479.369518681708, -7463.985081194053, -12898.543524568502, -11299.097394835639, -8266.815038539773, -10788.13651658732, -8558.974690315092, -10906.913686622822, -14199.012720467177, -8074.210056568391, -6871.239169983765, -7713.117624892906, -10607.892049299724, -12690.694652878601, -18290.90187441133, 0.01, -0.02, 0.99, 192.0, 0.0, 0.0, 0.0, 0.0, 0.0, 0.0, 0.0, 0.0, 0.0, 1.6445869843369E9, 0.0, 2022-02-12 00:43:04.336
112.0, -10414.549459761318, -10492.825268843802, -7479.854819757322, -12884.350166839382, -11304.819441416197, -8276.359233422188, -10796.317255057962, -8583.136926071278, -10897.928285351789, -14178.963205690767, -8055.702812159398, -6870.903893816936, -7702.299380576537, -10585.137973444222, -12670.13104797972, -18288.33142379897, 0.01, -0.02, 0.99, 192.0, 0.0, 0.0, 0.0, 0.0, 0.0, 0.0, 0.0, 0.0, 0.0, 1.644586984344911E9, 0.0, 2022-02-12 00:43:04.344
114.0, -10415.555288261807, -10496.021568300912, -7482.738194792056, -12889.468716319647, -11308.730996695876, -8273.967596765471, -10800.049996381998, -8584.858010394337, -10921.330561796494, -14201.136136190431, -8094.907771934006, -6900.5199552202175, -7738.822131016509, -10627.740398376036, -12702.8987053512, -18294.85813317992, 0.01, -0.02, 0.99, 192.0, 0.0, 0.0, 0.0, 0.0, 0.0, 0.0, 0.0, 0.0, 0.0, 1.644586984352918E9, 0.0, 2022-02-12 00:43:04.352
116.0, -10412.940134160535, -10500.26839974742, -7468.187209151651, -12892.083870420918, -11312.307275808726, -8260.958881492483, -10807.694292985714, -8571.692832910161, -10903.002131343143, -14177.420935323351, -8059.077925572148, -6862.49963790174, -7701.852345687431, -10584.646235066204, -12674.199065470584, -18285.448048764236, 0.014, -0.02, 0.986, 192.0, 0.0, 56.0, 127.5, 48.0, 15.0, 104.0, 0.0, 0.0, 0.0, 1.644586984361259E9, 0.0, 2022-02-12 00:43:04.361
118.0, -10423.624268010171, -10526.129368082211, -7488.460241372614, -12883.232579616617, -11309.267438562803, -8276.15806772209, -10805.034435395532, -8604.773414704016, -10912.278105292095, -14195.414089609872, -8083.128402606059, -6869.74160310526, -7732.831863502487, -10608.920229544668, -12690.98522555652, -18292.466496523204, 0.014, -0.02, 0.986, 192.0, 0.0, 0.0, 0.0, 0.0, 0.0, 0.0, 0.0, 0.0, 0.0, 1.644586984367213E9, 0.0, 2022-02-12 00:43:04.367
120.0, -10394.946979874014, -10483.45988791703, -7462.7333835045565, -12894.40845184427, -11300.505554736323, -8254.163951178069, -10792.51745850056, -8566.417821218709, -10911.696959936256, -14212.66963632937, -8081.049690371716, -6871.105059517034, -7723.555889553534, -10600.493621885016, -12686.783097598924, -18288.219665076693, 0.014, -0.02, 0.986, 192.0, 0.0, 0.0, 0.0, 0.0, 0.0, 0.0, 0.0, 0.0, 0.0, 1.644586984374391E9, 0.0, 2022-02-12 00:43:04.374
122.0, -10390.63309319414, -10476.106163991233, -7481.553552335925, -12882.472620305136, -11306.115842594605, -8254.342765133712, -10803.268647583564, -8586.042652850469, -10902.979779598687, -14182.80770573708, -8058.943815105416, -6861.4267541678855, -7710.413063813814, -10577.583083818326, -12672.835609058811, -18286.967967387198, 0.014, -0.02, 0.986, 192.0, 0.0, 0.0, 0.0, 0.0, 0.0, 0.0, 0.0, 0.0, 0.0, 1.644586984381116E9, 0.0, 2022-02-12 00:43:04.381
124.0, -10418.215145851987, -10491.1265362652, -7481.553552335925, -12886.227713373628, -11302.718377437399, -8257.650823313097, -10801.458156282682, -8583.069870837911, -10928.684285722291, -14194.85529599849, -8096.65120800152, -6896.541344707173, -7732.854215246942, -10598.370206161762, -12704.977417585544, -18290.65600522232, 0.014, -0.02, 0.986, 192.0, 0.0, 0.0, 0.0, 0.0, 0.0, 0.0, 0.0, 0.0, 0.0, 1.644586984389429E9, 0.0, 2022-02-12 00:43:04.389
126.0, -10429.726294246471, -10503.732920137993, -7466.354366106316, -12885.512457551058, -11299.90205763603, -8251.526445332342, -10801.055824882487, -8574.330338755886, -10907.383073256384, -14182.718298759259, -8066.878684387051, -6852.0390214966565, -7709.027255657585, -10582.567522831861, -12672.813257314356, -18288.487886010156, 0.012, -0.02, 0.984, 192.0, 0.0, 48.0, 127.5, 48.0, 15.0, 96.0, 0.0, 0.0, 0.0, 1.644586984396226E9, 0.0, 2022-02-12 00:43:04.396
128.0, -10437.459997828008, -10518.261554033943, -7491.05304372943, -12883.903131950276, -11310.832060674675, -8257.58376807973, -10806.911981929778, -8593.888115154281, -10928.7289892112, -14204.33243564754, -8081.78729793874, -6879.129335776489, -7741.213767673227, -10590.412985135674, -12693.980359313531, -18294.85813317992, 0.012, -0.02, 0.984, 192.0, 0.0, 0.0, 0.0, 0.0, 0.0, 0.0, 0.0, 0.0, 0.0, 1.64458698440378E9, 0.0, 2022-02-12 00:43:04.403
130.0, -10419.19862260802, -10483.862219317225, -7467.04727018443, -12903.259742648572, -11305.467642005402, -8248.844235997705, -10807.560182518982, -8573.257455022032, -10923.275163564107, -14195.011758209677, -8092.516135277288, -6879.084632287578, -7739.313869394526, -10598.19139220612, -12693.645083146703, -18295.126354113385, 0.012, -0.02, 0.984, 192.0, 0.0, 0.0, 0.0, 0.0, 0.0, 0.0, 0.0, 0.0, 0.0, 1.644586984411839E9, 0.0, 2022-02-12 00:43:04.411
132.0, -10422.931363932057, -10480.487105904473, -7482.134697691763, -12890.02750993103, -11302.696025692943, -8249.738305775918, -10810.957647676189, -8586.735556928583, -10910.266448291117, -14172.9952899212, -8071.840771656129, -6859.482152400274, -7716.38097958338, -10585.115621699766, -12679.69759460659, -18293.829952934975, 0.012, -0.02, 0.984, 192.0, 0.0, 0.0, 0.0, 0.0, 0.0, 0.0, 0.0, 0.0, 0.0, 1.644586984418788E9, 0.0, 2022-02-12 00:43:04.418
134.0, -10422.238459853943, -10507.577420184305, -7486.67210181619, -12905.159640927273, -11302.248990803837, -8257.851989013194, -10806.66611274077, -8593.865763409825, -10932.439378790783, -14208.378101393952, -8095.868896945584, -6903.872716888513, -7741.996078729163, -10606.617999865772, -12704.709196652078, -18295.975720402686, 0.012, -0.02, 0.984, 192.0, 0.0, 0.0, 0.0, 0.0, 0.0, 0.0, 0.0, 0.0, 0.0, 1.644586984426889E9, 0.0, 2022-02-12 00:43:04.426
136.0, -10417.924573174068, -10496.155678767644, -7475.876209244277, -12902.544486826002, -11294.180011055472, -8252.264052899367, -10804.27447608405, -8578.957149858135, -10908.858288390433, -14198.073947200055, -8077.8980944035175, -6860.0185942672015, -7707.28381959007, -10577.225455907042, -12674.042603259399, -18295.551037258036, 0.01, -0.024, 0.988, 192.0, 0.0, 40.0, 127.5, 32.0, 15.0, 112.0, 0.0, 0.0, 0.0, 1.644586984435844E9, 0.0, 2022-02-12 00:43:04.435
138.0, -10450.938099734558, -10536.835853676303, -7499.524354877992, -12893.603789043878, -11304.90884839402, -8264.088125716225, -10820.993580936622, -8606.025112393512, -10925.532689754093, -14206.969941493267, -8086.369405552078, -6892.272161516209, -7733.770636769609, -10597.744357317015, -12695.366167469761, -18301.608360005423, 0.01, -0.024, 0.988, 192.0, 0.0, 0.0, 0.0, 0.0, 0.0, 0.0, 0.0, 0.0, 0.0, 1.644586984441877E9, 0.0, 2022-02-12 00:43:04.441
140.0, -10400.356102032198, -10485.046861773357, -7476.7032237891235, -12912.17808868624, -11290.961359853907, -8256.44382911251, -10794.819688179456, -8566.373117729798, -10926.963201399232, -14204.891229258923, -8099.042844658237, -6895.557867951139, -7735.335258881481, -10615.223421481065, -12692.996882557498, -18298.970854159696, 0.01, -0.024, 0.988, 192.0, 0.0, 0.0, 0.0, 0.0, 0.0, 0.0, 0.0, 0.0, 0.0, 1.644586984456155E9, 0.0, 2022-02-12 00:43:04.456
142.0, -10420.785596464348, -10481.247065215954, -7491.477726874081, -12894.274341377539, -11292.414223243502, -8233.354477090177, -10806.04026389602, -8581.50524872604, -10909.841765146466, -14191.815458752568, -8086.168239851981, -6859.526855889185, -7707.395578312347, -10576.644310551204, -12672.008594513965, -18293.494676768147, 0.01, -0.024, 0.988, 192.0, 0.0, 0.0, 0.0, 0.0, 0.0, 0.0, 0.0, 0.0, 0.0, 1.644586984464302E9, 0.0, 2022-02-12 00:43:04.464
144.0, -10439.35989610671, -10484.018681528412, -7489.667235573201, -12905.897248494299, -11289.486144719856, -8230.404046822077, -10807.89545868581, -8589.663635452227, -10936.216823603729, -14186.652205783392, -8100.942742936939, -6902.084577332089, -7743.448942118757, -10589.943598502112, -12699.389481471717, -18296.020423891598, 0.01, -0.024, 0.988, 192.0, 0.0, 0.0, 0.0, 0.0, 0.0, 0.0, 0.0, 0.0, 0.0, 1.644586984472026E9, 0.0, 2022-02-12 00:43:04.472
146.0, -10420.405616808608, -10491.014777542923, -7474.199828410128, -12896.710681523167, -11290.04493833124, -8228.72766598793, -10803.022778394554, -8568.496533453052, -10910.311151780028, -14176.437458567318, -8057.803876138196, -6855.97292852079, -7714.235212115671, -10561.623938277238, -12669.169922968142, -18285.425697019782, 0.006, -0.024, 0.988, 192.0, 0.0, 24.0, 127.5, 32.0, 15.0, 112.0, 0.0, 0.0, 0.0, 1.644586984479349E9, 0.0, 2022-02-12 00:43:04.479
148.0, -10441.840939741247, -10527.470472749528, -7506.967485781609, -12886.719451751644, -11298.918580879998, -8244.642108040109, -10822.424092581761, -8598.93960940118, -10927.92432641081, -14210.38975839493, -8079.753289193308, -6878.235265998276, -7733.457712347235, -10582.61222632077, -12691.789888356912, -18295.506333769124, 0.006, -0.024, 0.988, 192.0, 0.0, 0.0, 0.0, 0.0, 0.0, 0.0, 0.0, 0.0, 0.0, 1.644586984494431E9, 0.0, 2022-02-12 00:43:04.494
150.0, -10408.961523647491, -10475.92735003559, -7486.33682564936, -12903.393853115304, -11287.586246441157, -8226.358381075666, -10799.37944404834, -8564.853199106838, -10932.104102623953, -14202.47724085775, -8092.0467486437265, -6887.064205058123, -7732.071904191006, -10586.769650789458, -12686.850152832289, -18290.834819177966, 0.006, -0.024, 0.988, 192.0, 0.0, 0.0, 0.0, 0.0, 0.0, 0.0, 0.0, 0.0, 0.0, 1.644586984509452E9, 0.0, 2022-02-12 00:43:04.509
152.0, -10406.078148612756, -10463.87975977418, -7492.796479796944, -12886.317120351448, -11280.187819026449, -8226.090160142203, -10795.356130046384, -8576.31964401241, -10908.38890175687, -14175.118705644454, -8072.220751311869, -6873.2284752402875, -7711.709464992222, -10565.982528446022, -12662.12912346472, -18283.592853974445, 0.006, -0.024, 0.988, 192.0, 0.0, 0.0, 0.0, 0.0, 0.0, 0.0, 0.0, 0.0, 0.0, 1.644586984515532E9, 0.0, 2022-02-12 00:43:04.515
154.0, -10433.995477437435, -10501.721263137015, -7495.501040876036, -12894.117879166351, -11286.848638874131, -8231.253413111379, -10801.99459814961, -8578.957149858135, -10928.63958223338, -14201.560819335082, -8103.110862149104, -6891.959237093835, -7741.571395584512, -10595.442127638118, -12695.567333169858, -18289.87369416639, 0.006, -0.024, 0.988, 192.0, 0.0, 0.0, 0.0, 0.0, 0.0, 0.0, 0.0, 0.0, 0.0, 1.64458698452163E9, 0.0, 2022-02-12 00:43:04.521
156.0, -10436.007134438412, -10486.656187374138, -7485.24159017105, -12904.623199060345, -11276.835057358154, -8225.576070019732, -10807.537830774527, -8560.494608938052, -10913.887430892877, -14178.449115568295, -8059.413201738978, -6847.814541794603, -7689.111851347906, -10564.462609823062, -12671.785077069411, -18284.419868519293, 0.01, -0.026000000000000002, 0.988, 192.0, 0.0, 40.0, 127.5, 24.0, 15.0, 112.0, 0.0, 0.0, 0.0, 1.644586984527882E9, 0.0, 2022-02-12 00:43:04.527
158.0, -10432.58731753675, -10515.355827254753, -7507.772148582, -12897.805917001477, -11289.106165064117, -8246.005564451882, -10823.631086782347, -8595.452737266152, -10926.851442676956, -14180.796048736102, -8076.065251358182, -6887.175963780399, -7732.407180357836, -10569.335290114319, -12692.102812779285, -18293.695842468245, 0.01, -0.026000000000000002, 0.988, 192.0, 0.0, 0.0, 0.0, 0.0, 0.0, 0.0, 0.0, 0.0, 0.0, 1.644586984534044E9, 0.0, 2022-02-12 00:43:04.534
160.0, -10398.903238642602, -10460.12466670569, -7482.715843047601, -12907.864202006365, -11277.192685269438, -8231.812206722761, -10803.425109794749, -8573.995062589058, -10930.181852600796, -14202.47724085775, -8085.542391007232, -6872.31205371762, -7733.569471069512, -10580.242941408509, -12693.399213957693, -18292.600606989934, 0.01, -0.026000000000000002, 0.988, 192.0, 0.0, 0.0, 0.0, 0.0, 0.0, 0.0, 0.0, 0.0, 0.0, 1.644586984540248E9, 0.0, 2022-02-12 00:43:04.540
162.0, -10433.771959992882, -10491.260646731931, -7501.156032223229, -12894.721376266645, -11279.383156226058, -8224.81611070825, -10812.43286281024, -8579.001853347047, -10914.133300081885, -14183.813534237568, -8068.979748365849, -6867.864056571014, -7715.24104061616, -10567.167170902154, -12668.007632256466, -18290.924226155785, 0.01, -0.026000000000000002, 0.988, 192.0, 0.0, 0.0, 0.0, 0.0, 0.0, 0.0, 0.0, 0.0, 0.0, 1.644586984546433E9, 0.0, 2022-02-12 00:43:04.546
164.0, -10451.54159683485, -10496.781527612393, -7505.380511925282, -12902.566838570458, -11281.819496371687, -8221.463349039954, -10813.863374455379, -8579.35948125833, -10939.97191667222, -14207.484031615739, -8096.830021957162, -6891.802774882648, -7743.203072929749, -10583.66275831017, -12702.18344952863, -18292.53355175657, 0.01, -0.026000000000000002, 0.988, 192.0, 0.0, 0.0, 0.0, 0.0, 0.0, 0.0, 0.0, 0.0, 0.0, 1.644586984552337E9, 0.0, 2022-02-12 00:43:04.552
166.0, -10421.545555775829, -10476.955530280535, -7493.981122253075, -12904.869068249354, -11279.13728703705, -8213.081444869214, -10813.416339566273, -8558.281786236976, -10913.082768092487, -14183.18768539282, -8064.174123307958, -6846.205216193822, -7715.822185971998, -10547.698801481582, -12672.768553825445, -18283.70461269672, 0.01, -0.03, 0.984, 192.0, 0.0, 40.0, 127.5, 8.0, 15.0, 96.0, 0.0, 0.0, 0.0, 1.644586984558885E9, 0.0, 2022-02-12 00:43:04.558
168.0, -10429.882756457659, -10494.389890955674, -7516.377570197293, -12900.510478080569, -11278.7126038924, -8226.224270608935, -10815.517403545071, -8587.070833095411, -10922.44814901926, -14200.24206641222, -8085.810611940696, -6881.923303833402, -7732.049552446551, -10571.436354093117, -12694.762670369468, -18291.795944189544, 0.01, -0.03, 0.984, 192.0, 0.0, 0.0, 0.0, 0.0, 0.0, 0.0, 0.0, 0.0, 0.0, 1.644586984564497E9, 0.0, 2022-02-12 00:43:04.564
170.0, -10388.86730538217, -10462.918634762602, -7488.080261716875, -12917.095472466406, -11269.146057265527, -8206.57708723272, -10802.799260950002, -8556.493646680552, -10932.68524797979, -14188.216827895265, -8082.435498527944, -6885.700748646349, -7726.975706455196, -10573.559769816371, -12690.918170323155, -18284.4645720082, 0.01, -0.03, 0.984, 192.0, 0.0, 0.0, 0.0, 0.0, 0.0, 0.0, 0.0, 0.0, 0.0, 1.644586984571599E9, 0.0, 2022-02-12 00:43:04.571
172.0, -10419.042160396833, -10496.870934590213, -7503.122985735296, -12894.69902452219, -11261.390001939537, -8205.839479665694, -10795.222019579653, -8554.549044912941, -10915.317942538017, -14177.778563234635, -8065.247007041813, -6860.443277411852, -7696.934961907264, -10538.780455443914, -12664.677222332624, -18278.653118449824, 0.01, -0.03, 0.984, 192.0, 0.0, 0.0, 0.0, 0.0, 0.0, 0.0, 0.0, 0.0, 0.0, 1.644586984579442E9, 0.0, 2022-02-12 00:43:04.579
174.0, -10431.000343680424, -10497.362672968231, -7499.256133944528, -12894.542562311002, -11257.120818748572, -8210.354532045667, -10793.52328700105, -8555.465466435608, -10940.843634705978, -14204.555953092093, -8099.445176058433, -6884.896085845958, -7736.206976915238, -10570.721098270547, -12691.745184868001, -18281.04475510654, 0.01, -0.03, 0.984, 192.0, 0.0, 0.0, 0.0, 0.0, 0.0, 0.0, 0.0, 0.0, 0.0, 1.644586984586627E9, 0.0, 2022-02-12 00:43:04.586
176.0, -10425.904145944614, -10463.231559184977, -7481.374738380282, -12902.879762992832, -11257.746667593321, -8200.43035750751, -10795.289074813018, -8540.02041101699, -10911.115814580418, -14174.023470166145, -8059.0555738276935, -6858.83395181107, -7698.767804952598, -10547.27411833693, -12661.436219386605, -18274.719211425687, 0.012, -0.03, 0.986, 192.0, 0.0, 48.0, 127.5, 8.0, 15.0, 104.0, 0.0, 0.0, 0.0, 1.644586984595563E9, 0.0, 2022-02-12 00:43:04.595
178.0, -10429.167500635089, -10468.461867387517, -7496.529221120981, -12898.856448990877, -11266.888531075541, -8214.266087325346, -10812.701083743703, -8568.69769915315, -10926.382056043394, -14203.885400758434, -8070.857294900095, -6875.463649685818, -7717.945601695252, -10560.260481865464, -12685.486696420516, -18290.633653477867, 0.012, -0.03, 0.986, 192.0, 0.0, 0.0, 0.0, 0.0, 0.0, 0.0, 0.0, 0.0, 0.0, 1.644586984603707E9, 0.0, 2022-02-12 00:43:04.603
180.0, -10387.615607692673, -10443.360858364209, -7472.4787440870705, -12912.468661364159, -11255.623251870067, -8206.331218043711, -10799.021816137054, -8547.105914009324, -10919.453015262248, -14196.106993687987, -8072.913655389983, -6895.781385395692, -7713.832880715476, -10560.215778376554, -12682.93859755261, -18287.727926698677, 0.012, -0.03, 0.986, 192.0, 0.0, 0.0, 0.0, 0.0, 0.0, 0.0, 0.0, 0.0, 0.0, 1.644586984616965E9, 0.0, 2022-02-12 00:43:04.616
182.0, -10407.754529446904, -10512.159527797643, -7491.991816996553, -12896.531867567524, -11260.18300773895, -8197.77049991733, -10801.99459814961, -8567.155428785734, -10903.627980187892, -14167.60851950747, -8071.661957700487, -6865.628882125483, -7693.313979305503, -10562.227435377532, -12664.140780465697, -18287.23618832066, 0.012, -0.03, 0.986, 192.0, 0.0, 0.0, 0.0, 0.0, 0.0, 0.0, 0.0, 0.0, 0.0, 1.644586984623839E9, 0.0, 2022-02-12 00:43:04.623
184.0, -10428.809872723803, -10501.430690459096, -7490.427194884682, -12902.07510019244, -11259.13247574955, -8194.976531860415, -10799.290037070517, -8547.128265753778, -10930.539480512081, -14215.485956130738, -8089.699815475919, -6883.443222456363, -7724.6511250318445, -10567.211874391065, -12691.834591845822, -18285.738621442153, 0.013000000000000001, -0.028, 0.986, 192.0, 0.0, 56.0, 127.5, 24.0, 15.0, 104.0, 0.0, 0.0, 0.0, 1.644586984631971E9, 0.0, 2022-02-12 00:43:04.631
186.0, -10417.075206884767, -10462.225730684488, -7474.0657179433965, -12904.55614382698, -11254.170388480472, -8181.610188676142, -10799.737071959624, -8532.979611513569, -10904.700863921746, -14182.181856892332, -8050.07017255666, -6849.40151565093, -7699.416005541802, -10546.290641580897, -12662.911434520654, -18278.13902832735, 0.013000000000000001, -0.028, 0.986, 192.0, 0.0, 0.0, 0.0, 0.0, 0.0, 0.0, 0.0, 0.0, 0.0, 1.644586984638794E9, 0.0, 2022-02-12 00:43:04.638
188.0, -10426.597050022729, -10478.02841401439, -7498.406767655226, -12887.41235582976, -11260.51828390578, -8187.846325379172, -10813.863374455379, -8570.195266031655, -10921.68818970778, -14192.463659341773, -8074.321815290668, -6873.116716518011, -7713.1399766373615, -10554.247862606986, -12683.385632441716, -18288.465534265702, 0.013000000000000001, -0.028, 0.986, 192.0, 0.0, 0.0, 0.0, 0.0, 0.0, 0.0, 0.0, 0.0, 0.0, 1.644586984646457E9, 0.0, 2022-02-12 00:43:04.646
190.0, -10393.337654273231, -10464.349146407742, -7473.931607476665, -12903.058576948473, -11258.976013538362, -8180.336139242189, -10808.767176719568, -8542.54615814044, -10925.823262432012, -14200.934970490334, -8077.182838580948, -6877.497658431252, -7718.1914708842605, -10546.268289836442, -12689.264141233461, -18285.403345275325, 0.013000000000000001, -0.028, 0.986, 192.0, 0.0, 0.0, 0.0, 0.0, 0.0, 0.0, 0.0, 0.0, 0.0, 1.644586984654464E9, 0.0, 2022-02-12 00:43:04.654
192.0, -10397.651540953106, -10482.521114649906, -7485.420404126693, -12891.145097153796, -11253.678650102454, -8178.793868874774, -10791.444574766705, -8542.613213373807, -10906.53370696708, -14174.023470166145, -8062.363632007079, -6844.6405940819495, -7694.386863039358, -10539.585118244306, -12665.705402577569, -18281.089458595452, 0.013000000000000001, -0.028, 0.986, 192.0, 0.0, 0.0, 0.0, 0.0, 0.0, 0.0, 0.0, 0.0, 0.0, 1.644586984662434E9, 0.0, 2022-02-12 00:43:04.662
194.0, -10415.465881283984, -10466.472562130995, -7487.521468105491, -12898.69998677969, -11256.919653048475, -8178.883275852594, -10789.522324743548, -8541.36151568431, -10923.722198453212, -14192.396604108406, -8096.070062645682, -6883.689091645371, -7732.362476868925, -10562.89798771119, -12696.37199597025, -18282.341156284947, 0.0145, -0.027000000000000003, 0.986, 192.0, 0.0, 64.0, 127.5, 24.0, 15.0, 104.0, 0.0, 0.0, 0.0, 1.644586984669461E9, 0.0, 2022-02-12 00:43:04.669
196.0, -10392.667101939573, -10449.261718900409, -7464.879150972266, -12895.16841115575, -11249.632984356045, -8171.842476349173, -10788.874124154345, -8529.44803588963, -10907.226611045196, -14172.168275376354, -8054.294652258713, -6852.754277319226, -7683.210990811705, -10535.874728664725, -12667.180617711618, -18278.407249260814, 0.0145, -0.027000000000000003, 0.986, 192.0, 0.0, 0.0, 0.0, 0.0, 0.0, 0.0, 0.0, 0.0, 0.0, 1.644586984677538E9, 0.0, 2022-02-12 00:43:04.677
198.0, -10414.325942316764, -10491.305350220842, -7493.5564391084245, -12879.008099914563, -11253.879815802553, -8175.642272906575, -10799.535906259527, -8550.391620444254, -10922.11287285243, -14193.693005286814, -8070.901998389006, -6867.998167037746, -7707.708502734721, -10538.668696721637, -12686.850152832289, -18284.352813285925, 0.0145, -0.027000000000000003, 0.986, 192.0, 0.0, 0.0, 0.0, 0.0, 0.0, 0.0, 0.0, 0.0, 0.0, 1.64458698468559E9, 0.0, 2022-02-12 00:43:04.685
200.0, -10385.24632278041, -10450.82634101228, -7469.6624242857015, -12899.750518769088, -11238.188891194928, -8171.328386226701, -10776.915940870756, -8515.411140371698, -10927.410236288339, -14190.407298851884, -8087.2858270747465, -6878.8611148430255, -7710.591877769456, -10549.822217204835, -12688.347719710795, -18279.6142434614, 0.0145, -0.027000000000000003, 0.986, 192.0, 0.0, 0.0, 0.0, 0.0, 0.0, 0.0, 0.0, 0.0, 0.0, 1.644586984693663E9, 0.0, 2022-02-12 00:43:04.693
202.0, -10411.040235881834, -10498.100280535255, -7484.839258770855, -12892.21798088765, -11248.694211088921, -8167.595644902664, -10799.80412719299, -8537.40525691572, -10905.170250555308, -14175.744554489203, -8062.475390729355, -6848.082762728067, -7681.355796021914, -10538.46753102154, -12664.341946165794, -18276.820275404487, 0.0145, -0.027000000000000003, 0.986, 192.0, 0.0, 0.0, 0.0, 0.0, 0.0, 0.0, 0.0, 0.0, 0.0, 1.644586984699634E9, 0.0, 2022-02-12 00:43:04.699
204.0, -10409.989703892436, -10473.848637801248, -7497.088014732363, -12907.595981072902, -11252.359897179593, -8175.418755462022, -10796.250199824597, -8544.31194595241, -10932.148806112864, -14189.08854592902, -8089.789222453741, -6887.377129480497, -7716.805662728031, -10562.428601077629, -12703.546905940404, -18287.39265053185, 0.01225, -0.0235, 0.988, 192.0, 0.0, 40.0, 127.5, 48.0, 15.0, 120.0, 0.0, 0.0, 0.0, 1.644586984708211E9, 0.0, 2022-02-12 00:43:04.708
206.0, -10408.268619569377, -10462.35984115122, -7482.514677347503, -12906.210172916672, -11246.257870943293, -8161.717136110919, -10787.935350887223, -8523.16719569769, -10901.079881319987, -14191.927217474846, -8064.330585519146, -6862.320823946098, -7692.844592671942, -10533.259574563453, -12674.154361981675, -18281.268272551093, 0.01225, -0.0235, 0.988, 192.0, 0.0, 0.0, 0.0, 0.0, 0.0, 0.0, 0.0, 0.0, 0.0, 1.644586984715139E9, 0.0, 2022-02-12 00:43:04.715
208.0, -10416.427006295564, -10476.910826791624, -7505.022884013997, -12894.69902452219, -11257.903129804508, -8172.915360083028, -10815.42799656725, -8555.756039113527, -10922.805776930545, -14201.806688524091, -8092.3373213216455, -6874.770745607704, -7714.950467938241, -10545.173054358133, -12696.595513414803, -18289.09138311045, 0.01225, -0.0235, 0.988, 192.0, 0.0, 0.0, 0.0, 0.0, 0.0, 0.0, 0.0, 0.0, 0.0, 1.644586984721323E9, 0.0, 2022-02-12 00:43:04.721
210.0, -10381.24536052291, -10453.039163713356, -7475.853857499821, -12911.93221949723, -11236.244289427315, -8154.788095329774, -10783.50970548507, -8521.289649163444, -10925.577393243002, -14192.061327941577, -8088.1128416195925, -6880.559847421629, -7717.543270295057, -10536.835853676303, -12697.936618082122, -18285.783324931064, 0.01225, -0.0235, 0.988, 192.0, 0.0, 0.0, 0.0, 0.0, 0.0, 0.0, 0.0, 0.0, 0.0, 1.644586984728574E9, 0.0, 2022-02-12 00:43:04.728
212.0, -10416.069378384278, -10472.127553478189, -7485.398052382237, -12897.068309434451, -11234.389094637525, -8162.320633211212, -10783.308539784974, -8526.698771321628, -10902.465689476216, -14180.416069080362, -8058.519131960766, -6852.061373241112, -7681.579313466467, -10516.138138310687, -12665.593643855293, -18278.697821938735, 0.01225, -0.0235, 0.988, 192.0, 0.0, 0.0, 0.0, 0.0, 0.0, 0.0, 0.0, 0.0, 0.0, 1.644586984745882E9, 0.0, 2022-02-12 00:43:04.745
214.0, -10427.49111980094, -10482.275245460898, -7493.221162941595, -12899.303483879983, -11252.292841946226, -8173.541208927776, -10801.011121393576, -8539.886300550259, -10935.21099510324, -14192.843638997512, -8084.670672973475, -6886.974798080301, -7725.232270387683, -10568.642386036205, -12699.61299891627, -18287.102077853928, 0.011125, -0.025750000000000002, 0.989, 192.0, 0.0, 40.0, 127.5, 16.0, 15.0, 120.0, 0.0, 0.0, 0.0, 1.644586984752312E9, 0.0, 2022-02-12 00:43:04.752
216.0, -10410.950828904013, -10460.526998105885, -7472.188171409151, -12904.623199060345, -11237.585394094634, -8157.984394786882, -10774.971339103144, -8511.141957180735, -10910.937000624777, -14179.924330702344, -8060.396678495012, -6857.381088421475, -7692.33050254947, -10540.61329848925, -12672.120353236241, -18277.580234715966, 0.011125, -0.025750000000000002, 0.989, 192.0, 0.0, 0.0, 0.0, 0.0, 0.0, 0.0, 0.0, 0.0, 0.0, 1.644586984759538E9, 0.0, 2022-02-12 00:43:04.759
218.0, -10412.291933571332, -10476.799068069347, -7493.62349434179, -12896.844791989899, -11241.98868775233, -8157.246787219858, -10794.149135845797, -8537.874643549281, -10919.54242224007, -14195.27997914314, -8074.008890868294, -6874.4578211853295, -7709.496642291146, -10537.819330432336, -12684.436164431116, -18281.156513828817, 0.011125, -0.025750000000000002, 0.989, 192.0, 0.0, 0.0, 0.0, 0.0, 0.0, 0.0, 0.0, 0.0, 0.0, 1.644586984766925E9, 0.0, 2022-02-12 00:43:04.766
220.0, -10400.087881098734, -10455.83313177027, -7465.840275983844, -12909.585286329424, -11228.979972479341, -8140.930013767483, -10782.146249073297, -8516.931058994658, -10912.30045703655, -14189.535580818127, -8080.133268849047, -6884.069071301112, -7699.95244740873, -10531.784359429403, -12687.766574354957, -18273.713382925198, 0.011125, -0.025750000000000002, 0.989, 192.0, 0.0, 0.0, 0.0, 0.0, 0.0, 0.0, 0.0, 0.0, 0.0, 1.644586984773597E9, 0.0, 2022-02-12 00:43:04.773
222.0, -10428.139320390144, -10471.099373233244, -7478.983101723565, -12898.387062357315, -11232.578603336646, -8147.233205703879, -10789.835249165923, -8529.73860856755, -10899.515259208114, -14184.215865637765, -8049.869006856562, -6860.59973962304, -7668.190618537738, -10511.220754530521, -12665.07955373282, -18275.970909115185, 0.011125, -0.025750000000000002, 0.989, 192.0, 0.0, 0.0, 0.0, 0.0, 0.0, 0.0, 0.0, 0.0, 0.0, 1.644586984781549E9, 0.0, 2022-02-12 00:43:04.781
224.0, -10418.997456907924, -10476.508495391428, -7483.05111921443, -12908.534754340024, -11234.992591737819, -8146.89792953705, -10793.746804445602, -8534.678344092172, -10930.539480512081, -14201.829040268547, -8081.69789096092, -6890.148745792955, -7700.511241020113, -10536.455874020563, -12698.22719076004, -18282.832894662966, 0.0115625, -0.025875000000000002, 0.9924999999999999, 192.0, 0.0, 48.0, 127.5, 24.0, 15.5, 16.0, 0.0, 0.0, 0.0, 1.644586984790255E9, 0.0, 2022-02-12 00:43:04.790
226.0, -10386.162744303077, -10429.726294246471, -7464.320357360883, -12910.7475770411, -11230.499891102301, -8132.168129941003, -10784.8955136413, -8505.710483278095, -10901.258695275628, -14172.727068987737, -8049.287861500724, -6858.3198616885975, -7684.865019901397, -10506.772757383915, -12671.516856135948, -18275.27800503707, 0.0115625, -0.025875000000000002, 0.9924999999999999, 192.0, 0.0, 0.0, 0.0, 0.0, 0.0, 0.0, 0.0, 0.0, 0.0, 1.644586984796692E9, 0.0, 2022-02-12 00:43:04.796
228.0, -10404.222953822966, -10458.492989360451, -7488.616703583802, -12890.183972142217, -11227.907088745485, -8145.892101036561, -10786.549542730992, -8535.88533829276, -10908.545363968058, -14174.582263777527, -8075.573512980165, -6871.574446150595, -7701.606476498423, -10518.999161600967, -12682.335100452317, -18280.485961495157, 0.0115625, -0.025875000000000002, 0.9924999999999999, 192.0, 0.0, 0.0, 0.0, 0.0, 0.0, 0.0, 0.0, 0.0, 0.0, 1.644586984803264E9, 0.0, 2022-02-12 00:43:04.803
230.0, -10400.020825865367, -10452.21214916851, -7457.346613090827, -12907.88655375082, -11208.282257113726, -8132.570461341198, -10765.583606431916, -8494.467555817075, -10904.007959843631, -14190.295540129608, -8079.261550815291, -6867.93111180438, -7698.924267163786, -10529.638591961693, -12683.98912954201, -18279.18956031675, 0.0115625, -0.025875000000000002, 0.9924999999999999, 192.0, 0.0, 0.0, 0.0, 0.0, 0.0, 0.0, 0.0, 0.0, 0.0, 1.644586984811308E9, 0.0, 2022-02-12 00:43:04.811
232.0, -10413.230706838454, -10471.009966255424, -7469.058927185408, -12893.000291943586, -11216.083015928629, -8132.726923552385, -10773.853751880379, -8490.354834837299, -10881.969139810699, -14174.85048471099, -8039.408390451478, -6851.681393585372, -7661.865074856887, -10499.776661369404, -12655.691821061591, -18269.019516589586, 0.0115625, -0.025875000000000002, 0.9924999999999999, 192.0, 0.0, 0.0, 0.0, 0.0, 0.0, 0.0, 0.0, 0.0, 0.0, 1.644586984819282E9, 0.0, 2022-02-12 00:43:04.819
234.0, -10412.694264971527, -10481.649396616149, -7477.95492147862, -12898.588228057413, -11208.729292002832, -8141.4664556344105, -10772.378536746328, -8499.92138146417, -10912.948657625755, -14210.054482228099, -8080.401489782512, -6889.74641439276, -7692.710482205211, -10521.614315702238, -12684.771440597946, -18275.09919108143, 0.01078125, -0.0239375, 0.99025, 192.0, 0.0, 40.0, 127.5, 40.0, 15.0, 112.0, 0.0, 0.0, 0.0, 1.644586984826197E9, 0.0, 2022-02-12 00:43:04.826
236.0, -10390.141354816122, -10438.01879143939, -7463.515694560492, -12905.763138027567, -11212.238515882316, -8130.51410085131, -10768.51168495556, -8482.86700044477, -10883.15378226683, -14173.934063188322, -8057.312137760179, -6859.0798210000785, -7664.1896562802385, -10506.83981261728, -12655.535358850404, -18267.365487499894, 0.01078125, -0.0239375, 0.99025, 192.0, 0.0, 0.0, 0.0, 0.0, 0.0, 0.0, 0.0, 0.0, 0.0, 1.644586984833998E9, 0.0, 2022-02-12 00:43:04.833
238.0, -10419.265677841388, -10485.426841429096, -7483.296988403438, -12896.509515823069, -11213.914896716464, -8139.5889091001645, -10771.484466968115, -8512.103082192312, -10893.145012038352, -14191.837810497023, -8068.130382076548, -6874.547228163151, -7677.824220397976, -10522.106054080255, -12672.41092591416, -18276.28383353756, 0.01078125, -0.0239375, 0.99025, 192.0, 0.0, 0.0, 0.0, 0.0, 0.0, 0.0, 0.0, 0.0, 0.0, 1.644586984841789E9, 0.0, 2022-02-12 00:43:04.841
240.0, -10394.477593240452, -10449.932271234069, -7463.940377705143, -12917.922487011254, -11209.489251314313, -8131.050542718237, -10761.292071496497, -8486.219762113067, -10904.611456943925, -14199.482107100739, -8079.149792093014, -6882.83972535607, -7699.1701363527945, -10528.23043206101, -12679.854056817778, -18275.635632948357, 0.01078125, -0.0239375, 0.99025, 192.0, 0.0, 0.0, 0.0, 0.0, 0.0, 0.0, 0.0, 0.0, 0.0, 1.644586984848916E9, 0.0, 2022-02-12 00:43:04.848
242.0, -10416.896392929124, -10466.36080340872, -7481.486497102559, -12903.885591493321, -11216.462995584368, -8126.311972893713, -10779.03935659401, -8504.168212910678, -10884.718404378702, -14175.431630066829, -8062.83301864064, -6873.250826984743, -7665.351946991915, -10510.326684752308, -12661.480922875515, -18276.060316093008, 0.01078125, -0.0239375, 0.99025, 192.0, 0.0, 0.0, 0.0, 0.0, 0.0, 0.0, 0.0, 0.0, 0.0, 1.644586984863482E9, 0.0, 2022-02-12 00:43:04.863
244.0, -10424.63009651066, -10478.363690181219, -7489.264904173006, -12905.025530460542, -11232.399789381003, -8135.27502242029, -10806.599057507403, -8519.479157862563, -10913.462747748226, -14204.466546114272, -8094.5054405338105, -6903.269219788221, -7715.57631678299, -10534.108940852755, -12704.239810018518, -18285.29158655305, 0.011390625, -0.021968750000000002, 0.9861249999999999, 192.0, 0.0, 48.0, 127.5, 48.0, 15.0, 88.0, 0.0, 0.0, 0.0, 1.644586984871435E9, 0.0, 2022-02-12 00:43:04.871
246.0, -10420.137395875145, -10452.010983468412, -7462.465162571092, -12907.55127758399, -11212.640847282511, -8122.199251913936, -10765.717716898647, -8490.958331937592, -10888.428793958283, -14182.204208636787, -8056.865102871073, -6851.457876140818, -7679.433545998758, -10513.210059787043, -12676.300129449384, -18278.89898763883, 0.011390625, -0.021968750000000002, 0.9861249999999999, 192.0, 0.0, 0.0, 0.0, 0.0, 0.0, 0.0, 0.0, 0.0, 0.0, 1.644586984878559E9, 0.0, 2022-02-12 00:43:04.878
