%OpenBCI Raw EEG Data
%Number of channels = 16
%Sample Rate = 125 Hz
%Board = OpenBCI_GUI$BoardCytonSerialDaisy
Sample Index, EXG Channel 0, EXG Channel 1, EXG Channel 2, EXG Channel 3, EXG Channel 4, EXG Channel 5, EXG Channel 6, EXG Channel 7, EXG Channel 8, EXG Channel 9, EXG Channel 10, EXG Channel 11, EXG Channel 12, EXG Channel 13, EXG Channel 14, EXG Channel 15, Accel Channel 0, Accel Channel 1, Accel Channel 2, Other, Other, Other, Other, Other, Other, Other, Analog Channel 0, Analog Channel 1, Analog Channel 2, Timestamp, Other, Timestamp (Formatted)
0.0, -11379.943654530485, -10824.301639116007, -7799.395358490391, -12430.207422996453, -11083.67128177539, -7840.3437543325135, -10701.881134734289, -8400.187897704589, 0.0, 0.0, 0.0, 0.0, 0.0, 0.0, 0.0, 0.0, 0.0, 0.0, 0.0, 192.0, 0.0, 0.0, 0.0, 0.0, 0.0, 0.0, 0.0, 0.0, 0.0, 1.644586908409268E9, 0.0, 2022-02-12 00:41:48.409
128.0, -11440.963916893474, -10900.431680730782, -7830.196062349804, -12409.93439077549, -11099.161040682917, -7854.693574272821, -10727.02684724651, -8435.458950455064, -10612.027122023956, -12922.169318457762, -9515.986980913518, -7914.931525579874, -7933.304659522136, -11241.899280774509, -12310.759700627292, -17810.227609899954, 0.0, 0.0, 0.0, 192.0, 0.0, 0.0, 0.0, 0.0, 0.0, 0.0, 0.0, 0.0, 0.0, 1.644586908409273E9, 0.0, 2022-02-12 00:41:48.409
0.0, -6096.125375762627, -5949.207359457893, -4115.783168766877, -6712.988819240191, -5947.262757690282, -4432.060352809472, -5764.134915367951, -4617.468073066244, -5307.421720912662, -6465.778525564495, -4751.533836309175, -3942.0877626046854, -3961.1761523695177, -5597.2344395201735, -6146.416800787068, -8899.011778713677, 0.012, -0.022, 0.988, 192.0, 0.0, 48.0, 127.5, 40.0, 15.0, 112.0, 0.0, 0.0, 0.0, 1.644586908502812E9, 0.0, 2022-02-12 00:41:48.502
2.0, -12155.236262707265, -11856.415791084266, -8205.258334309858, -13437.75700780833, -11888.289378677533, -8847.13337983291, -11509.472013648989, -9203.040206794763, -11961.044306879558, -14500.694215380458, -10178.246817379812, -8632.17665340622, -8753.233701376164, -12002.260923655143, -13376.31206230069, -19158.820111610905, 0.012, -0.022, 0.988, 192.0, 0.0, 0.0, 0.0, 0.0, 0.0, 0.0, 0.0, 0.0, 0.0, 1.64458690850939E9, 0.0, 2022-02-12 00:41:48.509
4.0, -12160.578329632084, -11845.508139790076, -8213.170851847035, -13428.749254792841, -11889.362262411389, -8845.702868187771, -11516.71397885251, -9210.68450339848, -11934.199861788735, -14456.43776135895, -10152.229386833833, -8612.194193863177, -8715.034570102045, -11971.75079247365, -13349.378210232046, -19153.589803408362, 0.012, -0.022, 0.988, 192.0, 0.0, 0.0, 0.0, 0.0, 0.0, 0.0, 0.0, 0.0, 0.0, 1.644586908515967E9, 0.0, 2022-02-12 00:41:48.515
6.0, -12176.850399595547, -11873.291358148022, -8228.571203776743, -13432.034961227771, -11898.168849726779, -8854.8894351589, -11526.682856879575, -9233.952669376453, -11967.056926138035, -14469.379421398571, -10191.054366952701, -8655.780095551027, -8761.772067758093, -12019.024731996624, -13385.856257183106, -19163.60338492434, 0.01, -0.023, 0.987, 192.0, 0.0, 32.0, 127.5, 32.0, 15.0, 104.0, 0.0, 0.0, 0.0, 1.644586908523888E9, 0.0, 2022-02-12 00:41:48.523
8.0, -12152.665812094905, -11858.673317274252, -8204.05134010927, -13434.739522306863, -11894.436108402742, -8846.328717032518, -11518.837394575763, -9203.151965517041, -11946.158045072323, -14478.275415691784, -10156.34210781361, -8607.522679272019, -8736.939279668246, -11988.46989732622, -13363.728030172353, -19154.21565225311, 0.01, -0.023, 0.987, 192.0, 0.0, 0.0, 0.0, 0.0, 0.0, 0.0, 0.0, 0.0, 0.0, 1.644586908531956E9, 0.0, 2022-02-12 00:41:48.531
10.0, -12161.204178476833, -11883.573160597463, -8229.398218321589, -13423.541298334754, -11906.21547773069, -8859.315080561051, -11540.13860704167, -9250.44825678447, -11950.471931752198, -14474.967357512398, -10163.96405267287, -8615.882231698302, -8739.308564580508, -11992.984949706191, -13373.205169821404, -19160.474140700597, 0.01, -0.023, 0.987, 192.0, 0.0, 0.0, 0.0, 0.0, 0.0, 0.0, 0.0, 0.0, 0.0, 1.644586908539011E9, 0.0, 2022-02-12 00:41:48.539
12.0, -12168.468495424808, -11875.034794215537, -8209.415758778543, -13435.56653685171, -11892.513858379587, -8856.364650292951, -11516.624571874687, -9223.804977393744, -11960.1725888458, -14506.036282305275, -10183.812401749183, -8626.812234736948, -8752.429038575774, -12003.490269600186, -13386.347995561124, -19162.77637037949, 0.01, -0.023, 0.987, 192.0, 0.0, 0.0, 0.0, 0.0, 0.0, 0.0, 0.0, 0.0, 0.0, 1.644586908546632E9, 0.0, 2022-02-12 00:41:48.546
14.0, -12157.963175530813, -11865.49059933312, -8216.143633859592, -13430.962077493916, -11895.173715969768, -8853.03424036911, -11514.970542784995, -9210.68450339848, -11929.416588475298, -14487.506686151826, -10157.392639803009, -8601.577115246906, -8723.550584739516, -11981.18322863379, -13356.396657991012, -19158.12720753279, 0.01, -0.023, 0.987, 192.0, 0.0, 0.0, 0.0, 0.0, 0.0, 0.0, 0.0, 0.0, 0.0, 1.644586908554566E9, 0.0, 2022-02-12 00:41:48.554
16.0, -12187.825106123104, -11860.72967776414, -8231.76750323385, -13440.819196798706, -11897.83357355995, -8857.45988577126, -11517.026903274884, -9231.650439697558, -11965.693469726262, -14500.805974102734, -10197.335207144644, -8647.755819291571, -8758.441657834252, -12006.060720212547, -13389.097260129127, -19164.139826791266, 0.01, -0.0235, 0.9875, 192.0, 0.0, 40.0, 127.5, 32.0, 15.0, 112.0, 0.0, 0.0, 0.0, 1.64458690856869E9, 0.0, 2022-02-12 00:41:48.568
18.0, -12165.495713412252, -11857.332212606932, -8211.42741577952, -13443.970792766904, -11893.385576413344, -8845.993440865688, -11511.886002050162, -9207.756424874833, -11949.331992784977, -14457.041258459241, -10174.715241755872, -8629.628554538316, -8733.273593577576, -11995.644807296374, -13368.421896507967, -19158.730704633082, 0.01, -0.0235, 0.9875, 192.0, 0.0, 0.0, 0.0, 0.0, 0.0, 0.0, 0.0, 0.0, 0.0, 1.644586908576768E9, 0.0, 2022-02-12 00:41:48.576
20.0, -12178.191504262866, -11896.470117148176, -8228.951183432482, -13425.172975679992, -11897.028910759558, -8853.861254913958, -11521.206679488025, -9236.411361266537, -11956.976289388693, -14492.20055248744, -10168.076773652647, -8625.940516703191, -8740.224986103176, -12001.366853876933, -13371.417030264978, -19160.94352733416, 0.01, -0.0235, 0.9875, 192.0, 0.0, 0.0, 0.0, 0.0, 0.0, 0.0, 0.0, 0.0, 0.0, 1.644586908585714E9, 0.0, 2022-02-12 00:41:48.585
22.0, -12157.717306341805, -11872.77726802555, -8208.164061089046, -13431.587926338665, -11887.082384476947, -8842.730086175214, -11511.70718809452, -9214.216079022417, -11960.88784466837, -14496.49208742286, -10173.240026621823, -8611.635400251795, -8744.49416929414, -11997.812926508537, -13382.972882148371, -19157.65782089923, 0.01, -0.0235, 0.9875, 192.0, 0.0, 0.0, 0.0, 0.0, 0.0, 0.0, 0.0, 0.0, 0.0, 1.644586908591888E9, 0.0, 2022-02-12 00:41:48.591
24.0, -12175.241073994765, -11863.098962676402, -8217.775311204829, -13432.839624028162, -11890.59160835643, -8844.764094920647, -11514.456452662524, -9216.63006742359, -11931.294135009544, -14486.098526251142, -10142.126398340035, -8591.228257564098, -8713.648761945817, -11969.672080239307, -13352.596861433609, -19155.40029470924, 0.01, -0.0235, 0.9875, 192.0, 0.0, 0.0, 0.0, 0.0, 0.0, 0.0, 0.0, 0.0, 0.0, 1.644586908599214E9, 0.0, 2022-02-12 00:41:48.599
26.0, -12177.699765884849, -11865.088267932924, -8235.3437823467, -13437.622897341598, -11899.062919504991, -8853.615385724948, -11528.001609802439, -9234.422056010015, -11968.688603483273, -14490.121840253096, -10185.265265138778, -8653.209644938666, -8750.082105407966, -12015.113176716946, -13393.03116715326, -19167.425533226196, 0.011, -0.02475, 0.98675, 192.0, 0.0, 48.0, 127.5, 24.0, 15.0, 104.0, 0.0, 0.0, 0.0, 1.644586908606957E9, 0.0, 2022-02-12 00:41:48.606
28.0, -12164.132257000478, -11856.39343933981, -8210.756863445862, -13443.23318519988, -11886.612997843386, -8844.51822573164, -11517.384531186168, -9208.359921975127, -11943.162911315312, -14475.324985423684, -10168.456753308386, -8615.614010764839, -8730.591384242938, -11987.911103714838, -13366.566701718177, -19160.56354767842, 0.011, -0.02475, 0.98675, 192.0, 0.0, 0.0, 0.0, 0.0, 0.0, 0.0, 0.0, 0.0, 0.0, 1.644586908615099E9, 0.0, 2022-02-12 00:41:48.615
30.0, -12179.26438799672, -11897.364186926388, -8241.088180671713, -13433.867804273106, -11886.50123912111, -8852.184874079809, -11508.488536892955, -9233.550337976258, -11952.304774797532, -14490.814744331212, -10176.481029567842, -8614.161147375244, -8740.627317503371, -11996.337711374488, -13367.796047663218, -19163.491626202063, 0.011, -0.02475, 0.98675, 192.0, 0.0, 0.0, 0.0, 0.0, 0.0, 0.0, 0.0, 0.0, 0.0, 1.644586908621125E9, 0.0, 2022-02-12 00:41:48.621
32.0, -12131.074026951079, -11853.711230005174, -8216.255392581868, -13436.997048496849, -11876.711175049684, -8842.506568730661, -11500.777185055875, -9204.224849250895, -11962.050135380046, -14500.82832584719, -10192.440175108932, -8640.402095365775, -8736.067561634489, -12006.597162079473, -13381.207094336403, -19158.64129765526, 0.011, -0.02475, 0.98675, 192.0, 0.0, 0.0, 0.0, 0.0, 0.0, 0.0, 0.0, 0.0, 0.0, 1.64458690862845E9, 0.0, 2022-02-12 00:41:48.628
34.0, -12185.165248532921, -11863.747163265607, -8219.362285061155, -13430.068007715703, -11878.901646006305, -8843.668859442338, -11506.454528147522, -9215.981866834387, -11931.987039087659, -14469.602938843125, -10147.2449478203, -8594.312798298932, -8712.039436345034, -11972.734269229684, -13346.248966008303, -19151.98047780758, 0.011, -0.02475, 0.98675, 192.0, 0.0, 0.0, 0.0, 0.0, 0.0, 0.0, 0.0, 0.0, 0.0, 1.644586908638053E9, 0.0, 2022-02-12 00:41:48.638
36.0, -12198.375129506008, -11893.58674211344, -8233.890918957106, -13441.422693899, -11890.703367078706, -8849.74853393418, -11516.043426518849, -9222.553279704247, -11972.60015876295, -14504.091680537664, -10178.895017969015, -8642.637269811305, -8742.30369833752, -11998.930513731304, -13383.17404784847, -19161.345858734352, 0.0115, -0.026375000000000003, 0.990375, 192.0, 0.0, 48.0, 127.5, 16.0, 15.5, 8.0, 0.0, 0.0, 0.0, 1.644586908644971E9, 0.0, 2022-02-12 00:41:48.644
38.0, -12161.338288943565, -11864.104791176891, -8208.3875785336, -13438.762836308819, -11884.713099564684, -8842.12658907492, -11512.288333450359, -9204.180145761984, -11957.043344622058, -14488.49016290786, -10161.594767760607, -8615.636362509294, -8720.667209704783, -11996.985911963691, -13362.163408060482, -19152.606326652327, 0.0115, -0.026375000000000003, 0.990375, 192.0, 0.0, 0.0, 0.0, 0.0, 0.0, 0.0, 0.0, 0.0, 0.0, 1.644586908651209E9, 0.0, 2022-02-12 00:41:48.651
40.0, -12174.771687361204, -11893.944370024727, -8234.15913989057, -13423.56365007921, -11889.474021133665, -8857.392830537896, -11512.824775317285, -9231.44927399746, -11947.722667184195, -14503.599942159646, -10171.273073109756, -8619.056179410956, -8725.91986965178, -11995.108365429445, -13368.69011744143, -19156.920213332203, 0.0115, -0.026375000000000003, 0.990375, 192.0, 0.0, 0.0, 0.0, 0.0, 0.0, 0.0, 0.0, 0.0, 0.0, 1.644586908659169E9, 0.0, 2022-02-12 00:41:48.659
42.0, -12143.322782912586, -11840.814273454462, -8211.069787868237, -13441.04271424326, -11881.382689640843, -8842.886548386401, -11505.493403135944, -9198.592209648157, -11959.949071401248, -14500.135421769075, -10182.605407548595, -8631.036714439, -8738.72741922467, -12008.698226058272, -13383.397565293022, -19153.008658052524, 0.0115, -0.026375000000000003, 0.990375, 192.0, 0.0, 0.0, 0.0, 0.0, 0.0, 0.0, 0.0, 0.0, 0.0, 1.644586908667221E9, 0.0, 2022-02-12 00:41:48.667
44.0, -12166.814466335114, -11868.888064490327, -8216.05422688177, -13435.65594382953, -11881.315634407478, -8847.89333914439, -11508.71205433751, -9211.332703987682, -11927.583745429964, -14471.838113288655, -10142.282860551222, -8600.995969891068, -8702.986979840634, -11973.337766329976, -13351.21105327738, -19147.755998105527, 0.0115, -0.026375000000000003, 0.990375, 192.0, 0.0, 0.0, 0.0, 0.0, 0.0, 0.0, 0.0, 0.0, 0.0, 1.644586908677129E9, 0.0, 2022-02-12 00:41:48.677
46.0, -12185.835800866582, -11904.963780041193, -8230.716971244452, -13440.349810165146, -11889.54107636703, -8855.157656092364, -11514.456452662524, -9226.598945450658, -11961.290176068565, -14475.123819723585, -10183.030090693246, -8639.463322098652, -8731.083122620956, -12000.986874221191, -13388.22554209537, -19157.41195171022, 0.00775, -0.0251875, 0.9881875, 192.0, 0.0, 16.0, 127.5, 32.0, 15.0, 104.0, 0.0, 0.0, 0.0, 1.644586908689585E9, 0.0, 2022-02-12 00:41:48.689
48.0, -12170.323690214598, -11858.718020763163, -8202.799642419774, -13436.3711996521, -11875.168904682268, -8832.492987214684, -11502.297103678835, -9194.85946832412, -11946.806245661528, -14500.336587469172, -10150.217729832857, -8601.420653035719, -8703.054035074001, -11976.914045442825, -13367.058440096192, -19153.299230730445, 0.00775, -0.0251875, 0.9881875, 192.0, 0.0, 0.0, 0.0, 0.0, 0.0, 0.0, 0.0, 0.0, 0.0, 1.644586908696923E9, 0.0, 2022-02-12 00:41:48.696
50.0, -12163.841684322559, -11884.802506542506, -8233.10860790117, -13424.837699513162, -11886.188314698735, -8849.145036833886, -11513.94236254005, -9226.82246289521, -11936.390332745354, -14487.752555340834, -10149.927157154938, -8589.820097663414, -8716.53213698055, -11962.139542357869, -13365.873797640063, -19150.54996616244, 0.00775, -0.0251875, 0.9881875, 192.0, 0.0, 0.0, 0.0, 0.0, 0.0, 0.0, 0.0, 0.0, 0.0, 1.644586908705007E9, 0.0, 2022-02-12 00:41:48.705
52.0, -12174.324652472098, -11866.071744688958, -8217.663552482552, -13438.047580486249, -11873.53722733703, -8841.456036741261, -11504.666388591098, -9213.478471455392, -11959.613795234418, -14518.01681733332, -10180.146715658513, -8643.263118656054, -8733.63122148886, -12001.18803992129, -13382.861123426095, -19153.9697830641, 0.00775, -0.0251875, 0.9881875, 192.0, 0.0, 0.0, 0.0, 0.0, 0.0, 0.0, 0.0, 0.0, 0.0, 1.644586908720515E9, 0.0, 2022-02-12 00:41:48.720
54.0, -12181.36545197552, -11882.232055930144, -8217.596497249186, -13426.4693768584, -11868.418677856765, -8833.275298270619, -11495.502173364423, -9199.151003259542, -11935.228042033677, -14487.663148363014, -10143.713372196362, -8604.41578679273, -8700.327122250454, -11973.31541458552, -13348.595899176109, -19146.83957658286, 0.00775, -0.0251875, 0.9881875, 192.0, 0.0, 0.0, 0.0, 0.0, 0.0, 0.0, 0.0, 0.0, 0.0, 1.644586908731492E9, 0.0, 2022-02-12 00:41:48.731
56.0, -12187.042795067167, -11914.105643523413, -8226.313677586755, -13429.777435037784, -11872.173770925257, -8830.548385447071, -11499.413728644102, -9217.077102312696, -11962.899501669348, -14515.759291143333, -10184.460602338386, -8637.608127308862, -8727.77506444157, -11996.382414863398, -13386.03507113875, -19156.003791809537, 0.008875000000000001, -0.02459375, 0.98709375, 192.0, 0.0, 40.0, 127.5, 32.0, 15.0, 104.0, 0.0, 0.0, 0.0, 1.64458690873776E9, 0.0, 2022-02-12 00:41:48.737
58.0, -12172.156533259933, -11876.73352679414, -8198.262238295345, -13435.097150218147, -11860.752029508594, -8814.991571306178, -11479.31951037878, -9187.05870950922, -11940.905385125327, -14488.646625119047, -10150.15067459949, -8609.243763595077, -8699.030721072046, -11971.929606429292, -13356.463713224377, -19144.805567837426, 0.008875000000000001, -0.02459375, 0.98709375, 192.0, 0.0, 0.0, 0.0, 0.0, 0.0, 0.0, 0.0, 0.0, 0.0, 1.644586908743963E9, 0.0, 2022-02-12 00:41:48.743
60.0, -12208.746338933272, -11908.048320776024, -8232.616869523152, -13425.307086146724, -11876.331195393945, -8835.242251782687, -11511.349560183235, -9225.168433805518, -11946.403914261331, -14499.286055479772, -10161.527712527242, -8613.669408997228, -8708.597267698917, -11968.263920338622, -13362.968070860872, -19150.371152206797, 0.008875000000000001, -0.02459375, 0.98709375, 192.0, 0.0, 0.0, 0.0, 0.0, 0.0, 0.0, 0.0, 0.0, 0.0, 1.644586908750145E9, 0.0, 2022-02-12 00:41:48.750
62.0, -12199.626827195505, -11894.92784678076, -8217.663552482552, -13437.75700780833, -11865.691765033218, -8830.704847658259, -11489.80247852832, -9205.454195195936, -11962.74303945816, -14486.277340206783, -10179.766736002772, -8644.492464601095, -8718.521442237074, -11997.790574764083, -13382.816419937184, -19157.45665519913, 0.008875000000000001, -0.02459375, 0.98709375, 192.0, 0.0, 0.0, 0.0, 0.0, 0.0, 0.0, 0.0, 0.0, 0.0, 1.644586908756426E9, 0.0, 2022-02-12 00:41:48.756
64.0, -12189.36737649052, -11908.025969031569, -8219.76461646135, -13425.70941754692, -11862.87544523185, -8828.022638323622, -11491.210638429004, -9199.575686404192, -11944.12403632689, -14496.91677056751, -10147.893148409505, -8594.469260510119, -8701.422357728763, -11957.959766144726, -13349.73583814333, -19151.06405628491, 0.008875000000000001, -0.02459375, 0.98709375, 192.0, 0.0, 0.0, 0.0, 0.0, 0.0, 0.0, 0.0, 0.0, 0.0, 1.644586908762249E9, 0.0, 2022-02-12 00:41:48.762
66.0, -12188.629768923494, -11909.903515565815, -8231.856910211673, -13426.715246047408, -11864.842398743916, -8835.756341905158, -11495.457469875511, -9215.601887178647, -11970.253225595145, -14534.847680908166, -10190.87555299706, -8633.338944117897, -8733.161834855298, -12006.597162079473, -13381.989405392338, -19156.741399376562, 0.0064375000000000005, -0.026296875, 0.989546875, 192.0, 0.0, 16.0, 127.5, 16.0, 15.5, 0.0, 0.0, 0.0, 0.0, 1.64458690876851E9, 0.0, 2022-02-12 00:41:48.768
68.0, -12173.475286182796, -11890.792774056528, -8199.402177262566, -13438.51696711981, -11856.438142828722, -8816.89146958488, -11488.640187816643, -9180.53200012827, -11942.425303748287, -14499.643683391057, -10158.376116559044, -8620.397284078275, -8704.663360674782, -11972.354289573943, -13358.587128947633, -19143.956201548124, 0.0064375000000000005, -0.026296875, 0.989546875, 192.0, 0.0, 0.0, 0.0, 0.0, 0.0, 0.0, 0.0, 0.0, 0.0, 1.644586908774362E9, 0.0, 2022-02-12 00:41:48.774
70.0, -12222.85028968457, -11919.581820914964, -8223.609116507663, -13425.50825184682, -11874.408945370787, -8842.774789664125, -11507.169783970092, -9213.746692388857, -11954.785818432072, -14504.426956704494, -10156.856197936082, -8618.273868355021, -8704.81982288597, -11978.2775018546, -13360.151751059504, -19146.258431227023, 0.0064375000000000005, -0.026296875, 0.989546875, 192.0, 0.0, 0.0, 0.0, 0.0, 0.0, 0.0, 0.0, 0.0, 0.0, 1.644586908786708E9, 0.0, 2022-02-12 00:41:48.786
72.0, -12194.664739926428, -11894.190239213734, -8204.185450576002, -13433.376065895089, -11864.596529554909, -8829.073170313022, -11495.680987320065, -9200.469756182403, -11976.399955320354, -14506.237448005373, -10178.515038313275, -8643.464284356152, -8722.522404494573, -11983.977196690703, -13381.855294925606, -19149.23121323958, 0.0064375000000000005, -0.026296875, 0.989546875, 192.0, 0.0, 0.0, 0.0, 0.0, 0.0, 0.0, 0.0, 0.0, 0.0, 1.64458690879253E9, 0.0, 2022-02-12 00:41:48.792
74.0, -12176.246902495253, -11885.316596664978, -8203.24667730888, -13422.75898727882, -11854.985279439126, -8823.574641177016, -11492.104708207216, -9201.654398638535, -11940.614812447408, -14495.39685194455, -10138.237194804811, -8604.080510625901, -8684.569142409462, -11956.037516121569, -13348.171216031458, -19145.1184922598, 0.0064375000000000005, -0.026296875, 0.989546875, 192.0, 0.0, 0.0, 0.0, 0.0, 0.0, 0.0, 0.0, 0.0, 0.0, 1.6445869087999E9, 0.0, 2022-02-12 00:41:48.799
76.0, -12172.827085593592, -11888.40113739981, -8216.545965259787, -13421.440234355956, -11862.696631276207, -8825.675705155814, -11504.755795568919, -9214.998390078354, -11963.480647025186, -14514.48524170938, -10173.77646848875, -8633.09307492889, -8718.521442237074, -11974.969443675214, -13385.65509148301, -19155.489701687064, 0.00721875, -0.0271484375, 0.9897734375, 192.0, 0.0, 32.0, 127.5, 16.0, 15.0, 120.0, 0.0, 0.0, 0.0, 1.644586908807918E9, 0.0, 2022-02-12 00:41:48.807
78.0, -12174.525818172195, -11884.310768164489, -8189.701520168963, -13424.904754746529, -11852.303070104488, -8818.992533563678, -11493.80344078582, -9179.973206516886, -11946.31450728351, -14479.661223848014, -10150.977689144336, -8591.60823721984, -8694.04628205851, -11960.46316152372, -13359.078867325648, -19144.98438179307, 0.00721875, -0.0271484375, 0.9897734375, 192.0, 0.0, 0.0, 0.0, 0.0, 0.0, 0.0, 0.0, 0.0, 0.0, 1.644586908814656E9, 0.0, 2022-02-12 00:41:48.814
80.0, -12223.967876907334, -11920.453538948721, -8223.810282207762, -13421.574344822688, -11852.995974182604, -8830.391923235884, -11488.975463983472, -9208.717549886413, -11957.065696366513, -14511.53481144128, -10150.95533739988, -8601.018321635524, -8697.510802449084, -11961.536045257575, -13362.655146438497, -19155.78027436498, 0.00721875, -0.0271484375, 0.9897734375, 192.0, 0.0, 0.0, 0.0, 0.0, 0.0, 0.0, 0.0, 0.0, 0.0, 1.644586908822417E9, 0.0, 2022-02-12 00:41:48.822
82.0, -12195.335292260086, -11893.720852580173, -8202.777290675318, -13431.140891449559, -11843.161206622268, -8823.798158621568, -11476.346728366225, -9188.10924149862, -11976.355251831443, -14513.993503331365, -10174.938759200426, -8636.579947063918, -8711.525346222561, -11976.288196598078, -13377.072021612172, -19154.21565225311, 0.00721875, -0.0271484375, 0.9897734375, 192.0, 0.0, 0.0, 0.0, 0.0, 0.0, 0.0, 0.0, 0.0, 0.0, 1.644586908830674E9, 0.0, 2022-02-12 00:41:48.830
84.0, -12196.609341694038, -11897.006559015103, -8208.208764577957, -13430.4703391159, -11855.029982928036, -8826.681533656303, -11492.998777985427, -9198.994541048354, -11947.812074162017, -14476.06259299071, -10144.160407085468, -8604.728711215104, -8680.143497007311, -11954.875225409893, -13349.221748020858, -19152.13694001877, 0.00721875, -0.0271484375, 0.9897734375, 192.0, 0.0, 0.0, 0.0, 0.0, 0.0, 0.0, 0.0, 0.0, 0.0, 1.64458690883646E9, 0.0, 2022-02-12 00:41:48.836
86.0, -12204.723024931316, -11914.597381901429, -8228.593555521198, -13431.409112383022, -11858.762724252072, -8839.354972762463, -11499.525487366378, -9212.517346443814, -11981.451449567254, -14535.406474519548, -10181.957206959392, -8633.875385984826, -8724.556413240005, -11985.631225780395, -13390.214847351892, -19165.83855936987, 0.01, -0.028, 0.99, 192.0, 0.0, 40.0, 127.5, 16.0, 15.0, 120.0, 0.0, 0.0, 0.0, 1.644586908844265E9, 0.0, 2022-02-12 00:41:48.844
88.0, -12166.970928546301, -11871.413811613776, -8203.514898242343, -13438.584022353176, -11845.508139790076, -8827.441492967784, -11478.17957141156, -9181.224904206385, -11962.921853413804, -14519.49203246737, -10163.606424761585, -8617.938592188191, -8692.548715180006, -11964.642937736862, -13359.16827430347, -19152.896899330248, 0.01, -0.028, 0.99, 192.0, 0.0, 0.0, 0.0, 0.0, 0.0, 0.0, 0.0, 0.0, 0.0, 1.644586908852053E9, 0.0, 2022-02-12 00:41:48.852
90.0, -12221.352722806065, -11940.056018836025, -8229.889956699606, -13433.688990317463, -11858.516855063064, -8845.166426320842, -11493.5128681079, -9199.598038148646, -11971.102591884446, -14519.02264583381, -10172.100087654602, -8621.716037001139, -8711.078311333456, -11973.404821563343, -13362.83396039414, -19160.56354767842, 0.01, -0.028, 0.99, 192.0, 0.0, 0.0, 0.0, 0.0, 0.0, 0.0, 0.0, 0.0, 0.0, 1.644586908860191E9, 0.0, 2022-02-12 00:41:48.860
92.0, -12227.968839164834, -11911.132861510858, -8207.225287821924, -13448.865824802617, -11857.332212606932, -8831.397751736373, -11496.262132675904, -9191.886686311565, -11997.008263708147, -14530.556145972747, -10191.63551230854, -8646.370011135341, -8728.19974758622, -11990.570961305018, -13384.291635071235, -19163.156350035235, 0.01, -0.028, 0.99, 192.0, 0.0, 0.0, 0.0, 0.0, 0.0, 0.0, 0.0, 0.0, 0.0, 1.644586908866641E9, 0.0, 2022-02-12 00:41:48.866
94.0, -12198.50923997274, -11901.566314883985, -8210.108662856659, -13442.093246232658, -11861.802561497994, -8829.386094735395, -11499.458432133011, -9187.729261842878, -11970.968481417714, -14485.495029150848, -10164.00875616178, -8630.544976060984, -8693.509840191584, -11970.36498431742, -13355.279070768247, -19157.054323798933, 0.01, -0.028, 0.99, 192.0, 0.0, 0.0, 0.0, 0.0, 0.0, 0.0, 0.0, 0.0, 0.0, 1.644586908874619E9, 0.0, 2022-02-12 00:41:48.874
96.0, -12211.741472690283, -11910.328198710466, -8227.185395620512, -13434.448949628944, -11868.083401689935, -8830.324868002519, -11506.409824658613, -9209.63397140908, -11999.377548620409, -14521.011951090331, -10194.585942576641, -8662.575025865439, -8729.563203997994, -11978.255150110144, -13394.349920076123, -19163.089294801866, 0.016, -0.026000000000000002, 0.988, 192.0, 0.0, 64.0, 127.5, 24.0, 15.0, 112.0, 0.0, 0.0, 0.0, 1.644586908882591E9, 0.0, 2022-02-12 00:41:48.882
98.0, -12196.74345216077, -11881.203875685202, -8199.916267385039, -13443.546109622253, -11854.560596294476, -8808.286047969586, -11485.309777892802, -9168.797334289233, -11981.250283867155, -14511.378349230094, -10160.052497393192, -8615.926935187214, -8706.093872319922, -11956.305737055032, -13365.270300539769, -19149.365323706308, 0.016, -0.026000000000000002, 0.988, 192.0, 0.0, 0.0, 0.0, 0.0, 0.0, 0.0, 0.0, 0.0, 0.0, 1.644586908889823E9, 0.0, 2022-02-12 00:41:48.889
100.0, -12203.98541736429, -11922.085216293957, -8227.252450853879, -13438.606374097631, -11867.926939478748, -8834.12466455992, -11511.081339249771, -9208.695198141957, -11978.858647210438, -14523.403587747049, -10166.82507596315, -8616.46337705414, -8706.183279297744, -11966.408725548832, -13372.758134932297, -19161.569376178908, 0.016, -0.026000000000000002, 0.988, 192.0, 0.0, 0.0, 0.0, 0.0, 0.0, 0.0, 0.0, 0.0, 0.0, 1.644586908904344E9, 0.0, 2022-02-12 00:41:48.904
102.0, -12211.741472690283, -11913.54684991203, -8208.812261678251, -13446.384781168079, -11855.186445139223, -8827.620306923427, -11496.75387105392, -9190.836154322167, -11999.534010831596, -14533.350114029661, -10199.749195545817, -8643.844264011892, -8727.171567341276, -11988.000510692658, -13395.333396832157, -19165.83855936987, 0.016, -0.026000000000000002, 0.988, 192.0, 0.0, 0.0, 0.0, 0.0, 0.0, 0.0, 0.0, 0.0, 0.0, 1.644586908912735E9, 0.0, 2022-02-12 00:41:48.912
104.0, -12222.716179217838, -11913.2115737452, -8208.14170934459, -13445.4236561565, -11856.907529462282, -8826.681533656303, -11490.897714006629, -9184.778831574778, -11976.757583231638, -14511.803032374744, -10163.517017783764, -8612.954153174658, -8694.359206480885, -11961.245472579656, -13359.615309192575, -19161.99405932356, 0.016, -0.026000000000000002, 0.988, 192.0, 0.0, 0.0, 0.0, 0.0, 0.0, 0.0, 0.0, 0.0, 0.0, 1.644586908920286E9, 0.0, 2022-02-12 00:41:48.920
106.0, -12239.301173603675, -11943.386428759864, -8224.369075819144, -13437.354676408135, -11858.516855063064, -8837.097446572478, -11499.927818766573, -9204.023683550797, -12000.584542820996, -14532.388989018082, -10185.377023861054, -8656.741220562604, -8720.801320171515, -11994.0801851845, -13395.109879387604, -19169.347783249355, 0.012, -0.024, 0.99, 192.0, 0.0, 48.0, 127.5, 32.0, 15.0, 120.0, 0.0, 0.0, 0.0, 1.644586908926844E9, 0.0, 2022-02-12 00:41:48.926
108.0, -12197.346949261064, -11893.922018280271, -8196.362340016645, -13445.915394534517, -11851.274889859546, -8815.863289339935, -11491.70237680702, -9175.8157820482, -11988.738118259684, -14521.950724357454, -10175.519904556264, -8625.471130069629, -8705.512726964083, -11970.499094784152, -13367.617233707577, -19156.22730925409, 0.012, -0.024, 0.99, 192.0, 0.0, 0.0, 0.0, 0.0, 0.0, 0.0, 0.0, 0.0, 0.0, 1.644586908934934E9, 0.0, 2022-02-12 00:41:48.934
110.0, -12205.885315642992, -11910.93169581076, -8218.892898427594, -13429.576269337687, -11849.799674725495, -8822.255888254153, -11500.88894377815, -9214.238430766873, -11975.997623920159, -14483.036337260764, -10162.466485794364, -8628.04158068199, -8696.259104759587, -11965.022917392602, -13369.31596628618, -19158.84246335536, 0.012, -0.024, 0.99, 192.0, 0.0, 0.0, 0.0, 0.0, 0.0, 0.0, 0.0, 0.0, 0.0, 1.644586908943315E9, 0.0, 2022-02-12 00:41:48.943
112.0, -12195.514106215729, -11905.634332374852, -8207.091177355192, -13444.864862545117, -11843.854110700382, -8815.12568177291, -11488.148449438626, -9176.91101752651, -11992.314397372533, -14515.312256254228, -10184.371195360565, -8647.822874524936, -8710.72068342217, -11972.644862251862, -13387.242065339336, -19159.401256966743, 0.012, -0.024, 0.99, 192.0, 0.0, 0.0, 0.0, 0.0, 0.0, 0.0, 0.0, 0.0, 0.0, 1.644586908949691E9, 0.0, 2022-02-12 00:41:48.949
114.0, -12216.904725659459, -11910.529364410564, -8208.85696516716, -13432.727865305886, -11850.157302636779, -8807.079053768999, -11487.65671106061, -9174.318215169695, -11966.967519160215, -14508.405567217538, -10148.966032143358, -8605.823946693414, -8683.987997053624, -11954.137617842867, -13357.871873125063, -19152.56162316342, 0.012, -0.024, 0.99, 192.0, 0.0, 0.0, 0.0, 0.0, 0.0, 0.0, 0.0, 0.0, 0.0, 1.644586908956658E9, 0.0, 2022-02-12 00:41:48.956
116.0, -12231.008676410756, -11921.816995360494, -8226.24662235339, -13434.583060095676, -11854.761761994572, -8815.773882362113, -11488.640187816643, -9196.692311369457, -12004.071414956024, -14533.595983218669, -10190.383814619043, -8631.170824905734, -8716.420378258274, -11979.842123966471, -13390.572475263176, -19163.201053524142, 0.006, -0.032, 0.992, 192.0, 0.0, 24.0, 127.5, 0.0, 15.5, 0.0, 0.0, 0.0, 0.0, 1.644586908964598E9, 0.0, 2022-02-12 00:41:48.964
118.0, -12205.639446453983, -11876.554712838497, -8194.305979526756, -13449.424618414, -11832.477072772632, -8802.0275595221, -11472.278710875358, -9163.790543531244, -11987.553475803552, -14507.153869528041, -10171.943625443415, -8621.403112578764, -8689.084194789433, -11964.195902847756, -13367.88545464104, -19153.9697830641, 0.006, -0.032, 0.992, 192.0, 0.0, 0.0, 0.0, 0.0, 0.0, 0.0, 0.0, 0.0, 0.0, 1.644586908971768E9, 0.0, 2022-02-12 00:41:48.971
120.0, -12198.665702183927, -11921.2134982602, -8223.072674640736, -13435.834757785173, -11846.29045084601, -8817.562021918538, -11482.672272047075, -9189.830325821678, -11976.645824509362, -14502.169430514507, -10171.451887065397, -8620.821967222926, -8693.420433213763, -11965.671117981807, -13364.219768550369, -19157.233137754578, 0.006, -0.032, 0.992, 192.0, 0.0, 0.0, 0.0, 0.0, 0.0, 0.0, 0.0, 0.0, 0.0, 1.64458690897916E9, 0.0, 2022-02-12 00:41:48.979
122.0, -12183.26535025422, -11893.095003735425, -8201.726758685918, -13436.035923485271, -11840.367238565355, -8796.081995496988, -11478.581902811755, -9176.95572101542, -11979.596254777463, -14514.597000431659, -10186.2040384059, -8633.741275518094, -8701.131785050844, -11969.56032151703, -13387.309120572701, -19152.874547585794, 0.006, -0.032, 0.992, 192.0, 0.0, 0.0, 0.0, 0.0, 0.0, 0.0, 0.0, 0.0, 0.0, 1.644586908987335E9, 0.0, 2022-02-12 00:41:48.987
124.0, -12219.877507672014, -11928.053132063525, -8206.599438977175, -13436.974696752393, -11845.016401412058, -8802.966332789223, -11482.158181924604, -9175.748726814834, -11983.552513546052, -14519.53673595628, -10156.38681130252, -8609.355522317353, -8682.266912730565, -11950.360173029921, -13348.394733476012, -19149.052399283933, 0.006, -0.032, 0.992, 192.0, 0.0, 0.0, 0.0, 0.0, 0.0, 0.0, 0.0, 0.0, 0.0, 1.644586908995148E9, 0.0, 2022-02-12 00:41:48.995
126.0, -12247.101932418578, -11942.402952003831, -8226.045456653292, -13439.746313064852, -11850.693744503707, -8814.902164328358, -11486.494420348934, -9190.880857811077, -12014.263810427645, -14539.206271076951, -10185.466430838875, -8639.955060476668, -8718.879070148358, -11975.639996008873, -13382.615254237087, -19157.27784124349, 0.01, -0.028, 0.994, 192.0, 0.0, 40.0, 127.5, 16.0, 15.5, 8.0, 0.0, 0.0, 0.0, 1.644586909001724E9, 0.0, 2022-02-12 00:41:49.001
128.0, -12205.058301098145, -11897.386538670844, -8198.552810973264, -13452.062124259726, -11839.54022402051, -8801.446414166263, -11467.540141050833, -9156.995613216832, -11998.774051520117, -14502.035320047775, -10167.741497485817, -8629.09211267139, -8697.689616404727, -11975.349423330954, -13363.392754005523, -19153.031009796978, 0.01, -0.028, 0.994, 192.0, 0.0, 0.0, 0.0, 0.0, 0.0, 0.0, 0.0, 0.0, 0.0, 1.644586909010085E9, 0.0, 2022-02-12 00:41:49.010
130.0, -12221.263315828242, -11907.73539635365, -8226.693657242497, -13436.885289774573, -11854.650003272296, -8804.9779897902, -11489.08722270575, -9200.760328860322, -11985.56417054703, -14509.120823040108, -10163.651128250496, -8630.075589427423, -8690.134726778833, -11965.805228448538, -13363.191588305424, -19155.959088320626, 0.01, -0.028, 0.994, 192.0, 0.0, 0.0, 0.0, 0.0, 0.0, 0.0, 0.0, 0.0, 0.0, 1.644586909018253E9, 0.0, 2022-02-12 00:41:49.018
132.0, -12191.401385235953, -11885.003672242603, -8214.2884390698, -13444.574289867198, -11855.722887006152, -8793.578600117993, -11483.856914503207, -9182.029567006775, -12007.245362668678, -14532.50074774036, -10205.962980504391, -8649.253386170076, -8716.643895702828, -11997.477650341709, -13391.332434574657, -19161.725838390095, 0.01, -0.028, 0.994, 192.0, 0.0, 0.0, 0.0, 0.0, 0.0, 0.0, 0.0, 0.0, 0.0, 1.644586909031908E9, 0.0, 2022-02-12 00:41:49.031
134.0, -12202.51020223024, -11911.334027210954, -8200.989151118893, -13438.56167060872, -11849.3973433253, -8785.73313781418, -11480.906484235107, -9180.286130939261, -11970.700260484251, -14500.20247700244, -10154.352802557089, -8609.757853717549, -8680.232903985132, -11942.246489792644, -13353.26741376727, -19151.26522198501, 0.01, -0.028, 0.994, 192.0, 0.0, 0.0, 0.0, 0.0, 0.0, 0.0, 0.0, 0.0, 0.0, 1.644586909039584E9, 0.0, 2022-02-12 00:41:49.039
136.0, -12218.156423348955, -11914.105643523413, -8223.229136851924, -13443.143778222058, -11854.292375361012, -8802.966332789223, -11487.768469782886, -9196.312331713716, -12009.636999325396, -14532.634858207091, -10188.081584940146, -8647.107618702366, -8715.950991624713, -11971.259054095633, -13387.756155461808, -19164.184530280178, 0.012, -0.028, 0.994, 192.0, 0.0, 48.0, 127.5, 16.0, 15.5, 8.0, 0.0, 0.0, 0.0, 1.644586909047438E9, 0.0, 2022-02-12 00:41:49.047
138.0, -12180.94076883087, -11882.544980352519, -8193.881296382106, -13444.842510800661, -11834.332267562422, -8778.960559244224, -11463.248606115414, -9154.112238182097, -11984.580693790997, -14505.030453804786, -10165.595730018107, -8618.899717199769, -8695.76736638157, -11949.309641040521, -13363.795085405718, -19152.293402229956, 0.012, -0.028, 0.994, 192.0, 0.0, 0.0, 0.0, 0.0, 0.0, 0.0, 0.0, 0.0, 0.0, 1.64458690905405E9, 0.0, 2022-02-12 00:41:49.054
140.0, -12206.377054021008, -11921.034684304559, -8219.429340294522, -13434.314839162213, -11842.423599055242, -8792.975103017701, -11478.716013278487, -9183.124802485085, -11970.119115128413, -14481.739936082357, -10161.840636949615, -8599.632513479295, -8683.205685997687, -11945.733361927672, -13354.094428312115, -19154.260355742023, 0.012, -0.028, 0.994, 192.0, 0.0, 0.0, 0.0, 0.0, 0.0, 0.0, 0.0, 0.0, 0.0, 1.644586909062166E9, 0.0, 2022-02-12 00:41:49.062
142.0, -12193.994187592769, -11882.433221630243, -8204.610133720653, -13445.691877089963, -11839.54022402051, -8781.575713345494, -11466.89194046163, -9165.891607510044, -11996.740042774683, -14513.747634142357, -10182.895980226514, -8633.42835109572, -8705.468023475174, -11973.628339007895, -13382.324681559168, -19160.0718093004, 0.012, -0.028, 0.994, 192.0, 0.0, 0.0, 0.0, 0.0, 0.0, 0.0, 0.0, 0.0, 0.0, 1.644586909070173E9, 0.0, 2022-02-12 00:41:49.070
144.0, -12192.943655603369, -11888.647006588819, -8187.891028868084, -13434.203080439936, -11825.838604669405, -8774.959596986722, -11462.287481103836, -9156.302709138718, -11974.008318663637, -14495.709776366923, -10139.779465172227, -8597.374987289308, -8667.268892201053, -11924.432149461765, -13347.92534684245, -19150.773483606994, 0.012, -0.028, 0.994, 192.0, 0.0, 0.0, 0.0, 0.0, 0.0, 0.0, 0.0, 0.0, 0.0, 1.644586909077283E9, 0.0, 2022-02-12 00:41:49.077
146.0, -12204.566562720129, -11903.242695718134, -8204.34191278719, -13423.697760545941, -11835.673372229741, -8782.626245334894, -11479.923007479074, -9178.274473938283, -11987.776993248104, -14516.8768783661, -10159.717221226361, -8628.354505104364, -8687.854848844392, -11960.016126634613, -13381.140039103037, -19157.3225447324, 0.012, -0.02, 0.99, 192.0, 0.0, 48.0, 127.5, 48.0, 15.0, 120.0, 0.0, 0.0, 0.0, 1.644586909084065E9, 0.0, 2022-02-12 00:41:49.084
148.0, -12173.072954782601, -11867.189331911724, -8175.99990081786, -13428.212812925913, -11819.177784821724, -8770.891579495858, -11455.246681600414, -9149.15015091302, -11969.56032151703, -14499.643683391057, -10139.064209349657, -8594.290446554476, -8667.112429989867, -11938.781969402073, -13359.078867325648, -19145.654934126727, 0.012, -0.02, 0.99, 192.0, 0.0, 0.0, 0.0, 0.0, 0.0, 0.0, 0.0, 0.0, 0.0, 1.644586909091879E9, 0.0, 2022-02-12 00:41:49.091
150.0, -12171.463629181819, -11877.024099472059, -8201.10090984117, -13426.111748947114, -11831.583002994419, -8783.989701746666, -11472.74809750892, -9176.508686126315, -11965.425248792799, -14475.660261590512, -10143.95924138537, -8604.236972837089, -8665.90543578928, -11936.099760067435, -13357.447189980412, -19151.913422574213, 0.012, -0.02, 0.99, 192.0, 0.0, 0.0, 0.0, 0.0, 0.0, 0.0, 0.0, 0.0, 0.0, 1.644586909099821E9, 0.0, 2022-02-12 00:41:49.099
152.0, -12161.248881965743, -11865.065916188469, -8187.66751142353, -13439.925127020495, -11828.140834348302, -8765.795381760046, -11466.154332894605, -9163.701136553424, -11983.016071679125, -14496.559142656226, -10176.481029567842, -8630.746141761081, -8694.515668692073, -11949.197882318245, -13383.844600182128, -19157.1213790323, 0.012, -0.02, 0.99, 192.0, 0.0, 0.0, 0.0, 0.0, 0.0, 0.0, 0.0, 0.0, 0.0, 1.64458690910705E9, 0.0, 2022-02-12 00:41:49.107
154.0, -12173.65410013844, -11879.326329150956, -8184.605322433153, -13435.454778129433, -11828.140834348302, -8766.35417537143, -11463.159199137594, -9156.727392283368, -11949.55551022953, -14441.95383095191, -10124.58027894262, -8576.0737748234, -8645.386534379308, -11914.2621057346, -13350.182873032436, -19147.510128916518, 0.012, -0.024, 0.989, 192.0, 0.0, 48.0, 127.5, 16.0, 15.0, 112.0, 0.0, 0.0, 0.0, 1.644586909114483E9, 0.0, 2022-02-12 00:41:49.114
156.0, -12197.056376583145, -11900.336968938944, -8208.208764577957, -13431.833795527673, -11839.406113553778, -8787.49892562615, -11468.478914317957, -9183.05774725172, -11991.487382827687, -14518.888535367078, -10155.62685199104, -8615.703417742661, -8688.123069777856, -11967.056926138035, -13383.17404784847, -19161.569376178908, 0.012, -0.024, 0.989, 192.0, 0.0, 0.0, 0.0, 0.0, 0.0, 0.0, 0.0, 0.0, 0.0, 1.644586909122378E9, 0.0, 2022-02-12 00:41:49.122
158.0, -12180.001995563745, -11873.604282570397, -8180.246732264368, -13446.4741881459, -11829.750159949084, -8765.92949222678, -11464.567359038278, -9154.313403882195, -11976.51171404263, -14505.231619504884, -10140.159444827968, -8594.402205276752, -8673.482677159629, -11937.46321647921, -13365.382059262045, -19155.109722031324, 0.012, -0.024, 0.989, 192.0, 0.0, 0.0, 0.0, 0.0, 0.0, 0.0, 0.0, 0.0, 0.0, 1.644586909131907E9, 0.0, 2022-02-12 00:41:49.131
160.0, -12202.08551908559, -11910.752881855116, -8204.543078487288, -13439.299278175746, -11839.115540875859, -8775.294873153553, -11469.372984096168, -9170.652529079023, -11969.381507561387, -14510.260762007329, -10139.757113427773, -8608.41674905023, -8665.659566600272, -11935.272745522589, -13356.486064968833, -19154.59563190885, 0.012, -0.024, 0.989, 192.0, 0.0, 0.0, 0.0, 0.0, 0.0, 0.0, 0.0, 0.0, 0.0, 1.64458690913793E9, 0.0, 2022-02-12 00:41:49.137
162.0, -12185.299358999653, -11895.777213070061, -8198.552810973264, -13453.023249271304, -11845.888119445815, -8778.982910988678, -11482.292292391336, -9172.8653517801, -11998.505830586653, -14527.248087793361, -10173.709413255383, -8633.85303424037, -8692.146383779811, -11959.524388256597, -13385.766850205286, -19161.345858734352, 0.012, -0.024, 0.989, 192.0, 0.0, 0.0, 0.0, 0.0, 0.0, 0.0, 0.0, 0.0, 0.0, 1.644586909152104E9, 0.0, 2022-02-12 00:41:49.152
164.0, -12177.208027506833, -11876.39825062731, -8196.384691761099, -13447.435313157477, -11841.507177532576, -8775.853666764935, -11473.418649842579, -9161.890645252544, -11973.31541458552, -14491.015910031309, -10145.568566986152, -8607.120347871822, -8667.648871856794, -11939.050190335536, -13359.034163836737, -19161.569376178908, 0.01, -0.025, 0.9895, 192.0, 0.0, 32.0, 127.5, 24.0, 15.0, 120.0, 0.0, 0.0, 0.0, 1.644586909158975E9, 0.0, 2022-02-12 00:41:49.158
166.0, -12181.968949075814, -11893.474983391165, -8215.361322803656, -13447.323554435201, -11841.417770554754, -8785.599027347449, -11472.234007386447, -9184.689424596956, -11993.499039828665, -14495.173334499996, -10173.351785344099, -8636.110560430356, -8694.985055325635, -11956.12692309939, -13381.631777481054, -19168.11843730431, 0.01, -0.025, 0.9895, 192.0, 0.0, 0.0, 0.0, 0.0, 0.0, 0.0, 0.0, 0.0, 0.0, 1.644586909166824E9, 0.0, 2022-02-12 00:41:49.166
168.0, -12173.65410013844, -11857.332212606932, -8187.220476534424, -13448.530548635788, -11835.427503040732, -8769.461067850718, -11472.569283553277, -9155.542749827237, -11966.788705204572, -14482.790468071757, -10141.545252984197, -8605.332208315398, -8673.706194604183, -11931.271783265089, -13371.841713409629, -19160.13886453377, 0.01, -0.025, 0.9895, 192.0, 0.0, 0.0, 0.0, 0.0, 0.0, 0.0, 0.0, 0.0, 0.0, 1.644586909174648E9, 0.0, 2022-02-12 00:41:49.174
170.0, -12202.018463852224, -11896.06778574798, -8203.693712197984, -13431.677333316486, -11839.2943548315, -8784.034405235578, -11484.41570811459, -9183.638892607558, -11966.855760437938, -14504.136384026575, -10124.781444642716, -8591.854106408848, -8659.535188619517, -11924.946239584237, -13369.293614541724, -19165.860911114327, 0.01, -0.025, 0.9895, 192.0, 0.0, 0.0, 0.0, 0.0, 0.0, 0.0, 0.0, 0.0, 0.0, 1.644586909182882E9, 0.0, 2022-02-12 00:41:49.182
172.0, -12198.08455682809, -11894.994902014125, -8198.597514462175, -13445.915394534517, -11825.659790713762, -8770.64571030685, -11463.047440415316, -9171.077212223676, -11992.023824694614, -14525.057616836742, -10156.029183391236, -8618.206813121655, -8679.964683051669, -11945.353382271933, -13384.559856004698, -19168.36430649332, 0.01, -0.025, 0.9895, 192.0, 0.0, 0.0, 0.0, 0.0, 0.0, 0.0, 0.0, 0.0, 0.0, 1.644586909189251E9, 0.0, 2022-02-12 00:41:49.189
174.0, -12165.093382012055, -11874.453648859699, -8194.23892429339, -13443.479054388888, -11830.800691938484, -8771.763297529615, -11474.715051020987, -9174.407622147515, -11968.778010461094, -14507.779718372789, -10137.164311070957, -8592.256437809043, -8653.701383316682, -11928.321352996989, -13355.301422512703, -19165.816207625416, 0.008, -0.025500000000000002, 0.98975, 192.0, 0.0, 24.0, 127.5, 24.0, 15.0, 120.0, 0.0, 0.0, 0.0, 1.64458690919731E9, 0.0, 2022-02-12 00:41:49.197
176.0, -12175.039908294668, -11904.337931196444, -8215.741302459395, -13440.886252032073, -11832.968811150648, -8780.815754034014, -11474.938568465539, -9187.10341299813, -11993.90137122886, -14503.130555526086, -10178.53739005773, -8643.061952955955, -8687.072537788456, -11956.417495777308, -13384.93983566044, -19175.829789141393, 0.008, -0.025500000000000002, 0.98975, 192.0, 0.0, 0.0, 0.0, 0.0, 0.0, 0.0, 0.0, 0.0, 0.0, 1.644586909204419E9, 0.0, 2022-02-12 00:41:49.204
178.0, -12188.830934623593, -11889.831649044949, -8190.662645180541, -13461.874540075605, -11822.016456367548, -8764.744849770648, -11466.377850339157, -9152.569967814681, -11975.79645822006, -14506.975055572399, -10164.165218372968, -8615.32343808692, -8666.665395100761, -11947.208577061723, -13368.511303485788, -19166.442056470165, 0.008, -0.025500000000000002, 0.98975, 192.0, 0.0, 0.0, 0.0, 0.0, 0.0, 0.0, 0.0, 0.0, 0.0, 1.644586909212296E9, 0.0, 2022-02-12 00:41:49.212
180.0, -12207.874620899514, -11901.320445694977, -8214.444901280987, -13445.66952534551, -11826.509157003065, -8764.25311139263, -11476.100859177215, -9175.681671581468, -11981.607911778441, -14509.97018932941, -10139.824168661138, -8608.595563005872, -8664.85490379988, -11929.707161153217, -13365.06913483967, -19166.68792565917, 0.008, -0.025500000000000002, 0.98975, 192.0, 0.0, 0.0, 0.0, 0.0, 0.0, 0.0, 0.0, 0.0, 0.0, 1.644586909219188E9, 0.0, 2022-02-12 00:41:49.219
182.0, -12185.79109737767, -11893.720852580173, -8206.264162810345, -13443.389647411066, -11833.169976850746, -8762.219102647197, -11469.641205029631, -9165.042241220743, -12004.652560311863, -14540.077989110709, -10165.014584662269, -8632.869557484337, -8683.987997053624, -11944.03462934907, -13386.258588583301, -19166.30794600343, 0.008, -0.025500000000000002, 0.98975, 192.0, 0.0, 0.0, 0.0, 0.0, 0.0, 0.0, 0.0, 0.0, 0.0, 1.64458690922695E9, 0.0, 2022-02-12 00:41:49.226
184.0, -12176.470419939807, -11886.92592226576, -8192.76370915934, -13434.068969973205, -11830.733636705118, -8753.099590909433, -11473.88803647614, -9165.19870343193, -11980.266807111122, -14506.05863404973, -10140.606479717075, -8584.187458060678, -8666.643043356305, -11903.577971884963, -13356.374306246556, -19159.535367433473, 0.011, -0.02275, 0.9898750000000001, 192.0, 0.0, 56.0, 127.5, 48.0, 15.0, 120.0, 0.0, 0.0, 0.0, 1.644586909235179E9, 0.0, 2022-02-12 00:41:49.235
186.0, -12184.606454921539, -11889.049337989014, -8212.030912879814, -13430.85031877164, -11839.897851931793, -8765.169532915299, -11485.309777892802, -9186.857543809121, -12002.886772499893, -14518.82148013371, -10163.762886972772, -8608.237935094588, -8688.301883733498, -11924.320390739489, -13384.671614726974, -19166.732629148082, 0.011, -0.02275, 0.9898750000000001, 192.0, 0.0, 0.0, 0.0, 0.0, 0.0, 0.0, 0.0, 0.0, 0.0, 1.644586909242052E9, 0.0, 2022-02-12 00:41:49.242
188.0, -12179.21968450781, -11861.891968475815, -8191.109680069648, -13449.268156202812, -11829.079607615426, -8756.184131644266, -11464.992042182928, -9145.752685755811, -11986.413536836331, -14498.637854890569, -10165.483971295831, -8606.248629838066, -8682.423374941753, -11911.02110278858, -13375.306233800202, -19158.46248369962, 0.011, -0.02275, 0.9898750000000001, 192.0, 0.0, 0.0, 0.0, 0.0, 0.0, 0.0, 0.0, 0.0, 0.0, 1.644586909250197E9, 0.0, 2022-02-12 00:41:49.250
190.0, -12212.188507579387, -11909.188259743245, -8213.90845941406, -13438.740484564363, -11839.651982742786, -8770.198675417743, -11475.743231265931, -9173.178276202474, -11984.290121113077, -14485.696194850945, -10145.412104774965, -8603.834641436892, -8673.035642270523, -11922.845175605438, -13366.052611595704, -19162.575204679397, 0.011, -0.02275, 0.9898750000000001, 192.0, 0.0, 0.0, 0.0, 0.0, 0.0, 0.0, 0.0, 0.0, 0.0, 1.644586909257669E9, 0.0, 2022-02-12 00:41:49.257
192.0, -12194.709443415339, -11882.768497797073, -8206.375921532623, -13457.940633051472, -11837.126235619335, -8760.654480535326, -11466.400202083612, -9160.102505696119, -12008.47470861372, -14536.993448375875, -10175.408145833988, -8632.266060384043, -8690.33589247893, -11951.097780596947, -13391.153620619014, -19168.520768704508, 0.011, -0.02275, 0.9898750000000001, 192.0, 0.0, 0.0, 0.0, 0.0, 0.0, 0.0, 0.0, 0.0, 0.0, 1.644586909264526E9, 0.0, 2022-02-12 00:41:49.264
194.0, -12165.294547712154, -11867.97164296766, -8192.00374984786, -13449.268156202812, -11832.43236928372, -8752.406686831318, -11468.300100362314, -9155.654508549513, -11972.220179107211, -14499.375462457594, -10134.1915290584, -8584.74625167206, -8657.456476385174, -11907.377768442366, -13353.602689934098, -19160.94352733416, 0.0115, -0.025375, 0.9899375, 192.0, 0.0, 48.0, 127.5, 16.0, 15.0, 120.0, 0.0, 0.0, 0.0, 1.644586909279141E9, 0.0, 2022-02-12 00:41:49.279
196.0, -12182.438335709374, -11911.69165512224, -8210.153366345568, -13446.049505001249, -11836.589793752408, -8765.281291637575, -11478.291330133836, -9176.709851826412, -11986.927626958803, -14524.699988925457, -10154.95629965738, -8612.931801430203, -8682.24456098611, -11937.619678690397, -13382.391736792533, -19170.621832683308, 0.0115, -0.025375, 0.9899375, 192.0, 0.0, 0.0, 0.0, 0.0, 0.0, 0.0, 0.0, 0.0, 0.0, 1.644586909287185E9, 0.0, 2022-02-12 00:41:49.287
198.0, -12175.397536205952, -11888.132916466346, -8186.281703267301, -13463.349755209656, -11824.09516860189, -8760.989756702156, -11471.451696330512, -9160.504837096314, -11988.13462115939, -14545.35300080216, -10148.071962365148, -8620.620801522828, -8673.348566692897, -11925.795605873538, -13368.89128314153, -19163.715143646616, 0.0115, -0.025375, 0.9899375, 192.0, 0.0, 0.0, 0.0, 0.0, 0.0, 0.0, 0.0, 0.0, 0.0, 1.644586909294273E9, 0.0, 2022-02-12 00:41:49.294
200.0, -12208.142841832978, -11919.894745337337, -8204.520726742832, -13444.998973011849, -11818.2390115546, -8756.16177989981, -11471.876379475163, -9169.691404067446, -11979.730365244195, -14528.320971527217, -10134.258584291767, -8606.718016471626, -8659.289319430509, -11928.008428574614, -13359.905881870494, -19165.547986691952, 0.0115, -0.025375, 0.9899375, 192.0, 0.0, 0.0, 0.0, 0.0, 0.0, 0.0, 0.0, 0.0, 0.0, 1.64458690930172E9, 0.0, 2022-02-12 00:41:49.301
202.0, -12195.514106215729, -11899.398195671822, -8193.166040559536, -13462.388630198078, -11805.90084861527, -8752.965480442701, -11454.866701944675, -9150.737124769346, -11996.583580563496, -14552.63966949459, -10172.904750454993, -8641.094999443889, -8688.346587222408, -11941.866510136904, -13378.569588490676, -19160.0718093004, 0.0115, -0.025375, 0.9899375, 192.0, 0.0, 0.0, 0.0, 0.0, 0.0, 0.0, 0.0, 0.0, 0.0, 1.64458690931014E9, 0.0, 2022-02-12 00:41:49.310
204.0, -12195.514106215729, -11890.837477545438, -8184.962950344438, -13457.583005140186, -11806.660807926752, -8744.15889312731, -11453.235024599437, -9132.229880360352, -11964.486475525675, -14512.8759161086, -10129.76588365625, -8600.03484487949, -8651.130932704322, -11915.98319005766, -13345.578413674642, -19151.13111151828, 0.00875, -0.0246875, 0.99096875, 192.0, 0.0, 24.0, 127.5, 32.0, 15.5, 0.0, 0.0, 0.0, 0.0, 1.644586909317756E9, 0.0, 2022-02-12 00:41:49.317
206.0, -12192.049585825156, -11912.719835367185, -8210.890973912594, -13452.464455659921, -11817.166127820747, -8756.497056066639, -11466.109629405693, -9164.975185987376, -11983.239589123677, -14549.756294459856, -10160.365421815566, -8622.587755034894, -8675.38257543833, -11928.097835552435, -13371.349975031611, -19158.060152299422, 0.00875, -0.0246875, 0.99096875, 192.0, 0.0, 0.0, 0.0, 0.0, 0.0, 0.0, 0.0, 0.0, 0.0, 1.644586909326071E9, 0.0, 2022-02-12 00:41:49.326
208.0, -12196.765803905226, -11909.92586731027, -8182.750127643362, -13460.75695285284, -11814.95330511967, -8748.785704229558, -11472.368117853179, -9146.870272978578, -11981.362042589431, -14555.008954406852, -10155.760962457773, -8605.511022271041, -8666.598339867394, -11933.97634434418, -13367.326661029658, -19153.74626561955, 0.00875, -0.0246875, 0.99096875, 192.0, 0.0, 0.0, 0.0, 0.0, 0.0, 0.0, 0.0, 0.0, 0.0, 1.64458690933196E9, 0.0, 2022-02-12 00:41:49.331
210.0, -12232.238022355798, -11932.143501298846, -8196.407043505555, -13451.458627159433, -11814.394511508288, -8757.88286422287, -11458.599443268711, -9163.567026086692, -11970.141466872868, -14550.516253771337, -10124.62498243153, -8603.298199569965, -8651.153284448777, -11932.165853043301, -13359.88353012604, -19160.69765814515, 0.00875, -0.0246875, 0.99096875, 192.0, 0.0, 0.0, 0.0, 0.0, 0.0, 0.0, 0.0, 0.0, 0.0, 1.644586909339404E9, 0.0, 2022-02-12 00:41:49.339
212.0, -12193.189524792377, -11892.804431057506, -8189.030967835304, -13463.975604054405, -11811.175860306725, -8746.483474550661, -11455.537254278333, -9153.732258526357, -11977.204618120744, -14550.113922371142, -10141.992287873303, -8629.740313260592, -8673.460325415173, -11939.072542079992, -13377.74257394583, -19162.262280257022, 0.00875, -0.0246875, 0.99096875, 192.0, 0.0, 0.0, 0.0, 0.0, 0.0, 0.0, 0.0, 0.0, 0.0, 1.644586909348859E9, 0.0, 2022-02-12 00:41:49.348
214.0, -12150.631803349472, -11876.666471560773, -8178.726813641408, -13453.179711482491, -11795.350825232366, -8737.118093623889, -11439.443998270512, -9136.946098440421, -11948.504978240131, -14492.871104821099, -10122.09923530808, -8597.576152989406, -8638.122217431333, -11908.718873109685, -13342.87385259555, -19153.612155152816, 0.009375000000000001, -0.02634375, 0.988484375, 192.0, 0.0, 40.0, 127.5, 16.0, 15.0, 104.0, 0.0, 0.0, 0.0, 1.644586909354995E9, 0.0, 2022-02-12 00:41:49.354
216.0, -12174.414059449919, -11905.008483530102, -8196.04941559427, -13444.95426952294, -11807.867802127339, -8744.002430916124, -11458.912367691084, -9165.109296454108, -11966.900463926848, -14549.35396305966, -10132.537499968708, -8598.760795445538, -8656.47299962914, -11922.64400990534, -13368.958338374894, -19157.814283110416, 0.009375000000000001, -0.02634375, 0.988484375, 192.0, 0.0, 0.0, 0.0, 0.0, 0.0, 0.0, 0.0, 0.0, 0.0, 1.644586909362271E9, 0.0, 2022-02-12 00:41:49.362
218.0, -12153.805751062126, -11844.949346178693, -8169.517894925821, -13458.18650224048, -11796.937799088693, -8725.472834762673, -11453.279728088348, -9130.66525824848, -11958.540911500564, -14524.990561603376, -10115.796043371683, -8595.899772155259, -8645.610051823862, -11905.12024225238, -13360.665841181975, -19150.572317906895, 0.009375000000000001, -0.02634375, 0.988484375, 192.0, 0.0, 0.0, 0.0, 0.0, 0.0, 0.0, 0.0, 0.0, 0.0, 1.644586909370102E9, 0.0, 2022-02-12 00:41:49.370
220.0, -12191.624902680505, -11882.723794308162, -8192.316674270234, -13444.127254978092, -11798.636531667296, -8736.045209890033, -11449.189358853026, -9153.374630615072, -11950.874263152393, -14510.931314340987, -10111.750377625272, -8589.55187672995, -8639.776246521025, -11896.112489236892, -13347.54536718671, -19148.158329505724, 0.009375000000000001, -0.02634375, 0.988484375, 192.0, 0.0, 0.0, 0.0, 0.0, 0.0, 0.0, 0.0, 0.0, 0.0, 1.644586909376848E9, 0.0, 2022-02-12 00:41:49.376
222.0, -12182.952425831847, -11883.886085019838, -8189.410947491044, -13453.269118460312, -11800.357615990355, -8735.642878489838, -11441.768579693864, -9135.336772839639, -11982.457278067743, -14539.049808865764, -10145.903843152983, -8606.382740304798, -8666.687746845217, -11920.431187204265, -13378.636643724043, -19153.254527241534, 0.009375000000000001, -0.02634375, 0.988484375, 192.0, 0.0, 0.0, 0.0, 0.0, 0.0, 0.0, 0.0, 0.0, 0.0, 1.64458690938474E9, 0.0, 2022-02-12 00:41:49.384
224.0, -12148.35192541503, -11872.30788139199, -8173.09417403867, -13450.855130059139, -11796.3343019884, -8731.373695298875, -11453.056210643794, -9135.225014117363, -11946.739190428161, -14520.073177823208, -10118.053569561669, -8589.261304052032, -8626.745179503581, -11902.169811984279, -13350.16052128798, -19148.44890218364, 0.01, -0.026000000000000002, 0.988, 192.0, 0.0, 40.0, 127.5, 24.0, 15.0, 112.0, 0.0, 0.0, 0.0, 1.644586909400531E9, 0.0, 2022-02-12 00:41:49.400
226.0, -12165.249844223243, -11913.16687025629, -8189.746223657874, -13449.983412025382, -11803.352749747366, -8747.355192584419, -11454.64318450012, -9160.23661616285, -11953.489417253664, -14514.440538220471, -10146.395581530998, -8614.831699708904, -8662.887950287814, -11919.023027303581, -13375.954434389405, -19159.289498244467, 0.01, -0.026000000000000002, 0.988, 192.0, 0.0, 0.0, 0.0, 0.0, 0.0, 0.0, 0.0, 0.0, 0.0, 1.644586909406325E9, 0.0, 2022-02-12 00:41:49.406
228.0, -12181.477210697796, -11863.881273732339, -8164.667566379019, -13459.527606907799, -11805.677331170718, -8736.268727334587, -11455.067867644771, -9130.531147781749, -11959.099705111947, -14547.565823503235, -10119.640543417996, -8594.446908765663, -8642.056124455468, -11908.361245198399, -13370.791181420229, -19151.93577431867, 0.01, -0.026000000000000002, 0.988, 192.0, 0.0, 0.0, 0.0, 0.0, 0.0, 0.0, 0.0, 0.0, 0.0, 1.644586909414494E9, 0.0, 2022-02-12 00:41:49.414
230.0, -12167.619129135506, -11877.314672149978, -8185.454688722455, -13445.110731734125, -11801.341092746388, -8742.415457059797, -11460.476989802955, -9152.8605404926, -11952.483588753175, -14525.728169170401, -10106.989456056292, -8598.760795445538, -8632.89190922879, -11898.951160782715, -13365.31500402868, -19153.813320852914, 0.01, -0.026000000000000002, 0.988, 192.0, 0.0, 0.0, 0.0, 0.0, 0.0, 0.0, 0.0, 0.0, 0.0, 1.644586909422429E9, 0.0, 2022-02-12 00:41:49.422
232.0, -12178.16915251841, -11877.292320405522, -8183.890066610583, -13456.286603961778, -11801.43049972421, -8742.929547182268, -11445.45661752899, -9141.192929886929, -11978.188094876778, -14528.6785994385, -10143.91453789646, -8626.789882992492, -8657.881159529825, -11925.952068084725, -13379.17308559097, -19156.115550531813, 0.01, -0.026000000000000002, 0.988, 192.0, 0.0, 0.0, 0.0, 0.0, 0.0, 0.0, 0.0, 0.0, 0.0, 1.644586909429647E9, 0.0, 2022-02-12 00:41:49.429
234.0, -12166.88152156848, -11893.229114202157, -8179.866752608628, -13455.750162094851, -11804.090357314391, -8729.831424931459, -11451.73745772093, -9133.660392005491, -11957.51273125562, -14528.946820371964, -10116.95833408336, -8573.1233445553, -8631.595508050385, -11890.92688452326, -13345.623117163554, -19149.119454517302, 0.01, -0.026000000000000002, 0.99, 192.0, 0.0, 40.0, 127.5, 24.0, 15.0, 120.0, 0.0, 0.0, 0.0, 1.644586909437174E9, 0.0, 2022-02-12 00:41:49.437
236.0, -12182.594797920561, -11908.338893453943, -8206.264162810345, -13459.080572018693, -11821.077683100424, -8750.752657741627, -11466.824885228263, -9157.688517294946, -11978.322205343511, -14527.87393663811, -10139.108912838568, -8608.75202521706, -8650.594490837395, -11917.816033102994, -13376.848504167618, -19162.619908168308, 0.01, -0.026000000000000002, 0.99, 192.0, 0.0, 0.0, 0.0, 0.0, 0.0, 0.0, 0.0, 0.0, 0.0, 1.644586909445035E9, 0.0, 2022-02-12 00:41:49.445
238.0, -12166.926225057392, -11852.236014871123, -8182.683072409996, -13474.14564778157, -11818.261363299056, -8741.789608215047, -11464.187379382538, -9136.879043207055, -11975.528237286597, -14544.548338001769, -10141.43349426192, -8615.614010764839, -8655.489522873107, -11908.69652136523, -13372.735783187842, -19162.12816979029, 0.01, -0.026000000000000002, 0.99, 192.0, 0.0, 0.0, 0.0, 0.0, 0.0, 0.0, 0.0, 0.0, 0.0, 1.644586909452064E9, 0.0, 2022-02-12 00:41:49.452
240.0, -12189.099155557056, -11900.180506727756, -8195.647084194075, -13453.827912071696, -11819.468357499643, -8737.498073279628, -11475.475010332468, -9154.04518294873, -11955.970460888204, -14530.802015161755, -10124.535575453709, -8606.047464137968, -8648.42637162523, -11908.763576598594, -13366.298480784713, -19162.64225991276, 0.01, -0.026000000000000002, 0.99, 192.0, 0.0, 0.0, 0.0, 0.0, 0.0, 0.0, 0.0, 0.0, 0.0, 1.644586909459452E9, 0.0, 2022-02-12 00:41:49.459
242.0, -12186.640463666972, -11899.331140438455, -8187.421642234522, -13462.61214764263, -11810.52765971752, -8736.15696861231, -11464.142675893627, -9144.277470621762, -11990.056871182547, -14558.473474797425, -10147.49081700931, -8614.563478775439, -8663.692613088204, -11921.593477915942, -13385.476277527367, -19159.200091266644, 0.01, -0.026000000000000002, 0.99, 192.0, 0.0, 0.0, 0.0, 0.0, 0.0, 0.0, 0.0, 0.0, 0.0, 1.644586909466961E9, 0.0, 2022-02-12 00:41:49.466
244.0, -12173.050603038146, -11876.957044238692, -8173.943540327971, -13457.873577818105, -11804.313874758946, -8730.43492203175, -11452.922100177062, -9132.073418149164, -11963.815923192016, -14527.337494771184, -10114.231421259812, -8583.069870837911, -8632.37781910632, -11900.113451494391, -13350.4510939659, -19153.3215824749, 0.016, -0.018000000000000002, 0.99, 192.0, 0.0, 64.0, 127.5, 56.0, 15.0, 120.0, 0.0, 0.0, 0.0, 1.644586909474825E9, 0.0, 2022-02-12 00:41:49.474
246.0, -12174.101135027544, -11884.578989097952, -8193.747185915374, -13461.874540075605, -11816.406168509266, -8738.950936669224, -11464.880283460652, -9161.331851641162, -11972.778972718594, -14532.25487855135, -10134.504453480775, -8622.85597596836, -8650.99682223759, -11929.349533241932, -13371.148809331515, -19161.79289362346, 0.016, -0.018000000000000002, 0.99, 192.0, 0.0, 0.0, 0.0, 0.0, 0.0, 0.0, 0.0, 0.0, 0.0, 1.644586909481913E9, 0.0, 2022-02-12 00:41:49.481
248.0, -12153.381067917475, -11859.098000418902, -8169.607301903642, -13475.039717559781, -11810.013569595048, -8726.63512547435, -11459.538216535833, -9130.7546652263, -11966.98987090467, -14529.63972445008, -10142.95341288488, -8610.093129884379, -8649.096923958889, -11904.606152129907, -13364.17506506146, -19158.484835444073, 0.016, -0.018000000000000002, 0.99, 192.0, 0.0, 0.0, 0.0, 0.0, 0.0, 0.0, 0.0, 0.0, 0.0, 1.644586909489401E9, 0.0, 2022-02-12 00:41:49.489
250.0, -12179.97964381929, -11904.87437306337, -8187.689863167985, -13456.867749317616, -11816.473223742632, -8739.643840747338, -11467.093106161727, -9141.304688609205, -11957.758600444628, -14523.135366813585, -10126.122549310036, -8592.03292036449, -8637.965755220146, -11893.944370024727, -13350.272280010258, -19160.69765814515, 0.016, -0.018000000000000002, 0.99, 192.0, 0.0, 0.0, 0.0, 0.0, 0.0, 0.0, 0.0, 0.0, 0.0, 1.644586909497302E9, 0.0, 2022-02-12 00:41:49.497
252.0, -12180.001995563745, -11881.337986151933, -8185.409985233544, -13466.926034322505, -11811.868764384839, -8739.912061680801, -11453.659707744087, -9140.924708953466, -11988.626359537408, -14541.821425178221, -10142.86400590706, -8619.503214300063, -8665.48075264463, -11923.247507005633, -13376.960262889894, -19164.564509935917, 0.016, -0.018000000000000002, 0.99, 192.0, 0.0, 0.0, 0.0, 0.0, 0.0, 0.0, 0.0, 0.0, 0.0, 1.644586909505421E9, 0.0, 2022-02-12 00:41:49.505
254.0, -12163.1711319889, -11878.789887284029, -8175.754031628851, -13462.120409264615, -11817.993142365593, -8732.804206944014, -11463.628585771154, -9130.7546652263, -11966.095801126457, -14530.623201206114, -10110.90101133597, -8579.158315558234, -8643.106656444867, -11903.041530018036, -13347.277146253247, -19155.89203308726, 0.01, -0.02, 0.992, 192.0, 0.0, 40.0, 127.5, 48.0, 15.5, 0.0, 0.0, 0.0, 0.0, 1.644586909511949E9, 0.0, 2022-02-12 00:41:49.511
0.0, -12181.812486864626, -11882.030890230048, -8197.47992723941, -13454.945499294461, -11822.351732534378, -8742.482512293162, -11468.523617806866, -9159.364898129093, -11984.446583324265, -14543.922489157021, -10141.925232639936, -8614.876403197813, -8667.2465404566, -11911.714006866696, -13375.194475077926, -19164.810379124927, 0.01, -0.02, 0.992, 192.0, 0.0, 0.0, 0.0, 0.0, 0.0, 0.0, 0.0, 0.0, 0.0, 1.644586909527008E9, 0.0, 2022-02-12 00:41:49.527
2.0, -12163.998146533746, -11858.785075996528, -8175.888142095583, -13476.492580949376, -11818.507232488064, -8729.607907486905, -11463.427420071057, -9134.062723405686, -11980.557379789041, -14544.548338001769, -10140.181796572424, -8599.833679179392, -8651.399153637785, -11908.741224854139, -13368.511303485788, -19159.803588366936, 0.01, -0.02, 0.992, 192.0, 0.0, 0.0, 0.0, 0.0, 0.0, 0.0, 0.0, 0.0, 0.0, 1.644586909535034E9, 0.0, 2022-02-12 00:41:49.535
4.0, -12180.024347308201, -11892.983245013147, -8192.09315682568, -13458.298260962756, -11829.012552382059, -8736.469893034684, -11482.739327280442, -9149.977165457865, -11967.571016260508, -14522.040131335276, -10132.67161043544, -8595.139812843778, -8643.307822144965, -11902.63919861784, -13359.995288848317, -19165.816207625416, 0.01, -0.02, 0.992, 192.0, 0.0, 0.0, 0.0, 0.0, 0.0, 0.0, 0.0, 0.0, 0.0, 1.644586909542216E9, 0.0, 2022-02-12 00:41:49.542
6.0, -12199.090385328578, -11894.324349680466, -8189.075671324214, -13474.972662326416, -11823.648133712786, -8734.748808711625, -11454.84435020022, -9144.14336015503, -11999.3328451315, -14547.677582225513, -10156.476218280342, -8619.167938133232, -8666.888912545313, -11923.918059339292, -13384.31398681569, -19167.26907101501, 0.01, -0.02, 0.992, 192.0, 0.0, 0.0, 0.0, 0.0, 0.0, 0.0, 0.0, 0.0, 0.0, 1.644586909549579E9, 0.0, 2022-02-12 00:41:49.549
8.0, -12187.93686484538, -11883.953140253203, -8177.944502585471, -13471.374031469111, -11824.586906979908, -8729.607907486905, -11464.835579971741, -9131.916955937977, -11977.182266376289, -14536.97109663142, -10123.887374864504, -8600.727748957604, -8639.351563376375, -11888.177619955257, -13356.26254752428, -19160.69765814515, 0.01, -0.024, 0.988, 192.0, 0.0, 40.0, 127.5, 32.0, 15.0, 112.0, 0.0, 0.0, 0.0, 1.644586909556892E9, 0.0, 2022-02-12 00:41:49.556
10.0, -12198.017501594722, -11903.801489329517, -8198.463403995444, -13459.304089463245, -11824.966886635648, -8738.0121634021, -11466.98134743945, -9159.163732428997, -11994.482516584698, -14554.830140451211, -10147.20024433139, -8617.670371254728, -8660.585720608917, -11918.374826714376, -13379.307196057702, -19171.717068161615, 0.01, -0.024, 0.988, 192.0, 0.0, 0.0, 0.0, 0.0, 0.0, 0.0, 0.0, 0.0, 0.0, 1.64458690956495E9, 0.0, 2022-02-12 00:41:49.564
12.0, -12166.143914001455, -11875.258311660089, -8175.888142095583, -13473.162171025537, -11816.562630720453, -8722.075369605467, -11456.610138012187, -9129.011229158787, -11987.553475803552, -14539.027457121309, -10142.10404659558, -8602.09120536938, -8643.039601211502, -11905.142593996834, -13375.55210298921, -19163.35751573533, 0.01, -0.024, 0.988, 192.0, 0.0, 0.0, 0.0, 0.0, 0.0, 0.0, 0.0, 0.0, 0.0, 1.644586909572969E9, 0.0, 2022-02-12 00:41:49.572
14.0, -12169.206102991833, -11881.15917219629, -8189.925037613516, -13458.18650224048, -11826.710322703162, -8722.142424838832, -11475.407955099101, -9153.15111317052, -11971.70608898474, -14524.029436591798, -10141.791122173205, -8597.598504733862, -8647.778171036027, -11897.699463093217, -13360.308213270691, -19166.46440821462, 0.01, -0.024, 0.988, 192.0, 0.0, 0.0, 0.0, 0.0, 0.0, 0.0, 0.0, 0.0, 0.0, 1.644586909578957E9, 0.0, 2022-02-12 00:41:49.578
16.0, -12175.062260039123, -11881.315634407478, -8186.482868967399, -13470.569368668721, -11822.262325556556, -8724.958744640202, -11460.119361891671, -9154.04518294873, -11993.27552238411, -14551.142102616084, -10159.538407270718, -8621.045484667478, -8668.744107335104, -11913.50214642312, -13387.957321161906, -19168.74428614906, 0.01, -0.024, 0.988, 192.0, 0.0, 0.0, 0.0, 0.0, 0.0, 0.0, 0.0, 0.0, 0.0, 1.644586909586579E9, 0.0, 2022-02-12 00:41:49.586
18.0, -12172.737678615771, -11881.762669296584, -8179.509124697343, -13468.490656434376, -11821.390607522799, -8716.979171869656, -11457.370097323668, -9136.767284484778, -11976.08703089798, -14514.284076009284, -10121.786310885705, -8592.167030831222, -8639.083342442911, -11892.871486290871, -13357.827169636152, -19161.211748267622, 0.01, -0.026000000000000002, 0.986, 192.0, 0.0, 40.0, 127.5, 24.0, 15.0, 104.0, 0.0, 0.0, 0.0, 1.644586909594503E9, 0.0, 2022-02-12 00:41:49.594
20.0, -12195.469402726818, -11910.439957432744, -8201.81616566374, -13460.265214474824, -11826.57621223643, -8728.333858052953, -11459.851140958208, -9151.161807913997, -11996.382414863398, -14553.220814850429, -10141.545252984197, -8613.602353763861, -8662.127990976333, -11911.78106210006, -13381.36355654759, -19171.113571061323, 0.01, -0.026000000000000002, 0.986, 192.0, 0.0, 0.0, 0.0, 0.0, 0.0, 0.0, 0.0, 0.0, 0.0, 1.64458690960276E9, 0.0, 2022-02-12 00:41:49.602
22.0, -12174.503466427741, -11855.454666072686, -8181.3866712315885, -13477.565464683232, -11826.15152909178, -8712.128843322855, -11456.163103123083, -9119.33292380964, -11995.84597299647, -14544.861262424143, -10147.66963096495, -8612.887097941291, -8654.818970539447, -11905.343759696932, -13374.322757044169, -19164.720972147104, 0.01, -0.026000000000000002, 0.986, 192.0, 0.0, 0.0, 0.0, 0.0, 0.0, 0.0, 0.0, 0.0, 0.0, 1.644586909609163E9, 0.0, 2022-02-12 00:41:49.609
24.0, -12179.51025718573, -11878.789887284029, -8199.379825518112, -13461.651022631053, -11820.988276122604, -8725.718703951681, -11465.684946261043, -9139.516549052782, -11980.84795246696, -14527.136329071085, -10137.946622126892, -8605.667484482228, -8644.648926812282, -11893.698500835717, -13361.895187127016, -19163.916309346714, 0.01, -0.026000000000000002, 0.986, 192.0, 0.0, 0.0, 0.0, 0.0, 0.0, 0.0, 0.0, 0.0, 0.0, 1.644586909617332E9, 0.0, 2022-02-12 00:41:49.617
26.0, -12194.307112015142, -11909.948219054726, -8192.137860314591, -13473.206874514446, -11826.084473858415, -8723.572936483972, -11472.479876575457, -9138.66718276348, -12002.752662033161, -14554.271346839829, -10167.674442252452, -8643.419580867241, -8669.705232346681, -11925.370922728887, -13388.672576984476, -19168.900748360247, 0.01, -0.026000000000000002, 0.986, 192.0, 0.0, 0.0, 0.0, 0.0, 0.0, 0.0, 0.0, 0.0, 0.0, 1.644586909625216E9, 0.0, 2022-02-12 00:41:49.625
28.0, -12170.703669870338, -11894.547867125018, -8178.95033108596, -13472.424563458511, -11830.48776751611, -8710.050131088512, -11473.306891120303, -9132.967487927377, -11972.488400040675, -14533.21600356293, -10127.553060955175, -8589.149545329756, -8638.636307553805, -11887.037680988036, -13359.615309192575, -19162.50814944603, 0.008, -0.028, 0.984, 192.0, 0.0, 32.0, 127.5, 16.0, 15.0, 96.0, 0.0, 0.0, 0.0, 1.644586909632912E9, 0.0, 2022-02-12 00:41:49.632
30.0, -12209.886277900492, -11905.299056208021, -8195.580028960709, -13467.3283657227, -11829.392532037798, -8725.20461382921, -11464.924986949562, -9155.520398082781, -11989.922760715815, -14544.727151957411, -10151.380020544531, -8616.709246243148, -8656.338889162409, -11892.849134546415, -13380.357728047102, -19171.493550717063, 0.008, -0.028, 0.984, 192.0, 0.0, 0.0, 0.0, 0.0, 0.0, 0.0, 0.0, 0.0, 0.0, 1.644586909647004E9, 0.0, 2022-02-12 00:41:49.647
32.0, -12176.381012961987, -11871.279701147045, -8170.3449094706675, -13481.208799029446, -11824.743369191096, -8713.380541012351, -11461.773390981363, -9130.821720459668, -11992.582618305996, -14545.062428124242, -10134.280936036223, -8609.80255720646, -8649.499255359086, -11901.275742206066, -13370.388850020034, -19164.65391691374, 0.008, -0.028, 0.984, 192.0, 0.0, 0.0, 0.0, 0.0, 0.0, 0.0, 0.0, 0.0, 0.0, 1.644586909654832E9, 0.0, 2022-02-12 00:41:49.654
34.0, -12192.161344547432, -11888.579951355452, -8191.199087047468, -13468.513008178832, -11826.19623258069, -8725.852814418413, -11460.968728180973, -9152.212339903395, -11987.08408916999, -14525.839927892677, -10128.447130733388, -8599.476051268108, -8639.910356987757, -11899.040567760536, -13353.937966100928, -19168.856044871336, 0.008, -0.028, 0.984, 192.0, 0.0, 0.0, 0.0, 0.0, 0.0, 0.0, 0.0, 0.0, 0.0, 1.644586909661494E9, 0.0, 2022-02-12 00:41:49.661
36.0, -12181.45485895334, -11908.204782987212, -8189.746223657874, -13480.314729251235, -11825.637438969308, -8726.25514581861, -11456.610138012187, -9137.057857162697, -12009.90522025886, -14551.8350066942, -10161.639471249518, -8640.536205832506, -8665.391345666809, -11913.099815022924, -13376.490876256334, -19169.54894894945, 0.008, -0.026000000000000002, 0.986, 192.0, 0.0, 32.0, 127.5, 32.0, 15.0, 112.0, 0.0, 0.0, 0.0, 1.644586909669424E9, 0.0, 2022-02-12 00:41:49.669
38.0, -12182.438335709374, -11898.571181126974, -8177.251598507357, -13474.279758248302, -11823.804595923972, -8723.125901594865, -11460.78991422533, -9119.176461598452, -11979.149219888357, -14535.96526813093, -10129.251793533778, -8595.296275054965, -8641.542034332995, -11889.585779855941, -13344.103198540593, -19156.920213332203, 0.008, -0.026000000000000002, 0.986, 192.0, 0.0, 0.0, 0.0, 0.0, 0.0, 0.0, 0.0, 0.0, 0.0, 1.644586909677628E9, 0.0, 2022-02-12 00:41:49.677
40.0, -12188.36154799003, -11912.78689060055, -8197.725796428418, -13461.002822041848, -11833.080569872925, -8731.664267976794, -11473.820981242774, -9150.29008988024, -11999.84693525397, -14565.849550467678, -10143.355744285076, -8623.794749235482, -8652.628499582828, -11914.798547601527, -13369.874759897562, -19163.156350035235, 0.008, -0.026000000000000002, 0.986, 192.0, 0.0, 0.0, 0.0, 0.0, 0.0, 0.0, 0.0, 0.0, 0.0, 1.644586909684565E9, 0.0, 2022-02-12 00:41:49.684
42.0, -12166.367431446008, -11858.91918646326, -8170.56842691522, -13474.726793137408, -11831.739465205606, -8724.601116728916, -11473.910388220596, -9138.801293230212, -12000.025749209613, -14550.717419471433, -10139.935927383414, -8607.94736241667, -8659.66929908625, -11903.220343973679, -13370.590015720132, -19160.60825116733, 0.008, -0.026000000000000002, 0.986, 192.0, 0.0, 0.0, 0.0, 0.0, 0.0, 0.0, 0.0, 0.0, 0.0, 1.644586909692264E9, 0.0, 2022-02-12 00:41:49.692
44.0, -12190.261446268732, -11890.904532778804, -8185.678206167007, -13457.76181909583, -11830.420712282743, -8728.982058642157, -11472.904559720107, -9141.796426987223, -11975.282368097589, -14536.345247786672, -10125.139072554002, -8585.863838894826, -8643.263118656054, -11886.456535632198, -13355.793160890718, -19160.11651278931, 0.008, -0.026000000000000002, 0.986, 192.0, 0.0, 0.0, 0.0, 0.0, 0.0, 0.0, 0.0, 0.0, 0.0, 1.644586909700846E9, 0.0, 2022-02-12 00:41:49.700
46.0, -12172.335347215576, -11883.21553268618, -8186.728738156407, -13464.646156388064, -11833.751122206584, -8718.700256192715, -11468.098934662215, -9136.342601340128, -12004.876077756415, -14554.87484394012, -10148.72016295435, -8609.08730138389, -8667.067726500956, -11902.996826529125, -13380.178914091459, -19160.809416867425, 0.005, -0.024, 0.987, 192.0, 0.0, 8.0, 127.5, 40.0, 15.0, 112.0, 0.0, 0.0, 0.0, 1.644586909707254E9, 0.0, 2022-02-12 00:41:49.707
48.0, -12154.006916762224, -11848.749142736095, -8163.929958811994, -13458.432371429488, -11818.462528999155, -8702.092910062422, -11458.264167101881, -9121.389284299526, -11969.828542450494, -14513.054730064241, -10111.303342736166, -8581.393490003764, -8631.28258362801, -11864.39536385481, -13345.891338097017, -19150.21468999561, 0.005, -0.024, 0.987, 192.0, 0.0, 0.0, 0.0, 0.0, 0.0, 0.0, 0.0, 0.0, 0.0, 1.644586909714238E9, 0.0, 2022-02-12 00:41:49.714
50.0, -12204.521859231218, -11908.897687065326, -8192.160212059047, -13453.604394627142, -11817.72492143213, -8713.91698287928, -11461.46046655899, -9150.982993958354, -11996.628284052407, -14530.153814572552, -10135.57733721463, -8604.594600748373, -8652.673203071738, -11890.278683934055, -13363.504512727799, -19157.523710432495, 0.005, -0.024, 0.987, 192.0, 0.0, 0.0, 0.0, 0.0, 0.0, 0.0, 0.0, 0.0, 0.0, 1.644586909721795E9, 0.0, 2022-02-12 00:41:49.721
52.0, -12164.60164363404, -11866.362317366877, -8168.199142002958, -13468.602415156653, -11816.517927231542, -8700.841212372925, -11458.018297912873, -9111.889792906022, -12003.311455644543, -14530.779663417301, -10141.09821809509, -8601.17478384671, -8649.23103442562, -11884.78015479805, -13363.616271450075, -19151.533442918473, 0.005, -0.024, 0.987, 192.0, 0.0, 0.0, 0.0, 0.0, 0.0, 0.0, 0.0, 0.0, 0.0, 1.644586909730175E9, 0.0, 2022-02-12 00:41:49.730
54.0, -12199.492716728773, -11907.98126554266, -8186.795793389773, -13452.71032484893, -11818.887212143805, -8703.612828685384, -11462.108667148193, -9125.502005279304, -11988.000510692658, -14522.174241802008, -10127.821281888639, -8594.335150043387, -8635.931746474713, -11878.722832050662, -13346.830111364141, -19148.44890218364, 0.005, -0.024, 0.987, 192.0, 0.0, 0.0, 0.0, 0.0, 0.0, 0.0, 0.0, 0.0, 0.0, 1.644586909737877E9, 0.0, 2022-02-12 00:41:49.737
56.0, -12197.592818450072, -11891.64214034583, -8180.671415409019, -13456.241900472869, -11815.176822564224, -8700.036549572535, -11457.235986856937, -9127.692476235923, -12009.748758047672, -14554.07018113973, -10139.064209349657, -8601.55476350245, -8657.031793240523, -11899.152326482812, -13378.055498368205, -19151.2205184961, 0.006500000000000001, -0.023, 0.9884999999999999, 192.0, 0.0, 32.0, 127.5, 40.0, 15.0, 120.0, 0.0, 0.0, 0.0, 1.644586909745931E9, 0.0, 2022-02-12 00:41:49.745
58.0, -12160.399515676441, -11862.294299876012, -8172.848304849662, -13456.599528384153, -11814.036883597004, -8698.874258860858, -11450.485760031434, -9119.13175810954, -11976.377603575898, -14515.960456843432, -10109.492851435287, -8577.437231235175, -8633.003667951069, -11876.532361094041, -13343.566756673665, -19146.727817860585, 0.006500000000000001, -0.023, 0.9884999999999999, 192.0, 0.0, 0.0, 0.0, 0.0, 0.0, 0.0, 0.0, 0.0, 0.0, 1.644586909752508E9, 0.0, 2022-02-12 00:41:49.752
60.0, -12209.662760455938, -11902.818012573483, -8196.697616183474, -13457.024211528804, -11826.330343047423, -8718.767311426082, -11470.043536429828, -9161.398906874527, -11991.152106660857, -14539.005105376853, -10133.47627323583, -8602.158260602744, -8644.604223323373, -11886.903570521305, -13367.527826729754, -19161.859948856825, 0.006500000000000001, -0.023, 0.9884999999999999, 192.0, 0.0, 0.0, 0.0, 0.0, 0.0, 0.0, 0.0, 0.0, 0.0, 1.64458690976069E9, 0.0, 2022-02-12 00:41:49.760
62.0, -12177.431544951385, -11876.82293377196, -8171.574255415709, -13473.47509544791, -11818.52958423252, -8708.351398509909, -11450.016373397872, -9119.109406365085, -12010.307551659054, -14547.610526992146, -10134.52680522523, -8595.877420410803, -8658.95404326368, -11888.714061822184, -13366.633756951542, -19161.949355834648, 0.006500000000000001, -0.023, 0.9884999999999999, 192.0, 0.0, 0.0, 0.0, 0.0, 0.0, 0.0, 0.0, 0.0, 0.0, 1.644586909773975E9, 0.0, 2022-02-12 00:41:49.773
64.0, -12194.664739926428, -11894.257294447101, -8191.377901003111, -13464.176769754502, -11827.67144771474, -8708.619619443372, -11462.46629505948, -9142.891662465532, -11994.035481695591, -14524.923506370009, -10119.081749806614, -8584.165106316223, -8641.117351188344, -11870.787962769027, -13346.561890430678, -19159.17773952219, 0.006500000000000001, -0.023, 0.9884999999999999, 192.0, 0.0, 0.0, 0.0, 0.0, 0.0, 0.0, 0.0, 0.0, 0.0, 1.644586909782076E9, 0.0, 2022-02-12 00:41:49.782
66.0, -12185.835800866582, -11900.627541616863, -8188.919209113027, -13470.167037268524, -11821.658828456262, -8712.888802634336, -11452.899748432606, -9139.605956030602, -12016.700150573273, -14544.481282768404, -10151.692944966906, -8609.735501973093, -8663.692613088204, -11888.490544377632, -13377.273187312268, -19164.89978610275, 0.00725, -0.0235, 0.98825, 192.0, 0.0, 32.0, 127.5, 32.0, 15.0, 112.0, 0.0, 0.0, 0.0, 1.644586909791628E9, 0.0, 2022-02-12 00:41:49.791
68.0, -12159.93012904288, -11834.287564073511, -8173.362394972133, -13469.09415353467, -11821.01062786706, -8702.58464844044, -11456.36426882318, -9124.116197123074, -11981.786725734082, -14524.118843569619, -10122.81449113065, -8579.65005393625, -8624.46530156914, -11875.303015149, -13343.92438458495, -19156.540233676464, 0.00725, -0.0235, 0.98825, 192.0, 0.0, 0.0, 0.0, 0.0, 0.0, 0.0, 0.0, 0.0, 0.0, 1.644586909797767E9, 0.0, 2022-02-12 00:41:49.797
70.0, -12192.518972458718, -11900.761652083595, -8194.797717904774, -13458.834702829685, -11819.446005755188, -8707.479680476152, -11449.301117575302, -9143.964546199388, -11993.90137122886, -14528.25391629385, -10144.92036639695, -8602.694702469671, -8647.08526695791, -11891.888009534838, -13365.650280195508, -19163.133998290778, 0.00725, -0.0235, 0.98825, 192.0, 0.0, 0.0, 0.0, 0.0, 0.0, 0.0, 0.0, 0.0, 0.0, 1.644586909804968E9, 0.0, 2022-02-12 00:41:49.804
72.0, -12188.74152764577, -11888.334082166444, -8172.5800839161975, -13472.871598347618, -11819.58011622192, -8702.785814140536, -11456.051344400805, -9115.153147596497, -12001.27744689911, -14544.794207190778, -10129.877642378528, -8595.475089010608, -8637.786941264503, -11881.49444836312, -13361.023469093261, -19155.087370286867, 0.00725, -0.0235, 0.98825, 192.0, 0.0, 0.0, 0.0, 0.0, 0.0, 0.0, 0.0, 0.0, 0.0, 1.644586909813416E9, 0.0, 2022-02-12 00:41:49.813
74.0, -12198.799812650659, -11900.225210216668, -8188.4274707350105, -13459.304089463245, -11826.039770369503, -8703.702235663204, -11464.679117760554, -9136.18613912894, -11989.98981594918, -14531.964305873431, -10110.923363080426, -8573.279806766488, -8621.60427827886, -11871.212645913678, -13345.332544485635, -19158.417780210708, 0.00725, -0.0235, 0.98825, 192.0, 0.0, 0.0, 0.0, 0.0, 0.0, 0.0, 0.0, 0.0, 0.0, 1.644586909819785E9, 0.0, 2022-02-12 00:41:49.819
76.0, -12182.639501409472, -11886.054204232003, -8189.47800272441, -13472.46926694742, -11824.117520346346, -8696.43791871523, -11453.033858899338, -9136.856691462599, -12019.270601185633, -14552.21498634994, -10145.523863497241, -8611.903621185258, -8651.935595504714, -11889.004634500103, -13374.166294832981, -19162.619908168308, 0.006625000000000001, -0.02275, 0.9881249999999999, 192.0, 0.0, 24.0, 127.5, 40.0, 15.0, 112.0, 0.0, 0.0, 0.0, 1.644586909826311E9, 0.0, 2022-02-12 00:41:49.826
78.0, -12162.74644884425, -11864.998860955104, -8177.005729318349, -13469.697650634964, -11811.757005662563, -8692.772232624558, -11442.014448882872, -9117.544784253214, -11990.61566479393, -14519.246163278362, -10127.91068886646, -8586.020301106013, -8614.138795630788, -11861.73550626463, -13340.92925082794, -19155.757922620527, 0.006625000000000001, -0.02275, 0.9881249999999999, 192.0, 0.0, 0.0, 0.0, 0.0, 0.0, 0.0, 0.0, 0.0, 0.0, 1.644586909834298E9, 0.0, 2022-02-12 00:41:49.834
80.0, -12194.307112015142, -11881.06976521847, -8197.278761539312, -13461.651022631053, -11820.541241233497, -8704.618657185873, -11462.846274715219, -9155.900377738522, -11998.818755009026, -14535.406474519548, -10135.443226747899, -8604.929876915203, -8644.76068553456, -11873.470172103665, -13359.011812092283, -19165.302117502943, 0.006625000000000001, -0.02275, 0.9881249999999999, 192.0, 0.0, 0.0, 0.0, 0.0, 0.0, 0.0, 0.0, 0.0, 0.0, 1.644586909845321E9, 0.0, 2022-02-12 00:41:49.845
82.0, -12177.140972273466, -11860.148532408302, -8176.424583962511, -13470.569368668721, -11821.457662756166, -8692.504011691095, -11460.231120613947, -9115.667237718968, -12005.94896149027, -14524.16354705853, -10129.341200511599, -8601.219487335622, -8644.783037279014, -11878.052279717003, -13362.02929759375, -19160.40708546723, 0.006625000000000001, -0.02275, 0.9881249999999999, 192.0, 0.0, 0.0, 0.0, 0.0, 0.0, 0.0, 0.0, 0.0, 0.0, 1.644586909851206E9, 0.0, 2022-02-12 00:41:49.851
84.0, -12184.964082832825, -11900.515782894587, -8195.110642327147, -13456.733638850885, -11814.729787675118, -8703.299904263009, -11453.145617621616, -9121.501043021804, -11998.170554419823, -14518.285038266784, -10120.355799240566, -8569.032975319979, -8626.074627169923, -11867.725773778651, -13345.600765419098, -19158.55189067744, 0.006625000000000001, -0.02275, 0.9881249999999999, 192.0, 0.0, 0.0, 0.0, 0.0, 0.0, 0.0, 0.0, 0.0, 0.0, 1.644586909857632E9, 0.0, 2022-02-12 00:41:49.857
86.0, -12202.577257463607, -11889.094041477925, -8194.708310926952, -13468.557711667743, -11824.676313957729, -8706.317389764476, -11460.924024692062, -9127.066627391176, -12029.373589679431, -14548.906928170554, -10150.217729832857, -8612.395359563276, -8655.735392062115, -11896.425413659264, -13376.803800678706, -19168.341954748867, 0.0073125, -0.026375, 0.9880625, 192.0, 0.0, 32.0, 127.5, 8.0, 15.0, 112.0, 0.0, 0.0, 0.0, 1.644586909864418E9, 0.0, 2022-02-12 00:41:49.864
88.0, -12160.757143587727, -11860.908491719782, -8180.693767153474, -13465.71904012192, -11819.736578433107, -8688.748918622603, -11457.973594423962, -9114.482595262838, -11996.22595265221, -14525.482299981393, -10118.210031772856, -8575.716146912117, -8628.332153359908, -11862.897796976304, -13347.813588120174, -19158.954222077635, 0.0073125, -0.026375, 0.9880625, 192.0, 0.0, 0.0, 0.0, 0.0, 0.0, 0.0, 0.0, 0.0, 0.0, 1.644586909872284E9, 0.0, 2022-02-12 00:41:49.872
90.0, -12191.893123613969, -11885.182486198246, -8200.475060996421, -13455.258423716836, -11821.904697645272, -8692.392252968819, -11464.634414271643, -9144.880967722054, -12002.573848077518, -14535.697047197467, -10139.555947727675, -8579.404184747242, -8636.490540086095, -11867.882235989839, -13366.611405207088, -19166.352649492343, 0.0073125, -0.026375, 0.9880625, 192.0, 0.0, 0.0, 0.0, 0.0, 0.0, 0.0, 0.0, 0.0, 0.0, 1.64458690987959E9, 0.0, 2022-02-12 00:41:49.879
92.0, -12181.052527553145, -11855.029982928036, -8172.4012699605555, -13473.430391959, -11819.222488310634, -8684.032700542533, -11464.612062527189, -9106.301856792195, -12003.780842278105, -14516.563953943725, -10128.491834222297, -8587.674330195705, -8632.243708639588, -11865.91528247777, -13365.896149384518, -19157.769579621505, 0.0073125, -0.026375, 0.9880625, 192.0, 0.0, 0.0, 0.0, 0.0, 0.0, 0.0, 0.0, 0.0, 0.0, 1.644586909899724E9, 0.0, 2022-02-12 00:41:49.899
94.0, -12183.22064676531, -11885.49541062062, -8188.71804341293, -13454.029077771793, -11815.936781875704, -8694.493316947617, -11451.759809465386, -9125.636115746036, -11980.51267630013, -14519.335570256182, -10108.576429912619, -8585.662673194727, -8619.0338276665, -11856.840474228917, -13342.985611317828, -19159.445960455654, 0.0073125, -0.026375, 0.9880625, 192.0, 0.0, 0.0, 0.0, 0.0, 0.0, 0.0, 0.0, 0.0, 0.0, 1.644586909905981E9, 0.0, 2022-02-12 00:41:49.905
96.0, -12166.83681807957, -11878.231093672644, -8189.075671324214, -13458.90175806305, -11820.697703444685, -8688.748918622603, -11453.391486810624, -9129.122987881063, -11999.243438153677, -14545.867090924632, -10133.252755791278, -8590.133022085789, -8642.883139000314, -11863.568349309964, -13371.93112038745, -19160.18356802268, 0.00765625, -0.0301875, 0.9900312499999999, 192.0, 0.0, 32.0, 127.0, 120.0, 15.5, 0.0, 0.0, 0.0, 0.0, 1.64458690991217E9, 0.0, 2022-02-12 00:41:49.912
98.0, -12156.97969877478, -11844.68112524523, -8170.076688537203, -13463.3274034652, -11808.113671316347, -8684.122107520356, -11447.222405340959, -9111.196888827908, -11978.433964065787, -14520.96724760142, -10101.625037387019, -8557.544178669952, -8614.809347964449, -11848.100942146892, -13341.935079328428, -19156.629640654282, 0.00765625, -0.0301875, 0.9900312499999999, 192.0, 0.0, 0.0, 0.0, 0.0, 0.0, 0.0, 0.0, 0.0, 0.0, 1.644586909918622E9, 0.0, 2022-02-12 00:41:49.918
100.0, -12186.998091578256, -11884.489582120132, -8191.2437905363795, -13448.508196891333, -11818.037845854504, -8690.33589247893, -11463.114495648682, -9137.61665077408, -11994.236647395688, -14526.555183715247, -10122.72508415283, -8583.539257471473, -8634.009496451557, -11869.44685810171, -13361.470503982366, -19163.759847135527, 0.00765625, -0.0301875, 0.9900312499999999, 192.0, 0.0, 0.0, 0.0, 0.0, 0.0, 0.0, 0.0, 0.0, 0.0, 1.644586909925191E9, 0.0, 2022-02-12 00:41:49.925
102.0, -12167.328556457587, -11857.376916095844, -8165.673394879508, -13470.23409250189, -11811.175860306725, -8686.491392432617, -11451.64805074311, -9103.865516646567, -11993.052004939558, -14528.835061649688, -10127.329543510621, -8583.449850493653, -8635.976449963624, -11867.502256334097, -13360.844655137618, -19158.820111610905, 0.00765625, -0.0301875, 0.9900312499999999, 192.0, 0.0, 0.0, 0.0, 0.0, 0.0, 0.0, 0.0, 0.0, 0.0, 1.64458690993179E9, 0.0, 2022-02-12 00:41:49.931
104.0, -12179.711422885826, -11876.912340749783, -8181.252560764857, -13455.772513839307, -11806.057310826458, -8691.945218079713, -11445.233100084437, -9116.337790052628, -11982.412574578831, -14527.650419193556, -10109.515203179742, -8570.038803820467, -8611.523641529518, -11854.426485827744, -13338.291744982213, -19159.31184998892, 0.00765625, -0.0301875, 0.9900312499999999, 192.0, 0.0, 0.0, 0.0, 0.0, 0.0, 0.0, 0.0, 0.0, 0.0, 1.644586909939789E9, 0.0, 2022-02-12 00:41:49.939
106.0, -12170.07782102559, -11886.523590865565, -8190.461479480444, -13465.875502333105, -11808.940685861193, -8686.33493022143, -11451.35747806519, -9124.227955845352, -12009.681702814307, -14554.07018113973, -10148.429590276432, -8604.84046993738, -8641.296165143987, -11873.067840703468, -13368.935986630438, -19162.64225991276, 0.014, -0.032, 0.986, 192.0, 0.0, 56.0, 127.5, 0.0, 15.0, 104.0, 0.0, 0.0, 0.0, 1.644586909946852E9, 0.0, 2022-02-12 00:41:49.946
108.0, -12168.513198913717, -11853.10773290488, -8172.065993793726, -13471.731659380397, -11798.81534562294, -8669.057031757478, -11445.12134136216, -9107.575906226148, -11981.429097822798, -14519.02264583381, -10116.2877817497, -8590.289484296976, -8611.054254895957, -11838.355581564378, -13338.001172304294, -19153.41098945272, 0.014, -0.032, 0.986, 192.0, 0.0, 0.0, 0.0, 0.0, 0.0, 0.0, 0.0, 0.0, 0.0, 1.644586909954848E9, 0.0, 2022-02-12 00:41:49.954
110.0, -12196.765803905226, -11900.06874800548, -8196.317636527734, -13458.52177840731, -11816.942610376193, -8690.402947712297, -11467.070754417271, -9138.622479274569, -12003.42321436682, -14529.997352361364, -10124.088540564602, -8593.46343200963, -8630.500272572073, -11852.817160226961, -13359.592957448122, -19163.156350035235, 0.014, -0.032, 0.986, 192.0, 0.0, 0.0, 0.0, 0.0, 0.0, 0.0, 0.0, 0.0, 0.0, 1.644586909962035E9, 0.0, 2022-02-12 00:41:49.962
112.0, -12172.178885004389, -11871.033831958037, -8175.821086862217, -13476.671394905019, -11807.286656771501, -8685.642026143316, -11459.35940258019, -9122.104540122096, -12015.224935439222, -14563.92730044452, -10137.186662815413, -8589.998911619057, -8632.824853995426, -11857.421619584755, -13366.790219162729, -19164.83273086938, 0.014, -0.032, 0.986, 192.0, 0.0, 0.0, 0.0, 0.0, 0.0, 0.0, 0.0, 0.0, 0.0, 1.644586909969438E9, 0.0, 2022-02-12 00:41:49.969
114.0, -12207.382882521497, -11889.384614155844, -8183.107755554647, -13461.405153442045, -11814.439214997199, -8694.895648347814, -11468.121286406671, -9135.493235050826, -11993.163763661834, -14535.719398941923, -10121.38397948551, -8571.737536399072, -8620.196118378177, -11849.754971236584, -13345.779579374741, -19167.403181481743, 0.014, -0.032, 0.986, 192.0, 0.0, 0.0, 0.0, 0.0, 0.0, 0.0, 0.0, 0.0, 0.0, 1.644586909979176E9, 0.0, 2022-02-12 00:41:49.979
116.0, -12203.247809797265, -11898.12414623787, -8185.030005577804, -13476.04554606027, -11809.074796327925, -8699.477755961152, -11462.734515992943, -9126.641944246525, -12027.227822211722, -14560.820407965233, -10145.859139664071, -8600.146603601766, -8660.071630486445, -11887.68588157724, -13376.535579745243, -19172.253510028542, 0.016, -0.028, 0.986, 192.0, 0.0, 64.0, 127.5, 16.0, 15.0, 104.0, 0.0, 0.0, 0.0, 1.644586909985084E9, 0.0, 2022-02-12 00:41:49.985
118.0, -12188.182734034388, -11863.836570243428, -8170.546075170765, -13478.14661003907, -11804.649150925774, -8689.62063665636, -11456.118399634172, -9104.357255024583, -12002.819717266526, -14527.136329071085, -10124.58027894262, -8587.853144151348, -8624.487653313596, -11860.975546953148, -13344.661992151976, -19163.715143646616, 0.016, -0.028, 0.986, 192.0, 0.0, 0.0, 0.0, 0.0, 0.0, 0.0, 0.0, 0.0, 0.0, 1.644586909992354E9, 0.0, 2022-02-12 00:41:49.992
120.0, -12218.916382660436, -11916.296114480034, -8194.015406848837, -13468.088325034181, -11807.95720910516, -8695.141517536822, -11464.299138104814, -9128.09480763612, -12017.080130229013, -14559.658117253557, -10143.311040796167, -8603.2311443366, -8637.094037186389, -11858.740372507618, -13365.873797640063, -19169.951280349647, 0.016, -0.028, 0.986, 192.0, 0.0, 0.0, 0.0, 0.0, 0.0, 0.0, 0.0, 0.0, 0.0, 1.644586910000196E9, 0.0, 2022-02-12 00:41:50.000
122.0, -12190.037928824178, -11881.49444836312, -8172.825953105206, -13482.594607185676, -11807.845450382883, -8691.498183190606, -11463.807399726797, -9111.912144650478, -12024.456205899263, -14569.537588302803, -10141.902880895483, -8601.912391413736, -8635.685877285705, -11861.802561497994, -13365.493817984321, -19170.04068732747, 0.016, -0.028, 0.986, 192.0, 0.0, 0.0, 0.0, 0.0, 0.0, 0.0, 0.0, 0.0, 0.0, 1.644586910007531E9, 0.0, 2022-02-12 00:41:50.007
124.0, -12188.272141012209, -11894.257294447101, -8185.633502678097, -13472.581025669699, -11801.341092746388, -8686.871372088359, -11458.018297912873, -9124.049141889709, -12005.546630090073, -14548.079913625708, -10125.563755698653, -8583.293388282465, -8619.793786977982, -11846.938651435215, -13347.344201486612, -19172.275861773, 0.016, -0.028, 0.986, 192.0, 0.0, 0.0, 0.0, 0.0, 0.0, 0.0, 0.0, 0.0, 0.0, 1.644586910021753E9, 0.0, 2022-02-12 00:41:50.021
126.0, -12203.583085964096, -11890.166925211779, -8187.868677123628, -13478.683051905997, -11808.113671316347, -8702.875221118358, -11458.621795013165, -9126.552537268703, -12029.127720490424, -14567.302413857273, -10166.57920677414, -8621.201946878666, -8653.500217616585, -11866.429372600243, -13374.099239599615, -19178.109667075834, 0.008, -0.024, 0.984, 192.0, 0.0, 32.0, 127.5, 32.0, 15.0, 96.0, 0.0, 0.0, 0.0, 1.644586910029666E9, 0.0, 2022-02-12 00:41:50.029
128.0, -12192.31780675862, -11878.856942517394, -8174.882313595094, -13479.197142028468, -11807.24195328259, -8701.176488539755, -11464.097972404716, -9115.622534230059, -12012.654484826862, -14536.859337909144, -10132.269279035245, -8575.179705045188, -8628.04158068199, -11856.594605039907, -13347.21009101988, -19173.304042017942, 0.008, -0.024, 0.984, 192.0, 0.0, 0.0, 0.0, 0.0, 0.0, 0.0, 0.0, 0.0, 0.0, 1.644586910036866E9, 0.0, 2022-02-12 00:41:50.036
130.0, -12217.821147182125, -11908.897687065326, -8200.67622669652, -13467.395420956067, -11815.19917430868, -8710.854793888902, -11480.41474585709, -9147.496121823326, -12031.38524668041, -14540.815596677732, -10151.2459100778, -8610.674275240217, -8639.262156398554, -11876.085326204935, -13366.052611595704, -19182.669422944717, 0.008, -0.024, 0.984, 192.0, 0.0, 0.0, 0.0, 0.0, 0.0, 0.0, 0.0, 0.0, 0.0, 1.64458691004488E9, 0.0, 2022-02-12 00:41:50.044
132.0, -12203.180754563899, -11882.053241974503, -8176.201066517958, -13486.260293276346, -11809.47712772812, -8697.421395471263, -11458.577091524256, -9113.700284206901, -12033.486310659207, -14567.056544668263, -10152.34114555611, -8603.678179225704, -8639.530377332017, -11869.625672057351, -13366.276129040258, -19175.18158855219, 0.008, -0.024, 0.984, 192.0, 0.0, 0.0, 0.0, 0.0, 0.0, 0.0, 0.0, 0.0, 0.0, 1.644586910052624E9, 0.0, 2022-02-12 00:41:50.052
134.0, -12200.65500744045, -11897.274779948566, -8192.00374984786, -13478.95127283946, -11810.751177162074, -8706.540907209028, -11464.612062527189, -9136.655525762502, -12017.482461629208, -14533.081893096198, -10135.979668614826, -8585.41680400572, -8625.672295769727, -11853.532416049531, -13350.361686988079, -19177.148542064257, 0.008, -0.024, 0.984, 192.0, 0.0, 0.0, 0.0, 0.0, 0.0, 0.0, 0.0, 0.0, 0.0, 1.644586910060325E9, 0.0, 2022-02-12 00:41:50.060
136.0, -12195.31294051563, -11904.226172474167, -8196.33998827219, -13487.57904619921, -11810.684121928707, -8703.232849029642, -11462.98038518195, -9130.888775693033, -12039.118950261945, -14568.442352824493, -10175.117573156069, -8634.411827851753, -8658.037621741012, -11874.520704093064, -13380.357728047102, -19182.98234736709, 0.01, -0.028, 0.99, 192.0, 0.0, 40.0, 127.5, 16.0, 15.0, 120.0, 0.0, 0.0, 0.0, 1.644586910067123E9, 0.0, 2022-02-12 00:41:50.067
138.0, -12197.749280661259, -11904.427338174264, -8176.268121751324, -13479.375955984111, -11808.493650972086, -8698.963665838679, -11466.623719528166, -9114.124967351552, -12007.871211513426, -14553.332573572705, -10135.599688959086, -8584.74625167206, -8628.578022548918, -11848.39151482481, -13349.825245121152, -19175.31569901892, 0.01, -0.028, 0.99, 192.0, 0.0, 0.0, 0.0, 0.0, 0.0, 0.0, 0.0, 0.0, 0.0, 1.644586910074001E9, 0.0, 2022-02-12 00:41:50.074
140.0, -12242.586880038605, -11925.63914366235, -8199.849212151672, -13471.172865769013, -11817.993142365593, -8714.073445090467, -11476.145562666126, -9149.463075335392, -12033.553365892574, -14586.949597233486, -10147.58022398713, -8602.694702469671, -8639.932708732213, -11880.980358240648, -13373.4063355215, -19182.1776845667, 0.01, -0.028, 0.99, 192.0, 0.0, 0.0, 0.0, 0.0, 0.0, 0.0, 0.0, 0.0, 0.0, 1.644586910082164E9, 0.0, 2022-02-12 00:41:50.082
142.0, -12196.408175993942, -11880.3545093959, -8178.257427007846, -13490.037738089293, -11810.572363206431, -8698.896610605314, -11458.487684546433, -9115.42136852996, -12030.737046091206, -14579.12648667413, -10148.854273421082, -8620.576098033916, -8639.083342442911, -11872.039660458526, -13378.100201857114, -19181.909463633237, 0.01, -0.028, 0.99, 192.0, 0.0, 0.0, 0.0, 0.0, 0.0, 0.0, 0.0, 0.0, 0.0, 1.64458691008918E9, 0.0, 2022-02-12 00:41:50.089
144.0, -12215.697731458871, -11925.862661106905, -8190.997921347371, -13476.738450138386, -11815.176822564224, -8701.511764706584, -11475.206789399004, -9130.017057659275, -12014.196755194278, -14565.335460345204, -10135.309116281167, -8603.745234459071, -8621.47016781213, -11855.946404450704, -13357.022506835761, -19178.444943242663, 0.01, -0.028, 0.99, 192.0, 0.0, 0.0, 0.0, 0.0, 0.0, 0.0, 0.0, 0.0, 0.0, 1.644586910098102E9, 0.0, 2022-02-12 00:41:50.098
146.0, -12222.917344917936, -11921.2134982602, -8194.127165571113, -13487.333177010201, -11806.504345715564, -8706.093872319922, -11453.816169955275, -9128.765359969779, -12038.873081072938, -14586.83783851121, -10168.300291097199, -8625.89581321428, -8651.600319337884, -11885.54011410953, -13385.051594382716, -19182.959995622638, 0.012, -0.026000000000000002, 0.99, 192.0, 0.0, 48.0, 127.5, 24.0, 15.0, 120.0, 0.0, 0.0, 0.0, 1.644586910104817E9, 0.0, 2022-02-12 00:41:50.104
148.0, -12188.875638112502, -11896.514820637087, -8178.883275852594, -13497.52557248182, -11805.878496870817, -8702.62935192935, -11450.262242586881, -9114.504947007294, -12012.363912148943, -14553.421980550525, -10140.092389594602, -8597.643208222773, -8622.94538294618, -11868.575140067953, -13350.294631754712, -19176.299175774955, 0.012, -0.026000000000000002, 0.99, 192.0, 0.0, 0.0, 0.0, 0.0, 0.0, 0.0, 0.0, 0.0, 0.0, 1.644586910112784E9, 0.0, 2022-02-12 00:41:50.112
150.0, -12222.64912398447, -11934.781007144573, -8204.744244187385, -13487.355528754655, -11822.664656956751, -8717.113282336388, -11487.03086221586, -9147.585528801148, -12023.42802565432, -14579.46176284096, -10157.035011891725, -8619.57026953343, -8644.179540178722, -11881.472096618665, -13374.4568675109, -19186.67038520222, 0.012, -0.026000000000000002, 0.99, 192.0, 0.0, 0.0, 0.0, 0.0, 0.0, 0.0, 0.0, 0.0, 0.0, 1.644586910120193E9, 0.0, 2022-02-12 00:41:50.120
152.0, -12209.70746394485, -11889.16109671129, -8180.961988086938, -13504.633427218609, -11813.947476619182, -8698.337816993931, -11466.690774761531, -9122.573926755658, -12030.155900735368, -14562.45208531047, -10152.00586938928, -8622.878327712813, -8640.938537232701, -11878.67812856175, -13383.866951926584, -19184.83754215688, 0.012, -0.026000000000000002, 0.99, 192.0, 0.0, 0.0, 0.0, 0.0, 0.0, 0.0, 0.0, 0.0, 0.0, 1.644586910127245E9, 0.0, 2022-02-12 00:41:50.127
154.0, -12219.117548360533, -11919.3135999815, -8188.650988179564, -13490.462421233944, -11814.707435930663, -8703.948104852212, -11473.5080568204, -9139.896528708521, -12015.224935439222, -14576.846608739688, -10126.949563854881, -8599.341940801376, -8629.315630115942, -11858.561558551975, -13357.871873125063, -19186.290405546475, 0.012, -0.026000000000000002, 0.99, 192.0, 0.0, 0.0, 0.0, 0.0, 0.0, 0.0, 0.0, 0.0, 0.0, 1.644586910143768E9, 0.0, 2022-02-12 00:41:50.143
156.0, -12216.100062859066, -11910.238791732645, -8192.696653925974, -13494.508086980355, -11811.57819170692, -8705.423319986263, -11461.683984003543, -9123.803272700701, -12033.218089725744, -14593.878638014632, -10161.304195082688, -8645.073609956933, -8656.0930199734, -11894.30199793601, -13386.146829861025, -19192.16891433822, 0.012, -0.024, 0.994, 192.0, 0.0, 48.0, 127.5, 32.0, 15.5, 8.0, 0.0, 0.0, 0.0, 1.644586910150143E9, 0.0, 2022-02-12 00:41:50.150
158.0, -12213.060225613144, -11903.153288740312, -8182.101927054158, -13499.894857394083, -11810.505307973064, -8695.432090214741, -11466.958995694995, -9108.402920770994, -12017.482461629208, -14555.21012010695, -10135.666744192451, -8612.998856663567, -8629.472092327129, -11870.765611024573, -13356.754285902296, -19182.714126433628, 0.012, -0.024, 0.994, 192.0, 0.0, 0.0, 0.0, 0.0, 0.0, 0.0, 0.0, 0.0, 0.0, 1.644586910156983E9, 0.0, 2022-02-12 00:41:50.156
160.0, -12223.029103640212, -11943.185263059768, -8206.10770059916, -13488.026081088316, -11815.512098731053, -8708.664322932282, -11472.74809750892, -9142.24346187633, -12036.749665349684, -14568.107076657663, -10154.688078723917, -8619.346752088875, -8646.079438457422, -11889.96575951168, -13380.22361758037, -19191.74423119357, 0.012, -0.024, 0.994, 192.0, 0.0, 0.0, 0.0, 0.0, 0.0, 0.0, 0.0, 0.0, 0.0, 1.644586910164893E9, 0.0, 2022-02-12 00:41:50.164
162.0, -12192.720138158815, -11902.326274195466, -8178.525647941309, -13509.371997043134, -11816.316761531445, -8695.00740707009, -11472.79280099783, -9115.376665041049, -12039.074246773034, -14592.895161258599, -10160.499532282298, -8629.002705693569, -8648.649889069782, -11875.325366893456, -13386.12447811657, -19192.61594922733, 0.012, -0.024, 0.994, 192.0, 0.0, 0.0, 0.0, 0.0, 0.0, 0.0, 0.0, 0.0, 0.0, 1.644586910172075E9, 0.0, 2022-02-12 00:41:50.172
164.0, -12220.726873961316, -11922.196975016233, -8192.741357414885, -13492.250560790368, -11818.86486039935, -8708.396101998818, -11474.759754509898, -9134.308592594694, -12016.789557551094, -14567.8388557242, -10136.471406992843, -8602.068853624924, -8622.274830612521, -11858.762724252072, -13368.220730807869, -19194.113516105834, 0.012, -0.024, 0.994, 192.0, 0.0, 0.0, 0.0, 0.0, 0.0, 0.0, 0.0, 0.0, 0.0, 1.64458691017955E9, 0.0, 2022-02-12 00:41:50.179
166.0, -12238.630621270016, -11923.560431428008, -8191.847287636672, -13501.928866139517, -11819.155433077269, -8710.698331677715, -11476.346728366225, -9142.221110131874, -12050.987726567713, -14606.261504442873, -10164.67930849544, -8631.886080728304, -8649.700421059182, -11890.457497889698, -13394.50638228731, -19202.830696443405, 0.014, -0.026000000000000002, 0.986, 192.0, 0.0, 56.0, 127.5, 24.0, 15.0, 104.0, 0.0, 0.0, 0.0, 1.644586910187583E9, 0.0, 2022-02-12 00:41:50.187
168.0, -12205.572391220618, -11889.921056022771, -8171.797772860262, -13499.38076727161, -11809.633589939307, -8697.756671638093, -11479.587731312244, -9125.434950045938, -12019.09178722999, -14576.444277339493, -10127.083674321613, -8608.66261823924, -8623.213603879643, -11859.276814374545, -13366.969033118372, -19191.967748638126, 0.014, -0.026000000000000002, 0.986, 192.0, 0.0, 0.0, 0.0, 0.0, 0.0, 0.0, 0.0, 0.0, 0.0, 1.644586910194594E9, 0.0, 2022-02-12 00:41:50.194
170.0, -12216.32358030362, -11920.162966270802, -8197.681092939507, -13490.261255533846, -11815.109767330858, -8722.142424838832, -11481.644091802133, -9152.257043392307, -12028.077188501024, -14572.21979763744, -10145.456808263876, -8628.354505104364, -8634.367124362841, -11883.103773963901, -13377.384946034545, -19198.092126618878, 0.014, -0.026000000000000002, 0.986, 192.0, 0.0, 0.0, 0.0, 0.0, 0.0, 0.0, 0.0, 0.0, 0.0, 1.644586910203322E9, 0.0, 2022-02-12 00:41:50.203
172.0, -12198.151612061456, -11898.615884615885, -8178.078613052204, -13503.471136506932, -11811.175860306725, -8726.769235941081, -11463.472123559968, -9127.267793091272, -12041.711752618761, -14574.946710460987, -10166.020413162758, -8632.020191195035, -8648.716944303149, -11899.755823583106, -13380.357728047102, -19198.89678941927, 0.014, -0.026000000000000002, 0.986, 192.0, 0.0, 0.0, 0.0, 0.0, 0.0, 0.0, 0.0, 0.0, 0.0, 1.644586910209271E9, 0.0, 2022-02-12 00:41:50.209
174.0, -12209.75216743376, -11928.366056485898, -8194.462441737944, -13490.90945612305, -11821.43531101171, -8724.779930684559, -11470.334109107747, -9138.063685663186, -12021.930458775814, -14580.35583261917, -10141.902880895483, -8598.09024311188, -8636.043505196989, -11883.327291408455, -13359.011812092283, -19197.46627777413, 0.014, -0.026000000000000002, 0.986, 192.0, 0.0, 0.0, 0.0, 0.0, 0.0, 0.0, 0.0, 0.0, 0.0, 1.644586910217623E9, 0.0, 2022-02-12 00:41:50.217
176.0, -12229.958144421356, -11931.964687343203, -8196.608209205653, -13501.951217883972, -11828.878441915327, -8726.165738840788, -11488.081394205261, -9157.263834150295, -12045.511549176163, -14597.83489678322, -10161.550064271696, -8634.635345296305, -8661.90447353178, -11898.21355321569, -13396.719204988385, -19203.14362086578, 0.012, -0.02, 0.986, 192.0, 0.0, 48.0, 127.5, 48.0, 15.0, 104.0, 0.0, 0.0, 0.0, 1.644586910224906E9, 0.0, 2022-02-12 00:41:50.224
178.0, -12215.451862269863, -11903.756785840606, -8180.827877620206, -13502.57706672872, -11817.121424331835, -8710.430110744252, -11477.374908611167, -9121.18811859943, -12032.368723436442, -14590.168248435051, -10127.016619088248, -8606.628609493806, -8631.506101072562, -11873.514875592575, -13369.628890708553, -19194.068812616923, 0.012, -0.02, 0.986, 192.0, 0.0, 0.0, 0.0, 0.0, 0.0, 0.0, 0.0, 0.0, 0.0, 1.644586910231763E9, 0.0, 2022-02-12 00:41:50.231
180.0, -12229.779330465715, -11928.299001252533, -8202.19614531948, -13481.454668218455, -11817.076720842924, -8712.732340423148, -11483.6110453142, -9149.485427079848, -12043.477540430731, -14593.02927172533, -10147.20024433139, -8617.335095087898, -8639.128045931822, -11882.388518141332, -13381.095335614125, -19199.18736209719, 0.012, -0.02, 0.986, 192.0, 0.0, 0.0, 0.0, 0.0, 0.0, 0.0, 0.0, 0.0, 0.0, 1.644586910240123E9, 0.0, 2022-02-12 00:41:50.240
182.0, -12206.22059180982, -11904.270875963079, -8187.0193108343265, -13497.413813759544, -11804.872668370328, -8704.193974041222, -11456.207806611992, -9121.881022677544, -12041.085903774012, -14590.145896690596, -10152.2964420672, -8625.381723091808, -8651.197987937689, -11878.298148906011, -13378.279015812757, -19193.17474283871, 0.012, -0.02, 0.986, 192.0, 0.0, 0.0, 0.0, 0.0, 0.0, 0.0, 0.0, 0.0, 0.0, 1.644586910247823E9, 0.0, 2022-02-12 00:41:50.247
184.0, -12197.726928916803, -11899.509954394098, -8199.402177262566, -13490.373014256122, -11818.350770276878, -8707.39027349833, -11472.770449253376, -9133.772150727767, -12024.85853729946, -14567.727097001924, -10137.47723549333, -8602.046501880468, -8631.75197026157, -11864.73064002164, -13356.284899268736, -19192.861818416335, 0.009000000000000001, -0.024, 0.987, 192.0, 0.0, 24.0, 127.5, 16.0, 15.0, 112.0, 0.0, 0.0, 0.0, 1.644586910254518E9, 0.0, 2022-02-12 00:41:50.254
186.0, -12197.548114961162, -11908.629466131863, -8208.320523300234, -13499.760746927352, -11825.883308158316, -8719.370808526375, -11480.146524923626, -9149.708944524402, -12038.828377584026, -14592.425774625037, -10161.952395671893, -8639.508025587562, -8662.038583998512, -11901.253390461612, -13394.260513098301, -19201.020205142522, 0.009000000000000001, -0.024, 0.987, 192.0, 0.0, 0.0, 0.0, 0.0, 0.0, 0.0, 0.0, 0.0, 0.0, 1.644586910269587E9, 0.0, 2022-02-12 00:41:50.269
188.0, -12196.519934716218, -11912.518669667086, -8195.892953383083, -13506.086290608204, -11824.273982557534, -8717.96264862569, -11474.066850431784, -9125.61376400158, -12025.082054744013, -14582.054565197775, -10140.2935552947, -8595.69860645516, -8640.80442676597, -11872.330233136445, -13371.46173375389, -19197.041594629478, 0.009000000000000001, -0.024, 0.987, 192.0, 0.0, 0.0, 0.0, 0.0, 0.0, 0.0, 0.0, 0.0, 0.0, 1.644586910277371E9, 0.0, 2022-02-12 00:41:50.277
190.0, -12243.23508062781, -11950.382524774377, -8225.017276408349, -13502.398252773077, -11841.350715321389, -8735.68758197875, -11487.388490127147, -9158.068496950686, -12044.304554975577, -14558.898157942076, -10150.217729832857, -8620.687856756194, -8651.913243760258, -11898.258256704601, -13388.918446173484, -19210.385586069297, 0.009000000000000001, -0.024, 0.987, 192.0, 0.0, 0.0, 0.0, 0.0, 0.0, 0.0, 0.0, 0.0, 0.0, 1.644586910284028E9, 0.0, 2022-02-12 00:41:50.284
192.0, -12226.918307175436, -11915.580858657464, -8203.71606394244, -13519.296171581289, -11837.126235619335, -8722.991791128134, -11479.923007479074, -9128.318325080672, -12062.72239240675, -14600.204181695484, -10162.377078816544, -8640.446798854686, -8662.798543309993, -11905.455518419209, -13396.31687358819, -19207.41280405674, 0.009000000000000001, -0.024, 0.987, 192.0, 0.0, 0.0, 0.0, 0.0, 0.0, 0.0, 0.0, 0.0, 0.0, 1.644586910292073E9, 0.0, 2022-02-12 00:41:50.292
194.0, -12220.771577450227, -11904.628503874363, -8206.979418632915, -13504.119337096135, -11830.666581471753, -8719.527270737563, -11479.252455145413, -9136.14143564003, -12033.66512461485, -14577.517161073347, -10141.09821809509, -8617.51390904354, -8636.669354041738, -11876.599416327408, -13371.037050609239, -19203.724766221618, 0.009500000000000001, -0.025, 0.9875, 192.0, 0.0, 40.0, 127.5, 24.0, 15.0, 112.0, 0.0, 0.0, 0.0, 1.644586910300242E9, 0.0, 2022-02-12 00:41:50.300
196.0, -12219.586934994095, -11927.181414029768, -8212.701465213475, -13505.683959208007, -11829.459587271165, -8723.282363806053, -11482.314644135791, -9139.874176964066, -12055.167502780856, -14603.579295108235, -10170.15548588699, -8630.835548738904, -8663.290281688009, -11899.934637538749, -13397.210943366403, -19206.74225172308, 0.009500000000000001, -0.025, 0.9875, 192.0, 0.0, 0.0, 0.0, 0.0, 0.0, 0.0, 0.0, 0.0, 0.0, 1.644586910307156E9, 0.0, 2022-02-12 00:41:50.307
198.0, -12194.329463759597, -11906.55075389752, -8194.90947662705, -13514.95993315696, -11817.411997009754, -8719.035532359545, -11463.919158449073, -9121.881022677544, -12035.18504323781, -14586.45785885547, -10147.177892586935, -8600.146603601766, -8635.440008096697, -11874.051317459503, -13367.88545464104, -19199.142658608278, 0.009500000000000001, -0.025, 0.9875, 192.0, 0.0, 0.0, 0.0, 0.0, 0.0, 0.0, 0.0, 0.0, 0.0, 1.644586910315027E9, 0.0, 2022-02-12 00:41:50.315
200.0, -12233.623830512028, -11943.65464969333, -8223.653819996574, -13504.05228186277, -11835.092226873903, -8725.562241740494, -11490.450679117523, -9154.827494004667, -12044.416313697853, -14592.179905436029, -10163.829942206137, -8624.666467269239, -8644.0901332009, -11886.322425165466, -13384.246931582324, -19208.776260468516, 0.009500000000000001, -0.025, 0.9875, 192.0, 0.0, 0.0, 0.0, 0.0, 0.0, 0.0, 0.0, 0.0, 0.0, 1.644586910323139E9, 0.0, 2022-02-12 00:41:50.323
202.0, -12219.586934994095, -11918.464233692197, -8201.838517408194, -13519.273819836835, -11828.38670353731, -8721.494224249629, -11483.812211014296, -9134.532110039248, -12052.731162635228, -14591.88933275811, -10174.670538266962, -8633.22718539562, -8668.878217801835, -11901.968646284182, -13399.736690489852, -19211.458469803154, 0.009500000000000001, -0.025, 0.9875, 192.0, 0.0, 0.0, 0.0, 0.0, 0.0, 0.0, 0.0, 0.0, 0.0, 1.644586910330033E9, 0.0, 2022-02-12 00:41:50.330
204.0, -12228.058246142657, -11926.779082629571, -8210.332180301211, -13506.868601664139, -11826.620915725342, -8722.34359053893, -11475.899693477118, -9130.7546652263, -12043.745761364195, -14583.440373354004, -10147.624927476041, -8607.589734505384, -8647.152322191278, -11874.610111070886, -13369.114800586081, -19207.591618012386, 0.009750000000000002, -0.026500000000000003, 0.98775, 192.0, 0.0, 40.0, 127.5, 16.0, 15.0, 112.0, 0.0, 0.0, 0.0, 1.64458691033671E9, 0.0, 2022-02-12 00:41:50.336
206.0, -12246.94547020739, -11950.717800941205, -8221.48570078441, -13511.00367438837, -11836.209814096668, -8729.451445275718, -11485.645054059632, -9146.311479367194, -12074.85938964598, -14597.186696194018, -10178.336224357632, -8652.539092605006, -8672.007462025578, -11910.283495221556, -13403.268266113791, -19211.972559925624, 0.009750000000000002, -0.026500000000000003, 0.98775, 192.0, 0.0, 0.0, 0.0, 0.0, 0.0, 0.0, 0.0, 0.0, 0.0, 1.644586910344592E9, 0.0, 2022-02-12 00:41:50.344
208.0, -12223.587897251595, -11933.819882132993, -8197.502278983866, -13520.816090204251, -11831.71711346115, -8719.303753293008, -11479.69949003452, -9119.936420909933, -12051.323002734543, -14612.117661490163, -10151.58118624463, -8611.367179318331, -8648.940461747701, -11880.980358240648, -13379.59776873562, -19203.188324354687, 0.009750000000000002, -0.026500000000000003, 0.98775, 192.0, 0.0, 0.0, 0.0, 0.0, 0.0, 0.0, 0.0, 0.0, 0.0, 1.644586910352393E9, 0.0, 2022-02-12 00:41:50.352
210.0, -12235.501377046274, -11948.84025440696, -8224.01144790786, -13509.751976698873, -11831.426540783232, -8732.58068949946, -11483.678100547564, -9146.557348556204, -12053.759342880172, -14601.299417173794, -10155.559796757674, -8634.27771738502, -8656.920034518247, -11900.225210216668, -13386.906789172506, -19212.12902213681, 0.009750000000000002, -0.026500000000000003, 0.98775, 192.0, 0.0, 0.0, 0.0, 0.0, 0.0, 0.0, 0.0, 0.0, 0.0, 1.644586910359572E9, 0.0, 2022-02-12 00:41:50.359
212.0, -12214.84836516957, -11911.624599888873, -8202.397311019577, -13525.688770495508, -11826.129177347324, -8717.157985825299, -11473.150428909115, -9120.785787199235, -12064.264662774165, -14604.495716630903, -10167.026241663247, -8644.0901332009, -8663.178522965733, -11896.134840981345, -13392.740594475341, -19206.786955211992, 0.009750000000000002, -0.026500000000000003, 0.98775, 192.0, 0.0, 0.0, 0.0, 0.0, 0.0, 0.0, 0.0, 0.0, 0.0, 1.644586910367076E9, 0.0, 2022-02-12 00:41:50.367
214.0, -12228.125301376022, -11939.854853135927, -8208.164061089046, -13506.265104563845, -11825.883308158316, -8721.114244593888, -11465.640242772131, -9129.19004311443, -12042.583470652518, -14600.22653343994, -10150.173026343946, -8608.46145253914, -8634.94826971868, -11873.15724768129, -13367.572530218666, -19204.663539488738, 0.010875000000000001, -0.02825, 0.986875, 192.0, 0.0, 48.0, 127.5, 8.0, 15.0, 104.0, 0.0, 0.0, 0.0, 1.644586910375078E9, 0.0, 2022-02-12 00:41:50.375
216.0, -12232.685057244904, -11942.805283404028, -8219.809319950262, -13507.986188886904, -11835.069875129448, -8723.192956828232, -11477.061984188795, -9144.769208999778, -12068.645604687406, -14620.387806938626, -10176.548084801208, -8627.952173704169, -8663.849075299391, -11893.251465946612, -13399.200248622925, -19208.485687790595, 0.010875000000000001, -0.02825, 0.986875, 192.0, 0.0, 0.0, 0.0, 0.0, 0.0, 0.0, 0.0, 0.0, 0.0, 1.64458691038939E9, 0.0, 2022-02-12 00:41:50.389
218.0, -12209.171022077922, -11912.675131878274, -8200.586819718697, -13513.86469767865, -11827.067950614448, -8714.475776490663, -11472.904559720107, -9122.059836633187, -12052.597052168496, -14597.723138060945, -10155.67155547995, -8612.015379907534, -8643.397229122786, -11884.131954208846, -13376.356765789602, -19201.981330154103, 0.010875000000000001, -0.02825, 0.986875, 192.0, 0.0, 0.0, 0.0, 0.0, 0.0, 0.0, 0.0, 0.0, 0.0, 1.64458691039666E9, 0.0, 2022-02-12 00:41:50.396
220.0, -12221.375074550519, -11934.825710633482, -8224.48083454142, -13510.82486043273, -11832.611183239364, -8724.668171962283, -11466.489609061433, -9145.037429933242, -12056.374496981442, -14587.061355955764, -10161.3488985716, -8631.349638861375, -8657.367069407353, -11888.043509488525, -13385.677443227463, -19213.045443659477, 0.010875000000000001, -0.02825, 0.986875, 192.0, 0.0, 0.0, 0.0, 0.0, 0.0, 0.0, 0.0, 0.0, 0.0, 1.644586910404775E9, 0.0, 2022-02-12 00:41:50.404
222.0, -12204.231286553299, -11919.470062192686, -8202.866697653139, -13521.419587304545, -11833.929936162227, -8716.263916047086, -11471.07171667477, -9122.842147689122, -12055.94981383679, -14606.12739397614, -10172.658881265985, -8635.574118563429, -8669.146438735299, -11887.64117808833, -13391.667710741487, -19214.095975648877, 0.010875000000000001, -0.02825, 0.986875, 192.0, 0.0, 0.0, 0.0, 0.0, 0.0, 0.0, 0.0, 0.0, 0.0, 1.644586910412983E9, 0.0, 2022-02-12 00:41:50.412
224.0, -12226.18069960841, -11920.095911037435, -8208.633447722608, -13516.77042445784, -11839.830796698428, -8723.192956828232, -11489.757775039408, -9144.389229344039, -12041.309421218566, -14582.45689659797, -10140.494720994797, -8607.679141483206, -8641.318516888443, -11879.102811706402, -13373.920425643973, -19213.80540297096, 0.013437500000000002, -0.027125000000000003, 0.9884375, 192.0, 0.0, 64.0, 127.5, 24.0, 15.0, 120.0, 0.0, 0.0, 0.0, 1.644586910419858E9, 0.0, 2022-02-12 00:41:50.419
226.0, -12243.883281217013, -11947.74501892865, -8220.72574147293, -13524.951162928483, -11836.299221074489, -8727.305677808008, -11487.477897104967, -9157.397944617027, -12071.618386699962, -14616.208030725484, -10164.00875616178, -8650.035697226012, -8659.915168275258, -11906.237829475145, -13405.70460625942, -19221.695568763684, 0.013437500000000002, -0.027125000000000003, 0.9884375, 192.0, 0.0, 0.0, 0.0, 0.0, 0.0, 0.0, 0.0, 0.0, 0.0, 1.644586910427265E9, 0.0, 2022-02-12 00:41:50.427
228.0, -12213.104929102055, -11938.60315544643, -8198.329293528712, -13522.827747205229, -11834.712247218162, -8719.750788182115, -11483.499286591923, -9129.346505325617, -12049.333697478021, -14618.398501682104, -10143.646316962995, -8598.470222767619, -8648.582833836417, -11872.240826158622, -13381.005928636305, -19209.625626757817, 0.013437500000000002, -0.027125000000000003, 0.9884375, 192.0, 0.0, 0.0, 0.0, 0.0, 0.0, 0.0, 0.0, 0.0, 0.0, 1.644586910435364E9, 0.0, 2022-02-12 00:41:50.435
230.0, -12225.42074029693, -11960.731382457183, -8227.58772702071, -13516.837479691207, -11839.987258909614, -8734.212366844698, -11481.040594701839, -9150.893586980532, -12058.520264449153, -14622.08653951723, -10165.014584662269, -8619.36910383333, -8656.741220562604, -11887.060032732492, -13390.08073688516, -19216.66642626124, 0.013437500000000002, -0.027125000000000003, 0.9884375, 192.0, 0.0, 0.0, 0.0, 0.0, 0.0, 0.0, 0.0, 0.0, 0.0, 1.644586910441466E9, 0.0, 2022-02-12 00:41:50.441
232.0, -12215.854193670059, -11913.815070845494, -8203.984284875904, -13534.852985722184, -11835.896889674294, -8726.121035351878, -11480.32533887927, -9127.915993680477, -12071.797200655605, -14630.222574498961, -10182.292483126223, -8637.719886031138, -8677.416584183764, -11898.034739260047, -13404.721129503385, -19218.745138495582, 0.013437500000000002, -0.027125000000000003, 0.9884375, 192.0, 0.0, 0.0, 0.0, 0.0, 0.0, 0.0, 0.0, 0.0, 0.0, 1.64458691044903E9, 0.0, 2022-02-12 00:41:50.449
234.0, -12230.204013610366, -11930.17654778678, -8210.2874768123, -13525.577011773232, -11834.57813675143, -8718.074407347967, -11482.426402858067, -9137.862519963088, -12050.0936567895, -14594.996225237397, -10143.691020451906, -8619.972600933625, -8643.598394822884, -11883.103773963901, -13380.335376302646, -19217.22521987262, 0.012718750000000001, -0.0235625, 0.9882187499999999, 192.0, 0.0, 48.0, 127.5, 48.0, 15.0, 112.0, 0.0, 0.0, 0.0, 1.64458691045686E9, 0.0, 2022-02-12 00:41:50.456
236.0, -12229.689923487893, -11942.31354502601, -8219.205822849968, -13524.191203617002, -11832.499424517087, -8717.046227103023, -11473.910388220596, -9136.588470529136, -12073.361822767476, -14618.487908659925, -10177.017471434769, -8653.030830983023, -8668.587645123916, -11893.07265199097, -13403.424728324979, -19219.08041466241, 0.012718750000000001, -0.0235625, 0.9882187499999999, 192.0, 0.0, 0.0, 0.0, 0.0, 0.0, 0.0, 0.0, 0.0, 0.0, 1.644586910464969E9, 0.0, 2022-02-12 00:41:50.464
238.0, -12218.983437893801, -11924.521556439586, -8199.424529007021, -13524.302962339278, -11829.839566926905, -8713.805224157004, -11477.799591755818, -9122.819795944666, -12055.458075458775, -14607.98258876593, -10150.48595076632, -8619.078531155412, -8643.844264011892, -11868.463381345677, -13375.686213455941, -19211.212600614144, 0.012718750000000001, -0.0235625, 0.9882187499999999, 192.0, 0.0, 0.0, 0.0, 0.0, 0.0, 0.0, 0.0, 0.0, 0.0, 1.644586910471476E9, 0.0, 2022-02-12 00:41:50.471
240.0, -12247.347801607586, -11970.834370950983, -8225.598421764185, -13508.366168542645, -11824.72101744664, -8721.516575994085, -11464.522655549366, -9138.086037407642, -12060.017831327657, -14615.55983013628, -10155.045706635203, -8616.75394973206, -8649.633365825817, -11881.740317552129, -13384.090469371138, -19215.459432060652, 0.012718750000000001, -0.0235625, 0.9882187499999999, 192.0, 0.0, 0.0, 0.0, 0.0, 0.0, 0.0, 0.0, 0.0, 0.0, 1.644586910479749E9, 0.0, 2022-02-12 00:41:50.479
242.0, -12212.70259770186, -11919.939448826248, -8199.133956329102, -13524.906459439571, -11821.412959267254, -8707.72554966516, -11463.427420071057, -9107.307685292684, -12072.266587289167, -14632.323638477761, -10169.44023006442, -8641.94436573319, -8656.0930199734, -11892.06682349048, -13390.818344452186, -19210.206772113655, 0.012718750000000001, -0.0235625, 0.9882187499999999, 192.0, 0.0, 0.0, 0.0, 0.0, 0.0, 0.0, 0.0, 0.0, 0.0, 1.64458691048755E9, 0.0, 2022-02-12 00:41:50.487
244.0, -12206.980551121302, -11920.587649415453, -8205.504203498866, -13515.25050583488, -11827.962020392659, -8705.020988586068, -11474.26801613188, -9117.410673786482, -12039.297764217588, -14587.061355955764, -10150.217729832857, -8617.223336365621, -8633.249537140076, -11853.644174771807, -13366.49964648481, -19202.540123765484, 0.009359375, -0.02278125, 0.987109375, 192.0, 0.0, 24.0, 127.5, 40.0, 15.0, 104.0, 0.0, 0.0, 0.0, 1.644586910494655E9, 0.0, 2022-02-12 00:41:50.494
246.0, -12243.23508062781, -11951.433056763775, -8221.239831595401, -13517.597439002686, -11838.065008886459, -8720.667209704783, -11478.738365022942, -9136.342601340128, -12072.691270433817, -14632.435397200037, -10174.759945244783, -8648.783999536516, -8659.110505474866, -11886.545942610019, -13400.608408523609, -19212.911333192747, 0.009359375, -0.02278125, 0.987109375, 192.0, 0.0, 0.0, 0.0, 0.0, 0.0, 0.0, 0.0, 0.0, 0.0, 1.644586910502301E9, 0.0, 2022-02-12 00:41:50.502
