%OpenBCI Raw EEG Data
%Number of channels = 16
%Sample Rate = 125 Hz
%Board = OpenBCI_GUI$BoardCytonSerialDaisy
Sample Index, EXG Channel 0, EXG Channel 1, EXG Channel 2, EXG Channel 3, EXG Channel 4, EXG Channel 5, EXG Channel 6, EXG Channel 7, EXG Channel 8, EXG Channel 9, EXG Channel 10, EXG Channel 11, EXG Channel 12, EXG Channel 13, EXG Channel 14, EXG Channel 15, Accel Channel 0, Accel Channel 1, Accel Channel 2, Other, Other, Other, Other, Other, Other, Other, Analog Channel 0, Analog Channel 1, Analog Channel 2, Timestamp, Other, Timestamp (Formatted)
184.0, -12541.876738295166, -11961.737210957672, -8377.567932315818, -12250.879377231524, -13309.972084757339, -9832.062999256015, -11852.414828826766, -9412.453700596536, -11684.97791111206, -13812.528707090463, -11325.360694570625, -9866.887017117384, -10066.309281147633, -13439.813368298217, -12247.146635907488, -18220.672693332755, 0.0, 0.0, 0.0, 192.0, 0.0, 0.0, 0.0, 0.0, 0.0, 0.0, 0.0, 0.0, 0.0, 1.644586711780082E9, 0.0, 2022-02-12 00:38:31.780
186.0, -12511.813642002779, -11902.080405006458, -8344.666164477607, -12245.760827751259, -13274.566921540132, -9809.4653856117, -11812.00287485157, -9386.86095319521, -11683.547399466921, -13814.316846646887, -11327.61822076061, -9890.222238328724, -10072.344252150566, -13432.884327517073, -12251.974612709835, -18202.590132068413, 0.006, -0.015, 0.495, 192.0, 0.0, 48.0, 127.5, 8.0, 15.0, 120.0, 0.0, 0.0, 0.0, 1.644586711780086E9, 0.0, 2022-02-12 00:38:31.780
0.0, -5483.732281176124, -5109.362913294186, -3656.7900963771463, -5508.386255310328, -5587.354968470928, -4108.9882384524635, -5200.759196371937, -3931.4036287550484, -5816.035665993174, -6880.4480886993515, -5630.136207358385, -4909.471262630375, -5005.695522510472, -6709.367836638432, -6093.420814683534, -9089.269827517252, 0.009000000000000001, -0.0205, 0.7415, 192.0, 0.0, 48.0, 127.5, 24.0, 15.0, 112.0, 0.0, 0.0, 0.0, 1.644586711884113E9, 0.0, 2022-02-12 00:38:31.884
2.0, -10946.006887675154, -10183.991215704826, -7290.0438058428535, -11015.65492339789, -11165.590425204091, -8211.695636712986, -10388.442622237519, -7839.270870598659, -10259.31659451921, -12278.059098489179, -9852.604252410443, -8266.54681760631, -8306.534088436852, -11928.299001252533, -10429.391018079641, -16403.744090049757, 0.009000000000000001, -0.0205, 0.7415, 192.0, 0.0, 0.0, 0.0, 0.0, 0.0, 0.0, 0.0, 0.0, 0.0, 1.644586711890626E9, 0.0, 2022-02-12 00:38:31.890
4.0, -10990.93389403032, -10279.723737206905, -7320.911564935633, -11016.280772242639, -11167.69148918289, -8232.840386967706, -10412.649561482616, -7877.93938850634, -10258.333117763177, -12272.225293186342, -9863.489551960178, -8249.760657520374, -8318.201699042524, -11949.421399762798, -10434.10723615971, -16419.68088384639, 0.009000000000000001, -0.0205, 0.7415, 192.0, 0.0, 0.0, 0.0, 0.0, 0.0, 0.0, 0.0, 0.0, 0.0, 1.64458671189671E9, 0.0, 2022-02-12 00:38:31.896
6.0, -10981.814382292556, -10258.489579974364, -7287.629817441681, -11027.635458425935, -11164.897521125975, -8210.108662856659, -10403.954732889502, -7844.188254378826, -10288.843248944671, -12312.167860527976, -9876.230046299703, -8275.375756666155, -8350.142341869157, -11970.141466872868, -10453.687364302561, -16423.413625170426, 0.009000000000000001, -0.0205, 0.7415, 192.0, 0.0, 0.0, 0.0, 0.0, 0.0, 0.0, 0.0, 0.0, 0.0, 1.644586711904695E9, 0.0, 2022-02-12 00:38:31.904
8.0, -10962.211902405252, -10242.731600133373, -7291.228448298985, -11030.787054394134, -11165.836294393099, -8214.24373558089, -10415.465881283984, -7849.686783514832, -10245.41380946801, -12301.81900284517, -9822.205879951225, -8223.67617174103, -8303.136623279646, -11931.69646640974, -10417.25402084041, -16420.463194902324, 0.004, -0.028, 0.992, 192.0, 0.0, 16.0, 127.5, 16.0, 15.5, 0.0, 0.0, 0.0, 0.0, 1.644586711912626E9, 0.0, 2022-02-12 00:38:31.912
10.0, -10944.35285858546, -10240.116446032102, -7305.667675217113, -11039.459531242792, -11168.563207216646, -8210.421587279032, -10413.431872538553, -7857.576949307555, -10270.26894930231, -12318.381645486552, -9867.132886306392, -8275.800439810806, -8333.758513183417, -11959.300870812043, -10463.41037314062, -16439.39512245597, 0.004, -0.028, 0.992, 192.0, 0.0, 0.0, 0.0, 0.0, 0.0, 0.0, 0.0, 0.0, 0.0, 1.644586711920683E9, 0.0, 2022-02-12 00:38:31.920
12.0, -10919.967105384721, -10187.813364006683, -7272.363575978706, -11043.840473156033, -11162.729401913812, -8199.96097087395, -10410.079110870256, -7829.570213505056, -10230.326381960676, -12276.270958932753, -9837.695638858753, -8248.888939486616, -8293.771242352872, -11919.872393592883, -10435.515396060395, -16436.64585788797, 0.004, -0.028, 0.992, 192.0, 0.0, 0.0, 0.0, 0.0, 0.0, 0.0, 0.0, 0.0, 0.0, 1.644586711927817E9, 0.0, 2022-02-12 00:38:31.927
14.0, -10949.471408065727, -10241.748123377338, -7302.046692615354, -11040.66652544338, -11173.97232937483, -8227.945354931993, -10423.512509287895, -7868.037565712639, -10233.969716306892, -12270.995947241301, -9843.99883079515, -8250.855892998683, -8301.393187212132, -11947.923832884293, -10451.474541601485, -16453.58848018509, 0.004, -0.028, 0.992, 192.0, 0.0, 0.0, 0.0, 0.0, 0.0, 0.0, 0.0, 0.0, 0.0, 1.644586711936798E9, 0.0, 2022-02-12 00:38:31.936
16.0, -10952.98063194521, -10258.713097418917, -7282.265398772407, -11058.279700074161, -11174.821695664132, -8213.930811158516, -10413.25305858291, -7826.888004170419, -10257.93078636298, -12334.005514860812, -9868.272825273612, -8271.553608364298, -8299.82856510026, -11958.965594645215, -10473.714527334516, -16455.60013718607, 0.004, -0.028, 0.992, 192.0, 0.0, 0.0, 0.0, 0.0, 0.0, 0.0, 0.0, 0.0, 0.0, 1.644586711950945E9, 0.0, 2022-02-12 00:38:31.950
18.0, -10942.40825681785, -10252.879292116082, -7285.215829040508, -11062.101848376018, -11179.627320722024, -8206.085348854704, -10424.92066918858, -7824.049332624595, -10228.560594148707, -12308.748043626314, -9818.22726943818, -8219.071712383236, -8288.004492283404, -11927.114358796402, -10437.862329228203, -16453.96845984083, 0.012, -0.028, 0.992, 192.0, 0.0, 48.0, 127.5, 16.0, 15.5, 0.0, 0.0, 0.0, 0.0, 1.644586711957177E9, 0.0, 2022-02-12 00:38:31.957
20.0, -10948.040896420587, -10233.813254095705, -7301.934933893077, -11057.318575062583, -11182.264826567749, -8210.376883790123, -10435.202471638022, -7860.996766209218, -10253.795713638749, -12317.86755536408, -9862.036688570583, -8273.341747920722, -8320.16865255459, -11966.207559848734, -10484.689233862071, -16473.414477516948, 0.012, -0.028, 0.992, 192.0, 0.0, 0.0, 0.0, 0.0, 0.0, 0.0, 0.0, 0.0, 0.0, 1.644586711965317E9, 0.0, 2022-02-12 00:38:31.965
22.0, -10885.34425322345, -10181.085488925635, -7267.557950920815, -11062.638290242945, -11178.219160821338, -8186.996959089871, -10422.461977298497, -7827.469149526257, -10224.939611546948, -12281.836543302124, -9828.151443976336, -8224.637296752608, -8265.339823405722, -11917.436053447254, -10460.996384739445, -16471.849855405075, 0.012, -0.028, 0.992, 192.0, 0.0, 0.0, 0.0, 0.0, 0.0, 0.0, 0.0, 0.0, 0.0, 1.644586711972159E9, 0.0, 2022-02-12 00:38:31.972
24.0, -10954.791123246088, -10259.674222430494, -7306.628800228692, -11071.400174069426, -11201.710844243866, -8224.570241519243, -10450.82634101228, -7862.248463898714, -10223.352637690621, -12290.844296317613, -9833.113531245415, -8236.349610847188, -8282.483611402942, -11928.991905330648, -10479.682443104082, -16482.332823554614, 0.012, -0.028, 0.992, 192.0, 0.0, 0.0, 0.0, 0.0, 0.0, 0.0, 0.0, 0.0, 0.0, 1.644586711979821E9, 0.0, 2022-02-12 00:38:31.979
26.0, -10950.901919710866, -10250.93469034847, -7282.846544128245, -11094.400119113938, -11189.775012704733, -8226.380732820122, -10429.748645990927, -7842.64598401141, -10250.487655459363, -12334.050218349723, -9864.227159527203, -8282.64007361413, -8281.902466047104, -11977.94222568777, -10502.972960826512, -16494.02278590474, 0.01, -0.028, 0.991, 192.0, 0.0, 32.0, 127.5, 16.0, 15.0, 120.0, 0.0, 0.0, 0.0, 1.644586711987719E9, 0.0, 2022-02-12 00:38:31.987
28.0, -10967.777486774623, -10296.062862403734, -7290.8708203877, -11110.471023377302, -11206.248248368294, -8221.351590317678, -10452.703887546526, -7845.2164346237705, -10222.793844079239, -12356.133741871565, -9836.332182446979, -8261.987061737425, -8273.162933965079, -11960.46316152372, -10470.629986599683, -16500.7953644747, 0.01, -0.028, 0.991, 192.0, 0.0, 0.0, 0.0, 0.0, 0.0, 0.0, 0.0, 0.0, 0.0, 1.644586711995793E9, 0.0, 2022-02-12 00:38:31.995
30.0, -10969.699736797778, -10319.509842337351, -7303.186631582575, -11115.857793791032, -11197.173440119439, -8238.875357970639, -10452.30155614633, -7894.747900336731, -10256.701440417939, -12414.963533277934, -9881.773278924618, -8316.54766995283, -8299.940323822537, -11997.678816041805, -10517.36748425573, -16521.582486818133, 0.01, -0.028, 0.991, 192.0, 0.0, 0.0, 0.0, 0.0, 0.0, 0.0, 0.0, 0.0, 0.0, 1.644586712002676E9, 0.0, 2022-02-12 00:38:32.002
32.0, -10939.100198638464, -10302.500164806863, -7263.869913085689, -11128.888860808476, -11178.554436988168, -8219.295229827789, -10432.050875669824, -7850.357335848491, -10218.390550421544, -12409.59911460866, -9852.447790199256, -8287.445698672022, -8255.572111078753, -11971.191998862267, -10487.371443196707, -16522.096576940607, 0.01, -0.028, 0.991, 192.0, 0.0, 0.0, 0.0, 0.0, 0.0, 0.0, 0.0, 0.0, 0.0, 1.644586712011993E9, 0.0, 2022-02-12 00:38:32.011
34.0, -11001.729786602235, -10368.929549328035, -7301.912582148622, -11133.91800331092, -11213.423158338448, -8231.700448000485, -10483.83986757277, -7907.354284209524, -10212.847317796626, -12432.442597441985, -9855.018240811616, -8300.767338367385, -8243.144541161602, -11988.916932215327, -10502.302408492853, -16532.758359045787, 0.01, -0.028, 0.991, 192.0, 0.0, 0.0, 0.0, 0.0, 0.0, 0.0, 0.0, 0.0, 0.0, 1.64458671201898E9, 0.0, 2022-02-12 00:38:32.018
36.0, -10980.02624273613, -10326.483586607408, -7272.363575978706, -11153.967518087331, -11221.693303786911, -8223.005619407371, -10489.338396708776, -7891.551600879622, -10232.06981802819, -12459.331746021719, -9868.518694462622, -8336.865405662706, -8279.555532879298, -12014.66614182784, -10530.376199528719, -16541.006152749796, 0.009000000000000001, -0.026000000000000002, 0.9895, 192.0, 0.0, 32.0, 127.5, 32.0, 15.0, 112.0, 0.0, 0.0, 0.0, 1.644586712026206E9, 0.0, 2022-02-12 00:38:32.026
38.0, -10995.158373732374, -10346.66721185055, -7273.950549835033, -11161.097724568574, -11227.437702111925, -8248.844235997705, -10482.632873372182, -7878.3193681620805, -10195.882343755049, -12434.431902698507, -9834.342877190456, -8329.086998592258, -8239.277689370834, -11983.463106568232, -10489.852486831247, -16541.766112061276, 0.009000000000000001, -0.026000000000000002, 0.9895, 192.0, 0.0, 0.0, 0.0, 0.0, 0.0, 0.0, 0.0, 0.0, 0.0, 1.644586712032741E9, 0.0, 2022-02-12 00:38:32.032
40.0, -10990.084527741019, -10419.623305752672, -7290.602599454236, -11157.767314644732, -11227.884737001032, -8261.763544292873, -10491.707681621037, -7915.2444500022475, -10228.158262748511, -12502.917647709566, -9877.012357355638, -8347.437780790066, -8279.600236368207, -12051.568871923551, -10525.45881574855, -16560.876853570564, 0.009000000000000001, -0.026000000000000002, 0.9895, 192.0, 0.0, 0.0, 0.0, 0.0, 0.0, 0.0, 0.0, 0.0, 0.0, 1.644586712039718E9, 0.0, 2022-02-12 00:38:32.039
42.0, -10976.919350256843, -10367.655499894083, -7251.4199914240835, -11157.387334988993, -11214.853669983588, -8221.977439162427, -10492.110013021233, -7870.3397953915355, -10186.338148872632, -12482.666967233059, -9853.05128729955, -8316.301800763822, -8243.63627953962, -12015.47080462823, -10504.448175960562, -16551.7573418328, 0.009000000000000001, -0.026000000000000002, 0.9895, 192.0, 0.0, 0.0, 0.0, 0.0, 0.0, 0.0, 0.0, 0.0, 0.0, 1.644586712047297E9, 0.0, 2022-02-12 00:38:32.047
44.0, -11007.675350627345, -10371.298834240299, -7273.883494601667, -11162.885864124997, -11222.207393909383, -8240.01529693786, -10498.0779287908, -7907.644856887443, -10184.013567449281, -12486.243246345908, -9832.398275422845, -8318.22405078698, -8236.05903816927, -12026.534918133608, -10513.590039442783, -16562.732048360354, 0.009000000000000001, -0.026000000000000002, 0.9895, 192.0, 0.0, 0.0, 0.0, 0.0, 0.0, 0.0, 0.0, 0.0, 0.0, 1.644586712055039E9, 0.0, 2022-02-12 00:38:32.055
46.0, -10987.245856195195, -10372.975215074446, -7248.357802433706, -11180.946073644885, -11206.494117557302, -8241.736381260918, -10471.635815100171, -7882.499144375222, -10184.3041401272, -12508.863211734679, -9851.441961698767, -8362.659318764128, -8244.910328973572, -12039.52128166214, -10533.974830386023, -16557.56879539118, 0.0105, -0.029, 0.98775, 192.0, 0.0, 48.0, 127.5, 0.0, 15.0, 104.0, 0.0, 0.0, 0.0, 1.644586712070217E9, 0.0, 2022-02-12 00:38:32.070
48.0, -10978.394565390894, -10359.564168401263, -7245.586186121248, -11176.989814876297, -11231.93040274744, -8236.617831780653, -10519.468548234528, -7899.195897483337, -10154.933947912927, -12485.259769589875, -9811.432339123767, -8316.033579830359, -8192.853116137161, -12023.80800531006, -10500.290751491875, -16557.971126791374, 0.0105, -0.029, 0.98775, 192.0, 0.0, 0.0, 0.0, 0.0, 0.0, 0.0, 0.0, 0.0, 0.0, 1.644586712077492E9, 0.0, 2022-02-12 00:38:32.077
50.0, -10996.074795255041, -10411.666084726583, -7270.351918977728, -11188.366852804047, -11244.246213942315, -8249.738305775918, -10536.32176355383, -7952.437752775879, -10195.59177107713, -12507.656217534091, -9850.23496749818, -8373.209342147034, -8249.78300926483, -12054.541653936107, -10556.483037052518, -16578.065345056697, 0.0105, -0.029, 0.98775, 192.0, 0.0, 0.0, 0.0, 0.0, 0.0, 0.0, 0.0, 0.0, 0.0, 1.64458671208654E9, 0.0, 2022-02-12 00:38:32.086
52.0, -10965.631719306914, -10376.171514531556, -7244.692116343036, -11199.766242476255, -11223.41438810997, -8236.349610847188, -10503.017664315423, -7912.361074967513, -10185.757003516794, -12521.559002585293, -9849.787932609073, -8327.857652647215, -8223.497357785387, -12039.43187468432, -10523.245993047476, -16572.410353709503, 0.0105, -0.029, 0.98775, 192.0, 0.0, 0.0, 0.0, 0.0, 0.0, 0.0, 0.0, 0.0, 0.0, 1.644586712093308E9, 0.0, 2022-02-12 00:38:32.093
54.0, -11020.03586531113, -10417.410483051597, -7273.615273668203, -11197.26284709726, -11238.837091784131, -8248.643070297609, -10532.65607746316, -7939.473740991801, -10173.172971388456, -12520.530822340348, -9841.651897627342, -8347.75070521244, -8234.226195123934, -12041.465883429753, -10519.1332720677, -16576.456019455913, 0.0105, -0.029, 0.98775, 192.0, 0.0, 0.0, 0.0, 0.0, 0.0, 0.0, 0.0, 0.0, 0.0, 1.644586712099412E9, 0.0, 2022-02-12 00:38:32.099
56.0, -10994.040786509608, -10397.495078741918, -7253.141075747142, -11203.02959716673, -11222.98970496532, -8230.87343345564, -10505.811632372337, -7910.438824944356, -10198.676311811962, -12554.43841867905, -9859.555644936043, -8363.508685053432, -8245.670288285051, -12074.613520456973, -10541.820292689836, -16577.595958423135, 0.01025, -0.0305, 0.986875, 192.0, 0.0, 40.0, 127.5, 0.0, 15.0, 104.0, 0.0, 0.0, 0.0, 1.644586712107545E9, 0.0, 2022-02-12 00:38:32.107
58.0, -10971.912559498855, -10382.787630890327, -7245.4967791434265, -11205.734158245821, -11230.946925991408, -8237.623660281142, -10520.764949412936, -7927.627316430488, -10159.91838692646, -12518.630924061648, -9819.389560149857, -8322.448530489031, -8207.269991310834, -12033.910993803858, -10509.83494637429, -16588.391850995045, 0.01025, -0.0305, 0.986875, 192.0, 0.0, 0.0, 0.0, 0.0, 0.0, 0.0, 0.0, 0.0, 0.0, 1.644586712115348E9, 0.0, 2022-02-12 00:38:32.115
60.0, -10983.758984060167, -10366.135581271123, -7270.15075327763, -11212.774957749243, -11247.017830254774, -8244.798570251294, -10542.870824679236, -7966.1393721269815, -10180.951378458903, -12564.58611066176, -9863.556607193543, -8356.825513461294, -8225.509014786365, -12056.307441748077, -10565.915473212657, -16611.123575106096, 0.01025, -0.0305, 0.986875, 192.0, 0.0, 0.0, 0.0, 0.0, 0.0, 0.0, 0.0, 0.0, 0.0, 1.644586712121858E9, 0.0, 2022-02-12 00:38:32.121
62.0, -10980.249760180684, -10371.343537729208, -7247.977822777966, -11222.520318331757, -11247.196644210417, -8240.551738804787, -10541.172092100633, -7947.363906784524, -10160.164256115468, -12518.899144995112, -9837.270955714102, -8330.517510237398, -8228.347686332188, -12046.964412565758, -10548.123484626232, -16608.66488321601, 0.01025, -0.0305, 0.986875, 192.0, 0.0, 0.0, 0.0, 0.0, 0.0, 0.0, 0.0, 0.0, 0.0, 1.644586712129039E9, 0.0, 2022-02-12 00:38:32.129
64.0, -11028.685990415333, -10427.334657589754, -7297.01755011291, -11222.02857995374, -11271.13536252205, -8272.425326398055, -10563.52383655594, -7979.125735655515, -10192.037843708737, -12531.52788061236, -9846.390467451867, -8333.579699227774, -8229.711142743963, -12059.86136911647, -10558.651156264683, -16623.90877293453, 0.01025, -0.0305, 0.986875, 192.0, 0.0, 0.0, 0.0, 0.0, 0.0, 0.0, 0.0, 0.0, 0.0, 1.644586712137216E9, 0.0, 2022-02-12 00:38:32.137
66.0, -10995.627760365935, -10395.595180463217, -7273.235294012463, -11221.536841575724, -11252.203434968405, -8248.35249761969, -10542.0885136233, -7950.090819608072, -10227.822986581683, -12553.67845936757, -9886.265979560136, -8361.944062941559, -8258.366079135667, -12069.986709354724, -10590.390633391218, -16630.927220693495, 0.012125, -0.03125, 0.9874375, 192.0, 0.0, 56.0, 127.5, 0.0, 15.0, 112.0, 0.0, 0.0, 0.0, 1.644586712145134E9, 0.0, 2022-02-12 00:38:32.145
68.0, -10970.370289131439, -10354.66913636555, -7260.5171514173935, -11212.93141996043, -11243.21803369737, -8235.924927702537, -10526.956382627057, -7935.9645171123175, -10182.270131381767, -12489.819525458757, -9848.938566319772, -8310.088015805248, -8215.070750125737, -12024.635019854906, -10546.290641580897, -16616.309179819727, 0.012125, -0.03125, 0.9874375, 192.0, 0.0, 0.0, 0.0, 0.0, 0.0, 0.0, 0.0, 0.0, 0.0, 1.644586712153251E9, 0.0, 2022-02-12 00:38:32.153
70.0, -11008.949400061298, -10366.157933015578, -7283.2935790173515, -11218.36289386307, -11254.37155418057, -8252.688736044018, -10535.897080409179, -7969.313319839635, -10204.800689792715, -12528.085711966243, -9869.4798194742, -8347.460132534521, -8247.123151674647, -12062.387116239921, -10588.088403712321, -16621.584191511178, 0.012125, -0.03125, 0.9874375, 192.0, 0.0, 0.0, 0.0, 0.0, 0.0, 0.0, 0.0, 0.0, 0.0, 1.644586712160149E9, 0.0, 2022-02-12 00:38:32.160
72.0, -10989.838658552011, -10344.18616821601, -7249.765962334391, -11228.801158523698, -11251.868158801575, -8218.557622260765, -10541.216795589542, -7946.626299217499, -10194.004797220803, -12498.492002307416, -9854.638261155875, -8325.55542296832, -8208.901668656072, -12019.270601185633, -10575.571426817349, -16612.419976284502, 0.012125, -0.03125, 0.9874375, 192.0, 0.0, 0.0, 0.0, 0.0, 0.0, 0.0, 0.0, 0.0, 0.0, 1.644586712169134E9, 0.0, 2022-02-12 00:38:32.169
74.0, -11021.198156022807, -10416.583468506751, -7281.237218527463, -11221.670952042456, -11276.700946891422, -8243.323355117245, -10585.786174033425, -8019.403579163979, -10204.487765370342, -12522.117796196675, -9851.106685531937, -8301.750815123418, -8238.316564359257, -12021.773996564627, -10587.976644990045, -16636.20223238495, 0.012125, -0.03125, 0.9874375, 192.0, 0.0, 0.0, 0.0, 0.0, 0.0, 0.0, 0.0, 0.0, 0.0, 1.644586712175338E9, 0.0, 2022-02-12 00:38:32.175
76.0, -10992.36440567546, -10370.225950506443, -7262.10412527372, -11230.164614935473, -11266.061516530695, -8235.321430602246, -10568.128295913732, -7983.283160124202, -10231.01928603879, -12531.863156779189, -9883.159087080847, -8325.510719479409, -8239.121227159647, -12033.531014148119, -10626.309886730896, -16651.960212225942, 0.0140625, -0.031625, 0.98571875, 192.0, 0.0, 64.0, 127.5, 0.0, 15.0, 96.0, 0.0, 0.0, 0.0, 1.644586712182665E9, 0.0, 2022-02-12 00:38:32.182
78.0, -10972.851332765977, -10337.592403601695, -7253.431648425061, -11232.288030658727, -11257.009060026296, -8235.455541068977, -10550.246900349486, -7974.34246234208, -10192.931913486947, -12476.162609596564, -9840.08727551547, -8277.29800668931, -8209.840441923196, -12001.2327434102, -10580.578217575337, -16650.306183136247, 0.0140625, -0.031625, 0.98571875, 192.0, 0.0, 0.0, 0.0, 0.0, 0.0, 0.0, 0.0, 0.0, 0.0, 1.644586712197665E9, 0.0, 2022-02-12 00:38:32.197
80.0, -11008.725882616745, -10387.570904203762, -7274.017605068399, -11239.03825748423, -11276.455077702412, -8255.683869801029, -10571.95044421559, -8011.558116860166, -10233.902661073525, -12497.016787173367, -9894.312607564045, -8343.883853421672, -8256.622643068153, -12039.901261317882, -10625.795796608425, -16670.57921535721, 0.0140625, -0.031625, 0.98571875, 192.0, 0.0, 0.0, 0.0, 0.0, 0.0, 0.0, 0.0, 0.0, 0.0, 1.644586712204798E9, 0.0, 2022-02-12 00:38:32.204
82.0, -11002.266228469161, -10353.886825309613, -7237.941889517533, -11253.633946613545, -11265.055688030207, -8249.447733097999, -10549.062257893356, -7969.693299495376, -10226.303067958721, -12494.781612727835, -9868.563397951531, -8297.839259843739, -8234.114436401658, -12034.179214737322, -10612.72002610207, -16670.35569791266, 0.0140625, -0.031625, 0.98571875, 192.0, 0.0, 0.0, 0.0, 0.0, 0.0, 0.0, 0.0, 0.0, 0.0, 1.644586712211857E9, 0.0, 2022-02-12 00:38:32.211
84.0, -11013.866783841466, -10377.020880820857, -7278.778526637379, -11260.384173439048, -11282.579455683168, -8258.366079135667, -10572.598644804793, -8006.864250524552, -10228.404131937521, -12495.541572039316, -9871.580883452998, -8314.468957718487, -8200.67622669652, -12036.101464760479, -10612.831784824346, -16683.073840507728, 0.0140625, -0.031625, 0.98571875, 192.0, 0.0, 0.0, 0.0, 0.0, 0.0, 0.0, 0.0, 0.0, 0.0, 1.644586712220275E9, 0.0, 2022-02-12 00:38:32.220
86.0, -11024.796786880112, -10393.091785084223, -7253.990442036444, -11254.058629758196, -11282.601807427622, -8234.986154435415, -10570.430525592628, -7986.546514814677, -10251.046449070745, -12506.918609967068, -9923.079302678027, -8330.249289303934, -8279.264960201379, -12029.932383290814, -10651.67911668767, -16681.576273629224, 0.01403125, -0.0288125, 0.983859375, 192.0, 0.0, 56.0, 127.5, 24.0, 15.0, 88.0, 0.0, 0.0, 0.0, 1.644586712227967E9, 0.0, 2022-02-12 00:38:32.227
88.0, -11030.965868349776, -10367.946072572002, -7252.559930391304, -11253.410429168991, -11281.819496371687, -8241.222291138445, -10571.078726181833, -7985.026596191717, -10234.752027362827, -12495.116888894665, -9865.277691516601, -8283.265922458879, -8235.030857924326, -11993.27552238411, -10609.255505711497, -16675.340136926192, 0.01403125, -0.0288125, 0.983859375, 192.0, 0.0, 0.0, 0.0, 0.0, 0.0, 0.0, 0.0, 0.0, 0.0, 1.644586712234605E9, 0.0, 2022-02-12 00:38:32.234
90.0, -11047.819083669077, -10410.660256226094, -7279.404375482128, -11268.028470042762, -11295.632874445066, -8258.053154713292, -10580.131182686233, -8011.669875582443, -10271.542998736262, -12513.780595514847, -9916.910221208362, -8337.31244055181, -8263.97636699395, -12040.124778762434, -10662.743230193048, -16700.39644246059, 0.01403125, -0.0288125, 0.983859375, 192.0, 0.0, 0.0, 0.0, 0.0, 0.0, 0.0, 0.0, 0.0, 0.0, 1.644586712243934E9, 0.0, 2022-02-12 00:38:32.243
92.0, -11035.145644562917, -10365.912063826569, -7251.732915846457, -11279.80783937071, -11290.290807520249, -8244.35153536219, -10568.351813358286, -7988.491116582289, -10261.350603264644, -12494.245170860908, -9901.264000089646, -8312.636114673152, -8258.880169258138, -12023.495080887686, -10644.504206717516, -16696.39548020309, 0.01403125, -0.0288125, 0.983859375, 192.0, 0.0, 0.0, 0.0, 0.0, 0.0, 0.0, 0.0, 0.0, 0.0, 1.644586712251146E9, 0.0, 2022-02-12 00:38:32.251
94.0, -11055.619842483979, -10411.308456815297, -7283.382985995172, -11273.28112998976, -11313.871897920597, -8262.009413481881, -10600.001883507, -8024.678590855431, -10269.732507435383, -12505.756319255392, -9895.541953509088, -8306.22116401448, -8245.379715607132, -12024.076226243524, -10648.125189319277, -16712.35462574418, 0.01403125, -0.0288125, 0.983859375, 192.0, 0.0, 0.0, 0.0, 0.0, 0.0, 0.0, 0.0, 0.0, 0.0, 1.644586712258498E9, 0.0, 2022-02-12 00:38:32.258
96.0, -11043.773417922666, -10397.070395597268, -7267.043860798342, -11294.76115641131, -11295.163487811506, -8237.757770747874, -10571.391650604208, -8002.5280121002215, -10295.213496114433, -12526.029351476354, -9933.718733038751, -8337.468902762997, -8267.06090772878, -12047.031467799125, -10678.881189689779, -16713.606323433676, 0.018000000000000002, -0.022, 0.986, 192.0, 0.0, 72.0, 127.5, 40.0, 15.0, 104.0, 0.0, 0.0, 0.0, 1.644586712264884E9, 0.0, 2022-02-12 00:38:32.264
98.0, -11031.211737538784, -10389.806078649293, -7268.362613721206, -11290.04493833124, -11301.354921025626, -8250.051230198293, -10586.479078111539, -8004.986703990306, -10260.970623608902, -12494.066356905265, -9903.834450702007, -8293.681835375051, -8236.170796891547, -11986.860571725438, -10634.1106455458, -16712.01934957735, 0.018000000000000002, -0.022, 0.986, 192.0, 0.0, 0.0, 0.0, 0.0, 0.0, 0.0, 0.0, 0.0, 0.0, 1.644586712272363E9, 0.0, 2022-02-12 00:38:32.272
100.0, -11093.774270269188, -10447.87591074418, -7299.3197797918065, -11300.527906480778, -11319.28102007878, -8276.918027033571, -10604.09225274232, -8030.355933947079, -10297.269856604322, -12544.156616229608, -9941.854768020483, -8329.623440459185, -8294.642960386629, -12042.494063674696, -10683.575056025393, -16734.46050101048, 0.018000000000000002, -0.022, 0.986, 192.0, 0.0, 0.0, 0.0, 0.0, 0.0, 0.0, 0.0, 0.0, 0.0, 1.644586712280674E9, 0.0, 2022-02-12 00:38:32.280
102.0, -11053.049391871618, -10376.730308142938, -7259.511322916905, -11306.80874667272, -11301.444328003447, -8252.174645921546, -10589.675377568648, -7990.614532305543, -10294.051205402757, -12495.94390343951, -9914.809157229562, -8321.93444036656, -8267.396183895611, -12023.785653565605, -10668.062945373411, -16733.365265532168, 0.018000000000000002, -0.022, 0.986, 192.0, 0.0, 0.0, 0.0, 0.0, 0.0, 0.0, 0.0, 0.0, 0.0, 1.644586712287585E9, 0.0, 2022-02-12 00:38:32.287
104.0, -11065.47696178877, -10409.766186447881, -7290.200268054041, -11305.020607116296, -11316.107072366129, -8266.680928073041, -10615.044607525422, -8022.510471643266, -10288.507972777841, -12494.267522605363, -9914.004494429171, -8311.473823961476, -8252.219349410458, -12016.834261040005, -10664.374907538284, -16741.143672602615, 0.018000000000000002, -0.022, 0.986, 192.0, 0.0, 0.0, 0.0, 0.0, 0.0, 0.0, 0.0, 0.0, 0.0, 1.644586712294841E9, 0.0, 2022-02-12 00:38:32.294
106.0, -11052.110618604496, -10383.324072757254, -7274.3752329796835, -11309.245086818348, -11309.446252518446, -8250.855892998683, -10616.519822659473, -8012.653352338476, -10309.384502099098, -12512.23832514743, -9947.666221578864, -8334.496120750442, -8289.569114395275, -12032.14520599189, -10699.914181222222, -16745.658724982586, 0.014, -0.018000000000000002, 0.986, 192.0, 0.0, 56.0, 127.5, 56.0, 15.0, 104.0, 0.0, 0.0, 0.0, 1.644586712302925E9, 0.0, 2022-02-12 00:38:32.302
108.0, -11058.637327985445, -10384.218142535467, -7271.067174800298, -11315.637685732567, -11305.154717583027, -8250.2970993873, -10605.09808124281, -7996.448337608378, -10284.954045409448, -12445.496016203882, -9907.3883780704, -8285.702262604507, -8237.578956792231, -11999.310493387044, -10655.858892900813, -16739.6014022352, 0.014, -0.018000000000000002, 0.986, 192.0, 0.0, 0.0, 0.0, 0.0, 0.0, 0.0, 0.0, 0.0, 0.0, 1.64458671231936E9, 0.0, 2022-02-12 00:38:32.319
110.0, -11091.76261326821, -10445.037239198356, -7303.96894263851, -11319.258668334327, -11317.269363077803, -8267.999680995903, -10613.301171457908, -8042.649393397498, -10320.09098769319, -12528.644505577626, -9958.283300195135, -8338.430027774577, -8280.360195679688, -12033.441607170298, -10705.16684116922, -16758.60038502221, 0.014, -0.018000000000000002, 0.986, 192.0, 0.0, 0.0, 0.0, 0.0, 0.0, 0.0, 0.0, 0.0, 0.0, 1.6445867123259E9, 0.0, 2022-02-12 00:38:32.325
112.0, -11081.771383496689, -10413.074244627267, -7259.712488617002, -11321.203270101938, -11301.064348347707, -8245.267956884856, -10595.017444493467, -8002.080977211115, -10307.395196842575, -12525.604668331704, -9928.600183558487, -8302.331960479256, -8263.506980360387, -12012.453319126764, -10681.965730424612, -16754.621774509167, 0.014, -0.018000000000000002, 0.986, 192.0, 0.0, 0.0, 0.0, 0.0, 0.0, 0.0, 0.0, 0.0, 0.0, 1.644586712333893E9, 0.0, 2022-02-12 00:38:32.333
114.0, -11101.53032559518, -10438.510529817406, -7292.5695529663035, -11317.537584011268, -11318.521060767302, -8262.747021048906, -10635.809378124402, -8042.336468975123, -10306.299961364266, -12513.400615859106, -9916.4408345748, -8288.876210317161, -8254.052192455792, -12007.535935346597, -10683.172724625198, -16765.55177754781, 0.014, -0.018000000000000002, 0.986, 192.0, 0.0, 0.0, 0.0, 0.0, 0.0, 0.0, 0.0, 0.0, 0.0, 1.644586712341962E9, 0.0, 2022-02-12 00:38:32.341
116.0, -11065.298147833128, -10406.2569625684, -7276.073965558287, -11326.56768877121, -11313.357807798126, -8248.44190459751, -10632.501319945017, -8030.221823480347, -10328.338781397199, -12506.76214775588, -9955.936367027327, -8332.17153932709, -8278.326186934255, -12031.586412380508, -10729.55259436996, -16769.84331248323, 0.016, -0.018000000000000002, 0.986, 192.0, 0.0, 64.0, 127.5, 56.0, 15.0, 104.0, 0.0, 0.0, 0.0, 1.644586712349365E9, 0.0, 2022-02-12 00:38:32.349
118.0, -11075.222322371284, -10408.11215735819, -7269.77077362189, -11330.859223706631, -11314.117767109605, -8253.96278547797, -10622.957125062601, -8023.739817588308, -10305.450595074964, -12484.61156900067, -9928.980163214226, -8294.911181320093, -8246.63141329663, -11996.94120847478, -10687.799535727447, -16768.010469437893, 0.016, -0.018000000000000002, 0.986, 192.0, 0.0, 0.0, 0.0, 0.0, 0.0, 0.0, 0.0, 0.0, 0.0, 1.644586712355624E9, 0.0, 2022-02-12 00:38:32.355
120.0, -11121.803357816143, -10471.367594166708, -7301.599657726248, -11336.983601687385, -11323.5725550142, -8269.988986252427, -10634.490625201539, -8058.027393582749, -10344.81201706076, -12540.312116183295, -9975.382384703444, -8335.211376573012, -8289.88203881765, -12034.358028692965, -10727.02684724651, -16783.209655667502, 0.016, -0.018000000000000002, 0.986, 192.0, 0.0, 0.0, 0.0, 0.0, 0.0, 0.0, 0.0, 0.0, 0.0, 1.644586712362554E9, 0.0, 2022-02-12 00:38:32.362
122.0, -11074.887046204454, -10391.124831572155, -7263.355822963217, -11354.641479807076, -11306.406415272524, -8251.906424988083, -10619.179680249654, -8004.96435224585, -10332.071522721235, -12504.303455865796, -9945.565157600066, -8311.317361750289, -8265.429230383543, -12005.52427834562, -10714.9792569851, -16780.773315521874, 0.016, -0.018000000000000002, 0.986, 192.0, 0.0, 0.0, 0.0, 0.0, 0.0, 0.0, 0.0, 0.0, 0.0, 1.644586712368963E9, 0.0, 2022-02-12 00:38:32.368
124.0, -11085.258255631716, -10428.653410512616, -7295.989369867965, -11350.238186149381, -11320.152738112538, -8274.25816944339, -10641.799645638424, -8060.553140706199, -10316.47000509143, -12497.597932529205, -9938.792579030107, -8317.911126364605, -8263.462276871476, -12016.342522661987, -10711.157108683243, -16793.64792032813, 0.016, -0.018000000000000002, 0.986, 192.0, 0.0, 0.0, 0.0, 0.0, 0.0, 0.0, 0.0, 0.0, 0.0, 1.644586712376696E9, 0.0, 2022-02-12 00:38:32.376
126.0, -11113.823785045599, -10456.570739337294, -7285.01466334041, -11359.827084520708, -11317.738749711365, -8270.279558930344, -10647.409933496707, -8052.506512702288, -10357.396049189098, -12529.158595700097, -9971.06849802357, -8344.2191295885, -8304.991818069437, -12040.325944462533, -10751.45730393616, -16804.399109411133, 0.012, -0.024, 0.984, 192.0, 0.0, 48.0, 127.5, 32.0, 15.0, 96.0, 0.0, 0.0, 0.0, 1.644586712384894E9, 0.0, 2022-02-12 00:38:32.384
128.0, -11125.357285184537, -10458.0683062158, -7279.471430715494, -11363.559825844744, -11311.815537430708, -8266.92679726205, -10627.53923267594, -8022.39871292099, -10337.011258245857, -12530.946735256523, -9931.908241737872, -8297.235762743445, -8259.39425938061, -12006.910086501848, -10707.580829570394, -16798.78882155285, 0.012, -0.024, 0.984, 192.0, 0.0, 0.0, 0.0, 0.0, 0.0, 0.0, 0.0, 0.0, 0.0, 1.644586712392769E9, 0.0, 2022-02-12 00:38:32.392
130.0, -11144.423323204914, -10489.427803686596, -7310.182727597085, -11371.025308492817, -11329.853395206143, -8287.06571901628, -10651.477950987572, -8065.492876230822, -10377.087936054222, -12563.446171694539, -9991.207419777802, -8354.679745993584, -8295.06764353128, -12053.044087057602, -10748.149245756775, -16816.223182227994, 0.012, -0.024, 0.984, 192.0, 0.0, 0.0, 0.0, 0.0, 0.0, 0.0, 0.0, 0.0, 0.0, 1.64458671240095E9, 0.0, 2022-02-12 00:38:32.400
132.0, -11081.883142218965, -10396.288084541331, -7263.847561341234, -11379.228398707915, -11305.534697238767, -8249.15716042008, -10617.659761626694, -8014.083863983616, -10347.248357206388, -12523.391845630627, -9975.337681214534, -8331.769207926895, -8264.535160605332, -12018.644752340884, -10736.436931662194, -16809.18238272457, 0.012, -0.024, 0.984, 192.0, 0.0, 0.0, 0.0, 0.0, 0.0, 0.0, 0.0, 0.0, 0.0, 1.644586712408806E9, 0.0, 2022-02-12 00:38:32.408
134.0, -11170.910140384452, -10502.905905593147, -7305.846489172756, -11377.931997529507, -11332.982639429885, -8284.852896315206, -10647.499340474527, -8067.303367531702, -10359.47476142344, -12521.201374674009, -9964.944120042815, -8315.161861796601, -8271.106573475192, -12002.059757955047, -10726.9821437576, -16817.89956306214, 0.012, -0.024, 0.984, 192.0, 0.0, 0.0, 0.0, 0.0, 0.0, 0.0, 0.0, 0.0, 0.0, 1.644586712417145E9, 0.0, 2022-02-12 00:38:32.417
136.0, -11154.30279425416, -10492.378233954696, -7290.602599454236, -11386.470363911434, -11324.936011425974, -8271.173628708557, -10643.163102050197, -8053.199416780403, -10405.094671856723, -12585.082660327276, -10007.12186182998, -8354.098600637746, -8312.367893739689, -12059.324927249543, -10781.006310106077, -16834.19398477006, 0.012, -0.026000000000000002, 0.988, 192.0, 0.0, 48.0, 127.5, 24.0, 15.0, 112.0, 0.0, 0.0, 0.0, 1.64458671242318E9, 0.0, 2022-02-12 00:38:32.423
138.0, -11136.935488812387, -10479.257759959431, -7286.132250563175, -11389.39844243508, -11326.992371915863, -8264.579864094241, -10653.780180666468, -8039.341335218112, -10362.492246924907, -12535.148863214119, -9960.071439751559, -8317.68760892005, -8271.01716649737, -12001.299798643566, -10744.572966643926, -16829.835394601276, 0.012, -0.026000000000000002, 0.988, 192.0, 0.0, 0.0, 0.0, 0.0, 0.0, 0.0, 0.0, 0.0, 0.0, 1.644586712430086E9, 0.0, 2022-02-12 00:38:32.430
140.0, -11192.837201695109, -10533.952478641568, -7321.693875991568, -11396.59570414969, -11342.705648267944, -8286.953960294004, -10674.25437858753, -8078.099260103615, -10404.513526500885, -12575.58316893377, -10013.022722366182, -8375.668034037119, -8307.048178559326, -12056.441552214808, -10785.700176441691, -16847.202700043046, 0.012, -0.026000000000000002, 0.988, 192.0, 0.0, 0.0, 0.0, 0.0, 0.0, 0.0, 0.0, 0.0, 0.0, 1.644586712444443E9, 0.0, 2022-02-12 00:38:32.444
142.0, -11138.053076035152, -10447.518282832896, -7282.15364005013, -11405.335236231713, -11328.6240492611, -8269.519599618865, -10678.791782711958, -8044.884567843029, -10402.032482866345, -12540.043895249832, -10004.50670772871, -8352.377516314687, -8294.106518519702, -12035.341505448998, -10775.105449569875, -16841.77122614041, 0.012, -0.026000000000000002, 0.988, 192.0, 0.0, 0.0, 0.0, 0.0, 0.0, 0.0, 0.0, 0.0, 0.0, 1.644586712451701E9, 0.0, 2022-02-12 00:38:32.451
144.0, -11200.436794809913, -10536.724094954026, -7310.16037585263, -11403.323579230737, -11341.789226745275, -8292.899524319117, -10687.598370027348, -8074.478277501855, -10395.729290929949, -12536.020581247876, -10002.78562340565, -8330.763379426406, -8277.946207278515, -12032.90516530337, -10774.501952469582, -16852.23184254549, 0.012, -0.026000000000000002, 0.988, 192.0, 0.0, 0.0, 0.0, 0.0, 0.0, 0.0, 0.0, 0.0, 0.0, 1.644586712459893E9, 0.0, 2022-02-12 00:38:32.459
146.0, -11167.49032348279, -10501.341283481275, -7293.374215766695, -11419.439186983012, -11329.428712061492, -8281.231913713445, -10665.805419183424, -8058.273262771758, -10430.687419258049, -12573.124477043686, -10030.591193508053, -8360.312385596322, -8310.758568138906, -12063.661165673873, -10805.973208662655, -16859.22793856, 0.012, -0.026000000000000002, 0.99, 192.0, 0.0, 48.0, 127.5, 24.0, 15.0, 120.0, 0.0, 0.0, 0.0, 1.64458671246785E9, 0.0, 2022-02-12 00:38:32.467
148.0, -11160.628337935012, -10492.579399654795, -7285.215829040508, -11416.555811948278, -11323.661961992022, -8285.076413759758, -10665.380736038773, -8048.505550444788, -10389.180229804544, -12549.34222094324, -9975.628253892453, -8318.000533342425, -8259.126038447146, -12010.933400503804, -10761.381478474317, -16855.76341816943, 0.012, -0.026000000000000002, 0.99, 192.0, 0.0, 0.0, 0.0, 0.0, 0.0, 0.0, 0.0, 0.0, 0.0, 1.644586712475881E9, 0.0, 2022-02-12 00:38:32.475
150.0, -11198.246323853295, -10526.397589015674, -7318.139948623175, -11424.758902163376, -11352.518064083823, -8303.069568046281, -10693.342768352362, -8089.163373608992, -10421.947887176024, -12590.49178248546, -10015.950800889826, -8375.89155148167, -8316.79353914184, -12056.061572559069, -10809.683598242236, -16877.086982379795, 0.012, -0.026000000000000002, 0.99, 192.0, 0.0, 0.0, 0.0, 0.0, 0.0, 0.0, 0.0, 0.0, 0.0, 1.64458671248396E9, 0.0, 2022-02-12 00:38:32.483
152.0, -11186.243437080793, -10511.444271975073, -7290.6920064320575, -11431.106797588684, -11339.218776132915, -8292.430137685555, -10683.932683936679, -8059.793181394718, -10417.812814451792, -12564.764924617402, -10014.520289244687, -8356.289071594367, -8304.433024458054, -12052.395886468397, -10798.083042869932, -16877.601072502264, 0.012, -0.026000000000000002, 0.99, 192.0, 0.0, 0.0, 0.0, 0.0, 0.0, 0.0, 0.0, 0.0, 0.0, 1.644586712491786E9, 0.0, 2022-02-12 00:38:32.491
154.0, -11222.050931698195, -10564.350851100786, -7327.214756872029, -11441.008620382383, -11364.900930512063, -8323.521414222887, -10709.324265637906, -8090.683292231953, -10429.011038423901, -12575.96314858951, -10013.693274699841, -8341.98395514297, -8291.893695818628, -12053.938156835815, -10795.110260857375, -16890.229808119515, 0.012, -0.026000000000000002, 0.99, 192.0, 0.0, 0.0, 0.0, 0.0, 0.0, 0.0, 0.0, 0.0, 0.0, 1.644586712497946E9, 0.0, 2022-02-12 00:38:32.497
156.0, -11201.129698888028, -10539.808635688858, -7315.793015455368, -11454.486722288933, -11361.861093266141, -8317.821719386784, -10708.31843713742, -8084.491859017833, -10467.098410975745, -12599.343073289761, -10052.406496096433, -8383.312330640832, -8335.79252192885, -12084.492991506218, -10839.903156745811, -16903.953779215073, 0.01, -0.03, 0.99, 192.0, 0.0, 40.0, 127.5, 8.0, 15.0, 120.0, 0.0, 0.0, 0.0, 1.644586712503923E9, 0.0, 2022-02-12 00:38:32.503
158.0, -11167.244454293783, -10486.32091120731, -7301.800823426345, -11461.75103923691, -11356.116694941127, -8315.899469363627, -10709.614838315825, -8082.010815383293, -10420.338561575241, -12568.184741519064, -10013.670922955385, -8347.50483602343, -8275.3534049217, -12040.974145051736, -10801.748728960602, -16905.093718182292, 0.01, -0.03, 0.99, 192.0, 0.0, 0.0, 0.0, 0.0, 0.0, 0.0, 0.0, 0.0, 0.0, 1.644586712512192E9, 0.0, 2022-02-12 00:38:32.512
160.0, -11236.959545249885, -10555.320746340842, -7325.5607277823365, -11449.144655364116, -11370.44416313698, -8330.919841637593, -10724.165823956231, -8123.853281003629, -10441.483311829963, -12590.044747596354, -10039.688353501362, -8380.94304572857, -8325.376609012677, -12070.567854710562, -10840.685467801746, -16925.746730058996, 0.01, -0.03, 0.99, 192.0, 0.0, 0.0, 0.0, 0.0, 0.0, 0.0, 0.0, 0.0, 0.0, 1.644586712519887E9, 0.0, 2022-02-12 00:38:32.519
162.0, -11183.494172512792, -10524.22946980351, -7293.396567511149, -11459.158236880094, -11359.938843242984, -8313.329018751267, -10713.369931384317, -8073.606559468099, -10437.348239105731, -12594.358634276228, -10021.98577189276, -8355.819684960805, -8312.524355950876, -12059.213168527267, -10829.531947318548, -16919.86822126725, 0.01, -0.03, 0.99, 192.0, 0.0, 0.0, 0.0, 0.0, 0.0, 0.0, 0.0, 0.0, 0.0, 1.644586712527219E9, 0.0, 2022-02-12 00:38:32.527
164.0, -11213.26669612726, -10560.998089432489, -7326.92418419411, -11462.823922970763, -11371.226474192916, -8333.490292249953, -10739.990859030588, -8115.717246021896, -10422.864308698692, -12573.280939254873, -10025.159719605414, -8357.69723149505, -8286.417518427077, -12040.817682840549, -10826.581517050448, -16930.328837672336, 0.009000000000000001, -0.03, 0.989, 192.0, 0.0, 32.0, 127.5, 8.0, 15.0, 112.0, 0.0, 0.0, 0.0, 1.644586712534534E9, 0.0, 2022-02-12 00:38:32.534
166.0, -11216.84297524011, -10548.235243348508, -7316.821195700311, -11475.586769054744, -11360.967023487929, -8317.039408330847, -10724.769321056525, -8122.981562969871, -10462.382192895675, -12591.810535408324, -10059.871978744504, -8383.602903318751, -8317.17351879758, -12094.037186388636, -10867.082878003464, -16942.890518056218, 0.009000000000000001, -0.03, 0.989, 192.0, 0.0, 0.0, 0.0, 0.0, 0.0, 0.0, 0.0, 0.0, 0.0, 1.644586712542735E9, 0.0, 2022-02-12 00:38:32.542
168.0, -11207.924629202442, -10543.720190968537, -7308.327532807295, -11478.805420256307, -11360.72115429892, -8304.947114580526, -10730.424312403717, -8091.197382354425, -10443.763189764404, -12588.01073885092, -10017.381312534966, -8341.581623742775, -8278.214428211979, -12053.602880668985, -10828.593174051426, -16936.36380867527, 0.009000000000000001, -0.03, 0.989, 192.0, 0.0, 0.0, 0.0, 0.0, 0.0, 0.0, 0.0, 0.0, 0.0, 1.644586712550527E9, 0.0, 2022-02-12 00:38:32.550
170.0, -11258.081943760151, -10579.684147797127, -7344.604414058258, -11485.13096393716, -11374.400421905568, -8326.963582869004, -10735.006420017055, -8129.575327584187, -10477.536675636373, -12624.466434057527, -10060.967214222816, -8386.285112653388, -8323.856690389715, -12066.209264541778, -10865.540607636049, -16948.2996402144, 0.009000000000000001, -0.03, 0.989, 192.0, 0.0, 0.0, 0.0, 0.0, 0.0, 0.0, 0.0, 0.0, 0.0, 1.644586712565598E9, 0.0, 2022-02-12 00:38:32.565
172.0, -11222.475614842846, -10549.263423593453, -7307.299352562351, -11504.755795568919, -11366.5326078573, -8317.97818159797, -10734.738199083591, -8098.260533602302, -10475.435611657575, -12608.708454216536, -10060.766048522717, -8377.94791197156, -8322.225013044479, -12058.38615398242, -10858.812732555001, -16952.233547238535, 0.009000000000000001, -0.03, 0.989, 192.0, 0.0, 0.0, 0.0, 0.0, 0.0, 0.0, 0.0, 0.0, 0.0, 1.644586712573669E9, 0.0, 2022-02-12 00:38:32.573
174.0, -11243.486254630836, -10594.771575304458, -7336.848358732267, -11509.22614445998, -11381.552980131268, -8340.396981286643, -10751.636117891803, -8121.573403069187, -10467.321928420297, -12584.099183571243, -10053.65819378593, -8375.153943914645, -8306.444681459032, -12063.124723806945, -10850.05084872852, -16962.515349687976, 0.0085, -0.028999999999999998, 0.9875, 192.0, 0.0, 32.0, 127.5, 16.0, 15.0, 104.0, 0.0, 0.0, 0.0, 1.644586712580796E9, 0.0, 2022-02-12 00:38:32.580
176.0, -11258.32781294916, -10577.180752418131, -7337.4742075770155, -11520.066740520804, -11379.004881263361, -8337.960641141015, -10740.616707875337, -8108.140004651547, -10499.396681713662, -12632.714227761535, -10094.293665205678, -8412.213136221544, -8333.065609105302, -12097.859334690493, -10887.95940732472, -16969.332631746845, 0.0085, -0.028999999999999998, 0.9875, 192.0, 0.0, 0.0, 0.0, 0.0, 0.0, 0.0, 0.0, 0.0, 0.0, 1.644586712587189E9, 0.0, 2022-02-12 00:38:32.587
178.0, -11245.564966865179, -10578.90183674119, -7328.935841195088, -11517.540993397355, -11392.237113980904, -8341.98395514297, -10763.482542453115, -8105.480147061366, -10469.311233676819, -12596.817326166312, -10049.813693739618, -8350.812894202816, -8301.080262789757, -12067.215093042267, -10856.689316831746, -16968.952652091106, 0.0085, -0.028999999999999998, 0.9875, 192.0, 0.0, 0.0, 0.0, 0.0, 0.0, 0.0, 0.0, 0.0, 0.0, 1.644586712594818E9, 0.0, 2022-02-12 00:38:32.594
180.0, -11269.056650287706, -10607.802642321902, -7361.725850311023, -11525.542917912355, -11406.072843798738, -8353.517455281908, -10780.536923472515, -8157.269138964312, -10499.46373694703, -12645.499425589971, -10085.263560445734, -8395.918714513626, -8331.07630384878, -12092.897247421413, -10902.53274470958, -16986.69993718862, 0.0085, -0.028999999999999998, 0.9875, 192.0, 0.0, 0.0, 0.0, 0.0, 0.0, 0.0, 0.0, 0.0, 0.0, 1.644586712602995E9, 0.0, 2022-02-12 00:38:32.602
182.0, -11258.148998993516, -10565.021403434444, -7332.489768563482, -11533.589545916266, -11401.244866996392, -8330.495158492942, -10761.60499591887, -8113.817347743196, -10501.989484070478, -12643.085437188798, -10084.704766834351, -8395.046996479869, -8325.466015990498, -12078.905055392392, -10894.508468450125, -16986.968158122083, 0.0085, -0.028999999999999998, 0.9875, 192.0, 0.0, 0.0, 0.0, 0.0, 0.0, 0.0, 0.0, 0.0, 0.0, 1.644586712609397E9, 0.0, 2022-02-12 00:38:32.609
184.0, -11256.718487348377, -10625.013485552488, -7359.356565398761, -11535.981182572983, -11408.799756622286, -8344.353240055232, -10772.378536746328, -8146.272080692302, -10494.03226304439, -12620.085492144286, -10082.536647622186, -8388.542638843375, -8326.337734024255, -12062.454171473286, -10886.953578824232, -16993.45016401412, 0.01025, -0.0295, 0.98875, 192.0, 0.0, 48.0, 127.5, 8.0, 15.0, 120.0, 0.0, 0.0, 0.0, 1.644586712616488E9, 0.0, 2022-02-12 00:38:32.616
186.0, -11282.512400449801, -10604.025197508956, -7348.6277280602135, -11546.017115833416, -11414.074768313738, -8345.761399955916, -10782.749746173591, -8153.916377296016, -10522.821309902825, -12644.985335467498, -10124.513223709253, -8429.133406774212, -8351.75166746994, -12095.355939311497, -10934.249870091662, -17005.207181597612, 0.01025, -0.0295, 0.98875, 192.0, 0.0, 0.0, 0.0, 0.0, 0.0, 0.0, 0.0, 0.0, 0.0, 1.644586712626037E9, 0.0, 2022-02-12 00:38:32.626
188.0, -11303.791261171255, -10605.790985320924, -7336.758951754446, -11551.202720547048, -11404.910553087062, -8347.773056956894, -10778.36880426035, -8131.005839229327, -10498.100280535255, -12621.203079367051, -10060.698993289352, -8363.821609475805, -8292.74306210793, -12068.019755842657, -10895.223724272695, -17007.755280465517, 0.01025, -0.0295, 0.98875, 192.0, 0.0, 0.0, 0.0, 0.0, 0.0, 0.0, 0.0, 0.0, 0.0, 1.64458671263252E9, 0.0, 2022-02-12 00:38:32.632
190.0, -11292.011891843307, -10641.129093304766, -7371.068879493342, -11559.76343867343, -11420.959105605973, -8364.89449320966, -10790.908132899778, -8165.628691390597, -10528.096321594277, -12644.493597089482, -10108.665836890441, -8412.548412388374, -8353.763324470918, -12101.592076014529, -10929.645410733869, -17024.09440566235, 0.01025, -0.0295, 0.98875, 192.0, 0.0, 0.0, 0.0, 0.0, 0.0, 0.0, 0.0, 0.0, 0.0, 1.644586712640465E9, 0.0, 2022-02-12 00:38:32.640
192.0, -11266.217978741883, -10602.393520163718, -7334.613184286736, -11563.093848597271, -11412.823070624241, -8345.537882511364, -10783.867333396356, -8133.285717163768, -10529.325667539319, -12642.839567999788, -10113.717331137339, -8409.910906542647, -8336.93246089607, -12091.10910786499, -10923.185756586285, -17020.920457949695, 0.01025, -0.0295, 0.98875, 192.0, 0.0, 0.0, 0.0, 0.0, 0.0, 0.0, 0.0, 0.0, 0.0, 1.644586712648566E9, 0.0, 2022-02-12 00:38:32.648
194.0, -11341.789226745275, -10664.620776727294, -7372.186466716107, -11560.054011351349, -11431.620887711155, -8365.162714143124, -10800.720548715657, -8161.873598322106, -10525.771740170925, -12640.626745298714, -10094.293665205678, -8394.510554612942, -8317.911126364605, -12084.045956617112, -10917.642523961369, -17033.146862166748, 0.009125000000000001, -0.02775, 0.989375, 192.0, 0.0, 32.0, 127.5, 24.0, 15.0, 120.0, 0.0, 0.0, 0.0, 1.644586712657438E9, 0.0, 2022-02-12 00:38:32.657
196.0, -11305.467642005402, -10641.754942149513, -7360.675318321624, -11570.022889378417, -11436.6500302136, -8358.79246697336, -10810.354150575895, -8157.9620430424275, -10559.858150465268, -12685.173771998141, -10139.980630872325, -8436.330668488821, -8367.152019399646, -12107.202363872811, -10963.329489628017, -17042.713408793617, 0.009125000000000001, -0.02775, 0.989375, 192.0, 0.0, 0.0, 0.0, 0.0, 0.0, 0.0, 0.0, 0.0, 0.0, 1.644586712664774E9, 0.0, 2022-02-12 00:38:32.664
198.0, -11291.587208698656, -10626.1087210308, -7347.420733859627, -11582.562218017843, -11428.469291742957, -8353.18217911508, -10807.828403452446, -8149.08840049367, -10520.630838946205, -12644.962983723044, -10099.769842597228, -8386.307464397843, -8321.822681644284, -12077.943930380814, -10920.7270646962, -17039.405350614234, 0.009125000000000001, -0.02775, 0.989375, 192.0, 0.0, 0.0, 0.0, 0.0, 0.0, 0.0, 0.0, 0.0, 0.0, 1.644586712670873E9, 0.0, 2022-02-12 00:38:32.670
200.0, -11331.306258595736, -10666.721840706092, -7391.185449503118, -11594.542753045887, -11445.680134973543, -8381.635949806685, -10818.400778579806, -8193.657778937553, -10554.784304473915, -12656.228262928518, -10134.035066847215, -8434.721342888039, -8342.02865863188, -12110.912753452392, -10962.413068105348, -17063.99226951507, 0.009125000000000001, -0.02775, 0.989375, 192.0, 0.0, 0.0, 0.0, 0.0, 0.0, 0.0, 0.0, 0.0, 0.0, 1.644586712677724E9, 0.0, 2022-02-12 00:38:32.677
202.0, -11297.465717490402, -10631.96487807809, -7358.395440387183, -11599.86246822625, -11441.589765738221, -8361.787600730373, -10807.180202863241, -8149.401324916044, -10561.288662110408, -12670.958062524565, -10139.265375049756, -8427.680543384617, -8354.009193659926, -12115.561916299095, -10960.580225060014, -17064.66282184873, 0.009125000000000001, -0.02775, 0.989375, 192.0, 0.0, 0.0, 0.0, 0.0, 0.0, 0.0, 0.0, 0.0, 0.0, 1.644586712691343E9, 0.0, 2022-02-12 00:38:32.691
204.0, -11341.096322667161, -10680.982253668577, -7388.369129701749, -11597.940218203095, -11460.611100269689, -8372.80701074684, -10833.845833998423, -8185.342930000178, -10544.860129935758, -12655.602414083769, -10116.690113149896, -8404.61354310674, -8314.044274573836, -12078.256854803189, -10950.790160988588, -17072.307118452445, 0.009562500000000002, -0.025875000000000002, 0.9896875, 192.0, 0.0, 40.0, 127.5, 32.0, 15.0, 120.0, 0.0, 0.0, 0.0, 1.644586712699363E9, 0.0, 2022-02-12 00:38:32.699
206.0, -11349.455875093447, -10669.828733185379, -7388.0115017904645, -11618.68263705762, -11461.147542136616, -8392.18597318959, -10828.794339751523, -8179.486772952888, -10593.050490981399, -12691.27579823444, -10169.999023675802, -8466.706689203584, -8380.94304572857, -12146.07204748059, -10996.544181888603, -17089.85323784986, 0.009562500000000002, -0.025875000000000002, 0.9896875, 192.0, 0.0, 0.0, 0.0, 0.0, 0.0, 0.0, 0.0, 0.0, 0.0, 1.644586712707518E9, 0.0, 2022-02-12 00:38:32.707
208.0, -11325.33834282617, -10662.475009259584, -7369.79483005939, -11614.324046888834, -11454.911405433584, -8369.767173500917, -10832.460025842194, -8170.210799003935, -10557.466513808551, -12692.236923246017, -10133.945659869392, -8417.555203146363, -8328.371742769688, -12107.984674928746, -10958.8367889925, -17087.305138981956, 0.009562500000000002, -0.025875000000000002, 0.9896875, 192.0, 0.0, 0.0, 0.0, 0.0, 0.0, 0.0, 0.0, 0.0, 0.0, 1.644586712715448E9, 0.0, 2022-02-12 00:38:32.715
210.0, -11354.417962362524, -10693.946265452656, -7406.071711310353, -11614.704026544576, -11464.723821249465, -8383.535848085387, -10844.99935448162, -8220.77044496184, -10579.661796052671, -12698.249542504496, -10176.168105145467, -8452.088648329813, -8364.514513553919, -12123.1615094139, -10989.682196340824, -17098.190438531692, 0.009562500000000002, -0.025875000000000002, 0.9896875, 192.0, 0.0, 0.0, 0.0, 0.0, 0.0, 0.0, 0.0, 0.0, 0.0, 1.644586712723417E9, 0.0, 2022-02-12 00:38:32.723
212.0, -11336.067180164717, -10659.926910391678, -7362.485809622504, -11632.764236064462, -11456.69954499001, -8370.080097923292, -10843.680601558757, -8181.4313747205, -10583.439240865617, -12686.112545265263, -10162.82411370565, -8435.704819644072, -8373.969301458514, -12119.518175067686, -10991.671501597346, -17101.63260717781, 0.009562500000000002, -0.025875000000000002, 0.9896875, 192.0, 0.0, 0.0, 0.0, 0.0, 0.0, 0.0, 0.0, 0.0, 0.0, 1.644586712731527E9, 0.0, 2022-02-12 00:38:32.731
214.0, -11372.187599204493, -10713.727559295603, -7388.123260512742, -11629.724398818542, -11471.809324241796, -8388.319121398821, -10863.327784934972, -8194.842421393683, -10571.883388982224, -12678.848228317289, -10138.684229693918, -8424.260726482955, -8346.70017322304, -12106.375349327964, -10977.835771779512, -17102.81724963394, 0.010781250000000001, -0.0249375, 0.99084375, 192.0, 0.0, 48.0, 127.5, 32.0, 15.5, 0.0, 0.0, 0.0, 0.0, 1.644586712738692E9, 0.0, 2022-02-12 00:38:32.738
216.0, -11383.475230154423, -10717.817928530923, -7390.917228569655, -11641.324954190846, -11462.533350292844, -8388.542638843375, -10842.831235269456, -8195.66943593853, -10616.452767426106, -12722.32237128286, -10195.412957121487, -8469.344195049309, -8379.780755016895, -12141.087608467056, -11016.347827476005, -17115.669502695742, 0.010781250000000001, -0.0249375, 0.99084375, 192.0, 0.0, 0.0, 0.0, 0.0, 0.0, 0.0, 0.0, 0.0, 0.0, 1.644586712745132E9, 0.0, 2022-02-12 00:38:32.745
218.0, -11359.178883931505, -10693.16395439672, -7376.232132462518, -11649.908024061684, -11466.690774761531, -8375.80214450385, -10850.542587106536, -8185.588799189187, -10583.081612954333, -12698.361301226772, -10159.62781424854, -8423.299601471377, -8327.231803802468, -12093.523096266163, -10975.533542100615, -17113.68019743922, 0.010781250000000001, -0.0249375, 0.99084375, 192.0, 0.0, 0.0, 0.0, 0.0, 0.0, 0.0, 0.0, 0.0, 0.0, 1.644586712751598E9, 0.0, 2022-02-12 00:38:32.751
220.0, -11401.043701296294, -10719.918992509723, -7406.295228754906, -11657.64172764322, -11480.37004236818, -8402.624237850217, -10871.262654216607, -8217.82001469374, -10614.508165658495, -12727.329162040849, -10196.68700655544, -8470.238264827522, -8373.879894480693, -12144.216852690799, -11013.822080352555, -17135.942534916703, 0.010781250000000001, -0.0249375, 0.99084375, 192.0, 0.0, 0.0, 0.0, 0.0, 0.0, 0.0, 0.0, 0.0, 0.0, 1.644586712759669E9, 0.0, 2022-02-12 00:38:32.759
222.0, -11363.67158456702, -10699.489498077572, -7376.254484206973, -11671.58921618333, -11465.997870683417, -8390.28607491089, -10857.382220909862, -8175.977549073405, -10616.564526148382, -12718.23200204754, -10188.014529706781, -8485.236285357034, -8373.969301458514, -12134.583250830561, -11009.284676228128, -17135.808424449973, 0.010781250000000001, -0.0249375, 0.99084375, 192.0, 0.0, 0.0, 0.0, 0.0, 0.0, 0.0, 0.0, 0.0, 0.0, 1.644586712767663E9, 0.0, 2022-02-12 00:38:32.767
224.0, -11381.173000475526, -10738.761513085547, -7410.720874157057, -11661.597986411809, -11489.355443639213, -8410.670865854128, -10887.735889880169, -8219.429340294522, -10604.583991120338, -12713.247563034007, -10175.810477234183, -8440.91277610216, -8360.670013507606, -12122.78152975816, -11002.981484291731, -17149.68885775672, 0.010390625, -0.02446875, 0.993421875, 192.0, 0.0, 40.0, 127.5, 32.0, 15.5, 16.0, 0.0, 0.0, 0.0, 1.644586712774232E9, 0.0, 2022-02-12 00:38:32.774
226.0, -11382.245884209382, -10728.79263505848, -7404.46238570957, -11670.471628960566, -11485.041556959339, -8405.462909396043, -10882.192657255251, -8220.569279261743, -10634.445921712628, -12734.325258055362, -10218.055274254713, -8475.692090474617, -8391.157792944645, -12150.765913816203, -11048.422580769371, -17156.86376772687, 0.010390625, -0.02446875, 0.993421875, 192.0, 0.0, 0.0, 0.0, 0.0, 0.0, 0.0, 0.0, 0.0, 0.0, 1.644586712782331E9, 0.0, 2022-02-12 00:38:32.782
228.0, -11359.402401376057, -10698.818945743913, -7382.110641254264, -11668.325861492856, -11472.636338786644, -8386.75449928695, -10866.613491369902, -8192.249619036867, -10603.824031808857, -12699.076557049342, -10165.260453851277, -8428.373447462733, -8354.098600637746, -12120.233430890255, -10998.533487145125, -17148.72773274514, 0.010390625, -0.02446875, 0.993421875, 192.0, 0.0, 0.0, 0.0, 0.0, 0.0, 0.0, 0.0, 0.0, 0.0, 1.644586712790252E9, 0.0, 2022-02-12 00:38:32.790
230.0, -11413.82889912473, -10748.372763201329, -7419.795682405911, -11677.668890675175, -11490.070699461783, -8410.112072242746, -10894.553171939036, -8230.113474144158, -10628.67917164316, -12733.341781299327, -10211.64032359604, -8475.468573030064, -8378.1267259272, -12138.78537878816, -11035.391513751927, -17163.368125363366, 0.010390625, -0.02446875, 0.993421875, 192.0, 0.0, 0.0, 0.0, 0.0, 0.0, 0.0, 0.0, 0.0, 0.0, 1.644586712798323E9, 0.0, 2022-02-12 00:38:32.798
232.0, -11385.799811577775, -10730.625478103815, -7390.8278215918335, -11689.112983836292, -11475.69852777702, -8395.650493580162, -10869.787439082556, -8191.176735303014, -10633.39538972323, -12726.390388773727, -10208.488727627842, -8474.44039278512, -8354.188007615568, -12138.226585176777, -11037.626688197457, -17166.430314353744, 0.010390625, -0.02446875, 0.993421875, 192.0, 0.0, 0.0, 0.0, 0.0, 0.0, 0.0, 0.0, 0.0, 0.0, 1.644586712813426E9, 0.0, 2022-02-12 00:38:32.813
234.0, -11420.266201527858, -10764.108391297865, -7412.888993369222, -11687.168382068681, -11490.98712098445, -8414.00127577797, -10894.8213928725, -8231.67809625603, -10624.566450663382, -12727.172699829664, -10185.287616883234, -8447.417133738654, -8371.175333401601, -12126.693085037838, -11020.549955433602, -17172.822913267963, 0.0091953125, -0.027234374999999998, 0.9947109375000001, 192.0, 0.0, 32.0, 127.5, 8.0, 15.5, 16.0, 0.0, 0.0, 0.0, 1.644586712821444E9, 0.0, 2022-02-12 00:38:32.821
236.0, -11399.121451273139, -10752.46313243665, -7411.167909046163, -11700.110042108303, -11492.618798329688, -8408.547450130874, -10892.474459704694, -8224.570241519243, -10658.205826068619, -12767.472895082581, -10235.176710507478, -8489.930151692648, -8399.696159326573, -12156.555015630129, -11067.242749600739, -17183.01530873958, 0.0091953125, -0.027234374999999998, 0.9947109375000001, 192.0, 0.0, 0.0, 0.0, 0.0, 0.0, 0.0, 0.0, 0.0, 0.0, 1.64458671282793E9, 0.0, 2022-02-12 00:38:32.827
238.0, -11389.286683712804, -10730.558422870448, -7389.978455302532, -11709.31896082389, -11483.901617992118, -8399.651455837662, -10880.739793865658, -8200.85504065216, -10624.320581474374, -12724.512842239481, -10197.134041444546, -8449.853473884283, -8361.117048396713, -12111.426843574864, -11023.723903146256, -17174.700459802207, 0.0091953125, -0.027234374999999998, 0.9947109375000001, 192.0, 0.0, 0.0, 0.0, 0.0, 0.0, 0.0, 0.0, 0.0, 0.0, 1.64458671283464E9, 0.0, 2022-02-12 00:38:32.834
240.0, -11445.747190206908, -10771.50681871257, -7426.8141301648775, -11705.072129377382, -11510.23197296047, -8435.078970799324, -10907.49483197866, -8254.543930833808, -10645.510035218005, -12733.967630144076, -10228.314724959699, -8488.566695280873, -8383.938179485582, -12157.113809241511, -11057.340926807037, -17195.93461703475, 0.0091953125, -0.027234374999999998, 0.9947109375000001, 192.0, 0.0, 0.0, 0.0, 0.0, 0.0, 0.0, 0.0, 0.0, 0.0, 1.64458671284252E9, 0.0, 2022-02-12 00:38:32.842
242.0, -11405.44699495399, -10741.801350331469, -7392.504202425981, -11709.967161413093, -11502.051234489827, -8414.627124622719, -10896.833049873478, -8207.784081433307, -10650.025087597978, -12761.57203454638, -10227.443006925942, -8488.276122602954, -8391.403662133655, -12154.990393518257, -11062.526531520669, -17190.860771043393, 0.0091953125, -0.027234374999999998, 0.9947109375000001, 192.0, 0.0, 0.0, 0.0, 0.0, 0.0, 0.0, 0.0, 0.0, 0.0, 1.644586712850617E9, 0.0, 2022-02-12 00:38:32.850
244.0, -11429.251602798891, -10779.50874322757, -7413.738359658523, -11713.521088781488, -11511.193097972047, -8428.99929630748, -10910.512317480127, -8250.028878453837, -10636.34581999133, -12736.247508078517, -10203.951323503414, -8462.415154268165, -8355.283243093878, -12141.646402078439, -11043.214624311284, -17197.92392229127, 0.008, -0.028, 0.992, 192.0, 0.0, 32.0, 127.5, 16.0, 15.5, 0.0, 0.0, 0.0, 0.0, 1.644586712857139E9, 0.0, 2022-02-12 00:38:32.857
246.0, -11432.850233656196, -10803.223944094652, -7419.102778327797, -11720.94186794065, -11512.757720083919, -8423.277249726922, -10906.265486033617, -8240.10470391568, -10683.597407769848, -12787.09772671434, -10256.187350295468, -8493.372320338765, -8398.980903504003, -12154.83393130707, -11089.169810911395, -17206.328178206466, 0.008, -0.028, 0.992, 192.0, 0.0, 0.0, 0.0, 0.0, 0.0, 0.0, 0.0, 0.0, 0.0, 1.644586712864425E9, 0.0, 2022-02-12 00:38:32.864
248.0, -11408.643294411098, -10762.119086041343, -7393.755900115479, -11729.793158744951, -11508.823813059786, -8418.538679902396, -10904.991436599665, -8216.165985604046, -10642.872529372278, -12740.069656380374, -10210.723902073372, -8458.39184026621, -8375.80214450385, -12112.812651731092, -11052.37883953796, -17196.1581344793, 0.008, -0.028, 0.992, 192.0, 0.0, 0.0, 0.0, 0.0, 0.0, 0.0, 0.0, 0.0, 0.0, 1.644586712872188E9, 0.0, 2022-02-12 00:38:32.872
250.0, -11456.386620567635, -10819.138386146831, -7428.177586576651, -11737.839786748862, -11525.542917912355, -8442.365639491754, -10925.309172309539, -8267.97732925145, -10669.761677952014, -12776.860627753811, -10249.727696147884, -8492.29943660491, -8404.792357062383, -12172.469457682308, -11079.804429984622, -17222.041454558548, 0.008, -0.028, 0.992, 192.0, 0.0, 0.0, 0.0, 0.0, 0.0, 0.0, 0.0, 0.0, 0.0, 1.644586712880441E9, 0.0, 2022-02-12 00:38:32.880
252.0, -11443.55671925029, -10772.46794372415, -7397.354530972783, -11747.920423498204, -11520.670237621098, -8415.342380445289, -10919.408311773339, -8227.855947954173, -10673.047384386944, -12767.808171249411, -10245.749085634838, -8499.340236108332, -8396.32104591382, -12165.182788989878, -11088.119278921995, -17219.98509406866, 0.008, -0.028, 0.992, 192.0, 0.0, 0.0, 0.0, 0.0, 0.0, 0.0, 0.0, 0.0, 0.0, 1.644586712888247E9, 0.0, 2022-02-12 00:38:32.888
254.0, -11467.182513139549, -10806.442595296216, -7423.148444074207, -11752.055496222436, -11538.350467485247, -8438.096456300791, -10938.49670153817, -8261.58473033723, -10669.202884340631, -12753.883034453755, -10223.01736152379, -8476.966139908569, -8365.028603676392, -12136.63961132045, -11072.562464781102, -17227.852908116925, 0.012, -0.026000000000000002, 0.988, 192.0, 0.0, 48.0, 127.5, 24.0, 15.0, 112.0, 0.0, 0.0, 0.0, 1.644586712896397E9, 0.0, 2022-02-12 00:38:32.896
0.0, -11451.938623421029, -10809.437729053227, -7417.8287288938445, -11756.861121280328, -11540.876214608696, -8440.801017379883, -10933.579317758004, -8250.542968576308, -10702.484631834583, -12807.169593235207, -10272.682937703483, -8528.643373089239, -8433.469645198542, -12176.135143772977, -11118.6741135924, -17235.631315187373, 0.012, -0.026000000000000002, 0.988, 192.0, 0.0, 0.0, 0.0, 0.0, 0.0, 0.0, 0.0, 0.0, 0.0, 1.644586712903383E9, 0.0, 2022-02-12 00:38:32.903
2.0, -11427.552870220288, -10788.427089265238, -7402.763653130967, -11764.237196950578, -11543.848996621251, -8430.094531785791, -10934.49573928067, -8231.901613700582, -10666.297157561441, -12762.421400835681, -10242.463379199908, -8470.171209594157, -8389.302598154854, -12137.757198543215, -11078.508028806214, -17229.350474995434, 0.012, -0.026000000000000002, 0.988, 192.0, 0.0, 0.0, 0.0, 0.0, 0.0, 0.0, 0.0, 0.0, 0.0, 1.644586712909781E9, 0.0, 2022-02-12 00:38:32.909
4.0, -11478.514847578388, -10843.14415969183, -7442.035668138942, -11765.824170806905, -11558.198816561558, -8457.05073559889, -10949.851387721466, -8282.371852680666, -10691.912256707223, -12780.615720822301, -10274.784001682283, -8506.001055956014, -8412.727226344017, -12179.331443230087, -11118.562354870124, -17252.79745492905, 0.012, -0.026000000000000002, 0.988, 192.0, 0.0, 0.0, 0.0, 0.0, 0.0, 0.0, 0.0, 0.0, 0.0, 1.644586712917463E9, 0.0, 2022-02-12 00:38:32.917
6.0, -11450.865739687175, -10808.454252297193, -7409.245659023007, -11781.67155762572, -11544.407790232633, -8437.71647664505, -10926.918497910321, -8239.858834726672, -10699.802422499946, -12785.264883669006, -10266.759725422828, -8510.806681013904, -8408.94978153107, -12178.303262985142, -11119.992866515264, -17252.66334446232, 0.012, -0.026000000000000002, 0.988, 192.0, 0.0, 0.0, 0.0, 0.0, 0.0, 0.0, 0.0, 0.0, 0.0, 1.644586712925769E9, 0.0, 2022-02-12 00:38:32.925
8.0, -11481.84525750223, -10852.822465040977, -7429.228118566051, -11782.789144848484, -11566.156037587649, -8454.457933242074, -10956.042820935587, -8272.984120009438, -10689.721785750602, -12779.00639522152, -10249.101847303134, -8484.878657445748, -8396.388101147188, -12149.31305042661, -11102.826726773588, -17257.737190453674, 0.006, -0.032, 0.986, 192.0, 0.0, 24.0, 127.5, 0.0, 15.0, 104.0, 0.0, 0.0, 0.0, 1.644586712939143E9, 0.0, 2022-02-12 00:38:32.939
10.0, -11493.26699891889, -10851.213139440197, -7433.273784312461, -11790.075813540914, -11578.069517382326, -8465.253825813988, -10964.380021617417, -8285.098765504214, -10725.417521645728, -12828.180233023195, -10302.857792718149, -8545.921271553192, -8432.933203331615, -12194.485925970785, -11150.97238433032, -17270.544740026562, 0.006, -0.032, 0.986, 192.0, 0.0, 0.0, 0.0, 0.0, 0.0, 0.0, 0.0, 0.0, 0.0, 1.64458671294706E9, 0.0, 2022-02-12 00:38:32.947
12.0, -11484.348652881225, -10841.91481374679, -7417.001714348998, -11799.24002876759, -11579.455325538556, -8452.200407052089, -10968.559797830558, -8268.536122862832, -10695.823811986902, -12793.624436095291, -10256.3214607622, -8486.86796270227, -8395.918714513626, -12155.437428407364, -11119.344665926059, -17268.600138258953, 0.006, -0.032, 0.986, 192.0, 0.0, 0.0, 0.0, 0.0, 0.0, 0.0, 0.0, 0.0, 0.0, 1.64458671295535E9, 0.0, 2022-02-12 00:38:32.955
14.0, -11510.343731682746, -10887.646482902346, -7453.546816533425, -11803.106880558358, -11602.142346160692, -8481.01180565498, -10993.303178942584, -8317.195870542035, -10720.92482101021, -12813.964523549621, -10281.243655829867, -8521.200242185621, -8433.33553473181, -12190.484963713285, -11153.229910520306, -17288.60494954645, 0.006, -0.032, 0.986, 192.0, 0.0, 0.0, 0.0, 0.0, 0.0, 0.0, 0.0, 0.0, 0.0, 1.644586712963096E9, 0.0, 2022-02-12 00:38:32.963
16.0, -11496.664464076099, -10853.045982485532, -7424.176624319151, -11816.71909293164, -11599.303674614868, -8477.927264920148, -10987.692891084302, -8285.389338182133, -10730.916050781734, -12824.469843443614, -10291.056071645746, -8528.978649256069, -8434.944860332593, -12199.895048128968, -11162.125904813518, -17291.33186237, 0.006, -0.032, 0.986, 192.0, 0.0, 0.0, 0.0, 0.0, 0.0, 0.0, 0.0, 0.0, 0.0, 1.6445867129715E9, 0.0, 2022-02-12 00:38:32.971
18.0, -11510.835470060763, -10898.911762107822, -7446.081333885352, -11818.931915632715, -11616.715683545552, -8490.690111004127, -11012.436272196326, -8323.521414222887, -10717.16972794172, -12809.650636869746, -10278.762612195327, -8504.190564655133, -8414.694179856084, -12198.017501594722, -11145.004468560752, -17301.79247877508, 0.01, -0.028, 0.986, 192.0, 0.0, 40.0, 127.5, 16.0, 15.0, 104.0, 0.0, 0.0, 0.0, 1.644586712979073E9, 0.0, 2022-02-12 00:38:32.979
20.0, -11522.413673688612, -10888.764070125113, -7455.245549112028, -11831.515947761054, -11618.459119613066, -8489.907799948192, -10991.783260319622, -8321.174481055079, -10764.354260486873, -12849.459093744648, -10326.28242090731, -8573.525675955496, -8458.39184026621, -12226.068940886134, -11193.26188483976, -17318.310417927554, 0.01, -0.028, 0.986, 192.0, 0.0, 0.0, 0.0, 0.0, 0.0, 0.0, 0.0, 0.0, 0.0, 1.644586712985308E9, 0.0, 2022-02-12 00:38:32.985
22.0, -11507.728577581474, -10876.403555441328, -7439.286403570939, -11835.606316996375, -11619.375541135734, -8487.449108058108, -10993.347882431493, -8292.318378963279, -10740.013210775043, -12812.288142715472, -10295.347606581165, -8522.630753830761, -8434.363714976755, -12185.634635166483, -11154.503959954258, -17314.0859382255, 0.01, -0.028, 0.986, 192.0, 0.0, 0.0, 0.0, 0.0, 0.0, 0.0, 0.0, 0.0, 0.0, 1.644586712991397E9, 0.0, 2022-02-12 00:38:32.991
24.0, -11562.915034641628, -10944.822245219022, -7480.8159447688995, -11839.786093209517, -11644.051867014394, -8511.276067647466, -11019.789996122123, -8341.447513276044, -10761.64969940778, -12842.708866919145, -10333.747903555382, -8564.249702006544, -8461.38697402322, -12230.963972921845, -11193.910085428965, -17331.85557506747, 0.01, -0.028, 0.986, 192.0, 0.0, 0.0, 0.0, 0.0, 0.0, 0.0, 0.0, 0.0, 0.0, 1.644586712999447E9, 0.0, 2022-02-12 00:38:32.999
26.0, -11524.291220222858, -10911.138166324874, -7446.8859966857435, -11846.156340379279, -11636.429922155134, -8492.72411974956, -11007.295370971606, -8311.004437327914, -10766.27651051003, -12860.769076439034, -10334.194938444489, -8549.698716366138, -8457.833046654827, -12228.013542653745, -11198.246323853295, -17330.983857033712, 0.01, -0.028, 0.986, 192.0, 0.0, 0.0, 0.0, 0.0, 0.0, 0.0, 0.0, 0.0, 0.0, 1.644586713007317E9, 0.0, 2022-02-12 00:38:33.007
28.0, -11547.537034456378, -10924.124529853409, -7470.511790575003, -11853.286546860523, -11660.659213144687, -8519.143881695734, -11033.625725939957, -8332.439760260553, -10750.9879173026, -12849.302631533461, -10306.121147408623, -8535.147730725734, -8444.153779048178, -12204.767728420225, -11176.431021264914, -17341.086845527512, 0.012, -0.028, 0.99, 192.0, 0.0, 48.0, 127.5, 16.0, 15.0, 120.0, 0.0, 0.0, 0.0, 1.644586713014252E9, 0.0, 2022-02-12 00:38:33.014
30.0, -11553.326136270302, -10950.521940055125, -7479.050156956931, -11865.937634222226, -11666.984756825537, -8522.049608474923, -11041.381781265949, -8347.482484278975, -10788.605903220881, -12884.394870328293, -10356.323165455242, -8587.048481350957, -8490.846573215314, -12248.644202785994, -11227.996495723308, -17357.11304630197, 0.012, -0.028, 0.99, 192.0, 0.0, 0.0, 0.0, 0.0, 0.0, 0.0, 0.0, 0.0, 0.0, 1.64458671302216E9, 0.0, 2022-02-12 00:38:33.022
32.0, -11546.464150722522, -10947.437399320293, -7456.340784590338, -11867.59166331192, -11664.16843702417, -8518.607439828807, -11025.534394447135, -8319.78867289885, -10760.532112185016, -12853.996497869075, -10320.202746415467, -8556.44894319164, -8463.756258935484, -12210.93680988989, -11192.032538894719, -17352.463883455264, 0.012, -0.028, 0.99, 192.0, 0.0, 0.0, 0.0, 0.0, 0.0, 0.0, 0.0, 0.0, 0.0, 1.64458671303039E9, 0.0, 2022-02-12 00:38:33.030
34.0, -11585.624407008221, -10993.549048131592, -7489.063738472908, -11865.781172011039, -11686.743698924029, -8547.26237622051, -11050.590699981536, -8368.001385688947, -10784.336720029918, -12874.40364055677, -10346.175473472533, -8569.927045098191, -8480.609474254785, -12252.846330743592, -11216.5971060511, -17369.697078430305, 0.012, -0.028, 0.99, 192.0, 0.0, 0.0, 0.0, 0.0, 0.0, 0.0, 0.0, 0.0, 0.0, 1.644586713038559E9, 0.0, 2022-02-12 00:38:33.038
36.0, -11564.390249775679, -10934.987477658688, -7461.839313726344, -11884.511933864587, -11683.905027378205, -8526.83288178836, -11045.51685399018, -8331.3668765267, -10798.619484736859, -12903.863239748865, -10354.177397987532, -8591.161202330733, -8498.423814585663, -12247.258394629765, -11231.371609136058, -17371.66403194237, 0.012, -0.028, 0.99, 192.0, 0.0, 0.0, 0.0, 0.0, 0.0, 0.0, 0.0, 0.0, 0.0, 1.644586713046005E9, 0.0, 2022-02-12 00:38:33.046
38.0, -11578.941235416083, -10979.735670058211, -7480.503020346525, -11879.080459961946, -11690.051757103414, -8537.137035982256, -11047.75202843571, -8356.199664616546, -10778.167638560253, -12875.789448713, -10337.704162323971, -8565.45669620713, -8480.38595681023, -12226.001885652768, -11205.778861734732, -17372.06636334257, 0.014, -0.03, 0.992, 192.0, 0.0, 56.0, 127.5, 8.0, 15.5, 0.0, 0.0, 0.0, 0.0, 1.644586713061001E9, 0.0, 2022-02-12 00:38:33.061
40.0, -11581.981072662005, -10994.867801054455, -7484.52633434848, -11883.237884430633, -11696.377300784266, -8546.480065164575, -11053.18350233835, -8364.000423431447, -10817.193784379218, -12907.439518861715, -10379.81484887777, -8623.168900390732, -8512.505413592507, -12264.71510704936, -11251.622289612567, -17382.750497192206, 0.014, -0.03, 0.992, 192.0, 0.0, 0.0, 0.0, 0.0, 0.0, 0.0, 0.0, 0.0, 0.0, 1.644586713068215E9, 0.0, 2022-02-12 00:38:33.068
42.0, -11565.440781765079, -10971.353765887472, -7463.895674216232, -11882.276759419055, -11692.64455946023, -8543.395524429741, -11052.155322093407, -8341.246347575945, -10785.454307252683, -12861.082000861406, -10336.09483672319, -8577.683100424183, -8485.34804407931, -12240.731685248815, -11213.490213571813, -17378.01192736768, 0.014, -0.03, 0.992, 192.0, 0.0, 0.0, 0.0, 0.0, 0.0, 0.0, 0.0, 0.0, 0.0, 1.64458671307433E9, 0.0, 2022-02-12 00:38:33.074
44.0, -11608.311427630357, -11033.290449773127, -7506.319285192405, -11890.122221722868, -11718.684341750662, -8574.88913236727, -11079.893836962443, -8384.89930449716, -10804.60975225088, -12895.637797789312, -10372.751697629894, -8599.185478590189, -8515.142919438234, -12258.166045923954, -11245.922594776464, -17396.742689221228, 0.014, -0.03, 0.992, 192.0, 0.0, 0.0, 0.0, 0.0, 0.0, 0.0, 0.0, 0.0, 0.0, 1.644586713085146E9, 0.0, 2022-02-12 00:38:33.085
46.0, -11588.910113443151, -10988.430498651327, -7469.1930376521395, -11892.3573961684, -11713.31992308139, -8555.376059457787, -11076.652834016424, -8359.954757685036, -10824.055769926998, -12912.736882297622, -10383.391127990619, -8606.047464137968, -8520.552041596418, -12273.968729253857, -11256.89730130402, -17399.536657278142, 0.014, -0.03, 0.992, 192.0, 0.0, 0.0, 0.0, 0.0, 0.0, 0.0, 0.0, 0.0, 0.0, 1.644586713091229E9, 0.0, 2022-02-12 00:38:33.091
48.0, -11628.293887173402, -11047.304993546604, -7497.847974043843, -11896.045434003525, -11731.111911667815, -8578.353652757842, -11083.313653864105, -8390.174316188612, -10809.124804630854, -12913.78741428702, -10362.693412625005, -8591.340016286376, -8497.373282596265, -12261.272938403243, -11235.953716749396, -17407.359767837497, 0.012, -0.026000000000000002, 0.99, 192.0, 0.0, 48.0, 127.5, 24.0, 15.0, 120.0, 0.0, 0.0, 0.0, 1.644586713097419E9, 0.0, 2022-02-12 00:38:33.097
50.0, -11635.289983187913, -11053.608185483, -7505.536974136469, -11913.613905145396, -11745.014696719016, -8581.147620814756, -11104.257238418728, -8412.391950177187, -10853.202444696719, -12949.393743204326, -10412.694264971527, -8646.124141946333, -8526.676419577172, -12298.376834199053, -11289.70966216441, -17420.2120208993, 0.012, -0.026000000000000002, 0.99, 192.0, 0.0, 0.0, 0.0, 0.0, 0.0, 0.0, 0.0, 0.0, 0.0, 1.644586713105011E9, 0.0, 2022-02-12 00:38:33.105
52.0, -11598.029625180916, -11025.646153169413, -7479.5865988238575, -11919.470062192686, -11740.186719916668, -8574.039766077967, -11092.276703390682, -8378.1267259272, -10825.463929827683, -12905.204344416183, -10377.110287798678, -8616.709246243148, -8523.34600965333, -12257.987231968313, -11256.22674897036, -17416.389872597443, 0.012, -0.026000000000000002, 0.99, 192.0, 0.0, 0.0, 0.0, 0.0, 0.0, 0.0, 0.0, 0.0, 0.0, 1.644586713111909E9, 0.0, 2022-02-12 00:38:33.111
54.0, -11655.473608431055, -11081.257293374216, -7525.206509257139, -11921.437015704754, -11762.314946927423, -8607.545031016472, -11107.431186131382, -8418.918659558138, -10850.855511528911, -12929.590097616923, -10407.754529446904, -8663.200874710188, -8534.276012691977, -12305.417633702475, -11275.89628409103, -17435.45591061782, 0.012, -0.026000000000000002, 0.99, 192.0, 0.0, 0.0, 0.0, 0.0, 0.0, 0.0, 0.0, 0.0, 0.0, 1.644586713120073E9, 0.0, 2022-02-12 00:38:33.120
56.0, -11631.423131397145, -11064.582892010558, -7490.606008840324, -11937.373809501387, -11765.824170806905, -8587.629626706796, -11098.602247071534, -8393.169449945623, -10865.406497169317, -12968.57153994698, -10425.948849433524, -8657.411772896263, -8567.98244333058, -12288.407956171985, -11295.498763978334, -17439.278058919677, 0.01, -0.027000000000000003, 0.989, 192.0, 0.0, 32.0, 127.5, 16.0, 15.0, 112.0, 0.0, 0.0, 0.0, 1.644586713127857E9, 0.0, 2022-02-12 00:38:33.127
58.0, -11650.712686862074, -11106.380654141982, -7506.207526470128, -11932.814053632505, -11775.61423487833, -8609.154356617255, -11113.689674578867, -8412.749578088473, -10835.656325299302, -12955.808693862999, -10401.786613677337, -8613.51294678604, -8543.68609710766, -12292.118345751565, -11270.889493333041, -17442.720227565795, 0.01, -0.027000000000000003, 0.989, 192.0, 0.0, 0.0, 0.0, 0.0, 0.0, 0.0, 0.0, 0.0, 0.0, 1.644586713137552E9, 0.0, 2022-02-12 00:38:33.137
60.0, -11665.397782969212, -11112.19210770036, -7513.784767840478, -11941.330068269977, -11789.315854229433, -8622.52069980153, -11121.713950838322, -8424.148967760679, -10872.223779228185, -12976.238188295149, -10436.96825944999, -8675.561389393974, -8577.638396935272, -12339.772264930281, -11318.722226467398, -17454.410189915918, 0.01, -0.027000000000000003, 0.989, 192.0, 0.0, 0.0, 0.0, 0.0, 0.0, 0.0, 0.0, 0.0, 0.0, 1.644586713143908E9, 0.0, 2022-02-12 00:38:33.143
62.0, -11621.5436603479, -11060.894854175433, -7498.764395566511, -11946.582728216974, -11794.881438598804, -8604.505193770552, -11122.831538061087, -8414.582421133808, -10843.412380625294, -12915.776719543544, -10399.998474120912, -8634.881214485315, -8540.288631950454, -12294.040595774723, -11288.815592386198, -17452.130311981477, 0.01, -0.027000000000000003, 0.989, 192.0, 0.0, 0.0, 0.0, 0.0, 0.0, 0.0, 0.0, 0.0, 0.0, 1.644586713150287E9, 0.0, 2022-02-12 00:38:33.150
64.0, -11682.586274455343, -11148.06665755113, -7530.839148859876, -11959.882016167881, -11814.170994063736, -8633.450702840175, -11136.466102178825, -8457.609529210273, -10862.187845967752, -12968.392725991336, -10439.225785639976, -8681.10462201889, -8570.59759743185, -12320.72857865436, -11313.849546176141, -17468.804713345136, 0.01, -0.027000000000000003, 0.989, 192.0, 0.0, 0.0, 0.0, 0.0, 0.0, 0.0, 0.0, 0.0, 0.0, 1.644586713157224E9, 0.0, 2022-02-12 00:38:33.157
66.0, -11663.609643412787, -11108.772290798699, -7499.43494790017, -11964.531179014586, -11803.24099102509, -8621.42546432322, -11124.01618051722, -8424.037209038403, -10881.544456666048, -13014.325560846992, -10452.122742190688, -8685.887895332324, -8567.915388097214, -12334.385494516551, -11324.95836317043, -17472.246881991254, 0.009000000000000001, -0.026500000000000003, 0.9864999999999999, 192.0, 0.0, 32.0, 127.5, 24.0, 15.0, 96.0, 0.0, 0.0, 0.0, 1.644586713165349E9, 0.0, 2022-02-12 00:38:33.165
68.0, -11692.64455946023, -11147.932547084398, -7508.845032315855, -11972.08606864048, -11825.14570059129, -8645.163016934755, -11147.06082905064, -8455.039078597913, -10858.991546510642, -12990.029214624074, -10408.82741318076, -8661.010403753568, -8554.705507124127, -12323.321381011174, -11298.225676801881, -17475.59964365955, 0.009000000000000001, -0.026500000000000003, 0.9864999999999999, 192.0, 0.0, 0.0, 0.0, 0.0, 0.0, 0.0, 0.0, 0.0, 0.0, 1.644586713171931E9, 0.0, 2022-02-12 00:38:33.171
70.0, -11697.539591495943, -11196.212315107861, -7520.91497432172, -11988.179324648301, -11840.143721120801, -8656.987089751612, -11155.129808799007, -8478.977796909547, -10899.58231444148, -13018.393578337858, -10463.209207440521, -8728.512672008595, -8602.538240258484, -12376.876160726091, -11345.00787794684, -17493.79396364617, 0.009000000000000001, -0.026500000000000003, 0.9864999999999999, 192.0, 0.0, 0.0, 0.0, 0.0, 0.0, 0.0, 0.0, 0.0, 0.0, 1.644586713187012E9, 0.0, 2022-02-12 00:38:33.187
72.0, -11703.798079943428, -11176.45337300937, -7497.646808343746, -11993.119060172923, -11841.06014264347, -8648.202854180678, -11149.20659651835, -8456.491941987508, -10877.096459519442, -13005.09429038695, -10440.611593796206, -8681.462249930173, -8584.656844694238, -12357.385439561063, -11315.458871776924, -17491.60349268955, 0.009000000000000001, -0.026500000000000003, 0.9864999999999999, 192.0, 0.0, 0.0, 0.0, 0.0, 0.0, 0.0, 0.0, 0.0, 0.0, 1.644586713194808E9, 0.0, 2022-02-12 00:38:33.194
74.0, -11744.210033918624, -11214.74191126131, -7537.20939602964, -11993.61079855094, -11860.506160319586, -8681.19402899671, -11174.151143330473, -8494.288741861432, -10900.454032475238, -13036.185566924283, -10461.801047539837, -8718.789663170537, -8620.173766633721, -12369.813009478214, -11342.973869201407, -17508.36730103103, 0.009000000000000001, -0.026500000000000003, 0.9864999999999999, 192.0, 0.0, 0.0, 0.0, 0.0, 0.0, 0.0, 0.0, 0.0, 0.0, 1.644586713203341E9, 0.0, 2022-02-12 00:38:33.203
76.0, -11704.021597387982, -11142.948108070865, -7509.895564305254, -12006.552458590562, -11848.123293891347, -8661.591549109406, -11148.848968607064, -8453.362697763765, -10907.740701167668, -13026.976648208696, -10478.944835537057, -8732.804206944014, -8631.975487706124, -12374.506875813828, -11357.189578674983, -17508.881391153504, 0.0105, -0.02425, 0.98625, 192.0, 0.0, 48.0, 127.5, 40.0, 15.0, 104.0, 0.0, 0.0, 0.0, 1.644586713210783E9, 0.0, 2022-02-12 00:38:33.210
78.0, -11714.281048092967, -11208.21520188036, -7522.926631322698, -12006.597162079473, -11862.294299876012, -8679.316482462464, -11178.867361410543, -8480.520067276962, -10874.77187809609, -12989.291607057048, -10448.412352611107, -8705.110395563888, -8593.597542476362, -12362.928672185979, -11330.993334173363, -17515.206934834354, 0.0105, -0.02425, 0.98625, 192.0, 0.0, 0.0, 0.0, 0.0, 0.0, 0.0, 0.0, 0.0, 0.0, 1.644586713218926E9, 0.0, 2022-02-12 00:38:33.218
80.0, -11736.386923359267, -11242.79335055272, -7533.275489005505, -12016.946019762281, -11877.225265172156, -8693.375729724852, -11188.277445826227, -8501.486003576041, -10920.21297457373, -13067.947395795274, -10498.480260190996, -8750.886768208358, -8642.704325044671, -12406.246352940363, -11384.324596443725, -17532.820109465138, 0.0105, -0.02425, 0.98625, 192.0, 0.0, 0.0, 0.0, 0.0, 0.0, 0.0, 0.0, 0.0, 0.0, 1.64458671322597E9, 0.0, 2022-02-12 00:38:33.225
82.0, -11725.591030787353, -11200.637960510012, -7511.169613739206, -12022.399845409376, -11878.521666350563, -8689.86650584537, -11185.729346958322, -8484.453974301097, -10903.762090654624, -13034.218613412217, -10464.907940019124, -8708.709026421193, -8610.115481628834, -12380.564198561216, -11354.172093173516, -17534.51884204374, 0.0105, -0.02425, 0.98625, 192.0, 0.0, 0.0, 0.0, 0.0, 0.0, 0.0, 0.0, 0.0, 0.0, 1.64458671323244E9, 0.0, 2022-02-12 00:38:33.232
84.0, -11756.928176513693, -11247.598975610612, -7552.654451448257, -12025.439682655298, -11895.486640392142, -8712.397064256318, -11202.716672744355, -8530.252698690021, -10926.940849654777, -13049.462503130735, -10489.74072810897, -8752.563149042506, -8632.757798762059, -12402.245390682863, -11382.268235953838, -17555.551833576184, 0.0105, -0.02425, 0.98625, 192.0, 0.0, 0.0, 0.0, 0.0, 0.0, 0.0, 0.0, 0.0, 0.0, 1.644586713239302E9, 0.0, 2022-02-12 00:38:33.239
86.0, -11743.070094951403, -11210.31626585916, -7522.569003411413, -12036.52614790513, -11883.416698386276, -8699.209535027687, -11175.469896253337, -8487.940846436126, -10933.601669502457, -13048.523729863613, -10504.582286427294, -8770.891579495858, -8660.496313631096, -12424.686542115993, -11393.153535503572, -17554.277784142232, 0.01025, -0.024125, 0.9861249999999999, 192.0, 0.0, 40.0, 127.5, 32.0, 15.0, 104.0, 0.0, 0.0, 0.0, 1.644586713247447E9, 0.0, 2022-02-12 00:38:33.247
88.0, -11757.79989454745, -11251.84580705712, -7537.589375685379, -12032.882813558916, -11898.392367171333, -8709.67015143277, -11195.139431374006, -8510.985494969547, -10909.238268046174, -13042.287593160581, -10475.256797701932, -8747.645765262338, -8624.688819013694, -12381.704137528437, -11366.197331690471, -17558.681077799927, 0.01025, -0.024125, 0.9861249999999999, 192.0, 0.0, 0.0, 0.0, 0.0, 0.0, 0.0, 0.0, 0.0, 0.0, 1.644586713254502E9, 0.0, 2022-02-12 00:38:33.254
90.0, -11757.71048756963, -11287.698005163433, -7548.7875996574885, -12038.80602583957, -11914.507974923608, -8723.86350916189, -11208.639885025012, -8531.16912021269, -10943.414085318338, -13069.556721396057, -10521.591963957782, -8777.507695854629, -8680.948159807702, -12423.501899659861, -11420.579125950233, -17573.030897740235, 0.01025, -0.024125, 0.9861249999999999, 192.0, 0.0, 0.0, 0.0, 0.0, 0.0, 0.0, 0.0, 0.0, 0.0, 1.644586713261678E9, 0.0, 2022-02-12 00:38:33.261
92.0, -11734.08469368037, -11239.239423184326, -7526.569965668913, -12050.138360278412, -11912.272800478078, -8715.77217766907, -11201.286161099215, -8506.381035611754, -10918.424835017304, -13059.520788135624, -10491.372405454207, -8733.430055788762, -8650.57213909294, -12400.658416826536, -11393.712329114955, -17571.935662261923, 0.01025, -0.024125, 0.9861249999999999, 192.0, 0.0, 0.0, 0.0, 0.0, 0.0, 0.0, 0.0, 0.0, 0.0, 1.644586713269858E9, 0.0, 2022-02-12 00:38:33.269
94.0, -11797.407185722255, -11277.125630036073, -7564.232655076105, -12044.773941609137, -11945.018106105103, -8749.813884474503, -11237.652449328, -8563.914425839714, -10954.142922656885, -13048.076694974507, -10507.532716695396, -8774.780783031081, -8675.67314811625, -12434.767178865335, -11420.02033233885, -17590.24174097082, 0.01025, -0.024125, 0.9861249999999999, 192.0, 0.0, 0.0, 0.0, 0.0, 0.0, 0.0, 0.0, 0.0, 0.0, 1.644586713277692E9, 0.0, 2022-02-12 00:38:33.277
96.0, -11765.488894640077, -11262.865217073586, -7533.4095994722375, -12058.542616193607, -11930.534175698063, -8744.695334994238, -11203.677797755934, -8529.582146356363, -10969.386812375405, -13075.703451121266, -10529.012743116946, -8794.204448962742, -8692.392252968819, -12458.41532449905, -11434.996001123905, -17594.10859276159, 0.010125, -0.0240625, 0.9860625, 192.0, 0.0, 40.0, 127.5, 32.0, 15.0, 104.0, 0.0, 0.0, 0.0, 1.644586713286007E9, 0.0, 2022-02-12 00:38:33.286
98.0, -11793.987368820593, -11312.24022057536, -7559.0023468735635, -12060.889549361415, -11959.010298134124, -8763.515503825605, -11247.084885488139, -8565.16612352921, -10943.347030084971, -13061.82301781452, -10494.278132233398, -8768.9693294727, -8661.703307831682, -12432.55435616426, -11410.63259966762, -17598.8024590972, 0.010125, -0.0240625, 0.9860625, 192.0, 0.0, 0.0, 0.0, 0.0, 0.0, 0.0, 0.0, 0.0, 0.0, 1.644586713293739E9, 0.0, 2022-02-12 00:38:33.293
100.0, -11810.035921339504, -11336.357752842636, -7571.049937134974, -12070.724316921749, -11971.907254684837, -8774.35609988643, -11254.237443713839, -8594.849240165859, -10991.358577174971, -13119.781091187131, -10554.292566095897, -8829.587260435494, -8723.997619628622, -12473.905083406578, -11463.047440415316, -17619.410767484995, 0.010125, -0.0240625, 0.9860625, 192.0, 0.0, 0.0, 0.0, 0.0, 0.0, 0.0, 0.0, 0.0, 0.0, 1.644586713308817E9, 0.0, 2022-02-12 00:38:33.308
102.0, -11785.940740816683, -11287.876819119076, -7535.9353465956865, -12078.68153794784, -11971.75079247365, -8764.096649181443, -11247.867196544075, -8546.1671407422, -10961.608405304958, -13095.663558919854, -10518.775644156414, -8795.210277463231, -8681.506953419084, -12436.242393999386, -11428.066960342761, -17609.1066132911, 0.010125, -0.0240625, 0.9860625, 192.0, 0.0, 0.0, 0.0, 0.0, 0.0, 0.0, 0.0, 0.0, 0.0, 1.644586713315452E9, 0.0, 2022-02-12 00:38:33.315
104.0, -11802.413976480244, -11350.707572782943, -7577.911922682753, -12078.525075736652, -11995.42128985182, -8791.432832650284, -11261.501760661813, -8601.286542568987, -10979.266283424651, -13106.101823580484, -10547.765856714948, -8822.591164420983, -8722.96943938368, -12476.27436831884, -11454.263204844381, -17626.831546644156, 0.010125, -0.0240625, 0.9860625, 192.0, 0.0, 0.0, 0.0, 0.0, 0.0, 0.0, 0.0, 0.0, 0.0, 1.644586713322116E9, 0.0, 2022-02-12 00:38:33.322
106.0, -11800.357615990355, -11317.76110145582, -7552.050954347963, -12086.147020595912, -11987.978158948203, -8777.485344110173, -11248.917728533475, -8569.591768931361, -10993.347882431493, -13117.143585341406, -10565.289624367908, -8833.32000175953, -8744.091837893944, -12480.163571854064, -11468.389507340135, -17629.692569934436, 0.0100625, -0.02303125, 0.9860312499999999, 192.0, 0.0, 40.0, 127.5, 40.0, 15.0, 104.0, 0.0, 0.0, 0.0, 1.644586713330223E9, 0.0, 2022-02-12 00:38:33.330
108.0, -11825.726845947129, -11359.49180835388, -7569.060631878452, -12088.918636908369, -12005.032539967602, -8805.447376423763, -11273.482295689857, -8596.615027977829, -10978.50632411317, -13091.327320495526, -10533.930126897112, -8796.707844341738, -8718.990828870634, -12469.70295544898, -11444.339030306224, -17635.056988603712, 0.0100625, -0.02303125, 0.9860312499999999, 192.0, 0.0, 0.0, 0.0, 0.0, 0.0, 0.0, 0.0, 0.0, 0.0, 1.64458671333676E9, 0.0, 2022-02-12 00:38:33.336
110.0, -11861.601395797898, -11374.512180627846, -7581.085870395407, -12109.526945296162, -12012.341560404488, -8816.913821329335, -11266.016813041784, -8606.360388560342, -11019.521775188658, -13135.60612626149, -10587.86488626777, -8861.214978839753, -8768.25407365013, -12518.452110106005, -11495.74804255343, -17650.77026495579, 0.0100625, -0.02303125, 0.9860312499999999, 192.0, 0.0, 0.0, 0.0, 0.0, 0.0, 0.0, 0.0, 0.0, 0.0, 1.644586713345026E9, 0.0, 2022-02-12 00:38:33.345
112.0, -11826.643267469797, -11353.076857695205, -7553.861445648843, -12099.580419013551, -12014.912011016848, -8806.274390968609, -11274.488124190346, -8592.971693631613, -10996.097146999497, -13111.55564922758, -10548.905795682169, -8824.669876655325, -8727.752712697114, -12476.117906107655, -11465.84140847223, -17641.091959606645, 0.0100625, -0.02303125, 0.9860312499999999, 192.0, 0.0, 0.0, 0.0, 0.0, 0.0, 0.0, 0.0, 0.0, 0.0, 1.644586713352738E9, 0.0, 2022-02-12 00:38:33.352
114.0, -11859.120352163358, -11386.448012166979, -7596.106242669373, -12098.373424812964, -12042.762284608161, -8830.391923235884, -11301.33256928117, -8639.217452909643, -11011.139871017918, -13144.770341488165, -10573.582121560827, -8860.924406161834, -8765.30364338203, -12493.28404584933, -11487.4108418716, -17652.536052767762, 0.0100625, -0.02303125, 0.9860312499999999, 192.0, 0.0, 0.0, 0.0, 0.0, 0.0, 0.0, 0.0, 0.0, 0.0, 1.644586713359562E9, 0.0, 2022-02-12 00:38:33.359
116.0, -11802.86101136935, -11341.655116278544, -7567.048974877474, -12111.180974385856, -12029.552403635074, -8819.21605100823, -11267.916711320486, -8607.589734505384, -11018.292429243616, -13138.198928618303, -10597.47613638355, -8882.717357005758, -8779.11702145541, -12498.335540096228, -11500.017225744394, -17650.63615448906, 0.01103125, -0.025515625, 0.987015625, 192.0, 0.0, 48.0, 127.5, 16.0, 15.0, 112.0, 0.0, 0.0, 0.0, 1.644586713367756E9, 0.0, 2022-02-12 00:38:33.367
118.0, -11850.045543914503, -11395.813393093753, -7581.912884940253, -12112.097395908522, -12051.792389368104, -8840.249042540676, -11295.297598278237, -8625.471130069629, -10995.113670243463, -13111.443890505301, -10572.375127360241, -8854.196531080786, -8735.553471512017, -12491.540609781816, -11470.22235038547, -17656.872291192092, 0.01103125, -0.025515625, 0.987015625, 192.0, 0.0, 0.0, 0.0, 0.0, 0.0, 0.0, 0.0, 0.0, 0.0, 1.644586713375625E9, 0.0, 2022-02-12 00:38:33.375
120.0, -11884.377823397854, -11431.93381213353, -7589.735995499611, -12118.557050056106, -12059.995479583202, -8849.457961256261, -11294.939970366951, -8638.412790109252, -11049.540167992136, -13158.807237006098, -10612.876488313257, -8896.687197290326, -8811.236478237686, -12541.921441784078, -11524.984124300972, -17672.96554719991, 0.01103125, -0.025515625, 0.987015625, 192.0, 0.0, 0.0, 0.0, 0.0, 0.0, 0.0, 0.0, 0.0, 0.0, 1.644586713383889E9, 0.0, 2022-02-12 00:38:33.383
122.0, -11857.779247496039, -11394.718157615443, -7557.8847596507985, -12117.975904700268, -12052.440589957308, -8840.51726347414, -11283.85350511712, -8615.032865409, -11025.065007813575, -13132.4992337822, -10575.057336694877, -8856.27524331513, -8778.848800521946, -12505.756319255392, -11486.762641282397, -17666.103561652133, 0.01103125, -0.025515625, 0.987015625, 192.0, 0.0, 0.0, 0.0, 0.0, 0.0, 0.0, 0.0, 0.0, 0.0, 1.644586713391758E9, 0.0, 2022-02-12 00:38:33.391
124.0, -11892.78207931305, -11432.537309233823, -7598.542582815002, -12124.748483270227, -12079.620311214961, -8869.976862666234, -11311.033226374773, -8669.504066646585, -11030.60824043849, -13150.000649690706, -10584.37801413274, -8870.289787088608, -8790.851687294447, -12529.806796289302, -11505.873382791684, -17682.86736999361, 0.01103125, -0.025515625, 0.987015625, 192.0, 0.0, 0.0, 0.0, 0.0, 0.0, 0.0, 0.0, 0.0, 0.0, 1.644586713397891E9, 0.0, 2022-02-12 00:38:33.397
126.0, -11848.033886913525, -11366.934939257497, -7566.7360504551, -12142.473416623285, -12069.740840165716, -8858.733935205215, -11291.184877298461, -8641.899662244281, -11040.554766721103, -13145.329135099548, -10604.449880653607, -8901.157546181386, -8789.801155305047, -12528.309229410796, -11526.325228968291, -17687.293015395764, 0.012, -0.026000000000000002, 0.986, 192.0, 0.0, 48.0, 127.5, 24.0, 15.0, 104.0, 0.0, 0.0, 0.0, 1.64458671340482E9, 0.0, 2022-02-12 00:38:33.404
128.0, -11852.615994526863, -11435.21951856846, -7585.5338675420135, -12134.78441653066, -12088.315139808075, -8876.056537158078, -11318.901040423041, -8651.555615848973, -11011.430443695837, -13133.03567564913, -10575.124391928244, -8875.609502268971, -8777.977082488189, -12522.363665385685, -11494.339882652746, -17685.437820605974, 0.012, -0.026000000000000002, 0.986, 192.0, 0.0, 0.0, 0.0, 0.0, 0.0, 0.0, 0.0, 0.0, 0.0, 1.644586713412215E9, 0.0, 2022-02-12 00:38:33.412
130.0, -11901.745128839628, -11466.869588717174, -7605.225754407139, -12146.49673062524, -12098.798107957615, -8883.052633172589, -11316.040017132762, -8668.878217801835, -11058.011479140698, -13195.665263612898, -10634.53532869045, -8936.093322765031, -8829.296687757575, -12562.0156600494, -11544.430141977089, -17696.0772509667, 0.012, -0.026000000000000002, 0.986, 192.0, 0.0, 0.0, 0.0, 0.0, 0.0, 0.0, 0.0, 0.0, 0.0, 1.644586713419465E9, 0.0, 2022-02-12 00:38:33.419
132.0, -11884.44487863122, -11429.720989432453, -7579.83417270591, -12153.984565017769, -12100.608599258496, -8876.838848214013, -11311.90494440853, -8650.23686292611, -11035.190348051829, -13162.204702163304, -10607.713235344081, -8895.837831001023, -8804.687417112282, -12529.806796289302, -11521.609010888222, -17694.534980599285, 0.012, -0.026000000000000002, 0.986, 192.0, 0.0, 0.0, 0.0, 0.0, 0.0, 0.0, 0.0, 0.0, 0.0, 1.64458671343453E9, 0.0, 2022-02-12 00:38:33.434
134.0, -11911.78106210006, -11474.424478343068, -7617.273344668549, -12150.207120204821, -12123.54148906964, -8904.912639249878, -11346.706610525443, -8701.712930406682, -11054.52460700567, -13168.351431888514, -10629.416779210183, -8912.981618998245, -8830.011943580144, -12543.351953429217, -11547.537034456378, -17712.930466286, 0.012, -0.026000000000000002, 0.986, 192.0, 0.0, 0.0, 0.0, 0.0, 0.0, 0.0, 0.0, 0.0, 0.0, 1.644586713443925E9, 0.0, 2022-02-12 00:38:33.443
136.0, -11890.770422312073, -11433.632544712133, -7586.115012897852, -12159.281928453676, -12115.941895954837, -8896.687197290326, -11321.71736022441, -8667.67122360125, -11056.893891917933, -13178.834400038053, -10636.748151391525, -8936.428598931861, -8817.897298085369, -12546.838825564246, -11560.590453218276, -17712.014044763335, 0.01, -0.028, 0.99, 192.0, 0.0, 40.0, 127.5, 16.0, 15.0, 120.0, 0.0, 0.0, 0.0, 1.644586713450523E9, 0.0, 2022-02-12 00:38:33.450
138.0, -11899.308788694, -11459.851140958208, -7597.760271759066, -12160.69008835436, -12138.606564832517, -8919.262459190186, -11335.217813875415, -8686.558447665984, -11040.018324854174, -13166.742106287731, -10611.423624923662, -8894.027339700144, -8817.964353318734, -12540.490930138938, -11529.834452847774, -17716.774966332312, 0.01, -0.028, 0.99, 192.0, 0.0, 0.0, 0.0, 0.0, 0.0, 0.0, 0.0, 0.0, 0.0, 1.644586713458559E9, 0.0, 2022-02-12 00:38:33.458
140.0, -11918.620695903384, -11494.719862308486, -7613.294734155505, -12172.514161171219, -12147.413152147908, -8932.852319819012, -11343.823235490709, -8718.0073521146, -11086.174677154384, -13202.929580560873, -10661.513884248005, -8964.927073112378, -8874.558970279571, -12597.733747688979, -11578.963587160539, -17735.75159737487, 0.01, -0.028, 0.99, 192.0, 0.0, 0.0, 0.0, 0.0, 0.0, 0.0, 0.0, 0.0, 0.0, 1.644586713466495E9, 0.0, 2022-02-12 00:38:33.466
142.0, -11900.806355572506, -11460.991079925428, -7591.322969355938, -12182.88537059848, -12147.301393425632, -8922.950497025311, -11340.649287778055, -8687.318406977463, -11060.224301841772, -13169.692536555833, -10635.407046724207, -8938.52966291066, -8843.378286764419, -12568.832942108267, -11550.018078090916, -17727.995542048877, 0.01, -0.028, 0.99, 192.0, 0.0, 0.0, 0.0, 0.0, 0.0, 0.0, 0.0, 0.0, 0.0, 1.644586713472715E9, 0.0, 2022-02-12 00:38:33.472
144.0, -11957.93741440027, -11518.211545731014, -7634.0148012655745, -12178.280911240687, -12178.012690307223, -8962.11075331101, -11365.77264854582, -8728.19974758622, -11082.62074978599, -13194.100641501027, -10649.645107942237, -8969.732698170268, -8854.196531080786, -12597.39847152215, -11570.156999845149, -17745.452254468473, 0.01, -0.028, 0.99, 192.0, 0.0, 0.0, 0.0, 0.0, 0.0, 0.0, 0.0, 0.0, 0.0, 1.644586713479722E9, 0.0, 2022-02-12 00:38:33.479
146.0, -11948.147350328845, -11503.36998741269, -7604.354036373382, -12183.779440376693, -12176.60453040654, -8943.491750179739, -11355.356735629646, -8706.451500231207, -11101.463270361814, -13228.365865751013, -10675.237855343563, -8979.947445386344, -8887.366519852463, -12605.06511987032, -11591.81584022234, -17746.23456552441, 0.012, -0.024, 0.99, 192.0, 0.0, 48.0, 127.5, 32.0, 15.0, 120.0, 0.0, 0.0, 0.0, 1.644586713486823E9, 0.0, 2022-02-12 00:38:33.486
148.0, -11946.403914261331, -11535.80236861734, -7615.261687667572, -12181.164286275422, -12179.756126374738, -8954.801732874124, -11366.353793901659, -8721.315410293986, -11081.547866052135, -13219.738092391264, -10647.879320130269, -8941.189520500842, -8860.879702672924, -12575.538465444859, -11559.897549140162, -17748.64855392558, 0.012, -0.024, 0.99, 192.0, 0.0, 0.0, 0.0, 0.0, 0.0, 0.0, 0.0, 0.0, 0.0, 1.644586713494061E9, 0.0, 2022-02-12 00:38:33.494
150.0, -11942.291193281555, -11537.165825029115, -7636.406437922292, -12189.657949168439, -12190.239094524277, -8971.051451093132, -11376.054450995262, -8742.951898926724, -11110.135747210474, -13243.743865936265, -10701.322341122906, -9002.433300308383, -8909.248877674208, -12623.550012534859, -11605.62921829572, -17760.159702320063, 0.012, -0.024, 0.99, 192.0, 0.0, 0.0, 0.0, 0.0, 0.0, 0.0, 0.0, 0.0, 0.0, 1.64458671350156E9, 0.0, 2022-02-12 00:38:33.501
152.0, -11942.782931659573, -11499.301969921824, -7612.132443443828, -12193.0777660701, -12194.776498648704, -8957.618052675492, -11367.49373286888, -8706.496203720119, -11085.19120039835, -13206.28234222917, -10670.611044241316, -8973.621901705492, -8883.365557594963, -12604.752195447945, -11581.310520328347, -17757.164568563054, 0.012, -0.024, 0.99, 192.0, 0.0, 0.0, 0.0, 0.0, 0.0, 0.0, 0.0, 0.0, 0.0, 1.644586713509412E9, 0.0, 2022-02-12 00:38:33.509
154.0, -11988.693414770773, -11562.445648008066, -7651.22564449616, -12196.519934716218, -12219.676341971915, -8991.458593780828, -11392.460631425456, -8764.230759648175, -11112.840308289566, -13229.863432629518, -10684.335015336874, -8988.575218746093, -8889.288769875619, -12618.520870032415, -11599.393081592689, -17775.224778082942, 0.012, -0.024, 0.99, 192.0, 0.0, 0.0, 0.0, 0.0, 0.0, 0.0, 0.0, 0.0, 0.0, 1.644586713517427E9, 0.0, 2022-02-12 00:38:33.517
156.0, -11969.046231394557, -11531.466130193012, -7622.79422554901, -12216.010655881246, -12212.389673279486, -8991.279779825185, -11364.431543878502, -8729.943183653735, -11131.459311420836, -13254.606813741544, -10701.434099845184, -9013.184489391386, -8914.881517276945, -12640.246765642974, -11626.528099361432, -17784.165475865066, 0.012, -0.022, 0.992, 192.0, 0.0, 48.0, 127.5, 40.0, 15.5, 0.0, 0.0, 0.0, 0.0, 1.644586713525427E9, 0.0, 2022-02-12 00:38:33.525
158.0, -11967.950995916248, -11547.134703056181, -7633.74658033211, -12215.831841925603, -12226.515975775239, -8997.381806061483, -11390.314863957747, -8757.458181078218, -11103.698444807345, -13217.480566201279, -10667.615910484305, -8981.713233198314, -8904.018569471666, -12608.26141932743, -11591.167639633137, -17786.266539843862, 0.012, -0.022, 0.992, 192.0, 0.0, 0.0, 0.0, 0.0, 0.0, 0.0, 0.0, 0.0, 0.0, 1.644586713533508E9, 0.0, 2022-02-12 00:38:33.533
160.0, -11975.46118205323, -11577.175447604115, -7652.320879974471, -12218.491699515784, -12236.306039846664, -9014.570297547614, -11401.043701296294, -8783.16268720182, -11135.952012056352, -13260.328860322103, -10719.136681453787, -9045.281594429207, -8943.871729835479, -12646.147626179174, -11642.755465835986, -17802.985644696433, 0.012, -0.022, 0.992, 192.0, 0.0, 0.0, 0.0, 0.0, 0.0, 0.0, 0.0, 0.0, 0.0, 1.644586713541422E9, 0.0, 2022-02-12 00:38:33.541
162.0, -11969.783838961583, -11540.563290186321, -7624.738827316622, -12215.943600647879, -12231.321600833131, -9008.177698633397, -11392.930018059018, -8738.190977357743, -11110.694540821856, -13246.38137178199, -10694.683873019681, -8999.482870040283, -8904.42090087186, -12640.805559254357, -11613.161756177158, -17794.939016692522, 0.012, -0.022, 0.992, 192.0, 0.0, 0.0, 0.0, 0.0, 0.0, 0.0, 0.0, 0.0, 0.0, 1.644586713554879E9, 0.0, 2022-02-12 00:38:33.554
164.0, -12012.430967382308, -11585.177372119115, -7661.976833579163, -12216.79296693718, -12259.708316291371, -9032.69756230087, -11412.01840782385, -8787.118945970411, -11124.642029361967, -13253.712743963331, -10704.49628883556, -9023.30982962964, -8923.062255747587, -12658.84341702979, -11630.529061618932, -17804.483211574938, 0.012, -0.022, 0.992, 192.0, 0.0, 0.0, 0.0, 0.0, 0.0, 0.0, 0.0, 0.0, 0.0, 1.644586713561629E9, 0.0, 2022-02-12 00:38:33.561
166.0, -11986.078260669501, -11556.947118872062, -7636.741714089122, -12238.09417940309, -12259.149522679989, -9031.132940188998, -11406.944561832495, -8768.030556205578, -11145.473855194314, -13264.888616190985, -10727.585640857893, -9055.161065478453, -8953.43827646235, -12671.963891025054, -11654.959518308582, -17807.56775230977, 0.01, -0.02, 0.988, 192.0, 0.0, 40.0, 127.5, 48.0, 15.0, 112.0, 0.0, 0.0, 0.0, 1.64458671356982E9, 0.0, 2022-02-12 00:38:33.569
168.0, -12006.217182423734, -11606.769157262941, -7645.794170593521, -12234.584955523605, -12266.52559835024, -9033.882204757001, -11422.88135562913, -8778.625283077394, -11118.003561258742, -13247.744828193765, -10690.124117150799, -9011.485756812783, -8930.907718051401, -12654.618937327736, -11621.744826047996, -17813.088633190233, 0.01, -0.02, 0.988, 192.0, 0.0, 0.0, 0.0, 0.0, 0.0, 0.0, 0.0, 0.0, 0.0, 1.644586713576873E9, 0.0, 2022-02-12 00:38:33.576
170.0, -12027.227822211722, -11619.554355091377, -7663.139124290839, -12242.318659105142, -12283.758793325282, -9057.79857132418, -11434.996001123905, -8803.793347334069, -11161.567111202135, -13282.747660010775, -10736.056952006455, -9071.254321486274, -8959.00386083172, -12697.55663842638, -11670.44927721611, -17826.81260428579, 0.01, -0.02, 0.988, 192.0, 0.0, 0.0, 0.0, 0.0, 0.0, 0.0, 0.0, 0.0, 0.0, 1.644586713584343E9, 0.0, 2022-02-12 00:38:33.584
172.0, -11995.533048574096, -11579.298863327369, -7639.0662955124735, -12250.789970253703, -12281.098935735099, -9038.285498414696, -11422.724893417942, -8771.852704507435, -11144.333916227093, -13253.265709074225, -10717.303838408452, -9026.59553606457, -8944.586985658048, -12669.482847390515, -11642.01785826896, -17826.43262463005, 0.01, -0.02, 0.988, 192.0, 0.0, 0.0, 0.0, 0.0, 0.0, 0.0, 0.0, 0.0, 0.0, 1.644586713592306E9, 0.0, 2022-02-12 00:38:33.592
174.0, -12038.895432817393, -11618.414416124157, -7675.94667386373, -12248.845368486092, -12302.556610412194, -9070.248492985786, -11444.316678561769, -8824.93809758879, -11154.079276809607, -13272.555264539154, -10734.93936478369, -9058.826751569122, -8950.86782584999, -12681.50808590747, -11650.690335117619, -17840.223650958975, 0.01, -0.02, 0.988, 192.0, 0.0, 0.0, 0.0, 0.0, 0.0, 0.0, 0.0, 0.0, 0.0, 1.644586713600365E9, 0.0, 2022-02-12 00:38:33.600
176.0, -12042.784636352615, -11605.718625273541, -7653.729039875155, -12254.545063322195, -12297.750985354303, -9064.8393708276, -11422.702541673487, -8796.707844341738, -11179.604968977568, -13301.478421864322, -10756.732315627612, -9077.490458189304, -8990.519820513704, -12708.531344953937, -11677.870056375272, -17844.716351594492, 0.012, -0.022, 0.984, 192.0, 0.0, 48.0, 127.5, 40.0, 15.0, 96.0, 0.0, 0.0, 0.0, 1.644586713607288E9, 0.0, 2022-02-12 00:38:33.607
178.0, -12017.728330818216, -11620.314314402856, -7655.450124198213, -12251.66168828746, -12310.670293649471, -9070.159086007963, -11452.631527499143, -8814.566888161527, -11154.928643098909, -13267.973156925817, -10730.066684492433, -9044.02989673971, -8952.588910173048, -12682.335100452317, -11644.677715859141, -17843.710523094003, 0.012, -0.022, 0.984, 192.0, 0.0, 0.0, 0.0, 0.0, 0.0, 0.0, 0.0, 0.0, 0.0, 1.644586713615354E9, 0.0, 2022-02-12 00:38:33.615
180.0, -12074.278244290143, -11663.967271324072, -7686.250828057627, -12268.0455169732, -12338.006477118312, -9093.315493263663, -11475.944396966028, -8850.732010690213, -11184.321187057638, -13307.312227167158, -10770.32217625644, -9102.010321856776, -9008.490623055772, -12719.126071825753, -11702.993417143038, -17860.42962794657, 0.012, -0.022, 0.984, 192.0, 0.0, 0.0, 0.0, 0.0, 0.0, 0.0, 0.0, 0.0, 0.0, 1.644586713622479E9, 0.0, 2022-02-12 00:38:33.622
182.0, -12062.05184007309, -11653.730172363541, -7662.870903357376, -12277.276787433242, -12328.954020613912, -9087.168763538451, -11445.769541951364, -8814.924516072811, -11188.746832459788, -13311.4920033803, -10764.287205253508, -9087.74990889429, -9006.523669543705, -12703.859830362777, -11676.685413919142, -17858.350915712228, 0.012, -0.022, 0.984, 192.0, 0.0, 0.0, 0.0, 0.0, 0.0, 0.0, 0.0, 0.0, 0.0, 1.644586713630643E9, 0.0, 2022-02-12 00:38:33.630
184.0, -12107.671750506372, -11709.162498612703, -7696.152650851328, -12278.059098489179, -12353.250366836832, -9114.840223174122, -11479.095992934226, -8853.145999091388, -11202.068472155152, -13316.744663327298, -10773.674937924736, -9089.694510661902, -9011.061073668132, -12710.073615321353, -11685.201428556613, -17871.091410051755, 0.012, -0.022, 0.984, 192.0, 0.0, 0.0, 0.0, 0.0, 0.0, 0.0, 0.0, 0.0, 0.0, 1.644586713636848E9, 0.0, 2022-02-12 00:38:33.636
186.0, -12079.173276325855, -11659.96630906657, -7669.174095293773, -12297.549819654205, -12343.236785320853, -9104.245496302306, -11458.621795013165, -8830.66014416935, -11229.963449235374, -13327.182927987926, -10802.508688272083, -9138.175444385462, -9036.452655369361, -12737.879185423755, -11710.481251535566, -17873.326584497285, 0.01, -0.018000000000000002, 0.986, 192.0, 0.0, 40.0, 127.5, 56.0, 15.0, 104.0, 0.0, 0.0, 0.0, 1.644586713644606E9, 0.0, 2022-02-12 00:38:33.644
188.0, -12092.606674743494, -11670.650442916209, -7672.102173817418, -12284.38464217003, -12362.593396019149, -9117.947115653411, -11482.716975535986, -8850.910824645856, -11197.531068030725, -13297.477459606822, -10767.79642913299, -9096.243571787307, -8999.616980507015, -12716.510917724481, -11678.205332542102, -17873.974785086488, 0.01, -0.018000000000000002, 0.986, 192.0, 0.0, 0.0, 0.0, 0.0, 0.0, 0.0, 0.0, 0.0, 0.0, 1.644586713652611E9, 0.0, 2022-02-12 00:38:33.652
190.0, -12106.82238421707, -11703.93219041016, -7692.084633360462, -12289.52554339475, -12377.613768293115, -9127.401903558004, -11502.587676356754, -8874.313101090564, -11232.511548103279, -13333.419064690956, -10810.287095342528, -9127.603069258103, -9029.054227954653, -12760.074467667875, -11735.492853581054, -17893.130230084687, 0.01, -0.018000000000000002, 0.986, 192.0, 0.0, 0.0, 0.0, 0.0, 0.0, 0.0, 0.0, 0.0, 0.0, 1.644586713659169E9, 0.0, 2022-02-12 00:38:33.659
192.0, -12084.91767465087, -11664.481361446544, -7665.1284295473615, -12299.941456310924, -12374.35041360264, -9123.289182578228, -11486.539123837843, -8843.17712106432, -11205.711806501366, -13282.4347355884, -10792.942141645211, -9095.774185153745, -9037.056152469653, -12742.014258147987, -11712.872888192283, -17884.25658753593, 0.01, -0.018000000000000002, 0.986, 192.0, 0.0, 0.0, 0.0, 0.0, 0.0, 0.0, 0.0, 0.0, 0.0, 1.6445867136672E9, 0.0, 2022-02-12 00:38:33.667
194.0, -12124.2120414033, -11732.475368079587, -7708.423758557291, -12307.853973848101, -12395.226942923897, -9153.531092826259, -11509.740234582452, -8901.157546181386, -11227.12477768955, -13337.218861248359, -10799.04416788151, -9130.486444292837, -9051.651841598969, -12747.065752394887, -11720.003094673526, -17900.819230177312, 0.011, -0.022000000000000002, 0.987, 192.0, 0.0, 48.0, 127.5, 24.0, 15.0, 112.0, 0.0, 0.0, 0.0, 1.644586713682629E9, 0.0, 2022-02-12 00:38:33.682
196.0, -12090.550314253607, -11693.136297838248, -7686.563752480001, -12323.634305433548, -12393.63996906757, -9150.021868946777, -11497.871458276684, -8866.020603897645, -11249.901205289509, -13352.350992244601, -10823.787548993534, -9165.310462154206, -9073.154219764974, -12772.591444562846, -11751.966089244615, -17908.485878525484, 0.011, -0.022000000000000002, 0.987, 192.0, 0.0, 0.0, 0.0, 0.0, 0.0, 0.0, 0.0, 0.0, 0.0, 1.644586713690304E9, 0.0, 2022-02-12 00:38:33.690
198.0, -12113.237334875743, -11712.537612025453, -7690.564714737501, -12317.353465241607, -12403.11710871662, -9147.317307867683, -11507.147432225638, -8882.784412239125, -11220.776882264243, -13333.284954224224, -10804.073310383954, -9134.196833872418, -9050.55660612066, -12738.393275546227, -11718.416120817199, -17907.569457002814, 0.011, -0.022000000000000002, 0.987, 192.0, 0.0, 0.0, 0.0, 0.0, 0.0, 0.0, 0.0, 0.0, 0.0, 1.64458671369837E9, 0.0, 2022-02-12 00:38:33.698
200.0, -12164.556940145128, -11763.94662427266, -7711.865927203408, -12317.062892563688, -12420.41735892503, -9168.193837188941, -11528.672162136098, -8909.47239511876, -11263.334603707148, -13369.226559308358, -10844.440560870238, -9159.878988251567, -9099.104595077586, -12780.01222372201, -11770.093353997869, -17923.863878710734, 0.011, -0.022000000000000002, 0.987, 192.0, 0.0, 0.0, 0.0, 0.0, 0.0, 0.0, 0.0, 0.0, 0.0, 1.6445867137064E9, 0.0, 2022-02-12 00:38:33.706
202.0, -12118.266477378187, -11687.168382068681, -7677.6901099312445, -12324.863651378591, -12410.247315197865, -9158.403773117516, -11515.171708485093, -8884.505496562184, -11240.446417384914, -13326.490023909811, -10804.721510973157, -9130.7546652263, -9077.088126789109, -12755.894691454732, -11745.03704846347, -17921.047558909366, 0.011, -0.022000000000000002, 0.987, 192.0, 0.0, 0.0, 0.0, 0.0, 0.0, 0.0, 0.0, 0.0, 0.0, 1.644586713712552E9, 0.0, 2022-02-12 00:38:33.712
204.0, -12138.651268321428, -11760.012717248526, -7719.599630784945, -12314.872421607068, -12431.16854800803, -9187.036357764764, -11541.591470431265, -8930.080703506554, -11248.738914577832, -13356.173140546458, -10824.927487960755, -9153.195816659429, -9091.28148451823, -12775.05013645293, -11757.844598036361, -17939.666562040635, 0.0125, -0.019000000000000003, 0.9884999999999999, 192.0, 0.0, 56.0, 127.5, 64.0, 15.0, 120.0, 0.0, 0.0, 0.0, 1.644586713719743E9, 0.0, 2022-02-12 00:38:33.719
206.0, -12137.108997954012, -11730.486062823065, -7697.538459007556, -12328.372875258074, -12425.088873516188, -9171.85952327961, -11533.410731960623, -8899.212944413775, -11271.51534217779, -13371.484085498345, -10862.34430817894, -9184.376500174583, -9111.643923717014, -12803.414500166715, -11783.817325093429, -17940.426521352118, 0.0125, -0.019000000000000003, 0.9884999999999999, 192.0, 0.0, 0.0, 0.0, 0.0, 0.0, 0.0, 0.0, 0.0, 0.0, 1.644586713727517E9, 0.0, 2022-02-12 00:38:33.727
208.0, -12139.098303210534, -11722.46178656361, -7696.33146480697, -12314.313627995685, -12430.408588696551, -9177.514514626804, -11538.238708762969, -8909.651209074404, -11240.446417384914, -13332.524994912745, -10808.141327874819, -9135.962621684388, -9066.962786550856, -12759.895653712232, -11749.596804332354, -17942.21466090854, 0.0125, -0.019000000000000003, 0.9884999999999999, 192.0, 0.0, 0.0, 0.0, 0.0, 0.0, 0.0, 0.0, 0.0, 0.0, 1.64458671373483E9, 0.0, 2022-02-12 00:38:33.734
210.0, -12173.45293443834, -11794.568514176432, -7716.872717961397, -12334.229032305364, -12447.664135416047, -9205.185974262473, -11548.609918190232, -8947.872692092978, -11271.872970089074, -13386.37034730558, -10847.927433005267, -9185.471735652893, -9126.9548686689, -12802.051043754942, -11793.875610098316, -17954.93280350361, 0.0125, -0.019000000000000003, 0.9884999999999999, 192.0, 0.0, 0.0, 0.0, 0.0, 0.0, 0.0, 0.0, 0.0, 0.0, 1.644586713741284E9, 0.0, 2022-02-12 00:38:33.741
212.0, -12151.347059172042, -11748.903900254238, -7691.145860093339, -12349.58468074616, -12450.011068583855, -9203.420186450505, -11549.57104320181, -8913.227488187253, -11269.570740410178, -13391.824172952674, -10841.66894455778, -9180.599055361636, -9114.61670572957, -12797.513639630513, -11779.794011091473, -17960.878367528723, 0.0125, -0.019000000000000003, 0.9884999999999999, 192.0, 0.0, 0.0, 0.0, 0.0, 0.0, 0.0, 0.0, 0.0, 0.0, 1.644586713749155E9, 0.0, 2022-02-12 00:38:33.749
214.0, -12180.493733941763, -11807.219601538134, -7731.490758835168, -12354.792637204248, -12479.113039864666, -9229.504672229848, -11585.020909907927, -8962.043698077643, -11276.52213293578, -13402.351844591123, -10851.704877818212, -9196.401738691538, -9136.208490873396, -12813.159860749229, -11790.791069363484, -17972.970661279043, 0.013250000000000001, -0.018500000000000003, 0.98925, 192.0, 0.0, 56.0, 127.5, 56.0, 15.0, 120.0, 0.0, 0.0, 0.0, 1.644586713757163E9, 0.0, 2022-02-12 00:38:33.757
216.0, -12171.910664070925, -11790.344034474378, -7714.279915604582, -12369.902416456034, -12474.530932251328, -9230.756369919345, -11573.085078368793, -8943.983488557755, -11301.846659403642, -13422.624876812086, -10879.957482809721, -9230.532852474791, -9157.509703339303, -12837.433855227693, -11819.736578433107, -17979.720888104544, 0.013250000000000001, -0.018500000000000003, 0.98925, 192.0, 0.0, 0.0, 0.0, 0.0, 0.0, 0.0, 0.0, 0.0, 0.0, 1.644586713765468E9, 0.0, 2022-02-12 00:38:33.765
218.0, -12183.064184554123, -11790.992235063582, -7720.136072651872, -12373.009308935323, -12482.75637421088, -9236.456064755448, -11579.209456349547, -8953.237110762253, -11280.679557404466, -13396.719204988385, -10852.151912707319, -9195.172392746495, -9127.33484832464, -12818.63603814078, -11786.298368727967, -17979.385611937716, 0.013250000000000001, -0.018500000000000003, 0.98925, 192.0, 0.0, 0.0, 0.0, 0.0, 0.0, 0.0, 0.0, 0.0, 0.0, 1.644586713773251E9, 0.0, 2022-02-12 00:38:33.773
220.0, -12209.014559866735, -11825.279811058022, -7747.0699247205175, -12382.30763462873, -12490.154801625587, -9256.572634765225, -11589.67007275463, -8975.67826219538, -11307.121671095094, -13428.346923392644, -10903.404462743338, -9245.150893348562, -9183.77300307429, -12862.624271228824, -11831.538299505508, -17992.7966586109, 0.013250000000000001, -0.018500000000000003, 0.98925, 192.0, 0.0, 0.0, 0.0, 0.0, 0.0, 0.0, 0.0, 0.0, 0.0, 1.644586713781465E9, 0.0, 2022-02-12 00:38:33.781
222.0, -12187.422774722907, -11783.571455904419, -7712.603534770434, -12389.326082387697, -12484.18688585602, -9246.648460227068, -11574.493238269477, -8945.10107578052, -11299.343264024648, -13413.974751707883, -10878.348157208939, -9220.563974447725, -9138.66718276348, -12843.44647448617, -11810.840584139894, -17994.27187374495, 0.013250000000000001, -0.018500000000000003, 0.98925, 192.0, 0.0, 0.0, 0.0, 0.0, 0.0, 0.0, 0.0, 0.0, 0.0, 1.64458671378928E9, 0.0, 2022-02-12 00:38:33.789
224.0, -12222.358551306552, -11829.325476804433, -7751.9426050117745, -12387.962625975922, -12513.08769143673, -9262.048812156774, -11614.368750377746, -8992.062090881122, -11298.918580879998, -13425.016513468805, -10873.788401340056, -9226.710704172934, -9161.689479552446, -12854.01884961353, -11820.183613322213, -18010.94627510861, 0.013625000000000002, -0.02325, 0.987625, 192.0, 0.0, 56.0, 127.5, 16.0, 15.0, 104.0, 0.0, 0.0, 0.0, 1.644586713801528E9, 0.0, 2022-02-12 00:38:33.801
226.0, -12188.093327056567, -11802.14575554678, -7732.273069891104, -12391.047166710756, -12505.532801810838, -9254.739791719889, -11595.258008868457, -8958.601529431526, -11318.85633693413, -13439.366333409112, -10903.96325635472, -9256.147951620575, -9203.084910283675, -12879.142210381295, -11848.212700869168, -18010.208667541585, 0.013625000000000002, -0.02325, 0.987625, 192.0, 0.0, 0.0, 0.0, 0.0, 0.0, 0.0, 0.0, 0.0, 0.0, 1.644586713809388E9, 0.0, 2022-02-12 00:38:33.809
228.0, -12194.821202137615, -11818.283715043512, -7737.369267626914, -12392.321216144708, -12513.825299003756, -9264.060469157752, -11605.159831662158, -8973.308977283117, -11288.94970285293, -13418.266286643302, -10872.559055395015, -9207.599962663648, -9162.270624908284, -12840.406637240249, -11810.773528906528, -18010.610998941782, 0.013625000000000002, -0.02325, 0.987625, 192.0, 0.0, 0.0, 0.0, 0.0, 0.0, 0.0, 0.0, 0.0, 0.0, 1.644586713816509E9, 0.0, 2022-02-12 00:38:33.816
230.0, -12235.32256309063, -11857.1981021402, -7766.404183674358, -12401.88776277158, -12526.163461943086, -9284.69112929, -11617.63210506822, -9005.003750920743, -11329.540470783768, -13466.769572111318, -10919.698884451258, -9265.938015691998, -9206.258857996329, -12883.009062172063, -11863.009555698582, -18031.04049337393, 0.013625000000000002, -0.02325, 0.987625, 192.0, 0.0, 0.0, 0.0, 0.0, 0.0, 0.0, 0.0, 0.0, 0.0, 1.644586713823937E9, 0.0, 2022-02-12 00:38:33.823
232.0, -12193.390690492475, -11800.111746801347, -7726.19339539926, -12413.287152443785, -12513.490022836928, -9255.656213242557, -11604.422224095133, -8963.049526578132, -11310.921467652497, -13433.063141472716, -10895.626055672892, -9240.322916546216, -9188.10924149862, -12847.134512321296, -11843.272965344546, -18025.34079853783, 0.013625000000000002, -0.02325, 0.987625, 192.0, 0.0, 0.0, 0.0, 0.0, 0.0, 0.0, 0.0, 0.0, 0.0, 1.644586713832023E9, 0.0, 2022-02-12 00:38:33.832
234.0, -12242.586880038605, -11841.954212421682, -7766.314776696537, -12409.465004141928, -12537.518148126383, -9286.680434546523, -11635.02176225445, -9012.044550424165, -11314.698912465443, -13417.618086054097, -10895.53664869507, -9240.009992123842, -9194.971227046399, -12861.864311917343, -11847.810369468973, -18038.48362427755, 0.012812500000000001, -0.024625, 0.9878125, 192.0, 0.0, 48.0, 127.5, 24.0, 15.0, 112.0, 0.0, 0.0, 0.0, 1.644586713840098E9, 0.0, 2022-02-12 00:38:33.840
236.0, -12224.70548447436, -11819.825985410927, -7743.113665951928, -12408.280361685796, -12528.53274685535, -9283.350024622683, -11621.834233025818, -8996.465384538817, -11328.847566705654, -13444.395475911555, -10925.331524053994, -9270.341309349693, -9217.613544179625, -12895.481335578124, -11876.845285516416, -18043.937449924644, 0.012812500000000001, -0.024625, 0.9878125, 192.0, 0.0, 0.0, 0.0, 0.0, 0.0, 0.0, 0.0, 0.0, 0.0, 1.644586713848236E9, 0.0, 2022-02-12 00:38:33.848
238.0, -12231.433359555407, -11858.91918646326, -7747.2487386761595, -12405.888725029079, -12536.020581247876, -9291.910742749065, -11629.031494740426, -9007.21657362182, -11310.899115908041, -13430.582097838176, -10893.346177738451, -9224.58728844968, -9189.427994421481, -12853.080076346407, -11836.410979796765, -18042.886917935244, 0.012812500000000001, -0.024625, 0.9878125, 192.0, 0.0, 0.0, 0.0, 0.0, 0.0, 0.0, 0.0, 0.0, 0.0, 1.644586713856549E9, 0.0, 2022-02-12 00:38:33.856
240.0, -12253.762752266259, -11881.44974487421, -7768.214674975237, -12411.163736720531, -12555.712468113003, -9308.249867945895, -11651.629108384743, -9041.638260082991, -11344.024401190807, -13468.356545967645, -10931.232384590196, -9275.12458266313, -9228.521195473813, -12906.388986872314, -11882.20970418569, -18055.09097040784, 0.012812500000000001, -0.024625, 0.9878125, 192.0, 0.0, 0.0, 0.0, 0.0, 0.0, 0.0, 0.0, 0.0, 0.0, 1.644586713863049E9, 0.0, 2022-02-12 00:38:33.863
242.0, -12240.597574782083, -11833.706418717673, -7740.38675312838, -12422.69723685947, -12547.62113662018, -9298.258638174371, -11633.412436653667, -9000.265181096218, -11330.702761495444, -13444.842510800661, -10910.847593646955, -9270.49777156088, -9195.842945080156, -12888.619350030345, -11863.925977221248, -18052.073484906374, 0.012812500000000001, -0.024625, 0.9878125, 192.0, 0.0, 0.0, 0.0, 0.0, 0.0, 0.0, 0.0, 0.0, 0.0, 1.644586713871259E9, 0.0, 2022-02-12 00:38:33.871
244.0, -12254.455656344373, -11875.347718637911, -7774.428459933813, -12425.290039216285, -12561.72508737148, -9312.608458114679, -11654.803056097397, -9038.777236792712, -11339.330534855191, -13442.607336355131, -10921.643486218869, -9275.661024530056, -9223.626163438103, -12899.772870513543, -11867.34579412291, -18060.276575121472, 0.013406250000000001, -0.0233125, 0.98490625, 192.0, 0.0, 56.0, 127.5, 40.0, 15.0, 88.0, 0.0, 0.0, 0.0, 1.644586713877318E9, 0.0, 2022-02-12 00:38:33.877
