%OpenBCI Raw EEG Data
%Number of channels = 16
%Sample Rate = 125 Hz
%Board = OpenBCI_GUI$BoardCytonSerialDaisy
Sample Index, EXG Channel 0, EXG Channel 1, EXG Channel 2, EXG Channel 3, EXG Channel 4, EXG Channel 5, EXG Channel 6, EXG Channel 7, EXG Channel 8, EXG Channel 9, EXG Channel 10, EXG Channel 11, EXG Channel 12, EXG Channel 13, EXG Channel 14, EXG Channel 15, Accel Channel 0, Accel Channel 1, Accel Channel 2, Other, Other, Other, Other, Other, Other, Other, Analog Channel 0, Analog Channel 1, Analog Channel 2, Timestamp, Other, Timestamp (Formatted)
0.0, -11290.939008109452, -11040.398304509916, -7940.3678107700125, -13253.95861315234, -11497.46912687649, -8271.307739175289, -11079.156229395418, -8587.875495895803, 0.0, 0.0, 0.0, 0.0, 0.0, 0.0, 0.0, 0.0, 0.004, -0.013000000000000001, 0.493, 192.0, 0.0, 32.0, 127.5, 24.0, 15.0, 104.0, 0.0, 0.0, 0.0, 1.644586958328357E9, 0.0, 2022-02-12 00:42:38.328
224.0, -11272.163542766993, -11034.162167806884, -7927.761426897219, -13255.09855211956, -11501.671254834087, -8266.055079228292, -11081.503162563225, -8583.673367938205, -11196.905219185976, -13630.809024668817, -9044.231062439807, -7556.610710216846, -8249.380677864632, -11006.55776340458, -13133.527414027145, -18758.23214748289, 0.004, -0.013000000000000001, 0.493, 192.0, 0.0, 0.0, 0.0, 0.0, 0.0, 0.0, 0.0, 0.0, 0.0, 1.644586958328362E9, 0.0, 2022-02-12 00:42:38.328
0.0, -5522.892537461822, -5442.69447835618, -3892.9586282919204, -6605.2087074767005, -5741.0455633456195, -4058.51799947238, -5507.80510995449, -4226.983097432029, -5617.574526974503, -6840.25965216871, -4544.847255330951, -3795.9297056114324, -4144.348698180759, -5518.33278159294, -6588.646064835319, -9384.692833983045, 0.01, -0.026000000000000002, 0.992, 192.0, 0.0, 40.0, 127.5, 24.0, 15.5, 0.0, 0.0, 0.0, 0.0, 1.644586958440774E9, 0.0, 2022-02-12 00:42:38.440
2.0, -11114.516689123713, -10962.703640783267, -7817.299105799092, -13211.110319031515, -11506.700397336532, -8144.2827754357795, -11044.332211534049, -8493.908762205692, -11040.778284165655, -13690.443478875575, -8877.017662169656, -7446.103685629808, -8031.138245003015, -10819.048979169009, -13096.334111253514, -18691.89216993954, 0.01, -0.026000000000000002, 0.992, 192.0, 0.0, 0.0, 0.0, 0.0, 0.0, 0.0, 0.0, 0.0, 0.0, 1.644586958446952E9, 0.0, 2022-02-12 00:42:38.446
4.0, -11075.110563649007, -10914.602686715447, -7797.473108467235, -13218.262877257213, -11495.70333906452, -8140.885310278572, -11031.524661961159, -8475.24505558551, -11071.735450236256, -13719.187822245101, -8900.889325247923, -7485.442755871148, -8055.434591225933, -10846.631031826859, -13119.512870253668, -18701.50342005532, 0.01, -0.026000000000000002, 0.992, 192.0, 0.0, 0.0, 0.0, 0.0, 0.0, 0.0, 0.0, 0.0, 0.0, 1.644586958454514E9, 0.0, 2022-02-12 00:42:38.454
6.0, -11071.064897902597, -10925.622096731913, -7807.285524283115, -13214.038397555161, -11502.699435079032, -8130.625859573586, -11039.347772520516, -8483.224628356056, -11044.04163885613, -13690.599941086763, -8879.543409293105, -7445.701354229612, -8025.237384466814, -10821.530022803548, -13089.047442561085, -18696.206056619412, 0.011, -0.024, 0.993, 192.0, 0.0, 48.0, 127.5, 40.0, 15.5, 8.0, 0.0, 0.0, 0.0, 1.644586958462442E9, 0.0, 2022-02-12 00:42:38.462
8.0, -11124.172642728407, -10981.993196248199, -7819.243707566704, -13219.84985111354, -11509.89669679364, -8134.448007875444, -11045.42744701236, -8504.771710010971, -11071.735450236256, -13719.634857134208, -8929.879537806457, -7478.871343001288, -8075.752326935808, -10844.082932958954, -13126.196041845804, -18702.576303789177, 0.011, -0.024, 0.993, 192.0, 0.0, 0.0, 0.0, 0.0, 0.0, 0.0, 0.0, 0.0, 0.0, 1.644586958469756E9, 0.0, 2022-02-12 00:42:38.469
10.0, -11097.350549382038, -10933.646372991368, -7785.470221694734, -13220.430996469378, -11490.763603539897, -8120.366408868601, -11014.917315830866, -8472.58519799533, -11066.102810633518, -13706.939066283592, -8885.846601229501, -7455.066735156386, -8037.575547406143, -10810.108281386887, -13095.440041475302, -18691.579245517165, 0.011, -0.024, 0.993, 192.0, 0.0, 0.0, 0.0, 0.0, 0.0, 0.0, 0.0, 0.0, 0.0, 1.64458695847688E9, 0.0, 2022-02-12 00:42:38.476
12.0, -11100.524497094691, -10956.26633838014, -7809.721864428743, -13211.669112642898, -11503.70526357952, -8135.900871265039, -11038.967792864776, -8504.68230303315, -11052.80352268261, -13698.132478968202, -8881.286845360619, -7447.33303157485, -8044.214015509369, -10819.585421035938, -13098.345768254492, -18694.395565318533, 0.011, -0.024, 0.993, 192.0, 0.0, 0.0, 0.0, 0.0, 0.0, 0.0, 0.0, 0.0, 0.0, 1.644586958484408E9, 0.0, 2022-02-12 00:42:38.484
14.0, -11079.513857306703, -10908.053625590042, -7787.30306474007, -13216.09475804505, -11481.778202268864, -8130.357638640123, -11015.029074553142, -8475.87090443026, -11059.37493555247, -13686.911903251637, -8895.167278667364, -7485.19688668214, -8058.1168005605705, -10843.77000853658, -13108.44875674829, -18694.037937407247, 0.011, -0.024, 0.993, 192.0, 0.0, 0.0, 0.0, 0.0, 0.0, 0.0, 0.0, 0.0, 0.0, 1.644586958492446E9, 0.0, 2022-02-12 00:42:38.492
16.0, -11083.090136419552, -10928.952506655754, -7790.052329308073, -13201.90140031593, -11493.80344078582, -8134.000972986338, -11032.910470117387, -8479.067203887369, -11032.686952672835, -13678.619406058719, -8853.235406069209, -7430.055133110897, -8025.863233311562, -10823.09464491542, -13076.351651710469, -18687.108896626105, 0.0115, -0.022, 0.9915, 192.0, 0.0, 48.0, 127.5, 48.0, 15.0, 120.0, 0.0, 0.0, 0.0, 1.644586958506554E9, 0.0, 2022-02-12 00:42:38.506
18.0, -11084.38653759796, -10952.086562166996, -7810.481823740223, -13205.343568962047, -11507.303894436824, -8149.647194105053, -11037.336115519538, -8503.475308832563, -11067.555674023113, -13715.365673943243, -8900.71051129228, -7462.398107337726, -8062.095411073615, -10845.960479493198, -13117.568268486057, -18699.08943165415, 0.0115, -0.022, 0.9915, 192.0, 0.0, 0.0, 0.0, 0.0, 0.0, 0.0, 0.0, 0.0, 0.0, 1.644586958514353E9, 0.0, 2022-02-12 00:42:38.514
20.0, -11068.80737171261, -10892.876791104889, -7783.123288526927, -13218.6205051685, -11505.89573453614, -8135.766760798307, -11032.083455572541, -8480.251846343499, -11045.270984801173, -13686.353109640255, -8885.690139018314, -7434.369019790772, -8039.296631729202, -10821.082987914442, -13093.16016354086, -18692.786239717752, 0.0115, -0.022, 0.9915, 192.0, 0.0, 0.0, 0.0, 0.0, 0.0, 0.0, 0.0, 0.0, 0.0, 1.644586958522097E9, 0.0, 2022-02-12 00:42:38.522
22.0, -11105.575991341591, -10947.504454553658, -7807.285524283115, -13207.712853874309, -11512.623609617187, -8150.13893248307, -11034.966830607276, -8505.129337922257, -11049.249595314217, -13694.66795857763, -8895.793127512114, -7446.349554818816, -8044.63869865402, -10823.988714693633, -13099.753928155176, -18699.782335732263, 0.0115, -0.022, 0.9915, 192.0, 0.0, 0.0, 0.0, 0.0, 0.0, 0.0, 0.0, 0.0, 0.0, 1.644586958529252E9, 0.0, 2022-02-12 00:42:38.529
24.0, -11056.290394817639, -10887.62413115789, -7778.87645708042, -13204.673016628387, -11500.75483331142, -8136.32555440969, -11028.171900292862, -8487.605570269296, -11058.056182629607, -13697.014891745435, -8893.602656555493, -7457.659537513201, -8063.883550630039, -10832.929412475754, -13116.003646374184, -18699.335300843155, 0.0115, -0.022, 0.9915, 192.0, 0.0, 0.0, 0.0, 0.0, 0.0, 0.0, 0.0, 0.0, 0.0, 1.644586958536656E9, 0.0, 2022-02-12 00:42:38.536
26.0, -11046.746199935222, -10892.29564574905, -7778.20590474676, -13198.615693881, -11495.435118131056, -8139.23128118888, -11032.351676506005, -8475.379166052242, -11006.490708171214, -13638.252155572434, -8838.885586128901, -7411.6149439352685, -8008.562983103155, -10793.769156190057, -13076.39635519938, -18692.674480995476, 0.012750000000000001, -0.023, 0.99075, 192.0, 0.0, 56.0, 127.5, 32.0, 15.0, 120.0, 0.0, 0.0, 0.0, 1.644586958544695E9, 0.0, 2022-02-12 00:42:38.544
28.0, -11065.007575155209, -10932.394675301872, -7800.9599806022625, -13204.337740461558, -11506.23101070297, -8158.923168054005, -11036.397342252416, -8502.11185242079, -11043.773417922666, -13692.812763787839, -8888.417051841861, -7448.920005431177, -8054.294652258713, -10834.33757237644, -13111.130966082927, -18705.88436196856, 0.012750000000000001, -0.023, 0.99075, 192.0, 0.0, 0.0, 0.0, 0.0, 0.0, 0.0, 0.0, 0.0, 0.0, 1.644586958554131E9, 0.0, 2022-02-12 00:42:38.554
30.0, -11055.061048872596, -10894.620227172403, -7776.842448334986, -13213.926638832885, -11493.624626830177, -8151.524740639298, -11027.61310668148, -8484.006939411991, -11026.316705503072, -13682.218036916023, -8871.47442954474, -7436.626545980757, -8020.789387320207, -10840.99839222412, -13086.119364037439, -18704.65501602352, 0.012750000000000001, -0.023, 0.99075, 192.0, 0.0, 0.0, 0.0, 0.0, 0.0, 0.0, 0.0, 0.0, 0.0, 1.644586958560391E9, 0.0, 2022-02-12 00:42:38.560
32.0, -11087.851057988531, -10935.54627127007, -7812.292315041103, -13203.130746260971, -11523.71007486702, -8169.80846760374, -11055.418676783882, -8523.234250931055, -11032.396379994916, -13682.910940994137, -8882.09150816101, -7425.51772898647, -8031.227651980836, -10842.361848635896, -13091.439079217802, -18712.23225739387, 0.012750000000000001, -0.023, 0.99075, 192.0, 0.0, 0.0, 0.0, 0.0, 0.0, 0.0, 0.0, 0.0, 0.0, 1.644586958566884E9, 0.0, 2022-02-12 00:42:38.566
34.0, -11075.110563649007, -10914.289762293072, -7788.532410685112, -13209.724510875287, -11494.853972775218, -8149.46838014941, -11014.246763497205, -8480.967102166069, -11060.7607437087, -13693.863295777237, -8899.61527581397, -7459.604139280813, -8063.011832596283, -10848.307412661006, -13108.113480581462, -18707.89601896954, 0.012750000000000001, -0.023, 0.99075, 192.0, 0.0, 0.0, 0.0, 0.0, 0.0, 0.0, 0.0, 0.0, 0.0, 1.644586958575161E9, 0.0, 2022-02-12 00:42:38.575
36.0, -11054.032868627653, -10910.937000624777, -7785.470221694734, -13200.448536926335, -11493.110536707705, -8151.5023888948435, -11021.399321722904, -8497.44033782963, -11013.777376863645, -13675.646624046163, -8852.497798502183, -7408.351589244794, -8025.796178078196, -10808.81188020848, -13068.841465573487, -18694.954358929917, 0.012375, -0.025500000000000002, 0.990375, 192.0, 0.0, 48.0, 127.5, 16.0, 15.0, 120.0, 0.0, 0.0, 0.0, 1.644586958582389E9, 0.0, 2022-02-12 00:42:38.582
38.0, -11075.937578193854, -10917.888393150377, -7802.949285858785, -13202.571952649589, -11503.839374046252, -8163.169999500514, -11040.420656254371, -8516.238154916544, -11045.51685399018, -13708.079005250813, -8896.62014205696, -7457.391316579738, -8054.607576681087, -10836.885671244345, -13106.034768347117, -18704.520905556787, 0.012375, -0.025500000000000002, 0.990375, 192.0, 0.0, 0.0, 0.0, 0.0, 0.0, 0.0, 0.0, 0.0, 0.0, 1.644586958588904E9, 0.0, 2022-02-12 00:42:38.588
40.0, -11056.312746562095, -10897.056567318032, -7773.444983177779, -13207.75755736322, -11490.830658773262, -8158.297319209257, -11014.246763497205, -8488.231419114045, -11028.551879948602, -13687.761269540939, -8870.982691166722, -7422.254374295995, -8026.019695522749, -10817.66317101278, -13076.418706943836, -18696.809553719708, 0.012375, -0.025500000000000002, 0.990375, 192.0, 0.0, 0.0, 0.0, 0.0, 0.0, 0.0, 0.0, 0.0, 0.0, 1.644586958598468E9, 0.0, 2022-02-12 00:42:38.598
42.0, -11093.707215035822, -10956.64631803588, -7802.301085269581, -13198.28041771417, -11508.354426426224, -8188.963912601938, -11044.063990600585, -8535.192434214645, -11029.624763682457, -13692.253970176456, -8877.777621481137, -7424.534252230436, -8035.139207260515, -10844.351153892418, -13080.956111068263, -18706.666673024498, 0.012375, -0.025500000000000002, 0.990375, 192.0, 0.0, 0.0, 0.0, 0.0, 0.0, 0.0, 0.0, 0.0, 0.0, 1.644586958605444E9, 0.0, 2022-02-12 00:42:38.605
44.0, -11078.932711950865, -10923.006942630642, -7786.297236239581, -13211.512650431712, -11506.789804314352, -8173.943540327971, -11034.653906184902, -8508.97383796857, -11057.13976110694, -13699.205362702056, -8891.434537343328, -7450.126999631763, -8054.942852847917, -10865.473552402682, -13107.778204414632, -18711.785222504765, 0.012375, -0.025500000000000002, 0.990375, 192.0, 0.0, 0.0, 0.0, 0.0, 0.0, 0.0, 0.0, 0.0, 0.0, 1.644586958612324E9, 0.0, 2022-02-12 00:42:38.612
46.0, -11062.794752454132, -10915.49675649366, -7783.547971671578, -13206.394100951446, -11493.602275085721, -8163.5946826451645, -11020.304086244594, -8503.96704721058, -11017.376007720948, -13677.23359790249, -8857.728106704726, -7422.679057440646, -8019.91766928645, -10827.81086299549, -13064.281709704605, -18697.189533375447, 0.009187500000000001, -0.02775, 0.9891875, 192.0, 0.0, 24.0, 127.5, 8.0, 15.0, 112.0, 0.0, 0.0, 0.0, 1.644586958626741E9, 0.0, 2022-02-12 00:42:38.626
48.0, -11063.755877465712, -10919.631829217891, -7800.3117800130585, -13202.32608346058, -11495.949208253529, -8162.164171000025, -11025.8026153806, -8522.563698597396, -11051.976508137765, -13703.921580782126, -8896.016644956666, -7461.392278837237, -8045.242195754314, -10834.292868887529, -13094.948303097284, -18699.491763054342, 0.009187500000000001, -0.02775, 0.9891875, 192.0, 0.0, 0.0, 0.0, 0.0, 0.0, 0.0, 0.0, 0.0, 0.0, 1.644586958634557E9, 0.0, 2022-02-12 00:42:38.634
50.0, -11038.811330653589, -10882.527933422081, -7777.133021012905, -13209.031606797173, -11489.422498872578, -8155.1457232410585, -11014.023246052653, -8488.812564469883, -11029.401246237903, -13680.049917703858, -8878.157601136876, -7424.713066186079, -8012.116910471548, -10820.14421464732, -13072.529503408612, -18685.611329747597, 0.009187500000000001, -0.02775, 0.9891875, 192.0, 0.0, 0.0, 0.0, 0.0, 0.0, 0.0, 0.0, 0.0, 0.0, 1.644586958641509E9, 0.0, 2022-02-12 00:42:38.641
52.0, -11074.6635287599, -10951.818341233533, -7805.095053326494, -13204.091871272549, -11500.978350755973, -8169.830819348195, -11029.669467171369, -8527.414027144197, -11018.001856565697, -13666.884740219682, -8880.392775582406, -7425.964763875576, -8036.301497972191, -10828.257897884596, -13072.931834808807, -18692.115687384092, 0.009187500000000001, -0.02775, 0.9891875, 192.0, 0.0, 0.0, 0.0, 0.0, 0.0, 0.0, 0.0, 0.0, 0.0, 1.644586958649275E9, 0.0, 2022-02-12 00:42:38.649
54.0, -11075.647005515935, -10935.501567781159, -7787.414823462346, -13213.345493477047, -11497.692644321043, -8172.803601360751, -11020.102920544496, -8508.817375757382, -11045.762723179188, -13708.771909328927, -8905.225563672253, -7456.698412501623, -8059.770829650263, -10845.37933413736, -13094.791840886099, -18694.149696129527, 0.009187500000000001, -0.02775, 0.9891875, 192.0, 0.0, 0.0, 0.0, 0.0, 0.0, 0.0, 0.0, 0.0, 0.0, 1.644586958657394E9, 0.0, 2022-02-12 00:42:38.657
56.0, -11062.548883265124, -10924.482157764693, -7785.000835061173, -13205.90236257343, -11495.144545453137, -8178.346833985667, -11023.410978723881, -8521.088483463345, -11025.668504913869, -13689.102374208258, -8863.405449796373, -7428.401104021204, -8021.68345709842, -10825.374522849861, -13064.460523660246, -18693.210922862403, 0.007593750000000001, -0.027875, 0.9885937499999999, 192.0, 0.0, 24.0, 127.5, 16.0, 15.0, 112.0, 0.0, 0.0, 0.0, 1.644586958664946E9, 0.0, 2022-02-12 00:42:38.664
58.0, -11076.563427038602, -10902.06335807602, -7801.697588169288, -13211.937333576363, -11499.883115277662, -8182.1466305430695, -11031.390551494427, -8539.26045170551, -11050.724810448268, -13700.658226091651, -8905.270267161164, -7466.510828317503, -8051.098352801604, -10857.315165676495, -13096.378814742426, -18700.74346074384, 0.007593750000000001, -0.027875, 0.9885937499999999, 192.0, 0.0, 0.0, 0.0, 0.0, 0.0, 0.0, 0.0, 0.0, 0.0, 1.644586958671939E9, 0.0, 2022-02-12 00:42:38.671
60.0, -11056.022173884176, -10909.64059944637, -7776.01543379014, -13218.844022613051, -11485.935626737552, -8177.542171185276, -11015.923144331355, -8509.823204257871, -11033.625725939957, -13662.772019239907, -8886.47245007425, -7452.652746755212, -8026.891413556506, -10827.363828106383, -13073.781201098109, -18689.254664093813, 0.007593750000000001, -0.027875, 0.9885937499999999, 192.0, 0.0, 0.0, 0.0, 0.0, 0.0, 0.0, 0.0, 0.0, 0.0, 1.644586958680741E9, 0.0, 2022-02-12 00:42:38.680
62.0, -11088.566313811101, -10971.554931587569, -7806.346751015992, -13215.84888885604, -11499.547839110834, -8202.710235441951, -11031.502310216703, -8553.498512923541, -11026.651981669902, -13698.266589434934, -8875.073060402043, -7430.390409277727, -8041.911785830473, -10843.211214925197, -13074.608215642957, -18696.65309150852, 0.007593750000000001, -0.027875, 0.9885937499999999, 192.0, 0.0, 0.0, 0.0, 0.0, 0.0, 0.0, 0.0, 0.0, 0.0, 1.644586958686941E9, 0.0, 2022-02-12 00:42:38.686
64.0, -11083.805392242122, -10934.004000902654, -7796.288466011103, -13227.225926783793, -11504.80049905783, -8204.85600290966, -11027.210775281284, -8546.725934353582, -11050.300127303617, -13732.487110196009, -8906.47726136175, -7466.130848661763, -8068.935044876939, -10861.919625034288, -13097.630512431922, -18700.65405376602, 0.007593750000000001, -0.027875, 0.9885937499999999, 192.0, 0.0, 0.0, 0.0, 0.0, 0.0, 0.0, 0.0, 0.0, 0.0, 1.64458695869524E9, 0.0, 2022-02-12 00:42:38.695
66.0, -11091.583799312568, -10928.684285722291, -7796.221410777737, -13214.23956325526, -11513.60708637322, -8202.2855522973, -11039.437179498336, -8554.59374840185, -11040.152435320906, -13699.719452824529, -8874.983653424222, -7430.390409277727, -8040.771846863252, -10841.62424106887, -13070.830770830009, -18698.93296944296, 0.008796875000000001, -0.025937500000000002, 0.990296875, 192.0, 0.0, 40.0, 127.5, 32.0, 15.5, 0.0, 0.0, 0.0, 0.0, 1.644586958701695E9, 0.0, 2022-02-12 00:42:38.701
68.0, -11080.43027882937, -10945.69396325278, -7816.382684276425, -13215.826537111585, -11516.266943963403, -8205.951238387972, -11050.076609859063, -8573.995062589058, -11072.00367116972, -13723.501708924976, -8908.645380573915, -7467.695470773634, -8072.108992589592, -10865.071221002487, -13104.760718913165, -18705.75025150183, 0.008796875000000001, -0.025937500000000002, 0.990296875, 192.0, 0.0, 0.0, 0.0, 0.0, 0.0, 0.0, 0.0, 0.0, 0.0, 1.644586958709887E9, 0.0, 2022-02-12 00:42:38.709
70.0, -11047.215586568784, -10908.008922101131, -7790.879343852919, -13225.124862804994, -11498.787879799353, -8183.845363121673, -11027.054313070097, -8533.896033036237, -11044.958060378798, -13699.227714446512, -8890.249894887196, -7451.602214765813, -8044.6163469095645, -10834.09170318743, -13083.571265169534, -18695.60255951912, 0.008796875000000001, -0.025937500000000002, 0.990296875, 192.0, 0.0, 0.0, 0.0, 0.0, 0.0, 0.0, 0.0, 0.0, 0.0, 1.644586958717872E9, 0.0, 2022-02-12 00:42:38.717
72.0, -11085.437069587359, -10949.113780154441, -7817.16499533236, -13216.117109789504, -11518.680932364576, -8213.14850010258, -11061.677165231367, -8587.026129606502, -11041.135912076941, -13675.356051368244, -8883.700833761792, -7437.364153547783, -8029.752436846786, -10855.236453442152, -13083.30304423607, -18699.98350143236, 0.008796875000000001, -0.025937500000000002, 0.990296875, 192.0, 0.0, 0.0, 0.0, 0.0, 0.0, 0.0, 0.0, 0.0, 0.0, 1.644586958724385E9, 0.0, 2022-02-12 00:42:38.724
74.0, -11056.737429706745, -10909.841765146466, -7799.8423933794975, -13227.181223294881, -11505.158126969114, -8202.062034852748, -11027.523699703659, -8557.07479203639, -11061.565406509091, -13727.927354327127, -8907.728959051246, -7459.559435791903, -8057.73682090483, -10874.458953673715, -13101.832640389519, -18703.828001478672, 0.008796875000000001, -0.025937500000000002, 0.990296875, 192.0, 0.0, 0.0, 0.0, 0.0, 0.0, 0.0, 0.0, 0.0, 0.0, 1.644586958732289E9, 0.0, 2022-02-12 00:42:38.732
76.0, -11038.856034142498, -10899.738776652668, -7793.762718887654, -13221.168604036404, -11502.073586234283, -8189.47800272441, -11024.640324668924, -8545.36247794181, -11021.175804278351, -13695.360862655743, -8878.716394748259, -7424.131920830241, -8038.357858462079, -10838.76321777859, -13060.213692213738, -18693.70266124042, 0.0113984375, -0.02496875, 0.9911484374999999, 192.0, 0.0, 56.0, 127.5, 32.0, 15.5, 0.0, 0.0, 0.0, 0.0, 1.644586958740606E9, 0.0, 2022-02-12 00:42:38.740
78.0, -11068.472095545781, -10944.822245219022, -7803.709245170266, -13202.32608346058, -11501.201868200525, -8189.030967835304, -11016.169013520363, -8550.369268699798, -11047.863787157989, -13720.350112956778, -8907.348979395507, -7454.373831078271, -8054.808742381185, -10855.415267397793, -13084.890018092397, -18687.868855937584, 0.0113984375, -0.02496875, 0.9911484374999999, 192.0, 0.0, 0.0, 0.0, 0.0, 0.0, 0.0, 0.0, 0.0, 0.0, 1.644586958753754E9, 0.0, 2022-02-12 00:42:38.753
80.0, -11033.268098028671, -10902.152765053841, -7767.812343575042, -13207.176412007382, -11483.32047263628, -8174.94936882846, -10995.761870832666, -8518.607439828807, -11031.345848005516, -13694.399737644166, -8867.629929498426, -7424.221327808062, -8024.209204221869, -10830.8059967525, -13057.665593345833, -18672.155579585502, 0.0113984375, -0.02496875, 0.9911484374999999, 192.0, 0.0, 0.0, 0.0, 0.0, 0.0, 0.0, 0.0, 0.0, 0.0, 1.644586958761908E9, 0.0, 2022-02-12 00:42:38.761
82.0, -11063.934691421353, -10925.532689754093, -7797.517811956145, -13197.743975847243, -11491.03182447336, -8189.522706213321, -11000.254571468184, -8544.960146541613, -11024.394455479915, -13682.307443893844, -8863.383098051918, -7412.017275335465, -8008.92061101444, -10821.552374548004, -13050.021296742118, -18673.541387741734, 0.0113984375, -0.02496875, 0.9911484374999999, 192.0, 0.0, 0.0, 0.0, 0.0, 0.0, 0.0, 0.0, 0.0, 0.0, 1.644586958770065E9, 0.0, 2022-02-12 00:42:38.770
84.0, -11048.422580769371, -10902.53274470958, -7785.939608328296, -13213.054920799128, -11488.707243050008, -8188.025139334815, -11006.736577360223, -8540.579204628373, -11049.048429614119, -13690.354071897755, -8882.337377350019, -7451.110476387797, -8039.184873006925, -10851.347249906928, -13080.129096523417, -18682.70560296841, 0.0113984375, -0.02496875, 0.9911484374999999, 192.0, 0.0, 0.0, 0.0, 0.0, 0.0, 0.0, 0.0, 0.0, 0.0, 1.644586958777E9, 0.0, 2022-02-12 00:42:38.777
86.0, -11039.303069031605, -10909.81941340201, -7792.578076431522, -13213.703121388331, -11489.914237250596, -8209.080482611715, -11001.215696479761, -8543.641393618751, -11017.577173421047, -13653.071362146302, -8856.789333437602, -7424.243679552517, -8009.837032537107, -10838.33853463394, -13046.82499728501, -18681.118629112083, 0.01, -0.022, 0.988, 192.0, 0.0, 40.0, 127.5, 40.0, 15.0, 112.0, 0.0, 0.0, 0.0, 1.644586958784735E9, 0.0, 2022-02-12 00:42:38.784
88.0, -11059.441990785837, -10927.11966361042, -7811.375893518436, -13210.462118442312, -11506.99097001445, -8224.48083454142, -11021.399321722904, -8569.055327064434, -11055.418676783882, -13714.248086720478, -8899.145889180409, -7452.8762641997655, -8042.470579441855, -10871.843799572445, -13080.911407579353, -18692.205094361914, 0.01, -0.022, 0.988, 192.0, 0.0, 0.0, 0.0, 0.0, 0.0, 0.0, 0.0, 0.0, 0.0, 1.644586958792416E9, 0.0, 2022-02-12 00:42:38.792
90.0, -11044.667487700879, -10908.120680823407, -7782.430384448813, -13213.814880110607, -11495.256304175415, -8201.994979619381, -11007.317722716061, -8535.88533829276, -11035.637382940935, -13699.138307468691, -8868.635757998914, -7426.344743531316, -8034.289840971213, -10847.011011482598, -13064.281709704605, -18683.487914024343, 0.01, -0.022, 0.988, 192.0, 0.0, 0.0, 0.0, 0.0, 0.0, 0.0, 0.0, 0.0, 0.0, 1.644586958799695E9, 0.0, 2022-02-12 00:42:38.799
92.0, -11056.312746562095, -10935.233346847695, -7811.35354177398, -13203.42131893889, -11501.045405989338, -8224.614945008152, -11010.961057062275, -8575.827905634393, -11026.115539802973, -13692.94687425457, -8860.477371272727, -7428.937545888132, -8015.648486095487, -10843.837063769945, -13059.274918946616, -18687.958262915407, 0.01, -0.022, 0.988, 192.0, 0.0, 0.0, 0.0, 0.0, 0.0, 0.0, 0.0, 0.0, 0.0, 1.644586958806062E9, 0.0, 2022-02-12 00:42:38.806
94.0, -11025.824967125054, -10885.456011945727, -7796.959018344763, -13215.804185367131, -11500.03957748885, -8210.62275297913, -11011.922182073855, -8563.579149672883, -11050.166016836885, -13708.302522695367, -8892.350958865996, -7456.988985179542, -8047.834998111129, -10864.53477913556, -13084.957073325762, -18692.89799844003, 0.01, -0.022, 0.988, 192.0, 0.0, 0.0, 0.0, 0.0, 0.0, 0.0, 0.0, 0.0, 0.0, 1.644586958814386E9, 0.0, 2022-02-12 00:42:38.814
96.0, -11015.6996268868, -10898.509430707625, -7791.572247931033, -13208.696330630342, -11503.057062990316, -8213.662590225053, -11019.32060948856, -8566.440172963165, -11004.568458148058, -13672.27151063341, -8858.80099043858, -7420.354476017294, -8021.482291398323, -10827.274421128563, -13056.615061356433, -18686.728916970365, 0.012, -0.024, 0.99, 192.0, 0.0, 48.0, 127.5, 32.0, 15.0, 120.0, 0.0, 0.0, 0.0, 1.644586958822036E9, 0.0, 2022-02-12 00:42:38.822
98.0, -11057.18446459585, -10947.347992342471, -7816.226222065237, -13210.685635886864, -11513.674141606587, -8232.43805556751, -11023.433330468337, -8597.509097756041, -11052.7588191937, -13704.905057538159, -8897.558915324082, -7455.7596392345, -8054.138190047525, -10871.8661513169, -13089.405070472369, -18697.815382220197, 0.012, -0.024, 0.99, 192.0, 0.0, 0.0, 0.0, 0.0, 0.0, 0.0, 0.0, 0.0, 0.0, 1.64458695882923E9, 0.0, 2022-02-12 00:42:38.829
100.0, -11032.84341488402, -10888.67466314729, -7787.593637417989, -13217.637028412466, -11498.65376933262, -8221.619811251141, -11006.066025026563, -8561.209864760622, -11050.255423814706, -13691.337548653788, -8880.482182560228, -7432.603231978802, -8042.001192808294, -10856.9128342763, -13072.954186553263, -18687.77944895976, 0.012, -0.024, 0.99, 192.0, 0.0, 0.0, 0.0, 0.0, 0.0, 0.0, 0.0, 0.0, 0.0, 1.644586958836829E9, 0.0, 2022-02-12 00:42:38.836
102.0, -11052.535301749147, -10910.10998607993, -7814.125158086438, -13201.811993338108, -11508.42148165959, -8239.769427748852, -11027.791920637123, -8592.815231420425, -11038.923089375865, -13680.653414804152, -8872.703775489781, -7419.214537050073, -8031.674686869942, -10856.9128342763, -13067.6344713729, -18692.182742617457, 0.012, -0.024, 0.99, 192.0, 0.0, 0.0, 0.0, 0.0, 0.0, 0.0, 0.0, 0.0, 0.0, 1.644586958844938E9, 0.0, 2022-02-12 00:42:38.844
104.0, -11036.151473063406, -10869.407459426817, -7800.691759668799, -13216.005351067228, -11496.619760587188, -8226.827767709228, -11004.590809892514, -8571.2234462766, -11056.983298895753, -13687.403641629655, -8884.729014006736, -7452.09395314383, -8024.142148988503, -10873.25195947313, -13091.483782706713, -18694.4626205519, 0.012, -0.024, 0.99, 192.0, 0.0, 0.0, 0.0, 0.0, 0.0, 0.0, 0.0, 0.0, 0.0, 1.644586958852979E9, 0.0, 2022-02-12 00:42:38.852
106.0, -11026.18259503634, -10898.44237547426, -7801.272905024637, -13206.170583506893, -11503.66056009061, -8232.862738712161, -11017.04073155412, -8569.79293463146, -11022.785129879134, -13651.596147012253, -8852.587205480004, -7413.961877103076, -8028.724256601841, -10849.313241161495, -13050.602442097956, -18685.387812303044, 0.012, -0.024, 0.986, 192.0, 0.0, 48.0, 127.5, 32.0, 15.0, 104.0, 0.0, 0.0, 0.0, 1.644586958859253E9, 0.0, 2022-02-12 00:42:38.859
108.0, -11051.082438359552, -10922.850480419456, -7819.042541866606, -13197.051071769129, -11513.60708637322, -8234.181491635025, -11032.32932476155, -8600.66069372424, -11052.021211626676, -13691.09167946478, -8890.13813616492, -7435.508958757992, -8054.227597025347, -10862.299604690028, -13092.869590862942, -18696.161353130505, 0.012, -0.024, 0.986, 192.0, 0.0, 0.0, 0.0, 0.0, 0.0, 0.0, 0.0, 0.0, 0.0, 1.644586958874292E9, 0.0, 2022-02-12 00:42:38.874
110.0, -11012.056292540587, -10870.48034316067, -7782.20686700426, -13208.85279284153, -11494.183420441559, -8222.268011840346, -11005.306065715084, -8571.893998610258, -11038.096074831019, -13676.004251957447, -8867.875798687435, -7412.173737546652, -8027.6513728679865, -10844.798188781524, -13068.416782428836, -18685.54427451423, 0.012, -0.024, 0.986, 192.0, 0.0, 0.0, 0.0, 0.0, 0.0, 0.0, 0.0, 0.0, 0.0, 1.644586958881568E9, 0.0, 2022-02-12 00:42:38.881
112.0, -11030.675295671857, -10889.211105014218, -7810.3477132734915, -13195.866429312997, -11497.312664665302, -8244.932680718026, -11022.025170567653, -8602.024150136012, -11025.735560147234, -13646.611707998718, -8864.344223063496, -7418.141653316218, -8018.107177985571, -10847.458046371705, -13058.738477079687, -18684.158466358003, 0.012, -0.024, 0.986, 192.0, 0.0, 0.0, 0.0, 0.0, 0.0, 0.0, 0.0, 0.0, 0.0, 1.644586958888952E9, 0.0, 2022-02-12 00:42:38.888
114.0, -11030.049446827108, -10892.027424815587, -7798.277771267626, -13204.807127095119, -11493.490516363445, -8239.568262048753, -11006.066025026563, -8582.55578071544, -11046.477979001758, -13690.242313175479, -8894.630836800437, -7431.932679645143, -8045.935099832428, -10871.754392594623, -13084.375927969924, -18686.32658557017, 0.012, -0.024, 0.986, 192.0, 0.0, 0.0, 0.0, 0.0, 0.0, 0.0, 0.0, 0.0, 0.0, 1.644586958897312E9, 0.0, 2022-02-12 00:42:38.897
116.0, -11026.227298525251, -10896.028387073087, -7786.1631257728495, -13200.828516582074, -11493.378757641169, -8239.769427748852, -11010.983408806731, -8588.926027885202, -11015.498461186704, -13660.067458160813, -8836.292783772085, -7397.399234461694, -8009.971143003839, -10839.187900923242, -13049.037819986084, -18683.242044835337, 0.01, -0.028, 0.99, 192.0, 0.0, 40.0, 127.5, 16.0, 15.0, 120.0, 0.0, 0.0, 0.0, 1.644586958905223E9, 0.0, 2022-02-12 00:42:38.905
118.0, -11031.122330560962, -10897.570657440503, -7804.0668730815505, -13200.448536926335, -11495.949208253529, -8245.357363862679, -11014.850260597499, -8613.378836319309, -11047.841435413533, -13681.726298538006, -8868.456944043273, -7424.377790019249, -8033.01579153726, -10871.53087515007, -13081.559608168556, -18698.664748509498, 0.01, -0.028, 0.99, 192.0, 0.0, 0.0, 0.0, 0.0, 0.0, 0.0, 0.0, 0.0, 0.0, 1.644586958912027E9, 0.0, 2022-02-12 00:42:38.912
120.0, -11010.93870531782, -10863.260729701607, -7772.550913399567, -13210.439766697857, -11487.008510471405, -8226.917174687049, -11010.536373917625, -8580.655882436738, -11022.069874056564, -13663.599033784752, -8852.31898454654, -7407.32340899985, -8010.194660448392, -10839.09849394542, -13064.505227149157, -18684.963129158394, 0.01, -0.028, 0.99, 192.0, 0.0, 0.0, 0.0, 0.0, 0.0, 0.0, 0.0, 0.0, 0.0, 1.644586958919598E9, 0.0, 2022-02-12 00:42:38.919
122.0, -11041.851167899511, -10910.512317480127, -7796.780204389121, -13194.502972901222, -11495.502173364423, -8251.437038354521, -11016.481937942737, -8609.959019417647, -11023.366275234972, -13668.806990242838, -8844.31706003154, -7396.058129794375, -8013.256849438769, -10838.584403822948, -13062.158293981349, -18690.148733872025, 0.01, -0.028, 0.99, 192.0, 0.0, 0.0, 0.0, 0.0, 0.0, 0.0, 0.0, 0.0, 0.0, 1.644586958926647E9, 0.0, 2022-02-12 00:42:38.926
124.0, -11020.840528111521, -10883.086727033464, -7783.145640271383, -13198.950970047828, -11493.401109385624, -8250.766486020862, -11011.98923730722, -8601.912391413736, -11046.008592368198, -13685.883723006693, -8876.816496469557, -7426.143577831219, -8037.262622983769, -10863.19367446824, -13087.661634404854, -18690.84163795014, 0.01, -0.028, 0.99, 192.0, 0.0, 0.0, 0.0, 0.0, 0.0, 0.0, 0.0, 0.0, 0.0, 1.644586958934662E9, 0.0, 2022-02-12 00:42:38.934
126.0, -10994.823097565544, -10865.272386702585, -7777.915332068841, -13194.726490345776, -11488.908408750107, -8244.128017917636, -11005.75310060419, -8600.101900112855, -11006.401301193393, -13637.581603238774, -8835.711638416247, -7389.039682035409, -8000.158727187959, -10832.66119154229, -13051.429456642802, -18684.09141112464, 0.012, -0.034, 0.99, 192.0, 0.0, 48.0, 127.0, 120.0, 15.0, 120.0, 0.0, 0.0, 0.0, 1.644586958942752E9, 0.0, 2022-02-12 00:42:38.942
128.0, -11029.445949726814, -10893.167363782808, -7802.234030036215, -13193.251275211725, -11500.978350755973, -8259.953052991994, -11029.200080537807, -8629.695609771683, -11029.84828112701, -13668.695231520562, -8865.640624241903, -7430.457464511092, -8033.820454337651, -10864.28890994655, -13085.091183792494, -18691.981576917362, 0.012, -0.034, 0.99, 192.0, 0.0, 0.0, 0.0, 0.0, 0.0, 0.0, 0.0, 0.0, 0.0, 1.644586958949233E9, 0.0, 2022-02-12 00:42:38.949
130.0, -11017.979504821242, -10864.668889602292, -7772.237988977193, -13202.527249160677, -11486.919103493585, -8252.44286685501, -10997.281789455628, -8595.899772155259, -11021.8016531231, -13662.682612262084, -8843.937080375801, -7402.696597897601, -8022.510471643266, -10849.424999883771, -13064.996965527174, -18683.420858790978, 0.012, -0.034, 0.99, 192.0, 0.0, 0.0, 0.0, 0.0, 0.0, 0.0, 0.0, 0.0, 0.0, 1.644586958957335E9, 0.0, 2022-02-12 00:42:38.957
132.0, -11037.917260875376, -10926.896146165866, -7803.485727725712, -13194.324158945581, -11507.66152234811, -8276.06866074427, -11019.052388555097, -8626.85693822586, -11019.745292633212, -13667.734106508984, -8847.401600766374, -7390.134917513718, -8016.989590762805, -10853.895348774833, -13061.443038158779, -18688.5617600157, 0.012, -0.034, 0.99, 192.0, 0.0, 0.0, 0.0, 0.0, 0.0, 0.0, 0.0, 0.0, 0.0, 1.644586958964641E9, 0.0, 2022-02-12 00:42:38.964
134.0, -11022.047522312108, -10894.217895772206, -7793.762718887654, -13211.33383647607, -11493.624626830177, -8274.906370032593, -11007.831812838533, -8612.104786885357, -11047.215586568784, -13697.551333612364, -8888.595865797504, -7430.904499400199, -8045.689230643419, -10879.421040942794, -13089.382718727913, -18688.85233269362, 0.012, -0.034, 0.99, 192.0, 0.0, 0.0, 0.0, 0.0, 0.0, 0.0, 0.0, 0.0, 0.0, 1.644586958971822E9, 0.0, 2022-02-12 00:42:38.971
136.0, -11030.80940613859, -10884.047852045042, -7785.649035650377, -13210.70798763132, -11498.51965886589, -8282.97534978096, -11018.851222854999, -8614.049388652968, -11016.638400153925, -13653.920728435603, -8850.843769412491, -7417.605211449291, -8001.343369644091, -10863.19367446824, -13051.809436298543, -18682.906768668505, 0.012, -0.03, 0.988, 192.0, 0.0, 48.0, 127.5, 8.0, 15.0, 112.0, 0.0, 0.0, 0.0, 1.644586958979966E9, 0.0, 2022-02-12 00:42:38.979
138.0, -11039.861862642987, -10915.362646026928, -7801.049387580084, -13202.795470094141, -11507.460356648011, -8289.435003928544, -11035.682086429846, -8645.095961701389, -11043.929880133854, -13696.411394645143, -8870.110973132965, -7439.979307649053, -8031.048838025194, -10883.779631111578, -13088.466297205247, -18695.17787637447, 0.012, -0.03, 0.988, 192.0, 0.0, 0.0, 0.0, 0.0, 0.0, 0.0, 0.0, 0.0, 0.0, 1.644586958987039E9, 0.0, 2022-02-12 00:42:38.987
140.0, -11000.411033679371, -10869.407459426817, -7762.112648738939, -13203.80129859463, -11494.406937886113, -8276.426288655555, -11009.687007628323, -8608.774376961515, -11017.688932143323, -13659.32985059379, -8847.13337983291, -7410.363246245772, -8031.965259547861, -10866.837008814457, -13070.070811518528, -18683.89024542454, 0.012, -0.03, 0.988, 192.0, 0.0, 0.0, 0.0, 0.0, 0.0, 0.0, 0.0, 0.0, 0.0, 1.644586959001483E9, 0.0, 2022-02-12 00:42:39.001
142.0, -11029.13302530444, -10925.01859963162, -7783.235047249204, -13192.04428101114, -11499.36902515519, -8294.397091197621, -11021.689894400823, -8647.465246613652, -11017.46541469877, -13667.220016386513, -8837.767998906136, -7397.17571701714, -8016.0284657512275, -10853.068334229987, -13056.458599145246, -18684.292576824737, 0.012, -0.03, 0.988, 192.0, 0.0, 0.0, 0.0, 0.0, 0.0, 0.0, 0.0, 0.0, 0.0, 1.644586959009644E9, 0.0, 2022-02-12 00:42:39.009
144.0, -11024.461510713281, -10888.205276513729, -7772.573265144023, -13205.857659084519, -11491.724728551475, -8291.603123140709, -11007.854164582988, -8631.953135961669, -11036.822025397067, -13687.582455585296, -8857.951624149278, -7420.868566139766, -8031.719390358853, -10877.811715342012, -13080.754945368166, -18689.165257115994, 0.012, -0.03, 0.988, 192.0, 0.0, 0.0, 0.0, 0.0, 0.0, 0.0, 0.0, 0.0, 0.0, 1.644586959016627E9, 0.0, 2022-02-12 00:42:39.016
146.0, -11002.243876724706, -10866.457029158715, -7772.282692466104, -13203.75659510572, -11483.812211014296, -8288.02684402786, -10998.175859233841, -8619.436159066696, -11003.495574414203, -13658.860463960227, -8825.40748422235, -7392.973589059543, -7990.815698005641, -10847.346287649429, -13045.752113551154, -18680.80570468971, 0.016, -0.024, 0.988, 192.0, 0.0, 64.0, 127.5, 32.0, 15.0, 112.0, 0.0, 0.0, 0.0, 1.644586959024184E9, 0.0, 2022-02-12 00:42:39.024
148.0, -11033.424560239859, -10913.283933792583, -7795.975541588729, -13197.699272358332, -11500.307798422313, -8295.157050509102, -11014.55968791958, -8640.80442676597, -11032.597545695013, -13690.823458531317, -8869.440420799307, -7443.063848383886, -8027.025524023238, -10881.946788066243, -13082.87836109142, -18686.617158248086, 0.016, -0.024, 0.988, 192.0, 0.0, 0.0, 0.0, 0.0, 0.0, 0.0, 0.0, 0.0, 0.0, 1.644586959032081E9, 0.0, 2022-02-12 00:42:39.032
150.0, -11020.572307178058, -10878.05758453102, -7758.111686481439, -13198.861563070008, -11474.335071365247, -8275.420460155066, -10996.745347588701, -8610.27194384002, -11019.633533910936, -13679.535827581387, -8846.909862388356, -7401.489603697015, -8012.407483149467, -10851.302546418017, -13067.455657417257, -18675.88832090954, 0.016, -0.024, 0.988, 192.0, 0.0, 0.0, 0.0, 0.0, 0.0, 0.0, 0.0, 0.0, 0.0, 1.644586959040285E9, 0.0, 2022-02-12 00:42:39.040
152.0, -11030.250612527207, -10889.568732925503, -7780.73165187021, -13192.625426366976, -11484.594522070232, -8295.335864464745, -11005.32841745954, -8640.580909321417, -11007.004798293687, -13659.821588971805, -8823.731103388203, -7387.296245967895, -7996.627151564021, -10851.503712118116, -13054.089314232984, -18678.41406803299, 0.016, -0.024, 0.988, 192.0, 0.0, 0.0, 0.0, 0.0, 0.0, 0.0, 0.0, 0.0, 0.0, 1.644586959046698E9, 0.0, 2022-02-12 00:42:39.046
154.0, -11008.927048316842, -10879.175171753785, -7764.504285395657, -13196.246408968736, -11475.251492887914, -8294.642960386629, -10987.31291142856, -8621.336057345397, -11032.105807316997, -13681.547484582363, -8850.754362434669, -7416.711141671079, -8026.489082156311, -10887.62413115789, -13080.106744778961, -18683.3091000687, 0.013000000000000001, -0.023, 0.989, 192.0, 0.0, 40.0, 127.5, 40.0, 15.0, 120.0, 0.0, 0.0, 0.0, 1.644586959055554E9, 0.0, 2022-02-12 00:42:39.055
156.0, -10989.011644007165, -10865.540607636049, -7761.375041171914, -13192.647778111432, -11471.98813819744, -8282.193038725023, -10998.622894122946, -8621.246650367577, -10998.689949356312, -13655.150074380646, -8814.343370716973, -7362.910492767155, -7981.897351967973, -10846.04988647102, -13043.807511783543, -18673.340222041636, 0.013000000000000001, -0.023, 0.989, 192.0, 0.0, 0.0, 0.0, 0.0, 0.0, 0.0, 0.0, 0.0, 0.0, 1.644586959062173E9, 0.0, 2022-02-12 00:42:39.062
158.0, -10991.60444636398, -10858.879787788366, -7783.749137371677, -13198.034548525162, -11482.627568558166, -8292.228971985456, -11012.212754751774, -8645.341830890398, -11016.258420498183, -13667.644699531163, -8848.899167644879, -7410.162080545674, -8016.475500640333, -10865.831180313968, -13074.697622620777, -18683.979652402362, 0.013000000000000001, -0.023, 0.989, 192.0, 0.0, 0.0, 0.0, 0.0, 0.0, 0.0, 0.0, 0.0, 0.0, 1.64458695906995E9, 0.0, 2022-02-12 00:42:39.069
160.0, -10988.005815506676, -10864.311261691006, -7754.20013120176, -13204.47185092829, -11461.996908425917, -8280.091974746225, -10973.544236844093, -8602.56059200294, -10996.521830144147, -13664.716621007517, -8828.737894146192, -7410.966743346065, -7993.1402794289925, -10840.797226524022, -13053.77638981061, -18670.70271619591, 0.013000000000000001, -0.023, 0.989, 192.0, 0.0, 0.0, 0.0, 0.0, 0.0, 0.0, 0.0, 0.0, 0.0, 1.644586959076455E9, 0.0, 2022-02-12 00:42:39.076
162.0, -11041.113560332486, -10905.572581955503, -7778.6529396358665, -13188.5127053872, -11475.519713821377, -8297.056948787804, -11001.998007535698, -8646.772342535538, -10998.399376678393, -13671.377440855198, -8816.444434695773, -7370.666548093146, -7982.299683368169, -10856.95753776521, -13044.612174583934, -18676.290652309734, 0.013000000000000001, -0.023, 0.989, 192.0, 0.0, 0.0, 0.0, 0.0, 0.0, 0.0, 0.0, 0.0, 0.0, 1.644586959084554E9, 0.0, 2022-02-12 00:42:39.084
164.0, -11009.150565761396, -10868.446334415237, -7764.660747606844, -13197.073423513582, -11468.456562573501, -8287.937437050037, -10989.816306807556, -8636.758761019559, -11019.365312977472, -13670.282205376889, -8851.581376979515, -7410.4973567125035, -8020.185890219915, -10877.476439175181, -13071.098991763472, -18680.5598355007, 0.0125, -0.0215, 0.9915, 192.0, 0.0, 48.0, 127.5, 48.0, 15.5, 8.0, 0.0, 0.0, 0.0, 1.644586959092422E9, 0.0, 2022-02-12 00:42:39.092
166.0, -11012.503327429691, -10868.558093137515, -7755.831808546997, -13193.273626956181, -11472.50222831991, -8287.199829483012, -10993.929027787332, -8627.862766726348, -10987.692891084302, -13662.973184940003, -8815.237440495186, -7371.404155660171, -7975.683567009398, -10851.034325484554, -13033.391598867369, -18669.540425484232, 0.0125, -0.0215, 0.9915, 192.0, 0.0, 0.0, 0.0, 0.0, 0.0, 0.0, 0.0, 0.0, 0.0, 1.64458695909936E9, 0.0, 2022-02-12 00:42:39.099
168.0, -11021.622839167458, -10913.619209959414, -7778.630587891411, -13192.357205433513, -11478.380737111656, -8299.31447497779, -11009.08351052803, -8654.640156583806, -11020.862879855977, -13696.724319067516, -8845.099371087477, -7410.475004968048, -7996.269523652736, -10875.397726940839, -13070.45079117427, -18679.866931422584, 0.0125, -0.0215, 0.9915, 192.0, 0.0, 0.0, 0.0, 0.0, 0.0, 0.0, 0.0, 0.0, 0.0, 1.644586959107024E9, 0.0, 2022-02-12 00:42:39.107
170.0, -10989.749251574189, -10857.806904054512, -7742.420761873814, -13197.363996191501, -11464.187379382538, -8290.150259751113, -10980.003890991675, -8623.414769579742, -10994.487821398714, -13675.288996134877, -8830.011943580144, -7386.446879678593, -7990.949808472373, -10857.181055209763, -13056.816227056532, -18669.048687106217, 0.0125, -0.0215, 0.9915, 192.0, 0.0, 0.0, 0.0, 0.0, 0.0, 0.0, 0.0, 0.0, 0.0, 1.644586959122007E9, 0.0, 2022-02-12 00:42:39.122
172.0, -11014.202060008296, -10877.118811263897, -7766.068907507528, -13187.640987353443, -11470.825847485763, -8300.432062200554, -10994.040786509608, -8652.874368771836, -10981.70262357028, -13662.861426217727, -8803.234553722687, -7372.454687649571, -7988.5358200712, -10849.112075461397, -13041.393523382369, -18674.16723658648, 0.0125, -0.0215, 0.9915, 192.0, 0.0, 0.0, 0.0, 0.0, 0.0, 0.0, 0.0, 0.0, 0.0, 1.644586959130295E9, 0.0, 2022-02-12 00:42:39.130
174.0, -11014.246763497205, -10891.334520737473, -7765.174837729316, -13204.784775350665, -11464.254434615903, -8295.805251098305, -10989.682196340824, -8644.961851234657, -11018.158318776885, -13686.3307578958, -8842.014830352644, -7431.731513945046, -8009.613515092554, -10884.87486658989, -13072.6859656198, -18676.961204643394, 0.01125, -0.02175, 0.99075, 192.0, 0.0, 40.0, 127.5, 40.0, 15.0, 120.0, 0.0, 0.0, 0.0, 1.644586959138031E9, 0.0, 2022-02-12 00:42:39.138
176.0, -10998.444080167304, -10868.312223948506, -7753.551930612556, -13195.240580468248, -11465.21555962748, -8279.890809046126, -10995.583056877025, -8636.222319152632, -10989.16810621835, -13668.091734420268, -8820.914783586835, -7381.261274964962, -7986.05477643666, -10845.468741115183, -13034.688000045777, -18670.07686735116, 0.01125, -0.02175, 0.99075, 192.0, 0.0, 0.0, 0.0, 0.0, 0.0, 0.0, 0.0, 0.0, 0.0, 1.644586959146295E9, 0.0, 2022-02-12 00:42:39.146
178.0, -11051.104790104007, -10913.105119836942, -7774.7190326117325, -13191.75370833322, -11469.350632351712, -8299.40388195561, -10986.240027694706, -8656.920034518247, -11014.716150130767, -13678.75351652545, -8847.088676344, -7411.033798579431, -8017.168404718448, -10879.10811652042, -13062.761791081643, -18676.73768719884, 0.01125, -0.02175, 0.99075, 192.0, 0.0, 0.0, 0.0, 0.0, 0.0, 0.0, 0.0, 0.0, 0.0, 1.644586959153225E9, 0.0, 2022-02-12 00:42:39.153
180.0, -11042.94640337782, -10891.915666093311, -7747.136979953883, -13202.70606311632, -11460.454638058502, -8289.412652184088, -10984.541295116103, -8624.018266680034, -11014.336170475028, -13684.497914850464, -8831.867138369935, -7409.044493322908, -8005.612552835054, -10874.816581585, -13050.289517675581, -18670.523902240267, 0.01125, -0.02175, 0.99075, 192.0, 0.0, 0.0, 0.0, 0.0, 0.0, 0.0, 0.0, 0.0, 0.0, 1.644586959159695E9, 0.0, 2022-02-12 00:42:39.159
182.0, -11028.306010759594, -10913.283933792583, -7769.220503475726, -13190.546714132633, -11464.254434615903, -8301.482594189954, -10990.375100418938, -8651.041525726501, -10998.22056272275, -13678.284129891888, -8810.632981137393, -7379.3837284307165, -7981.025633934217, -10866.099401247431, -13035.537366335078, -18674.21194007539, 0.01125, -0.02175, 0.99075, 192.0, 0.0, 0.0, 0.0, 0.0, 0.0, 0.0, 0.0, 0.0, 0.0, 1.644586959167312E9, 0.0, 2022-02-12 00:42:39.167
184.0, -11005.84250758201, -10902.756262154135, -7758.446962648269, -13200.023853781684, -11460.588748525233, -8298.152184266113, -10986.17297246134, -8636.736409275105, -11019.432368210837, -13692.075156220813, -8843.981783864712, -7408.306885755884, -8014.285029683713, -10878.191694997751, -13061.800666070065, -18677.11766685458, 0.012625, -0.021875, 0.987375, 192.0, 0.0, 56.0, 127.5, 40.0, 15.0, 96.0, 0.0, 0.0, 0.0, 1.644586959174552E9, 0.0, 2022-02-12 00:42:39.174
186.0, -10996.767699333155, -10858.76802906609, -7748.031049732095, -13201.387310193457, -11462.46629505948, -8293.2571522304, -10996.99121677771, -8639.37391512083, -10984.27307418264, -13650.70207723404, -8813.002266049656, -7378.266141207951, -7975.258883864747, -10850.520235362083, -13031.759921522133, -18670.07686735116, 0.012625, -0.021875, 0.987375, 192.0, 0.0, 0.0, 0.0, 0.0, 0.0, 0.0, 0.0, 0.0, 0.0, 1.644586959181405E9, 0.0, 2022-02-12 00:42:39.181
188.0, -11039.928917876354, -10906.86898313391, -7767.946454041774, -13196.559333391111, -11469.685908518542, -8318.335809509255, -11009.75406286169, -8672.365089936864, -11011.318684973561, -13671.42214434411, -8838.818530895536, -7414.811243392378, -8017.481329140822, -10881.38799445486, -13061.800666070065, -18684.02435589127, 0.012625, -0.021875, 0.987375, 192.0, 0.0, 0.0, 0.0, 0.0, 0.0, 0.0, 0.0, 0.0, 0.0, 1.644586959189333E9, 0.0, 2022-02-12 00:42:39.189
190.0, -11017.308952487583, -10887.355910224427, -7735.871700748408, -13199.062728770105, -11454.620832755665, -8299.06860578878, -10994.063138254063, -8627.639249281794, -11000.07575751254, -13679.334661881288, -8819.238402752686, -7389.553772157881, -8001.924514999929, -10867.10522974792, -13047.674363574311, -18673.496684252823, 0.012625, -0.021875, 0.987375, 192.0, 0.0, 0.0, 0.0, 0.0, 0.0, 0.0, 0.0, 0.0, 0.0, 1.644586959196932E9, 0.0, 2022-02-12 00:42:39.196
192.0, -11021.444025211815, -10897.838878373967, -7759.229273704204, -13184.668205340888, -11455.470199044967, -8312.50200420642, -10989.726899829735, -8662.686784587715, -10992.431460908827, -13668.516417564919, -8806.922591557812, -7379.719004597546, -7985.451279336367, -10860.846741300433, -13032.475177344702, -18678.056440121705, 0.012625, -0.021875, 0.987375, 192.0, 0.0, 0.0, 0.0, 0.0, 0.0, 0.0, 0.0, 0.0, 0.0, 1.644586959205061E9, 0.0, 2022-02-12 00:42:39.205
194.0, -11006.736577360223, -10869.00512802662, -7756.882340536397, -13193.675958356376, -11461.281652603348, -8299.292123233334, -10992.163239975363, -8658.752877563582, -11027.32253400356, -13681.65924330464, -8852.386039779907, -7423.975458619054, -8012.765111060752, -10885.433660201272, -13061.465389903235, -18683.17498960197, 0.0103125, -0.0229375, 0.9876875, 192.0, 0.0, 32.0, 127.5, 32.0, 15.0, 112.0, 0.0, 0.0, 0.0, 1.644586959213376E9, 0.0, 2022-02-12 00:42:39.213
196.0, -11008.61412389447, -10867.395802425839, -7749.10393346595, -13192.357205433513, -11457.258338601392, -8304.343617480234, -10990.240989952206, -8651.645022826795, -10989.525734129636, -13641.828434685283, -8813.292838727575, -7380.814240075856, -7972.375508830012, -10848.28506091655, -13024.562659807523, -18671.708544696397, 0.0103125, -0.0229375, 0.9876875, 192.0, 0.0, 0.0, 0.0, 0.0, 0.0, 0.0, 0.0, 0.0, 0.0, 1.644586959221059E9, 0.0, 2022-02-12 00:42:39.221
198.0, -11019.924106588855, -10911.58520121398, -7773.0203000331285, -13189.362071676502, -11474.826809743263, -8320.705094421517, -11010.424615195348, -8674.197932982199, -11010.402263450893, -13680.832228759793, -8836.493949472184, -7395.4099292051715, -8006.439567379901, -10879.085764775964, -13064.6840411048, -18688.204132104413, 0.0103125, -0.0229375, 0.9876875, 192.0, 0.0, 0.0, 0.0, 0.0, 0.0, 0.0, 0.0, 0.0, 0.0, 1.644586959229587E9, 0.0, 2022-02-12 00:42:39.229
200.0, -10981.389699147905, -10863.90893029081, -7740.476160106202, -13198.772156092187, -11451.245719342915, -8300.186193011546, -10967.375155374428, -8635.574118563429, -10999.494612156703, -13658.525187793397, -8826.592126678483, -7378.512010396959, -7989.854572994062, -10866.345270436439, -13044.880395517397, -18674.41310577549, 0.0103125, -0.0229375, 0.9876875, 192.0, 0.0, 0.0, 0.0, 0.0, 0.0, 0.0, 0.0, 0.0, 0.0, 1.644586959235812E9, 0.0, 2022-02-12 00:42:39.235
202.0, -11020.304086244594, -10895.24607601715, -7758.357555670447, -13181.024870994672, -11465.439077072035, -8307.383454726154, -10982.373175903938, -8662.016232254056, -10984.7424608162, -13654.881853447183, -8802.921629300312, -7369.928940526122, -7984.646616535976, -10845.133464948352, -13031.24583139966, -18671.395620274023, 0.0103125, -0.0229375, 0.9876875, 192.0, 0.0, 0.0, 0.0, 0.0, 0.0, 0.0, 0.0, 0.0, 0.0, 1.644586959249414E9, 0.0, 2022-02-12 00:42:39.249
204.0, -10990.285693441117, -10849.693220817235, -7746.712296809233, -13183.327100673569, -11443.132036105639, -8310.512698949899, -10978.12634445743, -8651.108580959866, -11015.118481530963, -13680.631063059696, -8828.581431935005, -7399.455594951582, -7997.565924831144, -10866.032346014064, -13056.72682007871, -18674.971899386874, 0.01115625, -0.02446875, 0.98984375, 192.0, 0.0, 48.0, 127.5, 24.0, 15.5, 0.0, 0.0, 0.0, 0.0, 1.644586959257471E9, 0.0, 2022-02-12 00:42:39.257
206.0, -10976.31585315655, -10852.57659585197, -7733.055380947039, -13180.354318661013, -11439.443998270512, -8303.628361657664, -10979.780373547123, -8637.094037186389, -10968.537446086102, -13637.291030560855, -8796.50667864164, -7362.619920089236, -7962.428982547401, -10839.232604412151, -13014.325560846992, -18665.427704504455, 0.01115625, -0.02446875, 0.98984375, 192.0, 0.0, 0.0, 0.0, 0.0, 0.0, 0.0, 0.0, 0.0, 0.0, 1.644586959263995E9, 0.0, 2022-02-12 00:42:39.263
208.0, -11000.679254612834, -10889.881657347878, -7755.4071254023465, -13178.633234337954, -11446.574204751756, -8318.492271720443, -10985.88239978342, -8663.871427043847, -10992.632626608924, -13658.569891282308, -8825.809815622546, -7384.703443611079, -7989.184020660404, -10866.747601836634, -13039.113645447927, -18671.082695851648, 0.01115625, -0.02446875, 0.98984375, 192.0, 0.0, 0.0, 0.0, 0.0, 0.0, 0.0, 0.0, 0.0, 0.0, 1.644586959271794E9, 0.0, 2022-02-12 00:42:39.271
210.0, -10992.02912950863, -10852.084857473954, -7725.142863409861, -13196.916961302395, -11436.538271491323, -8313.016094328892, -10949.963146443743, -8632.690743528694, -10989.570437618548, -13662.61555702872, -8812.912859071834, -7363.335175911806, -7981.718538012331, -10860.53381687806, -13026.082578430483, -18665.919442882474, 0.01115625, -0.02446875, 0.98984375, 192.0, 0.0, 0.0, 0.0, 0.0, 0.0, 0.0, 0.0, 0.0, 0.0, 1.644586959279952E9, 0.0, 2022-02-12 00:42:39.279
212.0, -10997.862934811466, -10881.097421776942, -7751.808494545043, -13184.154115218416, -11443.199091339004, -8328.282335791866, -10968.805667019567, -8661.949177020691, -10974.639472322402, -13647.818702199305, -8796.864306552925, -7365.749164312979, -7966.072316893616, -10846.899252760322, -13016.024293425597, -18669.89805339552, 0.01115625, -0.02446875, 0.98984375, 192.0, 0.0, 0.0, 0.0, 0.0, 0.0, 0.0, 0.0, 0.0, 0.0, 1.644586959286916E9, 0.0, 2022-02-12 00:42:39.286
214.0, -10977.232274679218, -10851.794284796035, -7745.572357842012, -13191.507839144211, -11442.908518661085, -8317.575850197774, -10973.924216499832, -8646.392362879797, -11002.646208124901, -13660.64860351665, -8827.910879601346, -7399.030911806931, -7979.304549611158, -10876.649424630335, -13045.48389261769, -18671.239158062835, 0.013578125, -0.027234374999999998, 0.9899218750000001, 192.0, 0.0, 64.0, 127.5, 8.0, 15.0, 120.0, 0.0, 0.0, 0.0, 1.64458695929465E9, 0.0, 2022-02-12 00:42:39.294
216.0, -10968.626853063925, -10854.38708715285, -7736.028162959596, -13186.679862341865, -11439.175777337048, -8316.391207741644, -10969.11859144194, -8641.407923866263, -10972.560760088058, -13628.909126390115, -8796.529030386095, -7354.305071151862, -7964.328880826102, -10840.014915468088, -13010.52576428959, -18659.54919571271, 0.013578125, -0.027234374999999998, 0.9899218750000001, 192.0, 0.0, 0.0, 0.0, 0.0, 0.0, 0.0, 0.0, 0.0, 0.0, 1.644586959301436E9, 0.0, 2022-02-12 00:42:39.301
218.0, -10981.769678803645, -10887.780593369078, -7763.409049917347, -13177.627405837466, -11450.284594331337, -8324.996629356936, -10980.786202047611, -8674.555560893485, -10997.08062375553, -13666.75062975295, -8832.403580236862, -7385.642216878202, -7991.307436383658, -10868.312223948506, -13042.15348269385, -18673.966070886385, 0.013578125, -0.027234374999999998, 0.9899218750000001, 192.0, 0.0, 0.0, 0.0, 0.0, 0.0, 0.0, 0.0, 0.0, 0.0, 1.644586959310154E9, 0.0, 2022-02-12 00:42:39.310
220.0, -10984.69775732729, -10841.847758513422, -7729.255584389638, -13184.690557085343, -11433.610192967677, -8305.371797725176, -10958.657975036856, -8635.261194141054, -10987.201152706284, -13660.626251772197, -8811.83997533798, -7356.942576997588, -7981.830296734607, -10848.396819638827, -13030.575279066, -18666.21001556039, 0.013578125, -0.027234374999999998, 0.9899218750000001, 192.0, 0.0, 0.0, 0.0, 0.0, 0.0, 0.0, 0.0, 0.0, 0.0, 1.644586959317829E9, 0.0, 2022-02-12 00:42:39.317
222.0, -11008.524716916647, -10883.980796811677, -7754.669517835322, -13175.235769180748, -11448.809379197286, -8324.12491132318, -10978.707489813267, -8664.117296232855, -10985.390661405405, -13653.496045290953, -8794.204448962742, -7360.429449132615, -7969.29096809518, -10839.47847360116, -13016.71719750371, -18667.528768483255, 0.013578125, -0.027234374999999998, 0.9899218750000001, 192.0, 0.0, 0.0, 0.0, 0.0, 0.0, 0.0, 0.0, 0.0, 0.0, 1.64458695932426E9, 0.0, 2022-02-12 00:42:39.324
224.0, -10983.893094526898, -10852.28602317405, -7748.34397415447, -13180.399022149924, -11448.384696052635, -8311.853803617216, -10980.160353202862, -8656.651813584784, -11006.13308025993, -13667.04120243087, -8830.593088935982, -7376.7462225849895, -7996.828317264119, -10875.084802518464, -13045.997982740162, -18670.859178407096, 0.014, -0.03, 0.99, 192.0, 0.0, 56.0, 127.5, 8.0, 15.0, 120.0, 0.0, 0.0, 0.0, 1.644586959332413E9, 0.0, 2022-02-12 00:42:39.332
226.0, -10972.113725198953, -10851.10138071792, -7736.855177504442, -13175.481638369756, -11435.64420171311, -8311.898507106127, -10955.081695924007, -8637.876348242326, -10972.270187410139, -13621.868326886693, -8798.048949009055, -7346.884291992699, -7954.963499899328, -10826.961496706188, -13007.463575299213, -18654.74357065482, 0.014, -0.03, 0.99, 192.0, 0.0, 0.0, 0.0, 0.0, 0.0, 0.0, 0.0, 0.0, 0.0, 1.644586959339458E9, 0.0, 2022-02-12 00:42:39.339
228.0, -11002.266228469161, -10881.29858747704, -7758.849294048464, -13171.145399945426, -11448.943489664018, -8326.002457857425, -10967.956300730266, -8657.992918252101, -10988.788126562611, -13651.953774923537, -8820.780673120104, -7382.043586020897, -7993.497907340277, -10855.437619142249, -13032.586936066979, -18661.046762591217, 0.014, -0.03, 0.99, 192.0, 0.0, 0.0, 0.0, 0.0, 0.0, 0.0, 0.0, 0.0, 0.0, 1.644586959346966E9, 0.0, 2022-02-12 00:42:39.346
230.0, -10950.678402266312, -10818.557240790993, -7729.836729745475, -13180.488429127745, -11436.225347068948, -8311.429120472565, -10953.338259856495, -8629.60620279386, -10986.687062583813, -13653.049010401846, -8813.337542216486, -7367.157324213663, -7974.990662931284, -10847.748619049624, -13019.33235160498, -18650.20616653039, 0.014, -0.03, 0.99, 192.0, 0.0, 0.0, 0.0, 0.0, 0.0, 0.0, 0.0, 0.0, 0.0, 1.64458695935499E9, 0.0, 2022-02-12 00:42:39.354
232.0, -11004.143775003407, -10886.193619512751, -7747.785180543087, -13171.838304023542, -11450.798684453808, -8330.115178837203, -10973.432478121815, -8666.508932889574, -10971.107896698464, -13631.591335724752, -8801.491117655172, -7350.773495527923, -7956.595177244566, -10840.752523035113, -13005.586028764967, -18655.92821311095, 0.014, -0.03, 0.99, 192.0, 0.0, 0.0, 0.0, 0.0, 0.0, 0.0, 0.0, 0.0, 0.0, 1.644586959369176E9, 0.0, 2022-02-12 00:42:39.369
234.0, -10998.086452256019, -10881.812677599512, -7736.810474015531, -13183.930597773862, -11445.143693106616, -8331.433931760064, -10962.79304776109, -8660.228092697633, -11003.60733313648, -13674.23846414548, -8821.719446387226, -7374.868676050744, -7995.0178259632385, -10860.667927344792, -13036.274973902104, -18662.2537567918, 0.02, -0.026000000000000002, 0.992, 192.0, 0.0, 80.0, 127.5, 24.0, 15.5, 0.0, 0.0, 0.0, 0.0, 1.644586959378192E9, 0.0, 2022-02-12 00:42:39.378
236.0, -10981.948492759288, -10861.517293634093, -7723.690000020266, -13180.331966916558, -11435.621849968655, -8323.811986900806, -10959.864969237444, -8647.353487891376, -10971.465524609748, -13647.572833010297, -8786.470745381206, -7348.381858871206, -7953.24241557627, -10840.059618956999, -12995.23717108216, -18657.291669522725, 0.02, -0.026000000000000002, 0.992, 192.0, 0.0, 0.0, 0.0, 0.0, 0.0, 0.0, 0.0, 0.0, 0.0, 1.644586959385828E9, 0.0, 2022-02-12 00:42:39.385
238.0, -10993.50434464268, -10873.229607728674, -7744.007735730141, -13174.408754635902, -11438.12524534765, -8342.945080154548, -10965.095277439987, -8676.164886494265, -10993.392585920405, -13655.395943569654, -8814.74570211717, -7377.550885385381, -7979.304549611158, -10872.156723994818, -13021.679284772788, -18662.2537567918, 0.02, -0.026000000000000002, 0.992, 192.0, 0.0, 0.0, 0.0, 0.0, 0.0, 0.0, 0.0, 0.0, 0.0, 1.644586959393092E9, 0.0, 2022-02-12 00:42:39.393
240.0, -10953.02533543412, -10820.725360003158, -7718.6608575178225, -13183.572969862578, -11433.78900692332, -8332.529167238376, -10958.210940147752, -8638.27867964252, -10980.540332858604, -13637.827472427784, -8807.570792147017, -7369.057222492364, -7967.86045645004, -10854.722363319679, -13009.899915444841, -18657.17991080045, 0.02, -0.026000000000000002, 0.992, 192.0, 0.0, 0.0, 0.0, 0.0, 0.0, 0.0, 0.0, 0.0, 0.0, 1.64458695939966E9, 0.0, 2022-02-12 00:42:39.399
242.0, -11011.765719862668, -10882.639692144357, -7747.762828798632, -13176.755687803708, -11457.772428723863, -8351.975184914492, -10980.629739836424, -8682.602188897394, -10970.482047853715, -13639.615611984207, -8792.036329750577, -7349.365335627239, -7950.4037440304455, -10845.312278903995, -13001.38390080737, -18657.69400092292, 0.02, -0.026000000000000002, 0.992, 192.0, 0.0, 0.0, 0.0, 0.0, 0.0, 0.0, 0.0, 0.0, 0.0, 1.644586959407272E9, 0.0, 2022-02-12 00:42:39.407
244.0, -11005.149603503896, -10882.930264822277, -7738.173930427305, -13187.79744956463, -11451.133960620638, -8340.687553964563, -10974.974748489232, -8672.700366103694, -11010.13404251743, -13679.625234559207, -8817.27144924062, -7376.969740029543, -7989.9663317163395, -10874.302491462528, -13035.96204947973, -18667.08173359415, 0.012, -0.028, 0.988, 192.0, 0.0, 48.0, 127.5, 16.0, 15.0, 112.0, 0.0, 0.0, 0.0, 1.644586959415172E9, 0.0, 2022-02-12 00:42:39.415
246.0, -10977.74636480169, -10850.140255706341, -7725.8804709768865, -13185.830496052564, -11442.528539005345, -8329.444626503542, -10967.755135030167, -8663.267929943553, -10980.473277625237, -13649.964469667015, -8783.207390690732, -7340.558748311848, -7955.321127810613, -10834.203461909707, -12996.913551916308, -18654.07301832116, 0.012, -0.028, 0.988, 192.0, 0.0, 0.0, 0.0, 0.0, 0.0, 0.0, 0.0, 0.0, 0.0, 1.644586959422088E9, 0.0, 2022-02-12 00:42:39.422
248.0, -10971.59963507648, -10873.877808317877, -7754.91538702433, -13175.28047266966, -11451.603347254199, -8342.520397009897, -10974.103030455475, -8680.076441773945, -10996.231257466228, -13662.3249843508, -8814.522184672616, -7371.31474868235, -7984.892485724984, -10879.018709542599, -13026.104930174939, -18662.70079168091, 0.012, -0.028, 0.988, 192.0, 0.0, 0.0, 0.0, 0.0, 0.0, 0.0, 0.0, 0.0, 0.0, 1.644586959433055E9, 0.0, 2022-02-12 00:42:39.433
250.0, -10954.925233712822, -10828.23554614014, -7725.858119232431, -13183.08123148456, -11433.297268545302, -8329.712847437006, -10957.875663980922, -8643.777208778525, -10980.428574136326, -13653.98778366897, -8809.26952472562, -7368.006690502965, -7969.358023328546, -10863.216026212696, -13014.19145038026, -18649.267393263268, 0.012, -0.028, 0.988, 192.0, 0.0, 0.0, 0.0, 0.0, 0.0, 0.0, 0.0, 0.0, 0.0, 1.644586959438297E9, 0.0, 2022-02-12 00:42:39.438
252.0, -11021.08639730053, -10875.576540896482, -7747.762828798632, -13178.677937826866, -11445.16604485107, -8350.544673269353, -10968.872722252932, -8671.403964925286, -10974.058326966564, -13645.739989964963, -8788.035367493078, -7345.699649536568, -7955.902273166451, -10853.9624040082, -12997.807621694521, -18652.97778284285, 0.012, -0.028, 0.988, 192.0, 0.0, 0.0, 0.0, 0.0, 0.0, 0.0, 0.0, 0.0, 0.0, 1.644586959444897E9, 0.0, 2022-02-12 00:42:39.444
254.0, -10994.89015279891, -10873.430773428772, -7744.052439219051, -13185.785792563653, -11438.907556403585, -8340.307574308823, -10966.101105940474, -8665.726621833637, -11009.84346983951, -13655.865330203216, -8815.528013173105, -7380.948350542588, -7969.603892517554, -10881.790325855056, -13031.402293610847, -18659.63860269053, 0.01, -0.032, 0.986, 192.0, 0.0, 40.0, 127.5, 0.0, 15.0, 104.0, 0.0, 0.0, 0.0, 1.644586959452932E9, 0.0, 2022-02-12 00:42:39.452
0.0, -10972.180780432318, -10861.71845933419, -7733.9270989807965, -13184.914074529896, -11437.477044758445, -8330.517510237398, -10955.707544768757, -8660.13868571981, -10974.773582789134, -13648.064571388313, -8783.16268720182, -7331.171015640619, -7947.4756655068, -10835.388104365838, -12992.689072214256, -18645.154672283494, 0.01, -0.032, 0.986, 192.0, 0.0, 0.0, 0.0, 0.0, 0.0, 0.0, 0.0, 0.0, 0.0, 1.644586959460732E9, 0.0, 2022-02-12 00:42:39.460
2.0, -10976.829943279023, -10867.038174514553, -7760.7491923271655, -13180.667243083388, -11445.948355907007, -8341.98395514297, -10963.351841372472, -8683.0492237865, -11000.299274957095, -13679.08879269228, -8817.293800985075, -7373.326405683328, -7986.345349114579, -10858.00806975461, -13022.171023150806, -18659.54919571271, 0.01, -0.032, 0.986, 192.0, 0.0, 0.0, 0.0, 0.0, 0.0, 0.0, 0.0, 0.0, 0.0, 1.64458695946811E9, 0.0, 2022-02-12 00:42:39.468
4.0, -10943.97287892972, -10832.415322353283, -7736.0952181929615, -13191.887818799953, -11424.155405063082, -8324.437835745553, -10935.83684394799, -8638.23397615361, -10978.59573109099, -13653.60780401323, -8813.717521872226, -7368.163152714152, -7965.714688982331, -10852.151912707319, -13009.274066600094, -18647.278088006748, 0.01, -0.032, 0.986, 192.0, 0.0, 0.0, 0.0, 0.0, 0.0, 0.0, 0.0, 0.0, 0.0, 1.644586959475873E9, 0.0, 2022-02-12 00:42:39.475
6.0, -10992.677330097835, -10868.155761737318, -7754.848331790964, -13179.28143492716, -11435.197166824004, -8349.60590000223, -10957.920367469833, -8676.366052194364, -10964.424725106326, -13637.805120683328, -8780.50282961164, -7341.005783200954, -7948.570900985111, -10851.280194673562, -12994.611322237412, -18650.07205606366, 0.01, -0.032, 0.986, 192.0, 0.0, 0.0, 0.0, 0.0, 0.0, 0.0, 0.0, 0.0, 0.0, 1.644586959482113E9, 0.0, 2022-02-12 00:42:39.482
8.0, -10997.482955155725, -10865.361793680406, -7751.6296805894, -13183.595321607034, -11436.225347068948, -8350.119990124702, -10954.16527440134, -8666.933616034225, -11003.60733313648, -13676.18306591309, -8812.55523116055, -7378.422603419138, -7977.136430398993, -10879.242226987151, -13033.413950611824, -18662.007887602795, 0.01, -0.034, 0.99, 192.0, 0.0, 40.0, 127.0, 120.0, 15.0, 120.0, 0.0, 0.0, 0.0, 1.644586959500326E9, 0.0, 2022-02-12 00:42:39.500
10.0, -10976.338204901005, -10856.935186020755, -7739.582090327989, -13180.13080121646, -11434.750131934898, -8339.637021975162, -10954.902881968366, -8648.0910954584, -10967.039879207598, -13649.808007455827, -8776.658329565327, -7334.300259864362, -7925.705066407331, -10836.036304955043, -12997.025310638584, -18649.245041518814, 0.01, -0.034, 0.99, 192.0, 0.0, 0.0, 0.0, 0.0, 0.0, 0.0, 0.0, 0.0, 0.0, 1.644586959506526E9, 0.0, 2022-02-12 00:42:39.506
12.0, -10992.118536486452, -10853.023630741076, -7766.58299763, -13179.415545393891, -11444.182568095037, -8356.914920439116, -10961.228425649218, -8678.914151062269, -10989.592789363001, -13657.228786614989, -8810.78944334858, -7380.300149953384, -7956.773991200208, -10866.971119281188, -13024.272087129604, -18656.889338122528, 0.01, -0.034, 0.99, 192.0, 0.0, 0.0, 0.0, 0.0, 0.0, 0.0, 0.0, 0.0, 0.0, 1.644586959512297E9, 0.0, 2022-02-12 00:42:39.512
14.0, -10948.152655142863, -10848.57563359447, -7740.051476961551, -13192.13368798896, -11438.035838369828, -8348.600071501742, -10944.732838241202, -8652.51674086055, -10980.003890991675, -13657.385248826176, -8812.421120693818, -7377.237960963007, -7973.582503030599, -10874.347194951439, -13019.466462071714, -18651.279050264246, 0.01, -0.034, 0.99, 192.0, 0.0, 0.0, 0.0, 0.0, 0.0, 0.0, 0.0, 0.0, 0.0, 1.644586959519638E9, 0.0, 2022-02-12 00:42:39.519
16.0, -11006.155432004385, -10889.278160247584, -7763.006718517151, -13185.092888485538, -11448.205882096992, -8350.723487224996, -10962.45777159426, -8677.014252783567, -10964.603539061969, -13653.116065635213, -8785.844896536457, -7336.177806398608, -7953.018898131717, -10849.156778950308, -13003.708482230722, -18655.414122988477, 0.01, -0.034, 0.99, 192.0, 0.0, 0.0, 0.0, 0.0, 0.0, 0.0, 0.0, 0.0, 0.0, 1.644586959527617E9, 0.0, 2022-02-12 00:42:39.527
18.0, -10983.267245682151, -10845.356982392907, -7760.1009917379615, -13187.37276641998, -11452.676230988054, -8350.991708158459, -10966.816361763045, -8667.313595689964, -10993.347882431493, -13687.828324774306, -8816.310324229042, -7373.684033594613, -7969.8944651954735, -10874.794229840545, -13040.208880926239, -18661.963184113883, 0.012, -0.028, 0.992, 192.0, 0.0, 48.0, 127.5, 16.0, 15.5, 0.0, 0.0, 0.0, 0.0, 1.644586959534099E9, 0.0, 2022-02-12 00:42:39.534
20.0, -10966.861065251955, -10847.994488238632, -7748.791009043576, -13176.487466870245, -11464.254434615903, -8347.348373812243, -10971.912559498855, -8668.14061023481, -10968.850370508477, -13639.392094539655, -8781.016919734111, -7340.2905273783845, -7955.343479555068, -10848.799151039024, -13010.838688711965, -18654.49770146581, 0.012, -0.028, 0.992, 192.0, 0.0, 0.0, 0.0, 0.0, 0.0, 0.0, 0.0, 0.0, 0.0, 1.644586959543573E9, 0.0, 2022-02-12 00:42:39.543
22.0, -11005.775452348644, -10885.67952939028, -7779.8822855809085, -13175.503990114212, -11472.79280099783, -8364.447458320554, -10983.043728237597, -8715.10162533541, -11000.880420312933, -13682.575664827307, -8813.873984083413, -7376.478001651526, -7980.466840322833, -10876.090631018953, -13042.712276305232, -18672.155579585502, 0.012, -0.028, 0.992, 192.0, 0.0, 0.0, 0.0, 0.0, 0.0, 0.0, 0.0, 0.0, 0.0, 1.644586959549677E9, 0.0, 2022-02-12 00:42:39.549
24.0, -10979.780373547123, -10860.332651177961, -7748.589843343479, -13187.484525142256, -11460.02995491385, -8347.169559856602, -10952.801817989566, -8663.111467732366, -10996.812402822066, -13688.498877107964, -8805.782652590591, -7364.74333581249, -7966.765220971731, -10869.385107682361, -13034.397427367858, -18664.153655070502, 0.012, -0.028, 0.992, 192.0, 0.0, 0.0, 0.0, 0.0, 0.0, 0.0, 0.0, 0.0, 0.0, 1.644586959557878E9, 0.0, 2022-02-12 00:42:39.557
26.0, -10986.731766072722, -10889.434622458772, -7768.415840675336, -13181.024870994672, -11469.484742818446, -8362.256987363933, -10960.759039015657, -8682.736299364125, -10984.921274771843, -13668.89639722066, -8791.969274517212, -7354.394478129683, -7959.143276112471, -10854.38708715285, -13018.684151015777, -18662.477274236357, 0.012, -0.028, 0.992, 192.0, 0.0, 0.0, 0.0, 0.0, 0.0, 0.0, 0.0, 0.0, 0.0, 1.644586959563962E9, 0.0, 2022-02-12 00:42:39.563
28.0, -10974.728879300223, -10850.184959195252, -7762.872608050419, -13188.5127053872, -11459.672327002565, -8353.405696559632, -10951.930099955809, -8679.517648162562, -11005.50723141518, -13675.601920557252, -8824.111083043943, -7385.776327344934, -7984.624264791521, -10887.266503246607, -13049.127226963905, -18669.763942928785, 0.014, -0.026000000000000002, 0.994, 192.0, 0.0, 56.0, 127.5, 24.0, 15.5, 8.0, 0.0, 0.0, 0.0, 1.644586959571958E9, 0.0, 2022-02-12 00:42:39.571
30.0, -10961.11666692694, -10850.274366173073, -7748.589843343479, -13187.126897230972, -11456.02899265635, -8338.117103352202, -10944.866948707933, -8644.738333790105, -10971.398469376383, -13653.630155757684, -8788.460050637728, -7348.113637937741, -7961.803133702652, -10842.674773058268, -13008.804679966532, -18650.16146304148, 0.014, -0.026000000000000002, 0.994, 192.0, 0.0, 0.0, 0.0, 0.0, 0.0, 0.0, 0.0, 0.0, 0.0, 1.644586959579933E9, 0.0, 2022-02-12 00:42:39.579
32.0, -10982.328472415027, -10861.852569800922, -7771.768602343632, -13176.599225592521, -11464.567359038278, -8355.193836116057, -10960.379059359915, -8683.205685997687, -10992.386757419916, -13672.942062967071, -8807.369626446918, -7364.586873601303, -7973.828372219607, -10861.941976778744, -13033.212784911728, -18661.002059102306, 0.014, -0.026000000000000002, 0.994, 192.0, 0.0, 0.0, 0.0, 0.0, 0.0, 0.0, 0.0, 0.0, 0.0, 1.644586959586547E9, 0.0, 2022-02-12 00:42:39.586
34.0, -10969.342108886494, -10872.983738539666, -7741.10200895095, -13192.983054278262, -11453.726762977454, -8344.979088899981, -10950.946623199776, -8654.863674028358, -10978.372213646438, -13688.878856763704, -8798.45128040925, -7363.849266034278, -7955.701107466353, -10869.7650873381, -13030.374113365902, -18658.54336721222, 0.014, -0.026000000000000002, 0.994, 192.0, 0.0, 0.0, 0.0, 0.0, 0.0, 0.0, 0.0, 0.0, 0.0, 1.644586959594496E9, 0.0, 2022-02-12 00:42:39.594
36.0, -10993.549048131592, -10896.028387073087, -7760.2798056936035, -13171.257158667704, -11452.07273388776, -8354.947966927048, -10949.046724921076, -8669.504066646585, -10973.767754288645, -13688.655339319152, -8791.388129161374, -7361.345870655284, -7930.66715367641, -10868.044003015042, -13009.318770089003, -18658.11868406757, 0.014, -0.024, 0.993, 192.0, 0.0, 56.0, 127.5, 40.0, 15.5, 0.0, 0.0, 0.0, 0.0, 1.644586959602503E9, 0.0, 2022-02-12 00:42:39.602
38.0, -10986.351786416983, -10883.15378226683, -7747.695773565266, -13179.929635516362, -11449.099951875205, -8347.683649979073, -10937.7814457156, -8671.828648069937, -10995.404242921382, -13713.108147753257, -8814.276315483608, -7381.596551131792, -7981.29385486768, -10893.167363782808, -13038.130168691894, -18662.656088191998, 0.014, -0.024, 0.993, 192.0, 0.0, 0.0, 0.0, 0.0, 0.0, 0.0, 0.0, 0.0, 0.0, 1.644586959617674E9, 0.0, 2022-02-12 00:42:39.617
40.0, -10956.243986635684, -10861.584348867458, -7732.00484895764, -13184.84701929653, -11449.681097231043, -8344.800274944339, -10945.381038830405, -8653.634328083317, -10951.751286000168, -13681.122801437712, -8773.953768486235, -7353.701574051568, -7940.501921236744, -10847.346287649429, -13002.300322330037, -18653.424817731957, 0.014, -0.024, 0.993, 192.0, 0.0, 0.0, 0.0, 0.0, 0.0, 0.0, 0.0, 0.0, 0.0, 1.644586959624098E9, 0.0, 2022-02-12 00:42:39.624
42.0, -10997.482955155725, -10914.468576248715, -7759.1622184708385, -13181.337795417046, -11466.869588717174, -8364.55921704283, -10964.22355940623, -8703.054035074001, -10970.683213553813, -13711.476470408019, -8800.1276612434, -7379.517838897448, -7962.898369180963, -10883.980796811677, -13027.24486914216, -18666.321774282667, 0.014, -0.024, 0.993, 192.0, 0.0, 0.0, 0.0, 0.0, 0.0, 0.0, 0.0, 0.0, 0.0, 1.644586959632159E9, 0.0, 2022-02-12 00:42:39.632
44.0, -10965.83288500701, -10873.497828662137, -7729.523805323101, -13195.777022335174, -11456.78895196783, -8346.186083100567, -10937.7814457156, -8658.99874675259, -10976.092335711997, -13706.335569183299, -8800.395882176863, -7389.933751813621, -7958.00333714525, -10886.73006137968, -13022.998037695652, -18659.862120135083, 0.014, -0.024, 0.993, 192.0, 0.0, 0.0, 0.0, 0.0, 0.0, 0.0, 0.0, 0.0, 0.0, 1.644586959640635E9, 0.0, 2022-02-12 00:42:39.640
46.0, -10978.84160028, -10913.216878559218, -7749.595671843967, -13179.594359349532, -11464.79087648283, -8361.809952474827, -10953.047687178576, -8677.52834290604, -10958.009774447653, -13684.319100894822, -8788.661216337827, -7367.067917235842, -7946.760409684231, -10875.040099029553, -13008.715272988711, -18663.17017831447, 0.014, -0.024, 0.9915, 192.0, 0.0, 56.0, 127.5, 32.0, 15.0, 120.0, 0.0, 0.0, 0.0, 1.644586959646828E9, 0.0, 2022-02-12 00:42:39.646
48.0, -10990.039824252108, -10883.287892733562, -7744.454770619246, -13180.756650061208, -11460.924024692062, -8362.815780975316, -10954.858178479455, -8679.67411037375, -10987.178800961829, -13731.347171228788, -8811.370588704418, -7402.60719091978, -7978.812811233141, -10901.996302842654, -13040.477101859702, -18666.701753938407, 0.014, -0.024, 0.9915, 192.0, 0.0, 0.0, 0.0, 0.0, 0.0, 0.0, 0.0, 0.0, 0.0, 1.64458695965472E9, 0.0, 2022-02-12 00:42:39.654
50.0, -10961.36253611595, -10893.279122505084, -7738.419799616314, -13176.107487214505, -11467.070754417271, -8351.75166746994, -10960.64728029338, -8665.1454764778, -10965.36349837345, -13703.452194148565, -8773.730251041681, -7344.000916957965, -7934.3775432559905, -10865.473552402682, -13005.630732253878, -18657.73870441183, 0.014, -0.024, 0.9915, 192.0, 0.0, 0.0, 0.0, 0.0, 0.0, 0.0, 0.0, 0.0, 0.0, 1.64458695966185E9, 0.0, 2022-02-12 00:42:39.661
52.0, -10979.489800869203, -10910.35585526894, -7766.5606458855455, -13180.041394238639, -11466.377850339157, -8373.075231680303, -10959.708507026256, -8697.019064071068, -10983.021376493141, -13717.802014088871, -8805.782652590591, -7385.686920367113, -7972.286101852192, -10887.713538135713, -13033.86098550093, -18668.60165221711, 0.014, -0.024, 0.9915, 192.0, 0.0, 0.0, 0.0, 0.0, 0.0, 0.0, 0.0, 0.0, 0.0, 1.644586959668602E9, 0.0, 2022-02-12 00:42:39.668
54.0, -10973.901864755377, -10886.774764868589, -7734.463540847724, -13197.431051424868, -11456.78895196783, -8357.451362306043, -10944.218748118728, -8663.446743899196, -10972.22548392123, -13698.646569090673, -8806.922591557812, -7389.486716924515, -7963.412459303434, -10882.259712488618, -13023.042741184563, -18665.584166715642, 0.014, -0.024, 0.9915, 192.0, 0.0, 0.0, 0.0, 0.0, 0.0, 0.0, 0.0, 0.0, 0.0, 1.644586959676424E9, 0.0, 2022-02-12 00:42:39.676
56.0, -10993.549048131592, -10906.86898313391, -7753.864855034931, -13175.056955225105, -11473.619815542677, -8379.400775361155, -10963.351841372472, -8690.29118899002, -10960.848445993477, -13711.990560530492, -8782.894466268357, -7372.499391138482, -7938.110284580027, -10878.05758453102, -13010.972799178697, -18667.528768483255, 0.015, -0.023, 0.98975, 192.0, 0.0, 64.0, 127.5, 40.0, 15.0, 112.0, 0.0, 0.0, 0.0, 1.644586959684398E9, 0.0, 2022-02-12 00:42:39.684
58.0, -10966.034050707109, -10904.20912554373, -7747.963994498729, -13178.409716893402, -11472.79280099783, -8377.165600915623, -10959.149713414874, -8683.429203442241, -10991.403280663882, -13744.266479523956, -8807.03435028009, -7401.0425688079085, -7983.573732802121, -10916.524936738604, -13046.802645540554, -18669.07103885067, 0.015, -0.023, 0.98975, 192.0, 0.0, 0.0, 0.0, 0.0, 0.0, 0.0, 0.0, 0.0, 0.0, 1.644586959692386E9, 0.0, 2022-02-12 00:42:39.692
60.0, -10952.131265655908, -10876.492962419148, -7733.860043747431, -13178.074440726572, -11464.07562066026, -8361.877007708194, -10948.666745265335, -8668.38647942382, -10948.845559220978, -13700.300598180367, -8773.663195808316, -7347.0407542038865, -7946.827464917596, -10871.441468172248, -13009.452880555735, -18656.621117189065, 0.015, -0.023, 0.98975, 192.0, 0.0, 0.0, 0.0, 0.0, 0.0, 0.0, 0.0, 0.0, 0.0, 1.644586959699062E9, 0.0, 2022-02-12 00:42:39.699
62.0, -10982.954321259776, -10925.487986265181, -7762.693794094777, -13172.5088563572, -11479.095992934226, -8377.366766615722, -10958.948547714775, -8694.67213090326, -10979.042765980097, -13711.722339597029, -8802.631056622393, -7388.816164590856, -7965.714688982331, -10897.257733018128, -13040.72297104871, -18669.853349906607, 0.015, -0.023, 0.98975, 192.0, 0.0, 0.0, 0.0, 0.0, 0.0, 0.0, 0.0, 0.0, 0.0, 1.644586959708445E9, 0.0, 2022-02-12 00:42:39.708
64.0, -10954.478198823716, -10885.098384034442, -7728.808549500532, -13179.08026922706, -11469.663556774087, -8367.55435079984, -10938.049666649064, -8658.127028718833, -10975.980576989721, -13714.739825098495, -8794.539725129573, -7385.709272111568, -7971.1238111405155, -10887.065337546508, -13039.717142548221, -18662.94666086992, 0.015, -0.023, 0.98975, 192.0, 0.0, 0.0, 0.0, 0.0, 0.0, 0.0, 0.0, 0.0, 0.0, 1.644586959715009E9, 0.0, 2022-02-12 00:42:39.715
66.0, -10980.249760180684, -10904.9243813663, -7750.556796855545, -13170.117219700483, -11479.118344678682, -8386.173353931112, -10960.289652382095, -8684.122107520356, -10955.729896513212, -13701.865220292239, -8771.606835318427, -7350.572329827825, -7945.911043394929, -10867.999299526133, -13019.935848705274, -18664.77950391525, 0.014499999999999999, -0.0245, 0.9878750000000001, 192.0, 0.0, 56.0, 127.5, 24.0, 15.0, 104.0, 0.0, 0.0, 0.0, 1.644586959721643E9, 0.0, 2022-02-12 00:42:39.721
68.0, -10952.779466245112, -10893.435584716271, -7751.562625356034, -13176.152190703415, -11479.4089173566, -8388.632045821196, -10952.98063194521, -8683.317444719964, -10986.575303861537, -13714.024569275925, -8807.906068313845, -7391.788946603411, -7970.095630895571, -10915.317942538017, -13051.116532220429, -18670.568605729175, 0.014499999999999999, -0.0245, 0.9878750000000001, 192.0, 0.0, 0.0, 0.0, 0.0, 0.0, 0.0, 0.0, 0.0, 0.0, 1.644586959730204E9, 0.0, 2022-02-12 00:42:39.730
70.0, -10945.090466152486, -10900.565791197514, -7740.118532194917, -13178.297958171124, -11482.068774946783, -8385.458098108542, -10954.657012779357, -8680.970511552157, -10956.422800591326, -13698.28894117939, -8773.037346963567, -7359.535379354404, -7954.181188843392, -10884.696052634246, -13009.743453233654, -18661.717314924874, 0.014499999999999999, -0.0245, 0.9878750000000001, 192.0, 0.0, 0.0, 0.0, 0.0, 0.0, 0.0, 0.0, 0.0, 0.0, 1.644586959744588E9, 0.0, 2022-02-12 00:42:39.744
72.0, -10986.195324205795, -10943.101160895963, -7767.0300325191065, -13169.089039455539, -11506.745100825441, -8402.825403550316, -10979.087469469008, -8715.10162533541, -10975.064155467053, -13726.072159537336, -8797.244286208665, -7377.886161552211, -7974.677738508909, -10914.245058804163, -13040.544157093067, -18675.01660287578, 0.014499999999999999, -0.0245, 0.9878750000000001, 192.0, 0.0, 0.0, 0.0, 0.0, 0.0, 0.0, 0.0, 0.0, 0.0, 1.644586959751346E9, 0.0, 2022-02-12 00:42:39.751
74.0, -10970.07971645352, -10906.846631389455, -7742.91250025183, -13188.713871087299, -11499.65959783311, -8395.337569157788, -10962.591882060991, -8686.536095921529, -10983.826039293534, -13742.925374856637, -8795.858478052436, -7394.962894316065, -7985.428927591912, -10920.9282303963, -13037.683133802788, -18672.669669707975, 0.014499999999999999, -0.0245, 0.9878750000000001, 192.0, 0.0, 0.0, 0.0, 0.0, 0.0, 0.0, 0.0, 0.0, 0.0, 1.644586959759267E9, 0.0, 2022-02-12 00:42:39.759
76.0, -10992.342053931005, -10940.553062028059, -7764.146657484372, -13177.895626770929, -11506.499231636433, -8402.04309249438, -10970.616158320447, -8702.025854829057, -10964.268262895139, -13723.702874625073, -8779.675815066794, -7375.360414428761, -7964.775915715208, -10898.554134196536, -13019.511165560623, -18666.522939982766, 0.014249999999999999, -0.026250000000000002, 0.9869375, 192.0, 0.0, 56.0, 127.5, 16.0, 15.0, 104.0, 0.0, 0.0, 0.0, 1.644586959767348E9, 0.0, 2022-02-12 00:42:39.767
78.0, -10958.45680933676, -10917.106082094442, -7762.023241761118, -13186.36693791949, -11508.354426426224, -8411.542583887885, -10972.65016706588, -8703.232849029642, -10990.8444870525, -13750.748485415994, -8815.416254450829, -7420.019199850464, -7987.999378204272, -10938.273184093618, -13052.591747354478, -18671.5073789963, 0.014249999999999999, -0.026250000000000002, 0.9869375, 192.0, 0.0, 0.0, 0.0, 0.0, 0.0, 0.0, 0.0, 0.0, 0.0, 1.644586959774497E9, 0.0, 2022-02-12 00:42:39.774
80.0, -10963.754172772668, -10920.592954229469, -7749.148636954861, -13188.84798155403, -11507.393301414646, -8409.70974084255, -10973.924216499832, -8691.81110761298, -10964.581187317513, -13713.823403575827, -8788.50475412664, -7392.280684981429, -7953.667098720921, -10916.055550105042, -13016.471328314701, -18662.589032958633, 0.014249999999999999, -0.026250000000000002, 0.9869375, 192.0, 0.0, 0.0, 0.0, 0.0, 0.0, 0.0, 0.0, 0.0, 0.0, 1.644586959783488E9, 0.0, 2022-02-12 00:42:39.783
82.0, -11001.953304046787, -10970.750268787178, -7775.523695412123, -13175.593397092032, -11525.095883023248, -8429.736903874506, -10990.620969607946, -8723.43882601724, -10990.17393471884, -13746.568709202851, -8806.855536324447, -7400.5731821743475, -7994.123756185027, -10943.16821612933, -13045.506244362146, -18675.68715520944, 0.014249999999999999, -0.026250000000000002, 0.9869375, 192.0, 0.0, 0.0, 0.0, 0.0, 0.0, 0.0, 0.0, 0.0, 0.0, 1.644586959791292E9, 0.0, 2022-02-12 00:42:39.791
84.0, -10965.318794884539, -10922.761073441634, -7748.142808454372, -13187.216304208792, -11514.858784062719, -8414.917697300638, -10968.246873408185, -8689.53122967854, -10989.212809707262, -13750.703781927084, -8795.053815252044, -7389.285551224417, -7987.641750292987, -10932.081750879497, -13043.807511783543, -18667.26054754979, 0.014249999999999999, -0.026250000000000002, 0.9869375, 192.0, 0.0, 0.0, 0.0, 0.0, 0.0, 0.0, 0.0, 0.0, 0.0, 1.644586959797635E9, 0.0, 2022-02-12 00:42:39.797
86.0, -10970.236178664707, -10946.565681286536, -7763.163180728338, -13176.733336059253, -11525.05117953434, -8433.00025856498, -10981.03207123662, -8713.112320078888, -10969.74444028669, -13722.09354902429, -8778.960559244224, -7380.724833098035, -7966.1393721269815, -10925.957372898743, -13024.00386619614, -18671.395620274023, 0.013125, -0.028125, 0.98546875, 192.0, 0.0, 48.0, 127.5, 8.0, 15.0, 96.0, 0.0, 0.0, 0.0, 1.644586959806484E9, 0.0, 2022-02-12 00:42:39.806
88.0, -10961.697812282779, -10946.476274308716, -7762.000890016662, -13182.678900084366, -11525.699380123542, -8428.015819551447, -10975.533542100615, -8704.663360674782, -10997.639417366912, -13773.167285104668, -8814.49983292816, -7423.550775474403, -8010.708750570864, -10959.820265748533, -13054.312831677536, -18671.686192951944, 0.013125, -0.028125, 0.98546875, 192.0, 0.0, 0.0, 0.0, 0.0, 0.0, 0.0, 0.0, 0.0, 0.0, 1.644586959812886E9, 0.0, 2022-02-12 00:42:39.812
90.0, -10952.868873222933, -10903.896201121355, -7741.012601973129, -13180.5107808722, -11516.132833496671, -8419.52215665843, -10967.93394898581, -8689.352415722897, -10969.587978075502, -13737.225680020534, -8771.338614384964, -7388.279722723928, -7958.204502845348, -10931.098274123464, -13016.38192133688, -18659.280974779245, 0.013125, -0.028125, 0.98546875, 192.0, 0.0, 0.0, 0.0, 0.0, 0.0, 0.0, 0.0, 0.0, 0.0, 1.644586959819556E9, 0.0, 2022-02-12 00:42:39.819
92.0, -10989.235161451717, -10966.257568151661, -7769.756945342654, -13177.314481415091, -11531.71199938202, -8446.05367732688, -10973.320719399539, -8725.226965573665, -10979.13217295792, -13749.206215048578, -8793.779765818092, -7409.8491561232995, -7994.8390120075965, -10960.088486681996, -13042.5781658385, -18669.89805339552, 0.013125, -0.028125, 0.98546875, 192.0, 0.0, 0.0, 0.0, 0.0, 0.0, 0.0, 0.0, 0.0, 0.0, 1.644586959826786E9, 0.0, 2022-02-12 00:42:39.826
94.0, -10941.648297506368, -10941.7824079731, -7739.3809246278915, -13181.695423328332, -11516.222240474492, -8433.380238220721, -10961.071963438031, -8686.133764521333, -10971.465524609748, -13747.619241192251, -8793.489193140173, -7405.155289787685, -7997.096538197582, -10954.344088356984, -13038.711314047732, -18663.17017831447, 0.013125, -0.028125, 0.98546875, 192.0, 0.0, 0.0, 0.0, 0.0, 0.0, 0.0, 0.0, 0.0, 0.0, 1.644586959834204E9, 0.0, 2022-02-12 00:42:39.834
96.0, -10975.980576989721, -10968.7386117862, -7758.089334736984, -13169.021984222172, -11529.879156336685, -8441.71743890255, -10970.437344364804, -8708.239639787631, -10959.015602948142, -13751.82136914985, -8775.563094087016, -7380.724833098035, -7974.051889664161, -10939.144902127375, -13016.068996914506, -18660.01858234627, 0.0125625, -0.029062499999999998, 0.9847343749999999, 192.0, 0.0, 48.0, 127.5, 8.0, 15.0, 96.0, 0.0, 0.0, 0.0, 1.644586959842612E9, 0.0, 2022-02-12 00:42:39.842
98.0, -10966.056402451564, -10965.36349837345, -7759.676308593311, -13172.821780779575, -11534.28244999438, -8439.52696794593, -10976.449963623281, -8716.174509069266, -10996.410071421871, -13781.191561364123, -8805.69324561277, -7416.308810270883, -8001.991570233295, -10959.93202447081, -13052.479988632202, -18664.086599837137, 0.0125625, -0.029062499999999998, 0.9847343749999999, 192.0, 0.0, 0.0, 0.0, 0.0, 0.0, 0.0, 0.0, 0.0, 0.0, 1.644586959850219E9, 0.0, 2022-02-12 00:42:39.850
100.0, -10943.302326596062, -10934.249870091662, -7740.72202929521, -13174.27464416917, -11529.812101103318, -8433.134369031712, -10964.849408250977, -8694.202744269698, -10961.049611693576, -13727.457967693565, -8772.79147777456, -7392.101871025786, -7965.222950604314, -10942.899995195867, -13018.997075438152, -18656.084675322138, 0.0125625, -0.029062499999999998, 0.9847343749999999, 192.0, 0.0, 0.0, 0.0, 0.0, 0.0, 0.0, 0.0, 0.0, 0.0, 1.644586959864665E9, 0.0, 2022-02-12 00:42:39.864
102.0, -10970.25853040916, -10959.529693070614, -7765.130134240406, -13168.843170266531, -11538.149301785148, -8450.166398306656, -10973.700699055278, -8727.819767930481, -10971.621986820935, -13759.488017498019, -8783.699129068747, -7417.649914938202, -7996.984779475306, -10972.896036254888, -13040.208880926239, -18665.31594578218, 0.0125625, -0.029062499999999998, 0.9847343749999999, 192.0, 0.0, 0.0, 0.0, 0.0, 0.0, 0.0, 0.0, 0.0, 0.0, 1.644586959871221E9, 0.0, 2022-02-12 00:42:39.871
104.0, -10938.943736427276, -10943.391733573882, -7742.3760583849025, -13176.532170359156, -11528.962734814017, -8445.360773248765, -10967.665728052347, -8705.892706619825, -10970.683213553813, -13765.321822800855, -8781.374547645397, -7418.968667861065, -7990.860401494551, -10973.007794977164, -13039.180700681294, -18662.94666086992, 0.0125625, -0.029062499999999998, 0.9847343749999999, 192.0, 0.0, 0.0, 0.0, 0.0, 0.0, 0.0, 0.0, 0.0, 0.0, 1.644586959879288E9, 0.0, 2022-02-12 00:42:39.879
106.0, -10958.143884914385, -10995.404242921382, -7767.901750552864, -13166.719754543275, -11549.213415290526, -8461.610491467773, -10973.141905443896, -8728.467968519684, -10950.186663888297, -13755.464703496064, -8778.558227844027, -7388.682054124124, -7976.510581554245, -10966.749306529679, -13026.551965064045, -18666.053553349204, 0.01128125, -0.02653125, 0.9853671875, 192.0, 0.0, 40.0, 127.5, 32.0, 15.0, 104.0, 0.0, 0.0, 0.0, 1.644586959887244E9, 0.0, 2022-02-12 00:42:39.887
108.0, -10970.280882153616, -10974.930045000321, -7765.219541218226, -13169.290205155636, -11549.57104320181, -8463.085706601823, -10965.855236751466, -8721.963610883191, -10998.399376678393, -13777.548227017907, -8809.35893170344, -7442.437999539137, -8004.316151656646, -11001.059234268574, -13063.119418992928, -18669.182797572947, 0.01128125, -0.02653125, 0.9853671875, 192.0, 0.0, 0.0, 0.0, 0.0, 0.0, 0.0, 0.0, 0.0, 0.0, 1.644586959894312E9, 0.0, 2022-02-12 00:42:39.894
110.0, -10977.053460723575, -10962.83775125, -7754.423648646313, -13173.537036602145, -11555.717772927019, -8450.166398306656, -10962.435419849804, -8703.456366474196, -10970.906730998366, -13762.952537888592, -8774.423155119795, -7402.271914752951, -8002.259791166758, -10953.472370323227, -13024.763825507622, -18657.15755905599, 0.01128125, -0.02653125, 0.9853671875, 192.0, 0.0, 0.0, 0.0, 0.0, 0.0, 0.0, 0.0, 0.0, 0.0, 1.644586959901895E9, 0.0, 2022-02-12 00:42:39.901
112.0, -10973.7901060331, -10998.712301100768, -7785.336111228003, -13172.441801123834, -11561.126895085205, -8473.747488707006, -10982.216713692751, -8740.873186692379, -10992.565571375559, -13778.978738663047, -8803.994513034168, -7432.9161564011765, -8017.883660541018, -10987.64818759539, -13049.797779297565, -18671.037992362737, 0.01128125, -0.02653125, 0.9853671875, 192.0, 0.0, 0.0, 0.0, 0.0, 0.0, 0.0, 0.0, 0.0, 0.0, 1.644586959909854E9, 0.0, 2022-02-12 00:42:39.909
114.0, -10959.060306437053, -10969.677385053325, -7765.510113896145, -13190.166734476894, -11555.985993860484, -8462.370450779254, -10973.052498466075, -8711.905325878302, -10996.119498743952, -13780.968043919569, -8813.829280594502, -7438.369982048272, -8021.415236164956, -10999.718129601257, -13054.513997377635, -18669.182797572947, 0.01128125, -0.02653125, 0.9853671875, 192.0, 0.0, 0.0, 0.0, 0.0, 0.0, 0.0, 0.0, 0.0, 0.0, 1.644586959916827E9, 0.0, 2022-02-12 00:42:39.916
116.0, -10996.678292355335, -11023.187461279329, -7783.436212949302, -13181.203684950315, -11567.608900977242, -8476.340291063821, -10980.339167158505, -8737.900404679824, -10982.216713692751, -13783.560846276385, -8796.774899575103, -7428.289345298928, -8001.656294066464, -10987.067042239552, -13036.744360535666, -18670.903881896007, 0.01, -0.022, 0.99, 192.0, 0.0, 40.0, 127.5, 40.0, 15.0, 120.0, 0.0, 0.0, 0.0, 1.644586959924826E9, 0.0, 2022-02-12 00:42:39.924
118.0, -10982.954321259776, -11011.944533818309, -7776.909503568352, -13184.020004751685, -11567.340680043779, -8488.589047025329, -10982.261417181662, -8744.337707082952, -11015.073778042053, -13814.40625362471, -8822.166481276332, -7454.172665378173, -8040.481274185333, -11022.606315923491, -13074.004718542663, -18681.23038783436, 0.01, -0.022, 0.99, 192.0, 0.0, 0.0, 0.0, 0.0, 0.0, 0.0, 0.0, 0.0, 0.0, 1.64458695993291E9, 0.0, 2022-02-12 00:42:39.932
120.0, -10966.011698962653, -10986.12826897243, -7754.557759113045, -13192.111336244505, -11565.261967809436, -8471.981700895036, -10978.059289224064, -8729.809073187003, -10976.226446178729, -13769.00986063598, -8777.373585387897, -7426.724723187056, -8009.725273814831, -11003.137946502919, -13036.833767513486, -18671.865006907585, 0.01, -0.022, 0.99, 192.0, 0.0, 0.0, 0.0, 0.0, 0.0, 0.0, 0.0, 0.0, 0.0, 1.644586959939963E9, 0.0, 2022-02-12 00:42:39.939
122.0, -10986.329434672527, -11011.98923730722, -7786.5878089175, -13179.437897138347, -11571.542808001377, -8494.355797094799, -10989.861010296467, -8762.263806136109, -10991.582094619525, -13788.29941610091, -8805.98381829069, -7464.454467827615, -8020.476462897834, -11033.491615473225, -13055.877453789408, -18679.486951766845, 0.01, -0.022, 0.99, 192.0, 0.0, 0.0, 0.0, 0.0, 0.0, 0.0, 0.0, 0.0, 0.0, 1.644586959947311E9, 0.0, 2022-02-12 00:42:39.947
124.0, -10957.652146536368, -10995.828926066033, -7761.956186527752, -13182.008347750707, -11569.95583414505, -8477.033195141936, -10973.611292077458, -8726.948049896724, -10997.929990044831, -13802.269256385478, -8817.204394007254, -7450.216406609584, -8028.724256601841, -11034.586850951535, -13059.900767791363, -18676.670631965477, 0.01, -0.022, 0.99, 192.0, 0.0, 0.0, 0.0, 0.0, 0.0, 0.0, 0.0, 0.0, 0.0, 1.644586959954151E9, 0.0, 2022-02-12 00:42:39.954
126.0, -10982.037899737108, -11016.481937942737, -7776.7753931016205, -13171.346565645525, -11576.326081314814, -8486.197410368612, -10980.093297969497, -8750.417381574796, -10973.946568244288, -13784.946654432613, -8795.523201885606, -7424.04251385242, -8011.066378482149, -11001.41686217986, -13040.477101859702, -18669.473370250867, 0.012, -0.02, 0.99, 192.0, 0.0, 48.0, 127.5, 48.0, 15.0, 120.0, 0.0, 0.0, 0.0, 1.644586959962088E9, 0.0, 2022-02-12 00:42:39.962
128.0, -10973.767754288645, -11027.300182259105, -7775.367233200936, -13176.84509478153, -11583.121011629226, -8484.833953956837, -10990.017472507652, -8750.77500948608, -11009.75406286169, -13820.374169394276, -8816.802062607057, -7467.38254635126, -8042.649393397498, -11020.70641764479, -13074.004718542663, -18674.63662322004, 0.012, -0.02, 0.99, 192.0, 0.0, 0.0, 0.0, 0.0, 0.0, 0.0, 0.0, 0.0, 0.0, 1.644586959970106E9, 0.0, 2022-02-12 00:42:39.970
130.0, -10967.442210607793, -11028.395417737416, -7766.515942396634, -13182.880065784462, -11581.176409861615, -8488.767860980972, -10980.249760180684, -8742.05782914851, -10985.480068383225, -13798.223590639067, -8786.403690147841, -7430.27865055545, -8020.58822162011, -11009.172917505852, -13041.393523382369, -18668.176969072458, 0.012, -0.02, 0.99, 192.0, 0.0, 0.0, 0.0, 0.0, 0.0, 0.0, 0.0, 0.0, 0.0, 1.644586959976779E9, 0.0, 2022-02-12 00:42:39.976
132.0, -11008.927048316842, -11029.334191004538, -7794.768547388143, -13178.700289571321, -11598.230790881014, -8509.756149024504, -10995.158373732374, -8777.284178410075, -11012.36921696296, -13811.098195445324, -8811.348236959962, -7474.333938876861, -8041.4423991969115, -11048.221415069273, -13066.360421938947, -18683.823190191175, 0.012, -0.02, 0.99, 192.0, 0.0, 0.0, 0.0, 0.0, 0.0, 0.0, 0.0, 0.0, 0.0, 1.64458695999176E9, 0.0, 2022-02-12 00:42:39.991
134.0, -10957.607443047458, -10995.761870832666, -7768.1476197418715, -13183.841190796042, -11592.106412900259, -8491.383015082243, -10984.474239882737, -8750.68560250826, -11014.805557108588, -13804.079747686357, -8811.817623593524, -7476.770279022489, -8032.9934397928055, -11054.926938405864, -13068.282671962104, -18676.93885289894, 0.012, -0.02, 0.99, 192.0, 0.0, 0.0, 0.0, 0.0, 0.0, 0.0, 0.0, 0.0, 0.0, 1.644586959999861E9, 0.0, 2022-02-12 00:42:39.999
136.0, -10977.276978168127, -11044.935708634343, -7784.576151916523, -13174.74403080273, -11608.356131119268, -8504.481137333052, -10995.694815599301, -8762.576730558483, -10995.426594665838, -13783.471439298564, -8801.960504288734, -7459.067697413886, -8023.091616999104, -11037.246708541717, -13049.708372319743, -18672.98259413035, 0.012, -0.022, 0.99, 192.0, 0.0, 48.0, 127.5, 40.0, 15.0, 120.0, 0.0, 0.0, 0.0, 1.644586960006397E9, 0.0, 2022-02-12 00:42:40.006
138.0, -10976.02528047863, -11061.565406509091, -7776.35070995697, -13172.151228445915, -11601.114165915747, -8501.731872765049, -10996.074795255041, -8768.209370161221, -11017.510118187682, -13834.701637590128, -8838.147978561876, -7477.95492147862, -8059.927291861451, -11058.480865774258, -13081.716070379744, -18676.916501154483, 0.012, -0.022, 0.99, 192.0, 0.0, 0.0, 0.0, 0.0, 0.0, 0.0, 0.0, 0.0, 0.0, 1.644586960015818E9, 0.0, 2022-02-12 00:42:40.015
140.0, -10971.867856009943, -11029.915336360376, -7763.073773750517, -13179.259083182704, -11598.00727343646, -8495.383977339743, -10979.84742878049, -8753.568977542995, -10988.7434230737, -13805.35379712031, -8795.12087048541, -7437.766484947978, -8016.0284657512275, -11021.220507767262, -13040.253584415148, -18664.667745192975, 0.012, -0.022, 0.99, 192.0, 0.0, 0.0, 0.0, 0.0, 0.0, 0.0, 0.0, 0.0, 0.0, 1.644586960023753E9, 0.0, 2022-02-12 00:42:40.023
142.0, -10989.861010296467, -11032.41873173937, -7789.314721741048, -13180.913112272396, -11621.588363836809, -8515.299381649422, -11000.098109256996, -8779.966387744713, -11010.089339028518, -13815.725006547573, -8814.723350372715, -7490.226029184584, -8054.428762725444, -11051.976508137765, -13059.990174769186, -18678.79404768873, 0.012, -0.022, 0.99, 192.0, 0.0, 0.0, 0.0, 0.0, 0.0, 0.0, 0.0, 0.0, 0.0, 1.64458696003029E9, 0.0, 2022-02-12 00:42:40.030
144.0, -10958.702678525768, -11020.214679266774, -7760.860951049442, -13179.817876794086, -11612.11122418776, -8501.01661694248, -10994.577228376536, -8746.796398973036, -11004.747272103701, -13807.454861099108, -8813.471652683218, -7486.739157049556, -8046.225672510347, -11068.04741240113, -13059.811360813543, -18674.122533097572, 0.012, -0.022, 0.99, 192.0, 0.0, 0.0, 0.0, 0.0, 0.0, 0.0, 0.0, 0.0, 0.0, 1.644586960037399E9, 0.0, 2022-02-12 00:42:40.037
146.0, -10981.523809614637, -11068.963833923797, -7776.842448334986, -13169.446667366823, -11604.086947928305, -8504.34702686632, -10988.36344341796, -8770.332785884475, -10987.581132362026, -13805.197334909122, -8795.389091418874, -7449.791723464933, -8021.974029776339, -11047.372048779971, -13035.447959357258, -18667.864044650083, 0.012, -0.022, 0.99, 192.0, 0.0, 48.0, 127.5, 40.0, 15.0, 120.0, 0.0, 0.0, 0.0, 1.644586960044151E9, 0.0, 2022-02-12 00:42:40.044
148.0, -10985.278902683129, -11068.00270891222, -7778.25060823567, -13167.703231299309, -11612.088872443304, -8508.63856180174, -10991.26917019715, -8775.004300475633, -11019.141795532918, -13838.210861469612, -8825.474539455718, -7481.508848847014, -8065.9846146088385, -11077.882179961465, -13067.880340561907, -18670.30038479571, 0.012, -0.022, 0.99, 192.0, 0.0, 0.0, 0.0, 0.0, 0.0, 0.0, 0.0, 0.0, 0.0, 1.64458696005194E9, 0.0, 2022-02-12 00:42:40.051
150.0, -10968.068059452542, -11035.883252129943, -7755.585939357989, -13168.396135377425, -11605.897439229184, -8495.071052917368, -10983.893094526898, -8741.96842217069, -10990.12923122993, -13806.091404687335, -8787.856553537435, -7438.548796003914, -8025.259736211269, -11051.551824993114, -13032.072845944507, -18657.671649178465, 0.012, -0.022, 0.99, 192.0, 0.0, 0.0, 0.0, 0.0, 0.0, 0.0, 0.0, 0.0, 0.0, 1.644586960058619E9, 0.0, 2022-02-12 00:42:40.058
152.0, -10990.397452163394, -11034.050409084608, -7785.202000761271, -13169.021984222172, -11618.34736089079, -8513.332428137353, -10996.655940610879, -8773.774954530592, -11012.168051262863, -13803.073919185868, -8803.525126400606, -7485.867439015799, -8044.750457376297, -11060.648984986423, -13052.189415954283, -18663.952489370407, 0.012, -0.022, 0.99, 192.0, 0.0, 0.0, 0.0, 0.0, 0.0, 0.0, 0.0, 0.0, 0.0, 1.644586960066562E9, 0.0, 2022-02-12 00:42:40.066
154.0, -10951.460713322249, -11036.486749230236, -7759.497494637668, -13177.090963970539, -11604.936314217606, -8502.268314631978, -10974.930045000321, -8743.913023938301, -11014.000894308198, -13814.182736180155, -8816.153862017854, -7507.325113692894, -8036.97205030585, -11068.695612990334, -13050.043648486573, -18659.482140479344, 0.012, -0.022, 0.99, 192.0, 0.0, 0.0, 0.0, 0.0, 0.0, 0.0, 0.0, 0.0, 0.0, 1.644586960074983E9, 0.0, 2022-02-12 00:42:40.074
156.0, -10966.570492574036, -11092.790793513155, -7781.335148970503, -13169.446667366823, -11625.857547027774, -8525.134149209756, -10999.092280756508, -8771.0703934515, -10990.240989952206, -13797.798907494416, -8802.385187433385, -7464.610930038802, -8037.35202996159, -11071.199008369329, -13029.904726732342, -18658.766884656776, 0.012, -0.024, 0.992, 192.0, 0.0, 48.0, 127.5, 32.0, 15.5, 0.0, 0.0, 0.0, 0.0, 1.644586960081704E9, 0.0, 2022-02-12 00:42:40.081
158.0, -10996.27596095514, -11083.7159852643, -7783.972654816229, -13167.166789432382, -11628.87503252924, -8524.553003853918, -10993.839620809511, -8771.651538807339, -11026.383760736438, -13844.670515617194, -8842.975955364223, -7503.122985735296, -8069.672652443965, -11101.19504942835, -13066.785105083598, -18665.628870204553, 0.012, -0.024, 0.992, 192.0, 0.0, 0.0, 0.0, 0.0, 0.0, 0.0, 0.0, 0.0, 0.0, 1.644586960090099E9, 0.0, 2022-02-12 00:42:40.090
160.0, -10973.901864755377, -11039.23601379824, -7763.587863872989, -13167.74793478822, -11623.376503393234, -8513.73475953755, -10991.60444636398, -8754.06071592101, -10997.058272011074, -13818.92130600468, -8795.143222229866, -7458.821828224877, -8033.216957237359, -11063.979394910264, -13032.653991300343, -18654.765922399274, 0.012, -0.024, 0.992, 192.0, 0.0, 0.0, 0.0, 0.0, 0.0, 0.0, 0.0, 0.0, 0.0, 1.644586960097809E9, 0.0, 2022-02-12 00:42:40.097
162.0, -10966.97282397423, -11086.733470765766, -7790.655826408366, -13164.953966731307, -11630.77493080794, -8533.73957082505, -10992.498516142192, -8779.653463322338, -11016.884269342932, -13822.385826395253, -8817.025580051612, -7497.244476943551, -8054.384059236534, -11084.05126143113, -13046.310907162537, -18661.583204458144, 0.012, -0.024, 0.992, 192.0, 0.0, 0.0, 0.0, 0.0, 0.0, 0.0, 0.0, 0.0, 0.0, 1.644586960114377E9, 0.0, 2022-02-12 00:42:40.114
164.0, -10975.354728144972, -11079.737374751256, -7753.663689334833, -13171.883007512452, -11615.218116667047, -8523.949506753625, -10970.616158320447, -8743.711858238205, -11017.308952487583, -13821.916439761691, -8815.46095793974, -7497.646808343746, -8064.576454708154, -11105.352473897037, -13046.757942051643, -18656.464654977877, 0.012, -0.024, 0.992, 192.0, 0.0, 0.0, 0.0, 0.0, 0.0, 0.0, 0.0, 0.0, 0.0, 1.644586960120138E9, 0.0, 2022-02-12 00:42:40.120
166.0, -10981.590864848002, -11073.098906648029, -7766.381831929903, -13157.622594549966, -11625.745788305496, -8522.697809064128, -10982.88726602641, -8759.73805901266, -10992.27499869764, -13815.568544336385, -8788.638864593371, -7468.835409740855, -8034.06632352666, -11073.367127581492, -13017.90183995984, -18648.462730462878, 0.012, -0.022, 0.99, 192.0, 0.0, 48.0, 127.5, 40.0, 15.0, 120.0, 0.0, 0.0, 0.0, 1.644586960126868E9, 0.0, 2022-02-12 00:42:40.126
168.0, -10967.777486774623, -11056.268043073183, -7765.398355173869, -13158.896643983919, -11619.710817302564, -8513.108910692801, -10968.962129230755, -8763.224931147686, -11016.593696665013, -13827.347913664331, -8822.658219654348, -7515.125872507796, -8058.139152305026, -11089.706252778322, -13050.021296742118, -18647.45690196239, 0.012, -0.022, 0.99, 192.0, 0.0, 0.0, 0.0, 0.0, 0.0, 0.0, 0.0, 0.0, 0.0, 1.644586960134244E9, 0.0, 2022-02-12 00:42:40.134
170.0, -10943.45878880725, -11037.336115519538, -7750.377982899903, -13150.626498535456, -11623.376503393234, -8510.583163569352, -10971.331414143016, -8734.480587778162, -10982.395527648394, -13795.295512115421, -8786.046062236555, -7474.982139466065, -8014.709712828364, -11071.042546158142, -13013.163270135317, -18633.5988204001, 0.012, -0.022, 0.99, 192.0, 0.0, 0.0, 0.0, 0.0, 0.0, 0.0, 0.0, 0.0, 0.0, 1.644586960141496E9, 0.0, 2022-02-12 00:42:40.141
172.0, -10967.26339665215, -11096.344720881549, -7776.909503568352, -13142.311649598081, -11632.361904664267, -8528.643373089239, -10981.926141014832, -8763.426096847785, -11003.27205696965, -13814.629771069262, -8807.593143891472, -7477.977273223076, -8058.876759872051, -11095.987092970265, -13039.404218125846, -18641.265468748268, 0.012, -0.022, 0.99, 192.0, 0.0, 0.0, 0.0, 0.0, 0.0, 0.0, 0.0, 0.0, 0.0, 1.644586960149687E9, 0.0, 2022-02-12 00:42:40.149
174.0, -10936.865024192934, -11066.058107144609, -7746.332317153492, -13146.781998489143, -11637.882785544729, -8520.037951473947, -10988.519905629148, -8744.1141896384, -11000.925123801842, -13817.155518192712, -8809.291876470075, -7481.419441869193, -8058.608538938587, -11095.741223781255, -13043.874567016908, -18637.35391346859, 0.012, -0.022, 0.99, 192.0, 0.0, 0.0, 0.0, 0.0, 0.0, 0.0, 0.0, 0.0, 0.0, 1.644586960157659E9, 0.0, 2022-02-12 00:42:40.157
176.0, -10981.613216592457, -11086.53230506567, -7765.331299940503, -13146.759646744687, -11646.577614137843, -8535.773579570483, -10996.119498743952, -8765.907140482324, -10987.201152706284, -13804.68324478665, -8777.39593713235, -7467.315491117894, -8030.959431047372, -11083.760688753211, -13025.412026096825, -18638.82912860264, 0.004, -0.024, 0.992, 192.0, 0.0, 16.0, 127.5, 32.0, 15.5, 0.0, 0.0, 0.0, 0.0, 1.644586960163975E9, 0.0, 2022-02-12 00:42:40.163
178.0, -10983.177838704329, -11088.700424277833, -7772.595616888478, -13145.530300799644, -11649.483340917033, -8535.751227826027, -10985.971806761243, -8769.461067850718, -11024.260345013183, -13847.240966229554, -8814.768053861626, -7516.086997519375, -8070.07498384416, -11128.575936386102, -13058.425552657314, -18644.752340883297, 0.004, -0.024, 0.992, 192.0, 0.0, 0.0, 0.0, 0.0, 0.0, 0.0, 0.0, 0.0, 0.0, 1.644586960172942E9, 0.0, 2022-02-12 00:42:40.172
180.0, -10947.526806298114, -11051.216548826284, -7758.8716457929195, -13151.341754358025, -11636.474625644045, -8524.441245131642, -10971.577283332024, -8738.97328841368, -10997.885286555922, -13814.540364091441, -8788.59416110446, -7485.353348893327, -8033.708695615375, -11089.438031844858, -13022.282781873082, -18630.06724477616, 0.004, -0.024, 0.992, 192.0, 0.0, 0.0, 0.0, 0.0, 0.0, 0.0, 0.0, 0.0, 0.0, 1.644586960180638E9, 0.0, 2022-02-12 00:42:40.180
182.0, -10972.985443232708, -11104.413700629915, -7792.712186898254, -13138.489501296222, -11664.503713191, -8549.78812334396, -11002.780318591633, -8784.123812213398, -11010.804594851088, -13832.846442800337, -8809.493042170172, -7515.371741696805, -8059.837884883629, -11104.324293652093, -13042.377000138404, -18639.052646047192, 0.004, -0.024, 0.992, 192.0, 0.0, 0.0, 0.0, 0.0, 0.0, 0.0, 0.0, 0.0, 0.0, 1.644586960189167E9, 0.0, 2022-02-12 00:42:40.189
184.0, -10947.571509787025, -11077.301034605627, -7765.040727262584, -13142.915146698375, -11652.411419440677, -8542.121474995789, -10988.341091673505, -8752.1161141534, -11015.811385609077, -13835.59570736834, -8812.46582418273, -7504.620552613802, -8079.127440348559, -11120.752825826745, -13052.591747354478, -18638.73972162482, 0.007, -0.021, 0.993, 192.0, 0.0, 40.0, 127.5, 56.0, 15.5, 8.0, 0.0, 0.0, 0.0, 1.644586960195302E9, 0.0, 2022-02-12 00:42:40.195
186.0, -10961.36253611595, -11094.444822602847, -7774.651977378367, -13139.718847241265, -11656.613547398276, -8552.716201867604, -10990.41980390785, -8775.16076268682, -10990.531562630125, -13809.712387289095, -8790.851687294447, -7481.732366291567, -8048.326736489146, -11102.53615409567, -13022.930982462285, -18637.510375679776, 0.007, -0.021, 0.993, 192.0, 0.0, 0.0, 0.0, 0.0, 0.0, 0.0, 0.0, 0.0, 0.0, 1.644586960201797E9, 0.0, 2022-02-12 00:42:40.201
188.0, -10981.054422981075, -11103.184354684872, -7780.0610995365505, -13141.93166994234, -11665.688355647131, -8571.178742787688, -10986.08356548352, -8764.856608492924, -11023.388626979426, -13859.355611724332, -8822.41235046534, -7528.805140114444, -8089.900981176017, -11145.563262172134, -13057.598538112466, -18644.84174786112, 0.007, -0.021, 0.993, 192.0, 0.0, 0.0, 0.0, 0.0, 0.0, 0.0, 0.0, 0.0, 0.0, 1.644586960210049E9, 0.0, 2022-02-12 00:42:40.210
190.0, -10953.718239512235, -11076.988110183253, -7765.666576107333, -13145.060914166084, -11665.397782969212, -8556.806571102927, -10987.581132362026, -8751.087933908455, -10997.192382477806, -13816.015579225492, -8783.430908135284, -7489.7342908065675, -8051.813608624174, -11118.115319981018, -13027.110758675428, -18634.515241922767, 0.007, -0.021, 0.993, 192.0, 0.0, 0.0, 0.0, 0.0, 0.0, 0.0, 0.0, 0.0, 0.0, 1.644586960217069E9, 0.0, 2022-02-12 00:42:40.217
192.0, -10965.251739651172, -11120.082273493084, -7795.282637510614, -13137.014286162173, -11686.4084227572, -8577.191362046166, -11014.582039664036, -8794.942056529768, -11013.062121041075, -13842.368285938299, -8807.302571213553, -7525.228861001595, -8063.436515740934, -11143.909233082442, -13048.814302541532, -18646.473425206357, 0.007, -0.021, 0.993, 192.0, 0.0, 0.0, 0.0, 0.0, 0.0, 0.0, 0.0, 0.0, 0.0, 1.644586960224641E9, 0.0, 2022-02-12 00:42:40.224
194.0, -10940.64246900588, -11080.586741040557, -7768.035861019595, -13142.155187386894, -11674.651405173709, -8560.36049847132, -10999.047577267596, -8763.090820680954, -11014.425577452848, -13844.715219106105, -8812.89050732738, -7524.804177856944, -8095.958303923405, -11144.557433671645, -13053.083485732495, -18639.16440476947, 0.0115, -0.0205, 0.9924999999999999, 192.0, 0.0, 64.0, 127.5, 48.0, 15.5, 0.0, 0.0, 0.0, 0.0, 1.644586960239575E9, 0.0, 2022-02-12 00:42:40.239
196.0, -10963.575358817025, -11106.6712268199, -7780.262265236648, -13138.042466407118, -11678.048870330915, -8572.117516054812, -10999.874591812444, -8781.419251134306, -10994.443117909805, -13839.97664928158, -8791.343425672463, -7504.620552613802, -8070.969053622372, -11116.349532169048, -13028.071883687006, -18637.5997826576, 0.0115, -0.0205, 0.9924999999999999, 192.0, 0.0, 0.0, 0.0, 0.0, 0.0, 0.0, 0.0, 0.0, 0.0, 1.644586960246657E9, 0.0, 2022-02-12 00:42:40.246
198.0, -10989.525734129636, -11110.649837332945, -7783.078585038017, -13146.424370577857, -11677.288911019436, -8577.303120768443, -11000.500440657192, -8780.838105778468, -11026.89785085891, -13858.416838457208, -8824.26754525513, -7549.994593858075, -8098.84167895814, -11170.30664328416, -13060.43720965829, -18645.579355428144, 0.0115, -0.0205, 0.9924999999999999, 192.0, 0.0, 0.0, 0.0, 0.0, 0.0, 0.0, 0.0, 0.0, 0.0, 1.644586960254842E9, 0.0, 2022-02-12 00:42:40.254
200.0, -10963.083620439009, -11083.447764330836, -7755.4071254023465, -13143.675106009854, -11669.711669649085, -8568.98827183107, -10984.98833000521, -8759.559245057017, -11004.79197559261, -13818.317808904387, -8781.665120323316, -7501.8265845568885, -8070.879646644551, -11141.472892936814, -13020.137014405373, -18629.01671278676, 0.0115, -0.0205, 0.9924999999999999, 192.0, 0.0, 0.0, 0.0, 0.0, 0.0, 0.0, 0.0, 0.0, 0.0, 1.644586960263775E9, 0.0, 2022-02-12 00:42:40.263
202.0, -10974.237140922207, -11133.850948077554, -7789.82881186352, -13128.945306413807, -11688.487134991543, -8584.723899927605, -10999.047577267596, -8792.461012895228, -11012.257458240683, -13850.727838364583, -8801.804042077547, -7512.15309049524, -8078.747460692819, -11158.907253611953, -13036.81141576903, -18638.806776858186, 0.0115, -0.0205, 0.9924999999999999, 192.0, 0.0, 0.0, 0.0, 0.0, 0.0, 0.0, 0.0, 0.0, 0.0, 1.644586960270244E9, 0.0, 2022-02-12 00:42:40.270
204.0, -10940.664820750335, -11088.208685899817, -7761.10682023845, -13141.663449008876, -11677.69124241963, -8565.389640973764, -10985.547123616592, -8764.58838755946, -11014.425577452848, -13873.347803753353, -8808.151937502855, -7534.482483206092, -8106.12834765057, -11161.075372824118, -13046.936756007286, -18632.481233177332, 0.01075, -0.02425, 0.99125, 192.0, 0.0, 40.0, 127.5, 16.0, 15.0, 120.0, 0.0, 0.0, 0.0, 1.644586960276734E9, 0.0, 2022-02-12 00:42:40.276
206.0, -10966.704603040767, -11110.493375121758, -7778.854105335964, -13136.187271617327, -11687.190733813135, -8581.08056558139, -11002.333283702528, -8788.013015748622, -10994.688987098813, -13838.45673065862, -8784.660254080327, -7532.11319829383, -8083.7095479618965, -11139.125959769006, -13023.355665606936, -18632.88356457753, 0.01075, -0.02425, 0.99125, 192.0, 0.0, 0.0, 0.0, 0.0, 0.0, 0.0, 0.0, 0.0, 0.0, 1.644586960284689E9, 0.0, 2022-02-12 00:42:40.284
208.0, -10981.836734037011, -11118.361189170026, -7784.598503660978, -13128.07358838005, -11694.343292038833, -8583.740423171572, -11008.61412389447, -8790.471707638706, -11024.215641524273, -13855.108780277824, -8817.338504473986, -7554.375535771315, -8112.722112264885, -11170.284291539705, -13059.900767791363, -18639.63379140303, 0.01075, -0.02425, 0.99125, 192.0, 0.0, 0.0, 0.0, 0.0, 0.0, 0.0, 0.0, 0.0, 0.0, 1.644586960291747E9, 0.0, 2022-02-12 00:42:40.291
210.0, -10957.719201769734, -11098.088156949063, -7762.135000483394, -13132.096902382005, -11682.049832588415, -8572.139867799267, -10994.51017314317, -8754.932433954767, -10998.198210978295, -13831.818262555393, -8779.653463322338, -7515.05881727443, -8075.528809491255, -11153.6322419205, -13024.875584229898, -18626.468613918856, 0.01075, -0.02425, 0.99125, 192.0, 0.0, 0.0, 0.0, 0.0, 0.0, 0.0, 0.0, 0.0, 0.0, 1.644586960298938E9, 0.0, 2022-02-12 00:42:40.298
212.0, -10971.51022809866, -11137.024895790208, -7789.717053141243, -13121.680989465833, -11692.152821082214, -8583.18162956019, -11007.98827504972, -8785.017881991611, -11011.028112295642, -13865.971728083103, -8797.959542031234, -7526.078227290896, -8079.082736859648, -11172.02772760722, -13037.929002991797, -18631.92243956595, 0.01075, -0.02425, 0.99125, 192.0, 0.0, 0.0, 0.0, 0.0, 0.0, 0.0, 0.0, 0.0, 0.0, 1.644586960306345E9, 0.0, 2022-02-12 00:42:40.306
214.0, -10940.329544583505, -11087.158153910417, -7752.322584667514, -13136.299030339604, -11670.292815004923, -8563.333280483876, -10983.446059637792, -8754.865378721403, -11007.697702371801, -13858.215672757111, -8799.658274609837, -7538.170521041217, -8101.166260381492, -11166.842122893588, -13037.549023336056, -18623.24996271729, 0.009375, -0.025125, 0.990625, 192.0, 0.0, 32.0, 127.5, 24.0, 15.0, 120.0, 0.0, 0.0, 0.0, 1.644586960314414E9, 0.0, 2022-02-12 00:42:40.314
216.0, -10951.304251111062, -11105.039549474663, -7770.405145931858, -13126.777187201642, -11678.02651858646, -8578.510114969029, -10995.448946410294, -8773.372623130397, -10980.942664258799, -13824.799814796426, -8775.36192838692, -7529.051009303452, -8073.807725168196, -11141.562299914634, -13013.207973624227, -18622.311189450167, 0.009375, -0.025125, 0.990625, 192.0, 0.0, 0.0, 0.0, 0.0, 0.0, 0.0, 0.0, 0.0, 0.0, 1.644586960322374E9, 0.0, 2022-02-12 00:42:40.322
218.0, -10966.101105940474, -11129.91704105342, -7779.859933836453, -13123.580887744534, -11682.094536077326, -8581.08056558139, -11002.288580213617, -8775.294873153553, -11019.365312977472, -13867.93868159517, -8821.071245798023, -7565.171428343228, -8108.609391285109, -11183.807096935165, -13051.854139787452, -18629.106119764583, 0.009375, -0.025125, 0.990625, 192.0, 0.0, 0.0, 0.0, 0.0, 0.0, 0.0, 0.0, 0.0, 0.0, 1.644586960330451E9, 0.0, 2022-02-12 00:42:40.330
220.0, -10953.584129045503, -11088.342796366549, -7754.267186435126, -13123.4467772778, -11669.286986504434, -8571.335204998875, -10977.925178757332, -8748.62924201837, -10989.525734129636, -13831.930021277669, -8770.176323673288, -7515.438796930171, -8073.807725168196, -11145.54091042768, -13013.453842813236, -18615.11392773556, 0.009375, -0.025125, 0.990625, 192.0, 0.0, 0.0, 0.0, 0.0, 0.0, 0.0, 0.0, 0.0, 0.0, 1.644586960336943E9, 0.0, 2022-02-12 00:42:40.336
222.0, -10971.912559498855, -11130.028799775697, -7785.805497861565, -13118.954076642285, -11685.871980890273, -8584.232161549588, -10990.710376585768, -8783.520315113106, -11006.55776340458, -13851.174873253689, -8788.482402382184, -7540.740971653578, -8083.463678772889, -11169.725497928323, -13029.323581376504, -18623.294666206202, 0.009375, -0.025125, 0.990625, 192.0, 0.0, 0.0, 0.0, 0.0, 0.0, 0.0, 0.0, 0.0, 0.0, 1.644586960345146E9, 0.0, 2022-02-12 00:42:40.345
224.0, -10940.821282961522, -11098.356377882526, -7761.710317338743, -13126.374855801447, -11683.972082611572, -8575.962016101124, -10987.849353295489, -8752.496093809139, -11008.301199472095, -13850.526672664486, -8797.110175741933, -7544.898396122265, -8080.7144142048855, -11176.699242198378, -13035.827939012997, -18618.10906149257, 0.0096875, -0.0245625, 0.9923124999999999, 192.0, 0.0, 40.0, 127.5, 32.0, 15.5, 8.0, 0.0, 0.0, 0.0, 1.644586960359736E9, 0.0, 2022-02-12 00:42:40.359
226.0, -10944.531672541103, -11100.233924416772, -7773.892018066886, -13107.822907903543, -11696.623169973276, -8580.41001324773, -11009.12821401694, -8775.965425487211, -10984.206018949273, -13836.378018424275, -8768.388184116862, -7513.695360862656, -8082.4578502724, -11160.091896068085, -13014.86200271392, -18615.225686457838, 0.0096875, -0.0245625, 0.9923124999999999, 192.0, 0.0, 0.0, 0.0, 0.0, 0.0, 0.0, 0.0, 0.0, 0.0, 1.644586960366596E9, 0.0, 2022-02-12 00:42:40.366
228.0, -10950.790160988588, -11092.231999901773, -7777.267131479637, -13113.58965797301, -11700.758242697508, -8575.35851900083, -11005.820155837555, -8781.128678456387, -11015.856089097988, -13855.354649466832, -8807.548440402561, -7568.50183826707, -8111.60452504212, -11195.586466263112, -13051.675325831811, -18624.43460517342, 0.0096875, -0.0245625, 0.9923124999999999, 192.0, 0.0, 0.0, 0.0, 0.0, 0.0, 0.0, 0.0, 0.0, 0.0, 1.644586960374658E9, 0.0, 2022-02-12 00:42:40.374
230.0, -10917.217840816718, -11069.008537412708, -7753.216654445727, -13110.035730604617, -11683.055661088903, -8561.746306627549, -10983.401356148883, -8746.170550128289, -10970.07971645352, -13812.752224535016, -8764.9683672152, -7512.935401551176, -8074.098297846115, -11150.905329096953, -13015.443148069759, -18609.72715732183, 0.0096875, -0.0245625, 0.9923124999999999, 192.0, 0.0, 0.0, 0.0, 0.0, 0.0, 0.0, 0.0, 0.0, 0.0, 1.644586960381183E9, 0.0, 2022-02-12 00:42:40.381
232.0, -10974.058326966564, -11139.975326058307, -7792.77924213162, -13109.991027115706, -11695.237361817046, -8585.059176094433, -11000.61219937947, -8786.604855847938, -10986.038861994608, -13847.665649374207, -8784.660254080327, -7536.15886404024, -8085.184763095947, -11167.937358371897, -13029.301229632048, -18618.645503359498, 0.0096875, -0.0245625, 0.9923124999999999, 192.0, 0.0, 0.0, 0.0, 0.0, 0.0, 0.0, 0.0, 0.0, 0.0, 1.644586960389321E9, 0.0, 2022-02-12 00:42:40.389
234.0, -10952.623004033925, -11110.091043721563, -7774.182590744805, -13127.760663957675, -11681.401631999212, -8577.705452168639, -10982.551989859581, -8749.143332140844, -11012.548030918602, -13876.722917166106, -8807.347274702463, -7561.7069079526555, -8084.380100295556, -11187.495134770292, -13035.96204947973, -18618.243171959304, 0.008843750000000001, -0.02528125, 0.99115625, 192.0, 0.0, 32.0, 127.5, 24.0, 15.0, 120.0, 0.0, 0.0, 0.0, 1.644586960397179E9, 0.0, 2022-02-12 00:42:40.397
236.0, -10965.385850117904, -11146.904366839453, -7787.325416484526, -13126.531318012634, -11692.488097249043, -8592.725824442605, -10989.279864940629, -8771.271559151597, -10991.64914985289, -13861.300213491942, -8787.342463414963, -7543.222015288117, -8090.616236998587, -11177.034518365208, -13006.18952586526, -18614.510430635266, 0.008843750000000001, -0.02528125, 0.99115625, 192.0, 0.0, 0.0, 0.0, 0.0, 0.0, 0.0, 0.0, 0.0, 0.0, 1.644586960405512E9, 0.0, 2022-02-12 00:42:40.405
238.0, -10961.474294838226, -11129.000619530752, -7791.415785719846, -13125.145509856406, -11696.377300784266, -8597.062062866935, -10990.59861786349, -8774.64667256435, -11026.473167714259, -13893.710242952138, -8825.496891200173, -7604.085815439918, -8130.894080507051, -11221.201565408894, -13044.209843183738, -18627.429738930434, 0.008843750000000001, -0.02528125, 0.99115625, 192.0, 0.0, 0.0, 0.0, 0.0, 0.0, 0.0, 0.0, 0.0, 0.0, 1.644586960412296E9, 0.0, 2022-02-12 00:42:40.412
240.0, -10949.270242365628, -11121.15515722694, -7766.627701118911, -13121.479823765734, -11687.570713468876, -8577.057251579434, -10981.255588681173, -8753.59132928745, -10992.99025452021, -13847.710352863116, -8781.285140667575, -7553.503817737558, -8092.471431788377, -11185.97521614733, -13008.29058984406, -18610.040081744206, 0.008843750000000001, -0.02528125, 0.99115625, 192.0, 0.0, 0.0, 0.0, 0.0, 0.0, 0.0, 0.0, 0.0, 0.0, 1.644586960420603E9, 0.0, 2022-02-12 00:42:40.420
242.0, -10980.517981114148, -11154.34749774307, -7800.222373035237, -13112.136794583415, -11696.757280440008, -8600.973618146612, -11001.640379624412, -8792.975103017701, -11005.84250758201, -13864.898844349247, -8802.318132200018, -7564.724393454122, -8103.133213893559, -11202.761376233266, -13026.082578430483, -18619.092538248606, 0.008843750000000001, -0.02528125, 0.99115625, 192.0, 0.0, 0.0, 0.0, 0.0, 0.0, 0.0, 0.0, 0.0, 0.0, 1.644586960426911E9, 0.0, 2022-02-12 00:42:40.426
244.0, -10951.281899366606, -11122.742131083267, -7773.10970701095, -13122.798576688598, -11692.801021671417, -8587.36140577333, -10988.7434230737, -8767.02472770509, -11020.885231600432, -13885.015414359024, -8809.403635192351, -7574.380347058815, -8118.645324545542, -11214.45133858339, -13035.96204947973, -18622.467651661354, 0.008421875, -0.028640625000000003, 0.991578125, 192.0, 0.0, 32.0, 127.5, 0.0, 15.5, 0.0, 0.0, 0.0, 0.0, 1.644586960435038E9, 0.0, 2022-02-12 00:42:40.435
246.0, -10948.398524331871, -11135.572032400612, -7779.30114022507, -13115.109576595973, -11702.188754342647, -8599.140775101278, -10997.348844688993, -8774.467858608707, -10981.7920305481, -13843.463521416608, -8781.352195900941, -7546.418314745226, -8086.682329974453, -11201.487326799313, -13006.413043309814, -18620.63480861602, 0.008421875, -0.028640625000000003, 0.991578125, 192.0, 0.0, 0.0, 0.0, 0.0, 0.0, 0.0, 0.0, 0.0, 0.0, 1.644586960441509E9, 0.0, 2022-02-12 00:42:40.441
248.0, -10967.442210607793, -11134.767369600222, -7787.615989162445, -13116.003646374184, -11699.707710708108, -8607.679141483206, -10991.135059730419, -8777.619454576905, -11003.674388369845, -13878.175780555699, -8807.83901308048, -7598.386120603815, -8113.929106465472, -11222.36385612057, -13042.399351882857, -18625.44043367391, 0.008421875, -0.028640625000000003, 0.991578125, 192.0, 0.0, 0.0, 0.0, 0.0, 0.0, 0.0, 0.0, 0.0, 0.0, 1.644586960449602E9, 0.0, 2022-02-12 00:42:40.449
