%OpenBCI Raw EEG Data
%Number of channels = 16
%Sample Rate = 125 Hz
%Board = OpenBCI_GUI$BoardCytonSerialDaisy
Sample Index, EXG Channel 0, EXG Channel 1, EXG Channel 2, EXG Channel 3, EXG Channel 4, EXG Channel 5, EXG Channel 6, EXG Channel 7, EXG Channel 8, EXG Channel 9, EXG Channel 10, EXG Channel 11, EXG Channel 12, EXG Channel 13, EXG Channel 14, EXG Channel 15, Accel Channel 0, Accel Channel 1, Accel Channel 2, Other, Other, Other, Other, Other, Other, Other, Analog Channel 0, Analog Channel 1, Analog Channel 2, Timestamp, Other, Timestamp (Formatted)
0.0, -11919.246544748134, -11678.808829642396, -8071.97488212286, -13178.74499306023, -12124.077930936568, -8877.08471740302, -11636.698143088597, -9096.556496209681, 0.0, 0.0, 0.0, 0.0, 0.0, 0.0, 0.0, 0.0, 0.0, 0.0, 0.0, 192.0, 0.0, 0.0, 0.0, 0.0, 0.0, 0.0, 0.0, 0.0, 0.0, 1.644586932794398E9, 0.0, 2022-02-12 00:42:12.794
126.0, -11935.049228078036, -11682.429812244156, -8085.922370662973, -13179.169676204881, -12123.407378602908, -8882.247970372197, -11644.655364114686, -9112.627400473048, -11861.1990643977, -14019.617619468883, -9882.890866147383, -8446.590119193806, -9101.384473012027, -12118.400587844919, -13287.195657157381, -18717.686083040964, 0.0, 0.0, 0.0, 192.0, 0.0, 0.0, 0.0, 0.0, 0.0, 0.0, 0.0, 0.0, 0.0, 1.644586932794403E9, 0.0, 2022-02-12 00:42:12.794
0.0, -5953.789467071231, -5969.882723079053, -4130.937651507575, -6537.035886888014, -6377.667948921675, -4701.890611873939, -5872.563227720646, -4709.043170099637, -5907.6331147710225, -6993.436156920929, -4924.9610215379025, -4195.109509838761, -4526.652935344331, -6043.2858518702815, -6628.253356010122, -9352.7074876675, 0.007, -0.011, 0.496, 192.0, 0.0, 56.0, 127.5, 40.0, 15.5, 0.0, 0.0, 0.0, 0.0, 1.644586932890924E9, 0.0, 2022-02-12 00:42:12.890
2.0, -11927.427283218776, -11950.427228263286, -8269.899579274605, -13071.836599330498, -12770.177456161673, -9422.020247223407, -11769.825133064405, -9432.167939206116, -11765.913577784728, -14026.993695139134, -10002.137422816448, -8587.339054028876, -9397.232162622471, -12317.91225885299, -13397.009777666304, -18701.816344477695, 0.007, -0.011, 0.496, 192.0, 0.0, 0.0, 0.0, 0.0, 0.0, 0.0, 0.0, 0.0, 0.0, 1.644586932898704E9, 0.0, 2022-02-12 00:42:12.898
4.0, -11905.701387608218, -11927.36022798541, -8240.082352171225, -13075.770506354631, -12764.522464814481, -9418.8239477663, -11753.597766589854, -9405.390549348658, -11741.349010628344, -14013.605000210406, -9958.462114150776, -8551.777428600482, -9392.650055009133, -12312.190212272431, -13378.4578297684, -18692.182742617457, 0.007, -0.011, 0.496, 192.0, 0.0, 0.0, 0.0, 0.0, 0.0, 0.0, 0.0, 0.0, 0.0, 1.644586932905014E9, 0.0, 2022-02-12 00:42:12.905
6.0, -11899.532306138553, -11945.912175883315, -8263.127000704646, -13061.174817225316, -12770.222159650584, -9434.805445051843, -11772.462638910132, -9444.886081801187, -11747.629850820285, -14005.781889651047, -9964.385326431433, -8548.64818437674, -9389.386700318659, -12316.258229763298, -13369.718297686375, -18691.199265861425, 0.007, -0.011, 0.496, 192.0, 0.0, 0.0, 0.0, 0.0, 0.0, 0.0, 0.0, 0.0, 0.0, 1.644586932913156E9, 0.0, 2022-02-12 00:42:12.913
8.0, -11898.83940206044, -11904.472041663175, -8255.214483167469, -13064.840503315987, -12772.680851540668, -9427.764645548421, -11756.302327668946, -9413.86186049722, -11744.411199618722, -14022.791567181537, -9987.83230636505, -8583.98629236058, -9412.587811063268, -12328.998724102823, -13387.242065339336, -18689.120553627083, 0.012, -0.022, 0.988, 192.0, 0.0, 48.0, 127.5, 40.0, 15.0, 112.0, 0.0, 0.0, 0.0, 1.644586932921354E9, 0.0, 2022-02-12 00:42:12.921
10.0, -11885.316596664978, -11921.012332560103, -8259.215445424968, -13049.998944997662, -12776.838276009355, -9436.526529374902, -11757.151693958247, -9418.91335474412, -11715.622152760287, -13972.790714835015, -9954.438800148822, -8538.925175538681, -9392.493592797946, -12300.634360389038, -13354.49675971231, -18677.475294765867, 0.012, -0.022, 0.988, 192.0, 0.0, 0.0, 0.0, 0.0, 0.0, 0.0, 0.0, 0.0, 0.0, 1.644586932928484E9, 0.0, 2022-02-12 00:42:12.928
12.0, -11896.090137492436, -11914.195050501234, -8282.68477710304, -13044.813340284032, -12782.850895267833, -9443.321459689316, -11773.602577877353, -9449.95992779254, -11733.481196580076, -13992.72847088915, -9983.384309218443, -8565.724917140593, -9412.43134885208, -12325.333038012152, -13383.665786226486, -18682.28091982376, 0.012, -0.022, 0.988, 192.0, 0.0, 0.0, 0.0, 0.0, 0.0, 0.0, 0.0, 0.0, 0.0, 1.644586932936577E9, 0.0, 2022-02-12 00:42:12.936
14.0, -11849.799674725495, -11878.521666350563, -8257.382602379634, -13046.690886818276, -12786.181305191674, -9434.000782251453, -11775.748345345062, -9428.971639749008, -11724.831071475874, -13962.352450174387, -9973.907169569395, -8559.689946137662, -9411.649037796145, -12311.72082563887, -13367.438419751934, -18672.379097030058, 0.012, -0.022, 0.988, 192.0, 0.0, 0.0, 0.0, 0.0, 0.0, 0.0, 0.0, 0.0, 0.0, 1.644586932943055E9, 0.0, 2022-02-12 00:42:12.943
16.0, -11889.630483344852, -11921.235850004656, -8271.06186998628, -13021.254601628138, -12792.842125039355, -9439.275793942905, -11768.305214441445, -9444.573157378813, -11701.428795031166, -13960.921938529247, -9956.696326338808, -8529.649201589727, -9407.603372049734, -12305.797613358214, -13357.849521380607, -18672.066172607683, 0.012, -0.022, 0.988, 192.0, 0.0, 0.0, 0.0, 0.0, 0.0, 0.0, 0.0, 0.0, 0.0, 1.644586932958126E9, 0.0, 2022-02-12 00:42:12.958
18.0, -11877.87346576136, -11872.710212792184, -8264.557512349786, -13025.568488308012, -12797.24541869705, -9429.172805449105, -11771.18858947618, -9422.891965257164, -11714.79513821544, -13973.796543335504, -9970.532056156642, -8555.152542013233, -9440.326325932303, -12314.738311140336, -13373.160466332492, -18657.02344858926, 0.012, -0.022, 0.986, 192.0, 0.0, 48.0, 127.5, 40.0, 15.0, 104.0, 0.0, 0.0, 0.0, 1.644586932966068E9, 0.0, 2022-02-12 00:42:12.966
20.0, -11851.453703815187, -11856.616956784363, -8261.227102425946, -13012.090386401462, -12789.064680226407, -9420.455625111535, -11768.126400485802, -9414.241840152961, -11678.004166842005, -13922.834565977404, -9946.503930867188, -8515.947582238625, -9405.211735393017, -12285.23400845933, -13343.454997951389, -18643.63475366053, 0.012, -0.022, 0.986, 192.0, 0.0, 0.0, 0.0, 0.0, 0.0, 0.0, 0.0, 0.0, 0.0, 1.644586932972759E9, 0.0, 2022-02-12 00:42:12.972
22.0, -11860.528512064042, -11892.938541524238, -8269.452544385498, -13006.591857265455, -12785.086069713363, -9436.615936352722, -11752.61428983382, -9430.670372327611, -11695.796155428428, -13961.234862951622, -9966.017003776671, -8546.144788997744, -9427.362314148226, -12298.846220832613, -13359.391791748023, -18647.188681028925, 0.012, -0.022, 0.986, 192.0, 0.0, 0.0, 0.0, 0.0, 0.0, 0.0, 0.0, 0.0, 0.0, 1.644586932981072E9, 0.0, 2022-02-12 00:42:12.981
24.0, -11841.015439154558, -11850.91726194826, -8239.523558559842, -13005.675435742789, -12783.923779001687, -9430.469206627513, -11754.558891601431, -9415.024151208896, -11677.579483697353, -13938.301973140477, -9940.424256375343, -8525.938812010147, -9420.813253022821, -12295.694624864414, -13338.738779871319, -18632.816509344164, 0.012, -0.022, 0.986, 192.0, 0.0, 0.0, 0.0, 0.0, 0.0, 0.0, 0.0, 0.0, 0.0, 1.644586932988739E9, 0.0, 2022-02-12 00:42:12.988
26.0, -11836.299221074489, -11876.532361094041, -8263.574035593752, -12982.85430465392, -12791.366909905304, -9439.476959643001, -11766.360612673834, -9439.58871836528, -11658.64755614371, -13916.531374041007, -9928.4437213473, -8507.92330597917, -9410.017360450907, -12284.965787525867, -13334.134320513525, -18632.168308754957, 0.013000000000000001, -0.023, 0.985, 192.0, 0.0, 56.0, 127.5, 32.0, 15.0, 96.0, 0.0, 0.0, 0.0, 1.644586932995705E9, 0.0, 2022-02-12 00:42:12.995
28.0, -11826.553860491975, -11844.144683378301, -8245.290308629312, -12988.531647745569, -12775.877150997776, -9430.871538027708, -11755.810589290928, -9410.732616273477, -11650.623279884254, -13905.534315768995, -9940.82658777554, -8519.814434029393, -9421.550860589847, -12293.90648530799, -13350.115817799071, -18623.92051505095, 0.013000000000000001, -0.023, 0.985, 192.0, 0.0, 0.0, 0.0, 0.0, 0.0, 0.0, 0.0, 0.0, 0.0, 1.644586933003262E9, 0.0, 2022-02-12 00:42:13.003
30.0, -11850.313764847966, -11864.82004699946, -8247.81605575276, -12982.384918020358, -12777.978214976576, -9436.191253208071, -11744.724124041097, -9399.556744045824, -11643.895404803206, -13916.12904264081, -9918.363084597955, -8510.314942635887, -9391.510116041913, -12275.890979277014, -13312.833108047618, -18610.39770965549, 0.013000000000000001, -0.023, 0.985, 192.0, 0.0, 0.0, 0.0, 0.0, 0.0, 0.0, 0.0, 0.0, 0.0, 1.644586933010268E9, 0.0, 2022-02-12 00:42:13.010
32.0, -11857.779247496039, -11857.935709707226, -8264.78102979434, -12983.882484898864, -12783.655558068223, -9435.58775610778, -11748.590975831865, -9425.842395525266, -11660.16747476667, -13917.000760674568, -9945.185177944324, -8545.004850030524, -9410.665561040112, -12296.029901031245, -13331.385055945524, -18612.319959678647, 0.013000000000000001, -0.023, 0.985, 192.0, 0.0, 0.0, 0.0, 0.0, 0.0, 0.0, 0.0, 0.0, 0.0, 1.64458693301829E9, 0.0, 2022-02-12 00:42:13.018
34.0, -11827.738502948107, -11840.478997287632, -8242.138712661113, -12985.804734922021, -12785.33193890237, -9429.10575021574, -11756.503493369042, -9406.105805171228, -11649.796265339406, -13902.539182011984, -9933.606974316475, -8536.064152248402, -9425.48476761398, -12263.374002382041, -13325.104215753581, -18597.3889943825, 0.013000000000000001, -0.023, 0.985, 192.0, 0.0, 0.0, 0.0, 0.0, 0.0, 0.0, 0.0, 0.0, 0.0, 1.644586933024899E9, 0.0, 2022-02-12 00:42:13.024
36.0, -11839.875500187338, -11882.88025651935, -8261.16004719258, -12965.934034101252, -12789.53406685997, -9447.34477369127, -11760.482103882088, -9434.53722411838, -11626.30458191688, -13898.56057149894, -9926.38736085741, -8506.381035611754, -9427.652886826145, -12280.026052001245, -13315.202392959882, -18601.38995664, 0.0145, -0.0265, 0.9855, 192.0, 0.0, 64.0, 127.5, 8.0, 15.0, 104.0, 0.0, 0.0, 0.0, 1.644586933032936E9, 0.0, 2022-02-12 00:42:13.032
38.0, -11841.238956599112, -11859.992070197115, -8250.96765172096, -12976.729926673166, -12783.230874923573, -9443.120293989217, -11745.014696719016, -9418.488671599469, -11637.078122744337, -13900.907504666748, -9943.128817454437, -8526.989343999547, -9435.833625296787, -12297.549819654205, -13330.155710000481, -18596.941959493393, 0.0145, -0.0265, 0.9855, 192.0, 0.0, 0.0, 0.0, 0.0, 0.0, 0.0, 0.0, 0.0, 0.0, 1.644586933040897E9, 0.0, 2022-02-12 00:42:13.040
40.0, -11849.263232858568, -11851.274889859546, -8246.050267940793, -12960.457856709703, -12781.24156966705, -9439.141683476173, -11742.757170529028, -9403.468299325503, -11606.702102029574, -13889.776335928003, -9902.113366378948, -8491.070090659869, -9411.62668605169, -12275.37688915454, -13296.270465406236, -18586.593101810588, 0.0145, -0.0265, 0.9855, 192.0, 0.0, 0.0, 0.0, 0.0, 0.0, 0.0, 0.0, 0.0, 0.0, 1.644586933048897E9, 0.0, 2022-02-12 00:42:13.048
42.0, -11846.983354924127, -11852.3477735934, -8259.595425080708, -12951.003068805108, -12788.304720914928, -9446.651869613155, -11749.105065954336, -9431.005648494442, -11616.179241678625, -13909.535278026497, -9909.109462393459, -8513.354779881809, -9428.748122304454, -12295.493459164318, -13319.06924475065, -18591.39872686848, 0.0145, -0.0265, 0.9855, 192.0, 0.0, 0.0, 0.0, 0.0, 0.0, 0.0, 0.0, 0.0, 0.0, 1.644586933055997E9, 0.0, 2022-02-12 00:42:13.055
44.0, -11804.358578247855, -11818.596639465886, -8233.488587556909, -12952.590042661435, -12781.398031878238, -9425.216546680516, -11754.51418811252, -9400.562572546312, -11602.522325816433, -13868.229254273088, -9904.460299546756, -8512.34895138132, -9421.953191990042, -12272.359403653074, -13297.388052629001, -18574.38904933799, 0.0145, -0.0265, 0.9855, 192.0, 0.0, 0.0, 0.0, 0.0, 0.0, 0.0, 0.0, 0.0, 0.0, 1.64458693306372E9, 0.0, 2022-02-12 00:42:13.063
46.0, -11803.218639280634, -11829.52664250453, -8249.023049953348, -12932.495824396114, -12774.893674241743, -9433.956078762541, -11750.446170621655, -9413.5712878193, -11580.10352612776, -13867.178722283688, -9886.981235382706, -8480.542419021418, -9394.102918398728, -12257.450790101384, -13287.441526346389, -18570.097514402572, 0.01425, -0.02725, 0.98375, 192.0, 0.0, 56.0, 127.5, 16.0, 15.0, 88.0, 0.0, 0.0, 0.0, 1.644586933079571E9, 0.0, 2022-02-12 00:42:13.079
48.0, -11786.56658966143, -11803.084528813903, -8240.663497527063, -12935.781530831044, -12768.14344741624, -9434.492520629468, -11733.682362280175, -9394.684063754567, -11583.299825584869, -13859.377963468787, -9909.623552515932, -8516.148747938723, -9420.835604767277, -12275.980386254834, -13302.752471298274, -18563.749618977265, 0.01425, -0.02725, 0.98375, 192.0, 0.0, 0.0, 0.0, 0.0, 0.0, 0.0, 0.0, 0.0, 0.0, 1.644586933085889E9, 0.0, 2022-02-12 00:42:13.085
50.0, -11796.401357221766, -11801.497554957576, -8227.095988642692, -12918.235411433627, -12770.691546284146, -9428.882232771186, -11741.661935050719, -9387.352691573225, -11559.897549140162, -13837.361495180308, -9870.664461930332, -8468.383070037731, -9397.545087044846, -12239.077656159123, -13271.817656972129, -18553.646630483465, 0.01425, -0.02725, 0.98375, 192.0, 0.0, 0.0, 0.0, 0.0, 0.0, 0.0, 0.0, 0.0, 0.0, 1.64458693309314E9, 0.0, 2022-02-12 00:42:13.093
52.0, -11793.205057764657, -11793.339168231389, -8242.719858016952, -12909.674693307245, -12764.723630514578, -9438.828759053798, -11739.113836182814, -9408.273924383393, -11574.023851635917, -13846.950393551637, -9881.90738939135, -8491.315959848876, -9420.992066978462, -12266.816171028158, -13292.805945015663, -18556.708819473843, 0.01425, -0.02725, 0.98375, 192.0, 0.0, 0.0, 0.0, 0.0, 0.0, 0.0, 0.0, 0.0, 0.0, 1.644586933101563E9, 0.0, 2022-02-12 00:42:13.101
54.0, -11758.626909092298, -11757.308156169434, -8212.567354746741, -12909.853507262887, -12759.403915334215, -9423.026075723896, -11737.951545471138, -9386.302159583827, -11552.320307769813, -13817.446090870631, -9867.401107239855, -8472.20521833959, -9402.887153969665, -12252.37694411003, -13277.405593085956, -18546.069389113116, 0.01425, -0.02725, 0.98375, 192.0, 0.0, 0.0, 0.0, 0.0, 0.0, 0.0, 0.0, 0.0, 0.0, 1.644586933107862E9, 0.0, 2022-02-12 00:42:13.107
56.0, -11780.732784358595, -11790.008758307547, -8232.348648589688, -12901.18103041423, -12761.862607224299, -9428.368142648715, -11734.46467333611, -9401.680159769077, -11533.500138938445, -13803.006863952502, -9849.989098309172, -8454.592043708806, -9391.107784641717, -12239.457635814862, -13269.62718601551, -18545.15296759045, 0.015125, -0.029625, 0.9858750000000001, 192.0, 0.0, 64.0, 127.5, 0.0, 15.0, 112.0, 0.0, 0.0, 0.0, 1.644586933116195E9, 0.0, 2022-02-12 00:42:13.116
58.0, -11732.676533779686, -11755.095333468358, -8225.665476997552, -12905.226696160638, -12764.433057836659, -9423.33900014627, -11725.702789509629, -9384.37990956067, -11547.827607134297, -13816.395558881231, -9882.488534747188, -8491.628884271251, -9415.158261675628, -12256.333202878619, -13286.77097401273, -18540.39204602147, 0.015125, -0.029625, 0.9858750000000001, 192.0, 0.0, 0.0, 0.0, 0.0, 0.0, 0.0, 0.0, 0.0, 0.0, 1.644586933123964E9, 0.0, 2022-02-12 00:42:13.123
60.0, -11748.009830476027, -11762.873740538806, -8222.692694984997, -12893.916713466253, -12763.762505503, -9422.020247223407, -11730.4190075897, -9381.071851381284, -11505.336940924757, -13784.92430268816, -9855.80055186755, -8442.924433103137, -9392.80651722032, -12223.789062951691, -13256.976098653806, -18527.629199937488, 0.015125, -0.029625, 0.9858750000000001, 192.0, 0.0, 0.0, 0.0, 0.0, 0.0, 0.0, 0.0, 0.0, 0.0, 1.644586933129932E9, 0.0, 2022-02-12 00:42:13.129
62.0, -11779.52579015801, -11772.66380461023, -8240.708201015974, -12882.293806349493, -12773.418459107694, -9433.82196829581, -11741.46076935062, -9406.821060993798, -11539.892737852662, -13816.552021092419, -9873.279616031601, -8470.595892738807, -9421.215584423016, -12247.23604288531, -13284.647558289476, -18533.86533664052, 0.015125, -0.029625, 0.9858750000000001, 192.0, 0.0, 0.0, 0.0, 0.0, 0.0, 0.0, 0.0, 0.0, 0.0, 1.644586933139062E9, 0.0, 2022-02-12 00:42:13.139
64.0, -11748.210996176123, -11726.619211032297, -8212.746168702384, -12888.887570963809, -12757.57107228888, -9423.741331546466, -11718.907859195217, -9363.592787217234, -11519.753816098431, -13790.44518356862, -9850.212615753724, -8441.76214239146, -9406.798709249344, -12236.216632868844, -13267.347308081069, -18520.744862645253, 0.015125, -0.029625, 0.9858750000000001, 192.0, 0.0, 0.0, 0.0, 0.0, 0.0, 0.0, 0.0, 0.0, 0.0, 1.644586933147197E9, 0.0, 2022-02-12 00:42:13.147
66.0, -11742.556004828932, -11746.556967086432, -8235.232023624423, -12871.855541688865, -12760.05211592342, -9433.86667178472, -11729.122606411293, -9390.280770096871, -11501.760661811908, -13758.705706442084, -9836.80156908054, -8436.084799299813, -9392.270075353394, -12231.723932233326, -13253.332764307592, -18515.04516780915, 0.0155625, -0.0308125, 0.9849375, 192.0, 0.0, 64.0, 127.5, 0.0, 15.0, 96.0, 0.0, 0.0, 0.0, 1.644586933153587E9, 0.0, 2022-02-12 00:42:13.153
68.0, -11721.3665510853, -11727.356818599323, -8224.369075819144, -12875.476524290625, -12754.754752487512, -9419.114520444218, -11731.983629701572, -9392.38183407567, -11513.42827241758, -13773.860189182782, -9865.925892105806, -8466.661985714672, -9418.779244277388, -12253.293365632697, -13272.354098839058, -18512.7205863858, 0.0155625, -0.0308125, 0.9849375, 192.0, 0.0, 0.0, 0.0, 0.0, 0.0, 0.0, 0.0, 0.0, 0.0, 1.644586933160065E9, 0.0, 2022-02-12 00:42:13.160
70.0, -11727.89326046625, -11723.98170518657, -8212.567354746741, -12864.613576485346, -12751.603156519313, -9413.86186049722, -11712.425853303177, -9359.52476972637, -11476.212617899493, -13761.007936120981, -9831.459502155722, -8420.013895036447, -9388.559685773813, -12211.160327334444, -13233.797339653653, -18495.55444664412, 0.0155625, -0.0308125, 0.9849375, 192.0, 0.0, 0.0, 0.0, 0.0, 0.0, 0.0, 0.0, 0.0, 0.0, 1.644586933168351E9, 0.0, 2022-02-12 00:42:13.168
72.0, -11734.487025080565, -11730.910745967716, -8228.43709331001, -12859.427971771715, -12753.748923987023, -9414.845337253253, -11714.146937626236, -9385.162220616607, -11497.022091987383, -13764.96419488957, -9845.809322096029, -8429.580441663318, -9410.889078484664, -12224.101987374066, -13253.936261407884, -18499.443650179346, 0.0155625, -0.0308125, 0.9849375, 192.0, 0.0, 0.0, 0.0, 0.0, 0.0, 0.0, 0.0, 0.0, 0.0, 1.644586933176028E9, 0.0, 2022-02-12 00:42:13.176
74.0, -11705.563867755398, -11676.059565074393, -8199.29041854029, -12862.221939828629, -12749.18916811814, -9408.899773228142, -11703.082824120858, -9352.66278417859, -11477.039632444339, -13734.878746852726, -9824.910441030317, -8423.634877638207, -9398.685026012066, -12207.896972643968, -13233.417359997913, -18487.150190728928, 0.0155625, -0.0308125, 0.9849375, 192.0, 0.0, 0.0, 0.0, 0.0, 0.0, 0.0, 0.0, 0.0, 0.0, 1.644586933184982E9, 0.0, 2022-02-12 00:42:13.184
76.0, -11709.609533501809, -11708.648408490231, -8218.62467749413, -12839.40080873976, -12751.111418141296, -9412.498404085447, -11711.97881841407, -9371.460601265502, -11463.494475304422, -13735.839871864304, -9807.789004777553, -8402.020740749926, -9380.982444403464, -12209.327484289108, -13222.509708703723, -18484.624443605477, 0.01478125, -0.03240625, 0.98546875, 192.0, 0.0, 56.0, 127.0, 120.0, 15.0, 104.0, 0.0, 0.0, 0.0, 1.644586933190916E9, 0.0, 2022-02-12 00:42:13.190
78.0, -11705.854440433317, -11681.938073866138, -8212.455596024465, -12852.364820523837, -12736.783949945444, -9412.163127918617, -11694.477402505565, -9359.860045893198, -11479.4089173566, -13746.635764436218, -9847.508054674632, -8442.566805191851, -9406.128156915684, -12220.70452221686, -13246.71664794882, -18479.304728425115, 0.01478125, -0.03240625, 0.98546875, 192.0, 0.0, 0.0, 0.0, 0.0, 0.0, 0.0, 0.0, 0.0, 0.0, 1.644586933205695E9, 0.0, 2022-02-12 00:42:13.205
80.0, -11680.261693031991, -11672.527989450455, -8200.743281929885, -12836.808006382944, -12740.42728429166, -9402.931857458576, -11695.997321128527, -9346.806627131298, -11443.132036105639, -13711.923505297125, -9809.174812933781, -8400.098490726768, -9383.061156637807, -12196.631693438494, -13206.595266651544, -18465.13372244045, 0.01478125, -0.03240625, 0.98546875, 192.0, 0.0, 0.0, 0.0, 0.0, 0.0, 0.0, 0.0, 0.0, 0.0, 1.644586933212914E9, 0.0, 2022-02-12 00:42:13.212
82.0, -11713.185812614658, -11701.004111886516, -8223.318543829744, -12832.941154592176, -12740.76256045849, -9416.164090176117, -11694.186829827648, -9371.14767684313, -11463.002736926406, -13720.14894725668, -9832.062999256015, -8418.113996757746, -9409.391511606158, -12211.316789545632, -13232.702104175343, -18469.022925975674, 0.01478125, -0.03240625, 0.98546875, 192.0, 0.0, 0.0, 0.0, 0.0, 0.0, 0.0, 0.0, 0.0, 0.0, 1.644586933221654E9, 0.0, 2022-02-12 00:42:13.221
84.0, -11679.769954653973, -11662.514407934477, -8194.57420046022, -12839.154939550752, -12742.505996526002, -9396.136927144162, -11706.323827066879, -9351.254624277904, -11446.328335562746, -13712.258781463956, -9812.594629835443, -8389.302598154854, -9401.322531857793, -12200.967931862824, -13218.888726101963, -18460.909242738395, 0.01478125, -0.03240625, 0.98546875, 192.0, 0.0, 0.0, 0.0, 0.0, 0.0, 0.0, 0.0, 0.0, 0.0, 1.644586933228638E9, 0.0, 2022-02-12 00:42:13.228
86.0, -11694.097422849825, -11674.226722029058, -8208.879316911616, -12821.452357942148, -12739.555566257903, -9399.601447534735, -11695.55028623942, -9376.199171090027, -11432.157329578082, -13707.386101172699, -9797.797775006029, -8386.37451963121, -9395.19815387704, -12183.1759432764, -13212.406720209923, -18456.863576991986, 0.014390625, -0.032203125, 0.9847343749999999, 192.0, 0.0, 56.0, 127.5, 0.0, 15.0, 96.0, 0.0, 0.0, 0.0, 1.644586933235587E9, 0.0, 2022-02-12 00:42:13.235
88.0, -11705.183888099658, -11671.656271416698, -8200.43035750751, -12834.394017981771, -12732.246545821017, -9410.307933128826, -11675.366660996278, -9337.7541706269, -11453.972632166462, -13716.729130355017, -9817.310847915513, -8413.442482166587, -9405.658770282123, -12206.93584763239, -13222.286191259169, -18451.499158322713, 0.014390625, -0.032203125, 0.9847343749999999, 192.0, 0.0, 0.0, 0.0, 0.0, 0.0, 0.0, 0.0, 0.0, 0.0, 1.644586933242895E9, 0.0, 2022-02-12 00:42:13.242
90.0, -11688.420079758178, -11669.488152204533, -8192.875467881617, -12821.742930620067, -12733.542946999425, -9399.6685027681, -11686.833105901851, -9340.212862516984, -11432.336143533725, -13700.94879876957, -9788.499449312621, -8376.875028237704, -9386.726842728478, -12193.41304223693, -13190.837286810553, -18442.73727449623, 0.014390625, -0.032203125, 0.9847343749999999, 192.0, 0.0, 0.0, 0.0, 0.0, 0.0, 0.0, 0.0, 0.0, 0.0, 1.644586933251104E9, 0.0, 2022-02-12 00:42:13.251
92.0, -11692.532800737954, -11669.689317904631, -8214.377846047622, -12813.048102026953, -12736.605135989803, -9405.412901093114, -11685.849629145818, -9362.609310461201, -11445.79189369582, -13699.80885980235, -9818.204917693725, -8419.835081080804, -9413.48188084148, -12212.859059913048, -13209.679807386376, -18444.16778614137, 0.014390625, -0.032203125, 0.9847343749999999, 192.0, 0.0, 0.0, 0.0, 0.0, 0.0, 0.0, 0.0, 0.0, 0.0, 1.64458693325793E9, 0.0, 2022-02-12 00:42:13.257
94.0, -11665.621300413764, -11643.403666425189, -8188.114546312636, -12817.719616618111, -12723.439958505627, -9389.163182874106, -11676.573655196866, -9329.394618200615, -11441.187434338026, -13688.834153274795, -9808.437205366756, -8381.255970150945, -9400.204944635028, -12195.22353353781, -13195.978188035273, -18431.471995290758, 0.014390625, -0.032203125, 0.9847343749999999, 192.0, 0.0, 0.0, 0.0, 0.0, 0.0, 0.0, 0.0, 0.0, 0.0, 1.644586933265383E9, 0.0, 2022-02-12 00:42:13.265
96.0, -11703.775728198974, -11684.173248311668, -8209.080482611715, -12806.052006012442, -12728.983191130543, -9393.655883509622, -11693.471574005078, -9358.13896157014, -11417.516936959855, -13700.322949924821, -9779.5587515305, -8364.939196698571, -9383.552895015824, -12179.353794974542, -13180.734298316753, -18429.03565514513, 0.014, -0.03, 0.982, 192.0, 0.0, 56.0, 127.5, 8.0, 15.0, 88.0, 0.0, 0.0, 0.0, 1.644586933272762E9, 0.0, 2022-02-12 00:42:13.272
98.0, -11681.625149443764, -11650.153893250692, -8209.460462267454, -12817.563154406924, -12735.979287145054, -9389.230238107471, -11692.130469337759, -9340.61519391718, -11444.227271583948, -13713.130499497713, -9813.756920547119, -8404.725301829018, -9406.552840060334, -12201.750242918759, -13206.975246307284, -18427.091053377517, 0.014, -0.03, 0.982, 192.0, 0.0, 0.0, 0.0, 0.0, 0.0, 0.0, 0.0, 0.0, 0.0, 1.6445869332835E9, 0.0, 2022-02-12 00:42:13.283
100.0, -11669.823428371363, -11656.16651250917, -8192.473136481422, -12811.416424681714, -12713.694597923113, -9375.863894923199, -11659.429867199644, -9320.02923727384, -11410.833765367719, -13677.70298453605, -9782.732699243154, -8380.51836258392, -9394.90758119912, -12170.03311753668, -13169.111391199995, -18419.334998051527, 0.014, -0.03, 0.982, 192.0, 0.0, 0.0, 0.0, 0.0, 0.0, 0.0, 0.0, 0.0, 0.0, 1.644586933289619E9, 0.0, 2022-02-12 00:42:13.289
102.0, -11682.318053521878, -11656.568843909365, -8215.24956408138, -12792.283331427972, -12713.873411878754, -9386.86095319521, -11664.079030046349, -9335.18372001454, -11420.489718972412, -13686.017833473425, -9800.479984340667, -8399.651455837662, -9412.38664536317, -12204.857135398048, -13184.556446618612, -18419.40205328489, 0.014, -0.03, 0.982, 192.0, 0.0, 0.0, 0.0, 0.0, 0.0, 0.0, 0.0, 0.0, 0.0, 1.644586933295824E9, 0.0, 2022-02-12 00:42:13.295
104.0, -11652.053791529393, -11613.5417358329, -8186.035834078292, -12799.592351864858, -12706.966722842066, -9373.293444310839, -11654.534835163931, -9305.232382444428, -11397.176849505526, -13657.854635459738, -9774.440202050233, -8382.3288538848, -9387.196229362038, -12182.706556642837, -13167.882045254952, -18406.818021156552, 0.014, -0.03, 0.982, 192.0, 0.0, 0.0, 0.0, 0.0, 0.0, 0.0, 0.0, 0.0, 0.0, 1.644586933303735E9, 0.0, 2022-02-12 00:42:13.303
106.0, -11669.711669649085, -11643.694239103108, -8207.67232271103, -12776.279482397973, -12718.254353791996, -9375.260397822905, -11670.292815004923, -9332.590917657724, -11380.390689419592, -13633.60299272573, -9763.621957733865, -8340.441684775555, -9366.6102727187, -12177.543303673661, -13159.924824228863, -18404.6946054333, 0.016, -0.026000000000000002, 0.986, 192.0, 0.0, 64.0, 127.5, 24.0, 15.0, 104.0, 0.0, 0.0, 0.0, 1.644586933314744E9, 0.0, 2022-02-12 00:42:13.314
108.0, -11660.323936977857, -11624.382331893723, -8198.262238295345, -12784.571979590892, -12715.482737479537, -9366.453810507513, -11659.429867199644, -9315.13420523813, -11404.77644262033, -13678.395888614165, -9784.811411477496, -8366.41441183262, -9397.947418445041, -12186.036966566679, -13183.03652799565, -18402.191210054305, 0.016, -0.026000000000000002, 0.986, 192.0, 0.0, 0.0, 0.0, 0.0, 0.0, 0.0, 0.0, 0.0, 0.0, 1.644586933327295E9, 0.0, 2022-02-12 00:42:13.327
110.0, -11623.980000493528, -11596.77792749142, -8182.057223565248, -12775.743040531044, -12709.023083331953, -9350.226444032962, -11664.235492257536, -9300.717330064455, -11365.549131101267, -13640.152053851136, -9741.851358634396, -8343.168597599102, -9355.546159213323, -12145.110922469012, -13145.97733568875, -18388.958977336762, 0.016, -0.026000000000000002, 0.986, 192.0, 0.0, 0.0, 0.0, 0.0, 0.0, 0.0, 0.0, 0.0, 0.0, 1.644586933333428E9, 0.0, 2022-02-12 00:42:13.333
112.0, -11642.487244902522, -11609.563125319853, -8204.654837209564, -12759.694488012134, -12695.299112236395, -9362.27403429437, -11632.87599478674, -9318.621077373156, -11382.514105142845, -13653.2725278464, -9770.528646770555, -8375.08688868128, -9380.982444403464, -12156.398553418941, -13162.003536463206, -18391.238855271204, 0.016, -0.026000000000000002, 0.986, 192.0, 0.0, 0.0, 0.0, 0.0, 0.0, 0.0, 0.0, 0.0, 0.0, 1.644586933341084E9, 0.0, 2022-02-12 00:42:13.341
114.0, -11629.143253462704, -11600.667131026643, -8177.47511595191, -12768.746944516533, -12695.008539558476, -9351.254624277904, -11632.54071861991, -9275.571617552236, -11367.851360780163, -13640.532033506875, -9747.394591259312, -8356.378478572187, -9368.845447164233, -12174.905797827936, -13145.597356033011, -18378.118381275937, 0.016, -0.026000000000000002, 0.986, 192.0, 0.0, 0.0, 0.0, 0.0, 0.0, 0.0, 0.0, 0.0, 0.0, 1.644586933347924E9, 0.0, 2022-02-12 00:42:13.347
116.0, -11634.194747709602, -11614.994599222493, -8193.747185915374, -12746.99869716152, -12694.539152924914, -9354.763848157389, -11646.331744948835, -9305.992341755908, -11356.116694941127, -13635.03350437087, -9731.033114318028, -8330.517510237398, -9361.268205793882, -12152.397591161442, -13134.779111716642, -18375.816151597042, 0.014, -0.026000000000000002, 0.99, 192.0, 0.0, 56.0, 127.5, 24.0, 15.0, 120.0, 0.0, 0.0, 0.0, 1.644586933355503E9, 0.0, 2022-02-12 00:42:13.355
118.0, -11620.694294058598, -11578.76242146044, -8187.823973634717, -12752.184301875152, -12702.317559995361, -9352.796894645322, -11643.895404803206, -9299.242114930406, -11371.29352942628, -13631.41252176911, -9760.895044910318, -8356.93727218357, -9385.944531672541, -12169.206102991833, -13155.074495682062, -18372.4857416732, 0.014, -0.026000000000000002, 0.99, 192.0, 0.0, 0.0, 0.0, 0.0, 0.0, 0.0, 0.0, 0.0, 0.0, 1.644586933363502E9, 0.0, 2022-02-12 00:42:13.363
120.0, -11616.805090523374, -11565.351374787257, -8175.083479295192, -12747.356325072806, -12692.348681968295, -9343.364458485183, -11637.927489033638, -9285.294626390294, -11344.806712246742, -13591.939341061037, -9719.454910690178, -8305.058873302803, -9352.193397545028, -12142.585175345563, -13124.653771478388, -18363.746209591176, 0.014, -0.026000000000000002, 0.99, 192.0, 0.0, 0.0, 0.0, 0.0, 0.0, 0.0, 0.0, 0.0, 0.0, 1.644586933370715E9, 0.0, 2022-02-12 00:42:13.370
122.0, -11624.091759215804, -11595.190953635092, -8193.613075448642, -12735.152272600208, -12689.018272044454, -9344.839673619232, -11631.870166286251, -9302.617228343157, -11359.178883931505, -13637.179271838579, -9734.341172497412, -8338.318269052299, -9380.75892695891, -12150.475341138284, -13137.573079773556, -18366.406067181357, 0.014, -0.026000000000000002, 0.99, 192.0, 0.0, 0.0, 0.0, 0.0, 0.0, 0.0, 0.0, 0.0, 0.0, 1.644586933377176E9, 0.0, 2022-02-12 00:42:13.377
124.0, -11579.902360427663, -11540.831511119784, -8169.361432714633, -12744.450598293615, -12672.41092591416, -9319.023408773352, -11605.696273529085, -9254.113942875141, -11345.700782024955, -13617.375626251178, -9719.723131623643, -8321.643867688641, -9364.889188395642, -12129.062369950101, -13122.575059244045, -18347.518843116624, 0.014, -0.026000000000000002, 0.99, 192.0, 0.0, 0.0, 0.0, 0.0, 0.0, 0.0, 0.0, 0.0, 0.0, 1.644586933385678E9, 0.0, 2022-02-12 00:42:13.385
126.0, -11594.229828623513, -11544.027810576894, -8186.482868967399, -12728.491452752525, -12671.98624276951, -9323.493757664413, -11610.904229987173, -9272.26355937285, -11325.271287592805, -13575.890788542127, -9711.989428042107, -8317.866422875693, -9350.56172019979, -12120.92633496837, -13103.933704368319, -18341.05918896904, 0.016, -0.022, 1.0, 192.0, 0.0, 64.0, 127.5, 40.0, 15.5, 32.0, 0.0, 0.0, 0.0, 1.644586933393159E9, 0.0, 2022-02-12 00:42:13.393
128.0, -11589.066575654339, -11564.52436024241, -8178.883275852594, -12723.685827694635, -12668.7899433124, -9317.525841894847, -11610.859526498261, -9273.202332639972, -11344.96317445793, -13602.377605721666, -9734.296469008503, -8335.636059717663, -9371.885284410153, -12139.679448566372, -13122.26213482167, -18336.320619144513, 0.016, -0.022, 1.0, 192.0, 0.0, 0.0, 0.0, 0.0, 0.0, 0.0, 0.0, 0.0, 0.0, 1.644586933400364E9, 0.0, 2022-02-12 00:42:13.400
130.0, -11590.027700665916, -11533.634249405177, -8167.975624558405, -12717.248525291507, -12663.850207787778, -9315.916516294064, -11614.05582595537, -9263.591082524192, -11309.379197285081, -13583.06569851228, -9695.002102256072, -8270.100744974703, -9317.70465585049, -12103.268456848677, -13087.058137304562, -18324.58595330548, 0.016, -0.022, 1.0, 192.0, 0.0, 0.0, 0.0, 0.0, 0.0, 0.0, 0.0, 0.0, 0.0, 1.644586933407995E9, 0.0, 2022-02-12 00:42:13.407
132.0, -11606.076253184827, -11554.466075237522, -8191.109680069648, -12710.140670554718, -12669.102867734775, -9332.635621146634, -11614.324046888834, -9283.081803689218, -11324.220755603405, -13568.201788449502, -9705.26155296106, -8314.73717865195, -9356.350822013716, -12136.863128765002, -13113.50025099519, -18331.76086327563, 0.016, -0.022, 1.0, 192.0, 0.0, 0.0, 0.0, 0.0, 0.0, 0.0, 0.0, 0.0, 0.0, 1.644586933416321E9, 0.0, 2022-02-12 00:42:13.416
134.0, -11565.95487188755, -11531.309667981825, -8166.746278613363, -12723.149385827708, -12664.654870588169, -9317.928173295042, -11615.307523644868, -9262.49584704588, -11315.883554921575, -13578.416535665578, -9701.886439548307, -8299.895620333627, -9357.736630169944, -12127.140119926944, -13104.805422402076, -18321.85904048193, 0.016, -0.022, 1.0, 192.0, 0.0, 0.0, 0.0, 0.0, 0.0, 0.0, 0.0, 0.0, 0.0, 1.644586933423839E9, 0.0, 2022-02-12 00:42:13.423
136.0, -11586.183200619604, -11540.406827975134, -8187.689863167985, -12706.072653063853, -12658.463437374048, -9318.88929830662, -11605.785680506908, -9267.301472103773, -11304.126537338083, -13581.232855466946, -9683.15567769476, -8279.3543671792, -9338.201205516007, -12092.293750321121, -13089.472125705735, -18320.62969453689, 0.016, -0.028, 0.996, 192.0, 0.0, 64.0, 127.5, 16.0, 15.5, 16.0, 0.0, 0.0, 0.0, 1.644586933430685E9, 0.0, 2022-02-12 00:42:13.430
138.0, -11550.599223446754, -11496.37389139818, -8182.504258454354, -12713.471080478559, -12658.709306563058, -9313.949562781998, -11617.945029490595, -9262.048812156774, -11323.594906758655, -13592.49813467242, -9707.362616939858, -8305.729425636462, -9361.916406383087, -12113.550259298117, -13111.443890505301, -18316.29345611256, 0.016, -0.028, 0.996, 192.0, 0.0, 0.0, 0.0, 0.0, 0.0, 0.0, 0.0, 0.0, 0.0, 1.644586933438556E9, 0.0, 2022-02-12 00:42:13.438
140.0, -11544.206624532537, -11492.305873907313, -8164.689918123475, -12706.452632719593, -12645.36531512324, -9303.22072544345, -11597.001444935971, -9250.001221895363, -11287.362728996603, -13521.15136637108, -9689.81649754244, -8275.129887477147, -9329.484025178435, -12092.651378232405, -13082.073698291028, -18308.15742113083, 0.016, -0.028, 0.996, 192.0, 0.0, 0.0, 0.0, 0.0, 0.0, 0.0, 0.0, 0.0, 0.0, 1.644586933453768E9, 0.0, 2022-02-12 00:42:13.453
142.0, -11600.57772404882, -11548.676973423599, -8179.576179930709, -12692.795716857401, -12652.160245437652, -9317.190565728017, -11599.4377850816, -9265.133352891608, -11309.937990896464, -13555.416590621066, -9695.292674933991, -8297.191059254536, -9355.389697002138, -12116.835965733047, -13094.389509485902, -18310.593761276457, 0.016, -0.028, 0.996, 192.0, 0.0, 0.0, 0.0, 0.0, 0.0, 0.0, 0.0, 0.0, 0.0, 1.644586933460045E9, 0.0, 2022-02-12 00:42:13.460
144.0, -11564.256139308947, -11512.89183055065, -8147.65788884853, -12697.780155870934, -12634.59177429578, -9296.492850362403, -11592.106412900259, -9233.080951342698, -11298.963284368907, -13574.683794341541, -9666.548331564467, -8263.819904782762, -9343.56562418528, -12098.686349235339, -13085.940550081796, -18299.08261288197, 0.016, -0.028, 0.996, 192.0, 0.0, 0.0, 0.0, 0.0, 0.0, 0.0, 0.0, 0.0, 0.0, 1.644586933469611E9, 0.0, 2022-02-12 00:42:13.469
146.0, -11558.377630517201, -11501.80536530082, -8163.058240778237, -12677.03773701641, -12639.464454587038, -9302.416062643058, -11590.787659977397, -9250.224739339918, -11276.589188169144, -13541.245584636401, -9645.314174331925, -8247.033744696826, -9308.853365046187, -12077.921578636358, -13066.82980857251, -18290.633653477867, 0.01, -0.024, 0.992, 192.0, 0.0, 40.0, 127.5, 32.0, 15.5, 0.0, 0.0, 0.0, 0.0, 1.644586933476045E9, 0.0, 2022-02-12 00:42:13.476
148.0, -11540.272717508402, -11484.482763347956, -8160.4877901658765, -12686.626635387736, -12640.470283087527, -9294.83882127271, -11581.95872091755, -9245.843797426676, -11301.444328003447, -13549.06869519576, -9680.62993057131, -8284.607027126196, -9353.445095234525, -12102.664959748383, -13089.807401872564, -18291.170095344794, 0.01, -0.024, 0.992, 192.0, 0.0, 0.0, 0.0, 0.0, 0.0, 0.0, 0.0, 0.0, 0.0, 1.644586933482905E9, 0.0, 2022-02-12 00:42:13.482
150.0, -11517.965676542006, -11455.626661256154, -8149.893063294061, -12682.111583007763, -12628.109768403741, -9277.180943153018, -11575.409659792145, -9226.263669283828, -11268.967243309886, -13522.827747205229, -9654.880720958796, -8251.481741843432, -9328.142920511118, -12058.117933048956, -13053.038782243584, -18280.731830684166, 0.01, -0.024, 0.992, 192.0, 0.0, 0.0, 0.0, 0.0, 0.0, 0.0, 0.0, 0.0, 0.0, 1.644586933491177E9, 0.0, 2022-02-12 00:42:13.491
152.0, -11551.627403691698, -11497.491478620945, -8165.002842545849, -12673.684975348113, -12628.132120148197, -9279.013786198353, -11585.15502037466, -9247.363716049638, -11283.51822895029, -13530.002657175382, -9667.375346109313, -8270.056041485792, -9335.56369967028, -12084.314177550576, -13073.423573186825, -18282.274101051582, 0.01, -0.024, 0.992, 192.0, 0.0, 0.0, 0.0, 0.0, 0.0, 0.0, 0.0, 0.0, 0.0, 1.644586933498747E9, 0.0, 2022-02-12 00:42:13.498
154.0, -11535.131816283681, -11476.458487088501, -8133.062199719215, -12682.17863824113, -12616.30804733134, -9271.324786105728, -11579.00829064945, -9214.685465655979, -11275.493952690835, -13518.804433203273, -9652.556139535445, -8250.185340665024, -9341.822188117765, -12075.86521814647, -13060.01252651364, -18276.03796434855, 0.01, -0.024, 0.992, 192.0, 0.0, 0.0, 0.0, 0.0, 0.0, 0.0, 0.0, 0.0, 0.0, 1.644586933505755E9, 0.0, 2022-02-12 00:42:13.505
156.0, -11550.554519957843, -11488.081394205261, -8150.675374349997, -12660.07276297483, -12626.768663736424, -9283.774707767334, -11596.107375157759, -9235.45023625496, -11260.004193783307, -13509.796680187785, -9627.723351445598, -8219.96578216145, -9315.894164549609, -12067.05863083108, -13047.316735663026, -18274.205121303217, 0.012, -0.026000000000000002, 0.994, 192.0, 0.0, 48.0, 127.5, 24.0, 15.5, 8.0, 0.0, 0.0, 0.0, 1.644586933512345E9, 0.0, 2022-02-12 00:42:13.512
158.0, -11524.402978945134, -11461.974556681462, -8144.595699858153, -12675.294300948895, -12616.822137453812, -9275.102230918674, -11572.749802201963, -9223.223832037906, -11279.584321926157, -13530.784968231317, -9652.354973835347, -8254.275709900345, -9340.749304383911, -12087.354014796498, -13064.862855060443, -18274.115714325395, 0.012, -0.026000000000000002, 0.994, 192.0, 0.0, 0.0, 0.0, 0.0, 0.0, 0.0, 0.0, 0.0, 0.0, 1.644586933520286E9, 0.0, 2022-02-12 00:42:13.520
160.0, -11504.532278124367, -11440.606288982188, -8133.0174962303045, -12664.856036288267, -12612.999989151955, -9261.914701690042, -11568.681784711098, -9215.624238923101, -11250.683516345443, -13507.092119108693, -9628.058627612429, -8229.755846232872, -9307.981647012431, -12052.597052168496, -13027.982476709185, -18259.90000485182, 0.012, -0.026000000000000002, 0.994, 192.0, 0.0, 0.0, 0.0, 0.0, 0.0, 0.0, 0.0, 0.0, 0.0, 1.644586933535957E9, 0.0, 2022-02-12 00:42:13.535
162.0, -11532.42725520459, -11474.826809743263, -8151.055354005737, -12656.675297817625, -12616.017474653421, -9272.129448906118, -11576.951930159561, -9228.20827105144, -11257.634908871045, -13508.43322377601, -9638.519244017512, -8238.96476494846, -9324.745455353912, -12068.355032009487, -13053.39641015487, -18266.85139737742, 0.012, -0.026000000000000002, 0.994, 192.0, 0.0, 0.0, 0.0, 0.0, 0.0, 0.0, 0.0, 0.0, 0.0, 1.644586933542093E9, 0.0, 2022-02-12 00:42:13.542
164.0, -11503.101766479227, -11432.626716211644, -8122.4451211029445, -12661.369164153239, -12600.34890179025, -9258.025498154819, -11564.412601520135, -9207.756424874833, -11252.695173346421, -13498.062014348749, -9634.183005593182, -8221.373942062133, -9302.751338809889, -12054.541653936107, -13044.522767606113, -18254.736751882643, 0.01, -0.025, 0.992, 192.0, 0.0, 32.0, 127.5, 32.0, 15.0, 120.0, 0.0, 0.0, 0.0, 1.644586933548247E9, 0.0, 2022-02-12 00:42:13.548
166.0, -11512.198926472536, -11432.179681322537, -8138.404266644034, -12647.958117480055, -12604.662788470125, -9255.477399286914, -11565.418430020623, -9216.764177890323, -11232.802120781198, -13449.715191091918, -9613.954676861129, -8213.10379661367, -9293.83299277222, -12039.454226428776, -13026.417854597314, -18254.401475715815, 0.01, -0.025, 0.992, 192.0, 0.0, 0.0, 0.0, 0.0, 0.0, 0.0, 0.0, 0.0, 0.0, 1.64458693355467E9, 0.0, 2022-02-12 00:42:13.554
168.0, -11513.808252073319, -11440.494530259912, -8133.777455541785, -12648.718076791534, -12610.854221684245, -9254.248053341873, -11568.81589517783, -9211.936201087976, -11256.159693736994, -13508.500279009377, -9639.279203328992, -8236.930756203026, -9343.878548607654, -12062.185950539822, -13050.53538686459, -18251.585155914447, 0.01, -0.025, 0.992, 192.0, 0.0, 0.0, 0.0, 0.0, 0.0, 0.0, 0.0, 0.0, 0.0, 1.644586933560687E9, 0.0, 2022-02-12 00:42:13.560
170.0, -11502.162993212103, -11419.796814894296, -8118.712379778908, -12645.410018612149, -12593.375157520195, -9241.7310764469, -11555.717772927019, -9187.528096142782, -11230.812815524676, -13474.547979181765, -9594.553362673923, -8193.05428183726, -9305.299437677793, -12037.755493850173, -13013.967932935708, -18241.839795331933, 0.01, -0.025, 0.992, 192.0, 0.0, 0.0, 0.0, 0.0, 0.0, 0.0, 0.0, 0.0, 0.0, 1.644586933572894E9, 0.0, 2022-02-12 00:42:13.572
172.0, -11521.430196932579, -11449.323469319757, -8137.5325486102765, -12635.26232662944, -12595.789145921368, -9247.006088138352, -11562.892682897173, -9211.556221432236, -11245.944946520918, -13497.726738181918, -9615.228726295081, -8210.041607623292, -9308.98747551292, -12046.539729421107, -13029.412988354325, -18246.108978522894, 0.01, -0.025, 0.992, 192.0, 0.0, 0.0, 0.0, 0.0, 0.0, 0.0, 0.0, 0.0, 0.0, 1.644586933580495E9, 0.0, 2022-02-12 00:42:13.580
174.0, -11477.509019077901, -11410.476137456435, -8108.229411629369, -12635.64230628518, -12582.06517482581, -9223.424997738004, -11548.90049086815, -9184.085927496664, -11235.573737093657, -13475.732621637897, -9607.964409347107, -8202.442014508488, -9298.973893996941, -12025.283220444111, -13022.930982462285, -18233.167318483273, 0.011, -0.0235, 0.99, 192.0, 0.0, 48.0, 127.5, 40.0, 15.0, 112.0, 0.0, 0.0, 0.0, 1.64458693358767E9, 0.0, 2022-02-12 00:42:13.587
176.0, -11495.613932086699, -11405.625808909632, -8124.300315892735, -12617.537393276381, -12599.387776778673, -9223.894384371566, -11570.849903923263, -9192.981921789877, -11210.830355981632, -13440.148644465047, -9592.675816139677, -8181.699595653963, -9288.759146780867, -12020.209374452756, -13002.456784541224, -18227.31116143598, 0.011, -0.0235, 0.99, 192.0, 0.0, 0.0, 0.0, 0.0, 0.0, 0.0, 0.0, 0.0, 0.0, 1.644586933595172E9, 0.0, 2022-02-12 00:42:13.595
178.0, -11481.040594701839, -11408.68799790001, -8115.538432066254, -12625.360503835738, -12579.070041068799, -9227.403608251048, -11549.124008312703, -9189.53975314376, -11234.254984170793, -13466.09901977766, -9615.564002461912, -8212.366189046645, -9310.619152858157, -12035.654429871372, -13027.021351697607, -18229.725149837155, 0.011, -0.0235, 0.99, 192.0, 0.0, 0.0, 0.0, 0.0, 0.0, 0.0, 0.0, 0.0, 0.0, 1.644586933603259E9, 0.0, 2022-02-12 00:42:13.603
180.0, -11469.395335840623, -11370.846494537174, -8103.155565638014, -12622.812404967834, -12575.091430555753, -9215.043093567265, -11554.823703148808, -9172.552427357725, -11203.297818100193, -13439.768664809308, -9571.776935073965, -8165.338118712679, -9265.26746335834, -11996.807098008048, -12989.582179734967, -18215.911771763775, 0.011, -0.0235, 0.99, 192.0, 0.0, 0.0, 0.0, 0.0, 0.0, 0.0, 0.0, 0.0, 0.0, 1.644586933611242E9, 0.0, 2022-02-12 00:42:13.611
182.0, -11480.861780746196, -11406.072843798738, -8122.311010636212, -12609.78133795039, -12571.693965398546, -9221.033361081287, -11538.842205863262, -9193.138384001062, -11214.518393816757, -13450.788074825774, -9592.295836483936, -8194.462441737944, -9299.800908541789, -12017.482461629208, -13005.161345620316, -18219.577457854444, 0.011, -0.0235, 0.99, 192.0, 0.0, 0.0, 0.0, 0.0, 0.0, 0.0, 0.0, 0.0, 0.0, 1.64458693361796E9, 0.0, 2022-02-12 00:42:13.617
184.0, -11460.36523108068, -11391.074823269228, -8096.830021957162, -12613.558782763337, -12560.719258870991, -9206.370616718605, -11523.307743466825, -9155.319232382684, -11206.136489646016, -13452.531510893288, -9582.6622346237, -8167.215665246924, -9289.429699114526, -12004.51844984513, -12992.689072214256, -18207.239294915118, 0.010499999999999999, -0.02275, 0.986, 192.0, 0.0, 40.0, 127.5, 40.0, 15.0, 88.0, 0.0, 0.0, 0.0, 1.644586933624908E9, 0.0, 2022-02-12 00:42:13.624
186.0, -11473.798629498318, -11390.337215702202, -8107.93883895145, -12591.9222941306, -12558.998174547933, -9203.688407383968, -11533.321324982802, -9168.05972672221, -11185.394070791492, -13438.427560141989, -9568.088897238838, -8152.061182506226, -9260.461838300447, -11992.202638650257, -12972.930130115765, -18201.919579734753, 0.010499999999999999, -0.02275, 0.986, 192.0, 0.0, 0.0, 0.0, 0.0, 0.0, 0.0, 0.0, 0.0, 0.0, 1.644586933633079E9, 0.0, 2022-02-12 00:42:13.633
188.0, -11471.250530630414, -11382.357642931658, -8097.455870801911, -12599.454832012038, -12558.461732681006, -9196.312331713716, -11535.154168028137, -9166.38334588806, -11212.752606004788, -13448.262327702323, -9589.904199827219, -8181.453726464954, -9296.850478273687, -12011.492194115186, -12998.969912406197, -18199.818515755953, 0.010499999999999999, -0.02275, 0.986, 192.0, 0.0, 0.0, 0.0, 0.0, 0.0, 0.0, 0.0, 0.0, 0.0, 1.64458693364137E9, 0.0, 2022-02-12 00:42:13.641
190.0, -11442.483835516434, -11353.926223984507, -8082.5919607391315, -12594.671558698603, -12549.476331409971, -9188.332758943172, -11519.954981798528, -9157.24148240584, -11183.494172512792, -13407.358635349112, -9549.760466785487, -8136.7725892987955, -9256.483227787403, -11980.22210362221, -12962.603624177413, -18191.7942394965, 0.010499999999999999, -0.02275, 0.986, 192.0, 0.0, 0.0, 0.0, 0.0, 0.0, 0.0, 0.0, 0.0, 0.0, 1.644586933647588E9, 0.0, 2022-02-12 00:42:13.647
192.0, -11446.283632073837, -11364.900930512063, -8104.004931927316, -12581.193456792053, -12550.973898288477, -9192.378424689583, -11524.693551623053, -9160.504837096314, -11193.753623217777, -13421.104958189126, -9571.620472862778, -8173.09417403867, -9279.349062365183, -12004.630208567407, -12982.161400575806, -18194.476448831138, 0.010499999999999999, -0.02275, 0.986, 192.0, 0.0, 0.0, 0.0, 0.0, 0.0, 0.0, 0.0, 0.0, 0.0, 1.644586933655576E9, 0.0, 2022-02-12 00:42:13.655
194.0, -11427.30700103128, -11330.792168473265, -8079.55212349321, -12590.134154574174, -12542.05555225081, -9185.851715308632, -11516.333999196768, -9142.265813620785, -11191.78666970571, -13397.836792211152, -9562.098629724816, -8163.214702989424, -9260.730059233912, -11990.928589216302, -12975.94761561723, -18185.22282662664, 0.010249999999999999, -0.022375, 0.987, 192.0, 0.0, 40.0, 127.5, 40.0, 15.0, 112.0, 0.0, 0.0, 0.0, 1.644586933663623E9, 0.0, 2022-02-12 00:42:13.663
196.0, -11411.68313165702, -11336.044828420261, -8087.330530563657, -12568.832942108267, -12536.959354515, -9171.993633746342, -11524.827662089785, -9151.653546292013, -11159.44369547888, -13390.505420029811, -9548.553472584901, -8121.37223736909, -9243.608622981146, -11959.166760345312, -12955.004031062608, -18177.444419556192, 0.010249999999999999, -0.022375, 0.987, 192.0, 0.0, 0.0, 0.0, 0.0, 0.0, 0.0, 0.0, 0.0, 0.0, 1.644586933670211E9, 0.0, 2022-02-12 00:42:13.670
198.0, -11449.099951875205, -11342.549186056756, -8086.659978229997, -12579.472372468994, -12533.71835156898, -9168.774982544779, -11508.153260726127, -9144.299822366218, -11184.254131824271, -13407.358635349112, -9565.56315011539, -8148.104923737636, -9287.574504324735, -11984.781859491093, -12978.987452863152, -18176.304480588973, 0.010249999999999999, -0.022375, 0.987, 192.0, 0.0, 0.0, 0.0, 0.0, 0.0, 0.0, 0.0, 0.0, 0.0, 1.644586933678179E9, 0.0, 2022-02-12 00:42:13.678
200.0, -11430.235079554926, -11350.908738483042, -8067.325719276157, -12576.745459645446, -12527.079883465754, -9165.310462154206, -11504.219353701992, -9124.18325235644, -11162.505884469258, -13391.243027596836, -9528.347495597303, -8107.335341851157, -9248.280137572305, -11962.430115035786, -12945.7057053692, -18167.632003740313, 0.010249999999999999, -0.022375, 0.987, 192.0, 0.0, 0.0, 0.0, 0.0, 0.0, 0.0, 0.0, 0.0, 0.0, 1.644586933686176E9, 0.0, 2022-02-12 00:42:13.686
202.0, -11450.59751875371, -11351.735753027888, -8085.095356118126, -12570.621081664693, -12526.074054965266, -9179.794392561245, -11509.248496204436, -9146.691459022935, -11170.999547362275, -13409.75027200583, -9545.737152783531, -8132.525757852288, -9264.127524391119, -11973.94126343027, -12961.866016610387, -18175.276300344027, 0.010249999999999999, -0.022375, 0.987, 192.0, 0.0, 0.0, 0.0, 0.0, 0.0, 0.0, 0.0, 0.0, 0.0, 1.644586933701184E9, 0.0, 2022-02-12 00:42:13.701
204.0, -11427.865794642663, -11314.609505487622, -8059.033222083238, -12580.567607947303, -12519.837918262234, -9162.248273163828, -11508.332074681768, -9126.396075057517, -11161.656518179956, -13403.111803902604, -9543.010239959984, -8124.836757759662, -9250.738829462389, -11968.286272083078, -12958.893234597832, -18167.11791361784, 0.009125, -0.021187499999999998, 0.9884999999999999, 192.0, 0.0, 32.0, 127.5, 48.0, 15.0, 120.0, 0.0, 0.0, 0.0, 1.644586933707821E9, 0.0, 2022-02-12 00:42:13.707
206.0, -11436.985306380428, -11320.353903812636, -8068.979748365849, -12564.474351939483, -12523.056569463799, -9168.126781955574, -11513.338865439757, -9145.61857528908, -11161.388297246493, -13371.662899453986, -9522.021951916451, -8113.571478554187, -9229.370561763115, -11956.775123688594, -12943.582289645945, -18169.934233419208, 0.009125, -0.021187499999999998, 0.9884999999999999, 192.0, 0.0, 0.0, 0.0, 0.0, 0.0, 0.0, 0.0, 0.0, 0.0, 1.64458693371591E9, 0.0, 2022-02-12 00:42:13.715
208.0, -11426.323524275247, -11326.366523071114, -8068.040975098726, -12571.135171787164, -12518.42975836155, -9162.516494097292, -11507.639170603654, -9143.741028754834, -11181.862495167554, -13384.470449026878, -9550.878054008253, -8133.933917752972, -9268.866094215644, -11978.70218499925, -12973.935958616252, -18172.571739264935, 0.009125, -0.021187499999999998, 0.9884999999999999, 192.0, 0.0, 0.0, 0.0, 0.0, 0.0, 0.0, 0.0, 0.0, 0.0, 1.644586933722974E9, 0.0, 2022-02-12 00:42:13.722
210.0, -11405.379939720624, -11298.5162494798, -8050.628966168042, -12570.911654342612, -12507.52210706736, -9148.367839857083, -11498.363196654702, -9117.365970297573, -11151.195901774872, -13372.959300632394, -9521.440806560613, -8092.3373213216455, -9230.175224563507, -11938.089065323957, -12937.055580264996, -18157.86429141334, 0.009125, -0.021187499999999998, 0.9884999999999999, 192.0, 0.0, 0.0, 0.0, 0.0, 0.0, 0.0, 0.0, 0.0, 0.0, 1.644586933730268E9, 0.0, 2022-02-12 00:42:13.730
212.0, -11409.425605467035, -11327.931145182985, -8074.50062924631, -12562.328584471774, -12510.316075124274, -9152.681726536957, -11500.978350755973, -9136.454360062404, -11157.633204178, -13378.569588490676, -9539.165739913671, -8110.5316413082655, -9245.955556148954, -11941.97826885918, -12954.42288570677, -18161.127646103818, 0.009125, -0.021187499999999998, 0.9884999999999999, 192.0, 0.0, 0.0, 0.0, 0.0, 0.0, 0.0, 0.0, 0.0, 0.0, 1.644586933738549E9, 0.0, 2022-02-12 00:42:13.738
214.0, -11392.326520958724, -11284.121726050584, -8047.723239388853, -12569.458790953016, -12505.309284366285, -9145.216243888884, -11487.366138382691, -9108.671141704457, -11152.268785508728, -13380.000100135816, -9520.591440271312, -8098.394644069033, -9219.222869780406, -11944.79458866055, -12947.002106547608, -18154.26566055604, 0.0095625, -0.02159375, 0.98825, 192.0, 0.0, 40.0, 127.5, 40.0, 15.0, 112.0, 0.0, 0.0, 0.0, 1.644586933746429E9, 0.0, 2022-02-12 00:42:13.746
216.0, -11398.49560242839, -11291.006063342818, -8058.2956145162125, -12552.225595977974, -12510.696054780014, -9145.439761333439, -11493.714033807997, -9134.979144928355, -11130.319372453616, -13353.602689934098, -9496.228038815027, -8076.758155436297, -9222.128596559596, -11928.366056485898, -12932.920507540764, -18155.271489056526, 0.0095625, -0.02159375, 0.98825, 192.0, 0.0, 0.0, 0.0, 0.0, 0.0, 0.0, 0.0, 0.0, 0.0, 1.644586933752495E9, 0.0, 2022-02-12 00:42:13.752
218.0, -11381.731794086909, -11274.331661979159, -8052.238291768825, -12556.092447768742, -12494.602798772192, -9137.281374607252, -11478.60425455621, -9111.934496394933, -11146.613794161534, -13366.097315084615, -9525.195899629105, -8115.4043215995225, -9245.64263172658, -11943.453483993231, -12953.148836272818, -18153.125721588818, 0.0095625, -0.02159375, 0.98825, 192.0, 0.0, 0.0, 0.0, 0.0, 0.0, 0.0, 0.0, 0.0, 0.0, 1.644586933759992E9, 0.0, 2022-02-12 00:42:13.759
220.0, -11379.451916152468, -11270.576568910667, -8037.732009617331, -12549.565738387793, -12483.136353866621, -9127.781883213745, -11472.435173086546, -9102.546763723703, -11115.76838681321, -13327.942887299407, -9485.678015432122, -8074.4335740129445, -9197.698139869946, -11912.429262689266, -12917.251934677593, -18136.78659639199, 0.0095625, -0.02159375, 0.98825, 192.0, 0.0, 0.0, 0.0, 0.0, 0.0, 0.0, 0.0, 0.0, 0.0, 1.644586933768116E9, 0.0, 2022-02-12 00:42:13.768
222.0, -11397.802698350275, -11297.398662257036, -8056.9992133378055, -12537.585203359748, -12486.220894601453, -9133.61568851658, -11484.773336025875, -9118.684723220435, -11130.788759087178, -13346.78540787523, -9504.7440534525, -8079.797992682218, -9222.866204126622, -11936.345629256444, -12937.279097709548, -18144.855576140355, 0.0095625, -0.02159375, 0.98825, 192.0, 0.0, 0.0, 0.0, 0.0, 0.0, 0.0, 0.0, 0.0, 0.0, 1.644586933775216E9, 0.0, 2022-02-12 00:42:13.775
224.0, -11381.307110942258, -11263.245196729327, -8027.584317634621, -12550.951546544022, -12462.170417567542, -9119.623496487558, -11454.687887989032, -9084.374795481539, -11129.179433486395, -13366.678460440453, -9500.877201661731, -8082.748422950319, -9208.002294063843, -11927.583745429964, -12924.963286514674, -18134.774939391013, 0.01178125, -0.018796874999999998, 0.987125, 192.0, 0.0, 56.0, 127.5, 64.0, 15.0, 104.0, 0.0, 0.0, 0.0, 1.64458693378259E9, 0.0, 2022-02-12 00:42:13.782
226.0, -11385.330424944214, -11253.902167547009, -8040.034239296227, -12533.695999824526, -12463.422115257039, -9121.299877321706, -11464.097972404716, -9100.445699744905, -11116.081311235585, -13347.947698586906, -9471.954044336564, -8059.457905227889, -9189.807974077223, -11919.917097081792, -12898.878800735332, -18129.410520721736, 0.01178125, -0.018796874999999998, 0.987125, 192.0, 0.0, 0.0, 0.0, 0.0, 0.0, 0.0, 0.0, 0.0, 0.0, 1.644586933790609E9, 0.0, 2022-02-12 00:42:13.790
228.0, -11368.29839566927, -11249.364763422582, -8035.787407849719, -12539.976840016467, -12460.56109196676, -9113.096787106608, -11471.228178885958, -9098.65756018848, -11135.035590533686, -13359.905881870494, -9500.743091195, -8086.615274741087, -9216.406549979038, -11933.104626310424, -12928.763083072077, -18130.10342479985, 0.01178125, -0.018796874999999998, 0.987125, 192.0, 0.0, 0.0, 0.0, 0.0, 0.0, 0.0, 0.0, 0.0, 0.0, 1.644586933799101E9, 0.0, 2022-02-12 00:42:13.799
230.0, -11355.468494351924, -11242.189853452428, -8016.989590762805, -12539.865081294189, -12457.61066169866, -9093.51665896376, -11472.725745764465, -9080.440888457404, -11101.284456406172, -13318.488099394812, -9465.762611122444, -8041.129474774537, -9181.671939095491, -11886.747108310117, -12899.035262946518, -18118.59227640537, 0.01178125, -0.018796874999999998, 0.987125, 192.0, 0.0, 0.0, 0.0, 0.0, 0.0, 0.0, 0.0, 0.0, 0.0, 1.644586933805354E9, 0.0, 2022-02-12 00:42:13.805
232.0, -11378.267273696336, -11265.212150241394, -8040.816550352163, -12532.354895157207, -12452.447408729484, -9103.910220135478, -11471.429344586057, -9123.736217467334, -11107.431186131382, -13318.912782539463, -9486.236809043505, -8060.821361639662, -9193.853639823632, -11903.3097509515, -12918.928315511743, -18127.935305587685, 0.01178125, -0.018796874999999998, 0.987125, 192.0, 0.0, 0.0, 0.0, 0.0, 0.0, 0.0, 0.0, 0.0, 0.0, 1.644586933820415E9, 0.0, 2022-02-12 00:42:13.820
234.0, -11355.267328651826, -11223.548498576702, -8022.510471643266, -12546.302383697317, -12442.970269080433, -9091.75087115179, -11460.588748525233, -9086.22999027133, -11115.76838681321, -13325.573602387143, -9475.820896127332, -8061.067230828671, -9184.957645530421, -11914.999713301626, -12916.156699199284, -18124.40372996375, 0.014, -0.018000000000000002, 0.986, 192.0, 0.0, 56.0, 127.5, 56.0, 15.0, 104.0, 0.0, 0.0, 0.0, 1.644586933828538E9, 0.0, 2022-02-12 00:42:13.828
236.0, -11370.242997436882, -11236.400751638503, -8040.056591040682, -12527.86219452169, -12442.70204814697, -9095.41655724246, -11460.655803758598, -9097.092938076608, -11096.322369137093, -13310.77674755773, -9468.668337901634, -8045.331602732134, -9184.354148430128, -11896.581875870452, -12896.621274545345, -18120.31336072843, 0.014, -0.018000000000000002, 0.986, 192.0, 0.0, 0.0, 0.0, 0.0, 0.0, 0.0, 0.0, 0.0, 0.0, 1.644586933834992E9, 0.0, 2022-02-12 00:42:13.834
238.0, -11361.39170663258, -11219.189908407916, -8034.759227604774, -12529.359761400196, -12444.154911536565, -9087.101708305087, -11464.32148984927, -9091.572057196148, -11120.126976981996, -13332.63675363502, -9487.399099755181, -8061.514265717777, -9209.075177797697, -11917.637219147351, -12924.672713836755, -18120.402767706248, 0.014, -0.018000000000000002, 0.986, 192.0, 0.0, 0.0, 0.0, 0.0, 0.0, 0.0, 0.0, 0.0, 0.0, 1.644586933843227E9, 0.0, 2022-02-12 00:42:13.843
240.0, -11343.733828512888, -11220.151033419495, -8016.833128551618, -12530.186775945042, -12435.281268987808, -9072.237798242308, -11457.012469412384, -9079.502115190282, -11091.00265395673, -13316.744663327298, -9449.289375458882, -8028.143111246003, -9167.724450555379, -11876.934692494237, -12889.960454697664, -18109.495116412058, 0.014, -0.018000000000000002, 0.986, 192.0, 0.0, 0.0, 0.0, 0.0, 0.0, 0.0, 0.0, 0.0, 0.0, 1.644586933850988E9, 0.0, 2022-02-12 00:42:13.850
242.0, -11361.794038032776, -11248.783618066744, -8040.660088140976, -12520.173194429064, -12434.320143976229, -9077.93749307841, -11466.713126505987, -9097.070586332153, -11104.324293652093, -13322.757282585775, -9462.834532598798, -8030.244175224802, -9181.582532117669, -11879.59455008442, -12901.672768792245, -18115.843011837365, 0.014, -0.018000000000000002, 0.986, 192.0, 0.0, 0.0, 0.0, 0.0, 0.0, 0.0, 0.0, 0.0, 0.0, 1.644586933858241E9, 0.0, 2022-02-12 00:42:13.858
244.0, -11318.85633693413, -11202.247286110794, -8015.939058773406, -12541.139130728143, -12425.670018872026, -9067.052193528676, -11449.189358853026, -9064.45939117186, -11102.022063973196, -13321.125605240537, -9468.400116968169, -8038.424913695445, -9190.34441594415, -11889.116393222379, -12902.902114737286, -18110.322130956905, 0.014, -0.02, 0.99, 192.0, 0.0, 56.0, 127.5, 48.0, 15.0, 120.0, 0.0, 0.0, 0.0, 1.644586933866136E9, 0.0, 2022-02-12 00:42:13.866
246.0, -11368.991299747384, -11204.50481230078, -8028.791311835207, -12521.201374674009, -12429.134539262599, -9067.36511795105, -11460.812265969786, -9080.530295435226, -11082.084307919064, -13286.636863545998, -9448.708230103044, -8036.592070650109, -9161.309499896706, -11872.30788139199, -12881.243274360095, -18108.48928791157, 0.014, -0.02, 0.99, 192.0, 0.0, 0.0, 0.0, 0.0, 0.0, 0.0, 0.0, 0.0, 0.0, 1.6445869338725E9, 0.0, 2022-02-12 00:42:13.872
248.0, -11361.548168843767, -11210.763300748265, -8027.964297290361, -12520.240249662429, -12427.569917150728, -9075.903484332977, -11458.241815357425, -9091.773222896245, -11102.491450606758, -13332.949678057395, -9468.735393134999, -8049.064344056171, -9187.48339265387, -11901.678073606263, -12917.229582933138, -18109.718633856613, 0.014, -0.02, 0.99, 192.0, 0.0, 0.0, 0.0, 0.0, 0.0, 0.0, 0.0, 0.0, 0.0, 1.644586933880783E9, 0.0, 2022-02-12 00:42:13.880
250.0, -11338.056485421239, -11191.607855750068, -8008.495927869789, -12516.798081016314, -12411.275495442807, -9055.295175945184, -11442.774408194353, -9070.22614124133, -11079.62561602898, -13292.403613615468, -9435.610107852233, -8007.4900993693, -9149.351316613116, -11873.693689548218, -12880.639777259801, -18101.672005852703, 0.014, -0.02, 0.99, 192.0, 0.0, 0.0, 0.0, 0.0, 0.0, 0.0, 0.0, 0.0, 0.0, 1.644586933887418E9, 0.0, 2022-02-12 00:42:13.887
252.0, -11339.5764040442, -11209.93628620342, -8023.851576310584, -12499.743699996914, -12407.140422718576, -9059.385545180505, -11448.69762047501, -9092.041443829708, -11084.34183410905, -13313.369549914545, -9445.400171923658, -8013.860346539062, -9155.900377738522, -11879.326329150956, -12885.870085462342, -18102.275502952994, 0.014, -0.02, 0.99, 192.0, 0.0, 0.0, 0.0, 0.0, 0.0, 0.0, 0.0, 0.0, 0.0, 1.644586933895391E9, 0.0, 2022-02-12 00:42:13.895
254.0, -11324.801900959243, -11178.26386431025, -8001.857459766563, -12521.648409563115, -12408.392120408073, -9050.936585776399, -11442.59559423871, -9069.644995885492, -11087.605188799524, -13314.10715748157, -9453.603262138757, -8021.638753609509, -9174.452325636426, -11872.06201220298, -12885.490105806603, -18097.313415683915, 0.014, -0.026000000000000002, 0.99, 192.0, 0.0, 56.0, 127.5, 24.0, 15.0, 120.0, 0.0, 0.0, 0.0, 1.644586933903179E9, 0.0, 2022-02-12 00:42:13.903
0.0, -11322.119691624606, -11179.694375955389, -8012.295724427191, -12502.582371542738, -12406.000483751355, -9047.986155508299, -11436.404161024591, -9080.530295435226, -11068.00270891222, -13277.450296574867, -9424.635401324678, -8001.477480110822, -9149.060743935197, -11850.447875314698, -12865.887625919298, -18096.754622072534, 0.014, -0.026000000000000002, 0.99, 192.0, 0.0, 0.0, 0.0, 0.0, 0.0, 0.0, 0.0, 0.0, 0.0, 1.644586933910337E9, 0.0, 2022-02-12 00:42:13.910
2.0, -11328.601697516644, -11202.873134955542, -8016.073169240138, -12517.08865369423, -12403.653550583549, -9055.250472456273, -11434.437207512523, -9087.481687960826, -11083.403060841925, -13305.457032377368, -9449.512892903434, -8026.198509478392, -9173.804125047222, -11882.857904774894, -12892.59796054339, -18100.308549440928, 0.014, -0.026000000000000002, 0.99, 192.0, 0.0, 0.0, 0.0, 0.0, 0.0, 0.0, 0.0, 0.0, 0.0, 1.644586933919232E9, 0.0, 2022-02-12 00:42:13.919
4.0, -11333.072046407706, -11181.97425388983, -7999.577581832121, -12517.043950205321, -12396.992730735867, -9038.039629225686, -11438.751094192397, -9060.324318447629, -11064.582892010558, -13297.119831695538, -9422.757854790432, -7994.1908114183925, -9146.736162511845, -11861.646099286807, -12859.986765383097, -18093.848895293344, 0.014, -0.026000000000000002, 0.99, 192.0, 0.0, 0.0, 0.0, 0.0, 0.0, 0.0, 0.0, 0.0, 0.0, 1.644586933925831E9, 0.0, 2022-02-12 00:42:13.925
6.0, -11345.231395391393, -11198.000454664285, -8025.282087955724, -12516.440453105028, -12401.93246626049, -9042.59938509457, -11424.624791696644, -9079.077432045631, -11074.462363059803, -13316.342331927102, -9435.788921807876, -8014.352084917079, -9154.894549238034, -11865.959985966681, -12875.364765568349, -18097.939264528664, 0.014, -0.026000000000000002, 0.99, 192.0, 0.0, 0.0, 0.0, 0.0, 0.0, 0.0, 0.0, 0.0, 0.0, 1.644586933933823E9, 0.0, 2022-02-12 00:42:13.933
8.0, -11311.681426963976, -11160.82950363511, -8002.304494655668, -12527.415159632583, -12389.236675409875, -9040.431265882406, -11425.02712309684, -9057.910330046456, -11073.389479325948, -13313.257791192269, -9448.998802780963, -8025.192680977903, -9152.18998815894, -11871.614977313875, -12877.666995247246, -18096.91108428372, 0.012, -0.022, 0.99, 192.0, 0.0, 48.0, 127.5, 40.0, 15.0, 120.0, 0.0, 0.0, 0.0, 1.644586933949106E9, 0.0, 2022-02-12 00:42:13.949
10.0, -11336.201290631449, -11190.669082482944, -8014.754416317274, -12510.964275713477, -12383.089945684666, -9039.716010059836, -11423.507204473879, -9060.480780658816, -11054.457551772304, -13296.24811366178, -9424.411883880126, -7999.510526598755, -9129.27945009225, -11854.53824455002, -12849.749666422567, -18094.072412737896, 0.012, -0.022, 0.99, 192.0, 0.0, 0.0, 0.0, 0.0, 0.0, 0.0, 0.0, 0.0, 0.0, 1.644586933956913E9, 0.0, 2022-02-12 00:42:13.956
12.0, -11336.603622031644, -11199.408614564969, -8011.424006393434, -12520.776691529358, -12381.413564850518, -9035.625640824514, -11420.892050372608, -9051.428324154416, -11067.130990878462, -13303.244209676292, -9449.043506269874, -8022.152843731981, -9159.051973706719, -11877.515837850075, -12877.26466384705, -18096.598159861347, 0.012, -0.022, 0.99, 192.0, 0.0, 0.0, 0.0, 0.0, 0.0, 0.0, 0.0, 0.0, 0.0, 1.644586933965494E9, 0.0, 2022-02-12 00:42:13.965
14.0, -11329.6745812505, -11161.902387368964, -7989.787517760697, -12519.323828139763, -12375.177428147486, -9016.000809192754, -11420.713236416965, -9027.288440142685, -11053.272909316172, -13288.894389735984, -9409.212697650517, -7980.980930445306, -9128.497139036315, -11846.223395612646, -12853.884739146799, -18083.120057954795, 0.012, -0.022, 0.99, 192.0, 0.0, 0.0, 0.0, 0.0, 0.0, 0.0, 0.0, 0.0, 0.0, 1.644586933971157E9, 0.0, 2022-02-12 00:42:13.971
16.0, -11327.841738205165, -11177.079221854117, -8012.139262216004, -12506.248057633407, -12378.64194853806, -9026.439073853382, -11424.6471434411, -9069.443830185393, -11066.415735055893, -13290.14608742548, -9420.165052433616, -7993.520259084733, -9142.265813620785, -11851.833683470928, -12870.11210562135, -18088.596235346347, 0.012, -0.022, 0.99, 192.0, 0.0, 0.0, 0.0, 0.0, 0.0, 0.0, 0.0, 0.0, 0.0, 1.644586933977962E9, 0.0, 2022-02-12 00:42:13.977
18.0, -11311.256743819325, -11135.01323878923, -7991.709767783853, -12520.039083962332, -12377.25614038183, -9011.262239368229, -11427.508166731379, -9044.879263029012, -11068.51679903469, -13292.649482804476, -9428.636363582178, -7990.748642772275, -9147.294956123229, -11843.00474441108, -12877.510533036058, -18087.165723701208, 0.016, -0.02, 0.984, 192.0, 0.0, 64.0, 127.5, 48.0, 15.0, 96.0, 0.0, 0.0, 0.0, 1.644586933987672E9, 0.0, 2022-02-12 00:42:13.987
20.0, -11316.062368877218, -11149.184244773895, -7997.990607975795, -12499.85545871919, -12366.192026876453, -9010.569335290114, -11424.624791696644, -9054.021126511232, -11050.121313347974, -13268.86722670403, -9408.564497061312, -7966.966386671828, -9127.714827980379, -11835.896889674294, -12853.862387402343, -18088.48447662407, 0.016, -0.02, 0.984, 192.0, 0.0, 0.0, 0.0, 0.0, 0.0, 0.0, 0.0, 0.0, 0.0, 1.644586933993616E9, 0.0, 2022-02-12 00:42:13.993
22.0, -11312.754310697832, -11154.615718676534, -7997.476517853323, -12512.305380380796, -12358.503026783828, -9001.628637507993, -11417.963971848962, -9046.153312462964, -11070.90843569141, -13274.946901195874, -9431.6762008281, -8002.662122566953, -9140.276508364263, -11848.86090145837, -12876.974091169131, -18086.15989520072, 0.016, -0.02, 0.984, 192.0, 0.0, 0.0, 0.0, 0.0, 0.0, 0.0, 0.0, 0.0, 0.0, 1.644586934000278E9, 0.0, 2022-02-12 00:42:14.000
24.0, -11307.14402283955, -11141.137616769984, -7976.890561209984, -12513.937057726032, -12354.479712781873, -8993.82787869309, -11412.823070624241, -9027.221384909319, -11043.348734778016, -13254.763275952731, -9402.350712102738, -7951.878959164496, -9125.636115746036, -11811.95817136266, -12842.664163430234, -18075.609871817815, 0.016, -0.02, 0.984, 192.0, 0.0, 0.0, 0.0, 0.0, 0.0, 0.0, 0.0, 0.0, 0.0, 1.644586934010478E9, 0.0, 2022-02-12 00:42:14.010
26.0, -11347.667735537021, -11174.866399153043, -8000.672817310431, -12500.816583730768, -12366.192026876453, -9002.992093919765, -11432.693771445009, -9054.289347444696, -11064.582892010558, -13274.388107584491, -9411.090244184763, -7988.0887851820935, -9136.566118784682, -11839.137892620312, -12865.552349752468, -18088.171552201697, 0.016, -0.02, 0.984, 192.0, 0.0, 0.0, 0.0, 0.0, 0.0, 0.0, 0.0, 0.0, 0.0, 1.644586934016424E9, 0.0, 2022-02-12 00:42:14.016
28.0, -11314.721264209898, -11130.542889898168, -7978.678700766409, -12509.511412323882, -12340.219299819388, -8991.25742808073, -11410.364378734157, -9018.9288877164, -11071.176656624873, -13299.19854392988, -9422.869613512708, -7975.594160031576, -9135.493235050826, -11838.444988542198, -12870.268567832538, -18080.303738153427, 0.012, -0.018000000000000002, 0.986, 192.0, 0.0, 48.0, 127.5, 56.0, 15.0, 104.0, 0.0, 0.0, 0.0, 1.644586934023104E9, 0.0, 2022-02-12 00:42:14.023
30.0, -11324.757197470331, -11151.911157597442, -7989.809869505152, -12503.789365743323, -12334.005514860812, -8984.104869855031, -11403.100061786183, -9025.008562208242, -11054.301089561117, -13274.4328110734, -9404.250610381438, -7962.630148247498, -9112.56034523968, -11811.220563795634, -12840.384285495793, -18074.961671228608, 0.012, -0.018000000000000002, 0.986, 192.0, 0.0, 0.0, 0.0, 0.0, 0.0, 0.0, 0.0, 0.0, 0.0, 1.644586934031191E9, 0.0, 2022-02-12 00:42:14.031
32.0, -11316.822328188699, -11166.77506766022, -7994.928418985417, -12506.918609967068, -12335.905413139513, -8979.209837819319, -11406.92221008804, -9029.702428543858, -11084.230075386773, -13260.753543466753, -9439.208738709538, -7997.67768355342, -9148.032563690253, -11828.230241326124, -12867.228730586618, -18077.442714863148, 0.012, -0.018000000000000002, 0.986, 192.0, 0.0, 0.0, 0.0, 0.0, 0.0, 0.0, 0.0, 0.0, 0.0, 1.644586934040021E9, 0.0, 2022-02-12 00:42:14.040
34.0, -11323.550203269746, -11137.58368940159, -7979.4610118223445, -12511.657179791591, -12318.985142586846, -8970.224436548286, -11385.241017966393, -8990.743337958258, -11058.302051818617, -13267.05673540315, -9413.034845952374, -7969.872113451018, -9111.666275461468, -11806.772566649028, -12834.103445303852, -18064.85868273481, 0.012, -0.018000000000000002, 0.986, 192.0, 0.0, 0.0, 0.0, 0.0, 0.0, 0.0, 0.0, 0.0, 0.0, 1.644586934046904E9, 0.0, 2022-02-12 00:42:14.046
36.0, -11378.468439396434, -11161.455352479858, -7997.387110875501, -12493.32874933824, -12323.455491477907, -8977.891084896455, -11387.945579045485, -9020.135881916987, -11083.581874797568, -13279.752526253764, -9415.851165753742, -7979.393956588979, -9119.33292380964, -11821.34590403389, -12847.268622788028, -18074.179360172675, 0.012, -0.018000000000000002, 0.986, 192.0, 0.0, 0.0, 0.0, 0.0, 0.0, 0.0, 0.0, 0.0, 0.0, 1.64458693405301E9, 0.0, 2022-02-12 00:42:14.053
38.0, -11335.798959231253, -11124.731436339789, -7972.889598952484, -12505.868077977668, -12321.91322111049, -8964.72590741228, -11385.710404599955, -8994.051396137644, -11091.472040590292, -13287.10625017956, -9421.349694889748, -7964.977081415306, -9120.785787199235, -11807.353712004866, -12851.11312283434, -18064.702220523624, 0.012, -0.02, 0.992, 192.0, 0.0, 48.0, 127.5, 48.0, 15.5, 0.0, 0.0, 0.0, 0.0, 1.64458693406796E9, 0.0, 2022-02-12 00:42:14.067
40.0, -11333.496729552357, -11161.522407713224, -7983.1043461685595, -12491.719423737459, -12320.795633887725, -8955.762857885702, -11386.604474378166, -8999.505221784739, -11071.981319425264, -13286.882732735006, -9408.944476717053, -7944.704049194343, -9100.155127066986, -11795.708453143652, -12828.426102212205, -18064.054019934418, 0.012, -0.02, 0.992, 192.0, 0.0, 0.0, 0.0, 0.0, 0.0, 0.0, 0.0, 0.0, 0.0, 1.644586934075151E9, 0.0, 2022-02-12 00:42:14.075
42.0, -11330.970982428908, -11155.68860241039, -7974.141296641982, -12496.525048795349, -12303.405976701497, -8955.047602063132, -11377.77553531832, -8997.046529894655, -11092.254351646228, -13295.4881543503, -9428.189328693072, -7974.253055364258, -9120.070531376665, -11817.032017354015, -12855.047029858475, -18066.065676935395, 0.012, -0.02, 0.992, 192.0, 0.0, 0.0, 0.0, 0.0, 0.0, 0.0, 0.0, 0.0, 0.0, 1.644586934082739E9, 0.0, 2022-02-12 00:42:14.082
44.0, -11303.433633259969, -11110.694540821856, -7957.131619111493, -12500.637769775125, -12292.543028896216, -8946.375125214474, -11368.499561369368, -8980.126259341987, -11055.75395295071, -13254.71857246382, -9386.346863072737, -7944.793456172163, -9089.336882750616, -11778.89994131326, -12816.959657306632, -18052.47581630657, 0.012, -0.02, 0.992, 192.0, 0.0, 0.0, 0.0, 0.0, 0.0, 0.0, 0.0, 0.0, 0.0, 1.644586934090779E9, 0.0, 2022-02-12 00:42:14.090
46.0, -11352.026325705807, -11152.961689586842, -7988.915799726939, -12491.227685359441, -12298.10861326559, -8952.119523539486, -11376.143857973082, -8999.259352595729, -11071.62369151398, -13266.028555158206, -9407.223392393995, -7963.367755814524, -9104.960752124876, -11790.366386218833, -12841.948907607664, -18059.583671043358, 0.012, -0.02, 0.992, 192.0, 0.0, 0.0, 0.0, 0.0, 0.0, 0.0, 0.0, 0.0, 0.0, 1.644586934097722E9, 0.0, 2022-02-12 00:42:14.097
48.0, -11322.186746857971, -11097.797584271144, -7965.737040726786, -12504.839897732723, -12286.91038929348, -8937.836758832545, -11356.183750174494, -8964.658852178914, -11078.820953228587, -13271.571787783121, -9405.882287726676, -7960.57378775761, -9101.786804412222, -11782.297406470467, -12844.228785542105, -18049.547737782927, 0.014, -0.03, 0.99, 192.0, 0.0, 56.0, 127.5, 8.0, 15.0, 120.0, 0.0, 0.0, 0.0, 1.644586934105793E9, 0.0, 2022-02-12 00:42:14.105
50.0, -11319.616296245611, -11140.936451069887, -7974.431869319901, -12487.383185313129, -12285.837505559624, -8943.223529246276, -11364.096267711671, -8975.298282539641, -11053.161150593896, -13244.86145315903, -9384.893999683143, -7937.573842713099, -9076.238760499808, -11774.876627311305, -12815.909125317232, -18049.927717438666, 0.014, -0.03, 0.99, 192.0, 0.0, 0.0, 0.0, 0.0, 0.0, 0.0, 0.0, 0.0, 0.0, 1.644586934113504E9, 0.0, 2022-02-12 00:42:14.113
52.0, -11336.894194709563, -11143.886881337987, -7975.191828631381, -12493.015824915867, -12286.753927082293, -8936.875633820968, -11358.977718231406, -8974.247750550241, -11089.058052189119, -13293.811773516152, -9418.131043688183, -7948.794418429664, -9099.126946822042, -11798.368310733833, -12850.77784666751, -18052.766388984488, 0.014, -0.03, 0.99, 192.0, 0.0, 0.0, 0.0, 0.0, 0.0, 0.0, 0.0, 0.0, 0.0, 1.644586934120402E9, 0.0, 2022-02-12 00:42:14.120
54.0, -11322.47731953589, -11119.143500225962, -7961.445505791367, -12502.09063316472, -12278.528485122739, -8927.800825572112, -11352.696878039465, -8957.640404419948, -11067.533322278658, -13272.041174416683, -9386.883304939665, -7921.547641938644, -9063.721783604835, -11766.740592329574, -12820.91591607522, -18044.22802260256, 0.014, -0.03, 0.99, 192.0, 0.0, 0.0, 0.0, 0.0, 0.0, 0.0, 0.0, 0.0, 0.0, 1.644586934128358E9, 0.0, 2022-02-12 00:42:14.128
56.0, -11347.265404136826, -11135.080294022597, -7977.2258373768145, -12483.918664922556, -12280.204865956888, -8923.129310980954, -11363.448067122468, -8985.423622777895, -11073.501238048226, -13273.404630828456, -9400.7190347575, -7950.76137194173, -9079.189190767907, -11769.33339468639, -12833.96933483712, -18050.687676750145, 0.012, -0.027, 0.988, 192.0, 0.0, 40.0, 127.5, 32.0, 15.0, 104.0, 0.0, 0.0, 0.0, 1.644586934135484E9, 0.0, 2022-02-12 00:42:14.135
58.0, -11303.992426871351, -11080.899665462932, -7950.470799263811, -12500.458955819484, -12262.770505281747, -8910.679389319348, -11345.72313376941, -8953.371221228985, -11065.454610044315, -13252.684563718387, -9393.119441642695, -7946.983927128784, -9061.732478348313, -11764.416010906221, -12838.171462794717, -18045.703237736612, 0.012, -0.027, 0.988, 192.0, 0.0, 0.0, 0.0, 0.0, 0.0, 0.0, 0.0, 0.0, 0.0, 1.644586934143005E9, 0.0, 2022-02-12 00:42:14.143
60.0, -11322.611430002622, -11109.375787898993, -7961.5572645136435, -12488.746641724902, -12265.497418105295, -8916.714360322281, -11348.852377993153, -8968.168076058397, -11048.668449958379, -13234.557298965134, -9364.151580828617, -7920.13948203796, -9053.618795111037, -11752.390772389266, -12809.360064191827, -18043.445711546625, 0.012, -0.027, 0.988, 192.0, 0.0, 0.0, 0.0, 0.0, 0.0, 0.0, 0.0, 0.0, 0.0, 1.644586934151185E9, 0.0, 2022-02-12 00:42:14.151
62.0, -11329.808691717231, -11125.91607879592, -7972.2413983632805, -12499.475479063449, -12271.755906552782, -8918.234278945241, -11356.653136808054, -8974.694785439347, -11079.737374751256, -13267.280252847702, -9406.865764482709, -7941.7759706706975, -9078.183362267418, -11769.892188297772, -12842.06066632994, -18051.42528431717, 0.012, -0.027, 0.988, 192.0, 0.0, 0.0, 0.0, 0.0, 0.0, 0.0, 0.0, 0.0, 0.0, 1.64458693415745E9, 0.0, 2022-02-12 00:42:14.157
64.0, -11308.395720529046, -11097.8199360156, -7950.247281819258, -12496.994435428911, -12255.349726122586, -8912.378121897951, -11342.90681396804, -8943.983488557755, -11058.682031474356, -13256.551415509155, -9377.942607157542, -7908.538926665656, -9051.160103220953, -11738.555042571432, -12810.7235206036, -18045.502072036514, 0.012, -0.027, 0.988, 192.0, 0.0, 0.0, 0.0, 0.0, 0.0, 0.0, 0.0, 0.0, 0.0, 1.644586934165639E9, 0.0, 2022-02-12 00:42:14.165
66.0, -11335.933069697985, -11112.281514678183, -7972.0625844076385, -12484.164534111564, -12255.461484844862, -8916.692008577826, -11348.561805315234, -8975.901779639933, -11065.208740855305, -13256.5290637647, -9378.90373216912, -7916.071464547094, -9058.737344591302, -11767.679365596696, -12822.189965509173, -18052.788740728945, 0.011, -0.0245, 0.99, 192.0, 0.0, 40.0, 127.5, 40.0, 15.5, 0.0, 0.0, 0.0, 0.0, 1.644586934173887E9, 0.0, 2022-02-12 00:42:14.173
68.0, -11310.697950207943, -11085.19120039835, -7951.901310908951, -12506.695092522514, -12243.458598072362, -8899.347054880507, -11330.076912650695, -8948.610299660004, -11066.23692110025, -13254.092723619071, -9376.087412367751, -7919.200708770837, -9058.312661446651, -11754.380077645788, -12822.502889931548, -18046.731417981555, 0.011, -0.0245, 0.99, 192.0, 0.0, 0.0, 0.0, 0.0, 0.0, 0.0, 0.0, 0.0, 0.0, 1.644586934180708E9, 0.0, 2022-02-12 00:42:14.180
70.0, -11301.578438470178, -11074.842342715543, -7959.187979601381, -12496.65915926208, -12242.542176549696, -8898.877668246945, -11333.697895252455, -8948.364430470996, -11053.876406416466, -13233.305601275635, -9356.708449925, -7906.840194087053, -9036.989097236288, -11732.251850635035, -12798.564171619913, -18044.496243536025, 0.011, -0.0245, 0.99, 192.0, 0.0, 0.0, 0.0, 0.0, 0.0, 0.0, 0.0, 0.0, 0.0, 1.644586934195737E9, 0.0, 2022-02-12 00:42:14.195
72.0, -11318.006970644828, -11098.937523238365, -7962.630148247498, -12500.905990708588, -12245.626717284527, -8900.28582814763, -11333.00499117434, -8954.779381129669, -11076.406964827414, -13247.90129040495, -9388.693796240545, -7946.514540495222, -9064.07941151612, -11753.486007867576, -12827.800253367455, -18048.47485404907, 0.011, -0.0245, 0.99, 192.0, 0.0, 0.0, 0.0, 0.0, 0.0, 0.0, 0.0, 0.0, 0.0, 1.644586934205059E9, 0.0, 2022-02-12 00:42:14.205
74.0, -11304.417110016002, -11079.692671262344, -7941.9547846263395, -12495.94390343951, -12233.914403189947, -8885.801897740592, -11327.439406804968, -8933.947555297322, -11054.792827939133, -13256.95374690935, -9362.855179650209, -7891.842173557541, -9026.953163975855, -11731.201318645635, -12794.496154129047, -18037.81307194389, 0.011, -0.0245, 0.99, 192.0, 0.0, 0.0, 0.0, 0.0, 0.0, 0.0, 0.0, 0.0, 0.0, 1.644586934211258E9, 0.0, 2022-02-12 00:42:14.211
76.0, -11329.719284739409, -11101.686787806368, -7964.261825592736, -12486.355005068184, -12238.228289869821, -8902.543354337617, -11336.894194709563, -8959.9649858433, -11064.7617059662, -13251.566976495622, -9367.459639008002, -7914.037455801661, -9044.543986862182, -11748.501568854042, -12807.281351957483, -18045.03268540295, 0.0095, -0.02325, 0.989, 192.0, 0.0, 32.0, 127.5, 40.0, 15.0, 112.0, 0.0, 0.0, 0.0, 1.644586934218185E9, 0.0, 2022-02-12 00:42:14.218
78.0, -11315.5706304992, -11080.34087185155, -7939.563147969622, -12506.650389033603, -12224.459615285352, -8887.791202997114, -11319.258668334327, -8929.164281983887, -11071.80250546962, -13237.530080977689, -9370.678290209567, -7911.08702553356, -9048.969632264332, -11749.820321776906, -12810.29883745895, -18042.75280746851, 0.0095, -0.02325, 0.989, 192.0, 0.0, 0.0, 0.0, 0.0, 0.0, 0.0, 0.0, 0.0, 0.0, 1.644586934225806E9, 0.0, 2022-02-12 00:42:14.225
80.0, -11319.124557867593, -11092.321406879593, -7946.648650961954, -12489.28308359183, -12214.177812835911, -8876.28005460263, -11327.484110293879, -8940.138988511442, -11040.822987654567, -13236.792473410664, -9335.541347925824, -7884.041414742639, -9017.565431304625, -11738.331525126878, -12783.119116201296, -18039.601211500314, 0.0095, -0.02325, 0.989, 192.0, 0.0, 0.0, 0.0, 0.0, 0.0, 0.0, 0.0, 0.0, 0.0, 1.644586934233869E9, 0.0, 2022-02-12 00:42:14.233
82.0, -11330.702761495444, -11095.584761570068, -7951.186055086381, -12487.450240546494, -12214.602495980562, -8876.503572047182, -11326.992371915863, -8941.636555389949, -11069.544979279635, -13263.77102896822, -9365.403278518115, -7905.342627208546, -9038.017277481233, -11744.433551363178, -12809.695340358656, -18037.56720275488, 0.0095, -0.02325, 0.989, 192.0, 0.0, 0.0, 0.0, 0.0, 0.0, 0.0, 0.0, 0.0, 0.0, 1.644586934240528E9, 0.0, 2022-02-12 00:42:14.240
84.0, -11289.955531353418, -11057.698554718323, -7935.383371756479, -12490.870057448157, -12207.94167613288, -8858.8903974164, -11314.676560720989, -8912.75810155369, -11042.700534188813, -13234.154967564937, -9339.788179372332, -7878.766403051187, -9010.815204479124, -11711.487080036055, -12783.253226668028, -18029.364112539784, 0.0095, -0.02325, 0.989, 192.0, 0.0, 0.0, 0.0, 0.0, 0.0, 0.0, 0.0, 0.0, 0.0, 1.644586934247716E9, 0.0, 2022-02-12 00:42:14.247
86.0, -11317.537584011268, -11079.804429984622, -7959.120924368015, -12485.192714356508, -12208.880449400003, -8866.534694020116, -11314.788319443265, -8937.255613476707, -11047.707324946801, -13233.32795302009, -9357.893092381131, -7898.32417944958, -9023.667457540925, -11722.350027841334, -12798.7206338311, -18034.39325504223, 0.00875, -0.023625, 0.9875, 192.0, 0.0, 32.0, 127.5, 32.0, 15.0, 104.0, 0.0, 0.0, 0.0, 1.64458693425569E9, 0.0, 2022-02-12 00:42:14.255
88.0, -11302.271342548293, -11046.299165046117, -7936.098627579049, -12497.352063340195, -12197.749280661259, -8852.386039779907, -11308.351017040137, -8919.821252801568, -11065.007575155209, -13237.708894933332, -9361.625833705168, -7905.23086848627, -9016.291381870673, -11729.547289555943, -12803.325093188894, -18034.81793818688, 0.00875, -0.023625, 0.9875, 192.0, 0.0, 0.0, 0.0, 0.0, 0.0, 0.0, 0.0, 0.0, 0.0, 1.644586934263586E9, 0.0, 2022-02-12 00:42:14.263
90.0, -11315.838851432663, -11045.315688290082, -7940.233700303281, -12488.478420791438, -12198.308074272642, -8851.84959791298, -11309.937990896464, -8925.81152031559, -11041.47118824377, -13217.145290034448, -9335.541347925824, -7880.129859462961, -9000.600457263048, -11696.22083857308, -12776.72651728708, -18032.783929441444, 0.00875, -0.023625, 0.9875, 192.0, 0.0, 0.0, 0.0, 0.0, 0.0, 0.0, 0.0, 0.0, 0.0, 1.644586934270111E9, 0.0, 2022-02-12 00:42:14.270
92.0, -11317.470528777902, -11088.43220334437, -7945.0616771056275, -12490.71359523697, -12199.112737073034, -8856.297595059586, -11315.682389221476, -8932.740561096736, -11068.09211589004, -13232.210365797326, -9365.112705840196, -7896.84896431553, -9030.55179483316, -11733.861176235816, -12805.873192056799, -18041.456406290104, 0.00875, -0.023625, 0.9875, 192.0, 0.0, 0.0, 0.0, 0.0, 0.0, 0.0, 0.0, 0.0, 0.0, 1.644586934278429E9, 0.0, 2022-02-12 00:42:14.278
94.0, -11276.097449791128, -11043.214624311284, -7915.356208724525, -12487.070260890754, -12188.853286368047, -8837.432722739306, -11299.007987857818, -8901.04578745911, -11035.23505154074, -13219.089891802061, -9322.040894274818, -7841.17076887736, -8998.342931073063, -11698.925399652171, -12777.598235320835, -18030.52640325146, 0.00875, -0.023625, 0.9875, 192.0, 0.0, 0.0, 0.0, 0.0, 0.0, 0.0, 0.0, 0.0, 0.0, 1.644586934286204E9, 0.0, 2022-02-12 00:42:14.286
96.0, -11311.100281608138, -11084.185371897862, -7938.780836913686, -12483.51633352236, -12188.875638112502, -8850.70965894576, -11320.6221247461, -8927.510252894193, -11052.781170938155, -13249.510616005733, -9337.105970037695, -7874.988958238239, -9007.171870132908, -11710.548306768931, -12786.270712169495, -18034.9073451647, 0.008375, -0.0248125, 0.98675, 192.0, 0.0, 32.0, 127.5, 24.0, 15.0, 104.0, 0.0, 0.0, 0.0, 1.64458693429268E9, 0.0, 2022-02-12 00:42:14.292
98.0, -11279.204342270416, -11042.409961510893, -7916.406740713924, -12498.46965056296, -12174.45876293883, -8844.361763520452, -11308.261610062315, -8901.76104328168, -11054.703420961312, -13243.497996747255, -9356.574339458268, -7883.728490320264, -9009.429396322894, -11714.236344604058, -12792.10451747233, -18031.42047302967, 0.008375, -0.0248125, 0.98675, 192.0, 0.0, 0.0, 0.0, 0.0, 0.0, 0.0, 0.0, 0.0, 0.0, 1.644586934301079E9, 0.0, 2022-02-12 00:42:14.301
100.0, -11308.306313551226, -11051.350659293015, -7922.262897761214, -12488.791345213813, -12177.319786229109, -8840.919594874335, -11317.939915411464, -8922.302296436108, -11029.289487515627, -13220.945086591852, -9332.881490335643, -7859.990937708729, -8978.427526763384, -11693.60568447181, -12768.635185794257, -18031.375769540762, 0.008375, -0.0248125, 0.98675, 192.0, 0.0, 0.0, 0.0, 0.0, 0.0, 0.0, 0.0, 0.0, 0.0, 1.64458693431927E9, 0.0, 2022-02-12 00:42:14.319
102.0, -11326.120653882106, -11050.680106959357, -7936.120979323505, -12496.703862750992, -12170.748373359249, -8840.137283818398, -11308.6192379736, -8917.787244056135, -11073.165961881396, -13241.307525790637, -9345.174949786062, -7896.916019548896, -9022.080483684598, -11713.610495759309, -12792.596255850347, -18037.120167865774, 0.008375, -0.0248125, 0.98675, 192.0, 0.0, 0.0, 0.0, 0.0, 0.0, 0.0, 0.0, 0.0, 0.0, 1.644586934325154E9, 0.0, 2022-02-12 00:42:14.325
104.0, -11297.935104123962, -11029.13302530444, -7912.450481945334, -12487.830220202235, -12163.372297688997, -8824.491062699684, -11313.447214775946, -8906.14198519492, -11039.191310309328, -13210.573877164588, -9311.60262961419, -7850.737315504231, -8987.278817567685, -11692.108117593303, -12768.791648005445, -18023.954990381597, 0.008375, -0.0248125, 0.98675, 192.0, 0.0, 0.0, 0.0, 0.0, 0.0, 0.0, 0.0, 0.0, 0.0, 1.644586934331278E9, 0.0, 2022-02-12 00:42:14.331
106.0, -11310.094453107651, -11062.347717565026, -7936.411552001424, -12473.368641539651, -12165.182788989878, -8823.641696410383, -11312.329627553181, -8924.805691815101, -11048.646098213923, -13211.713816131809, -9322.018542530364, -7844.702344501298, -8985.848305922545, -11694.07507110537, -12777.732345787568, -18024.200859570607, 0.0071875, -0.02740625, 0.987375, 192.0, 0.0, 24.0, 127.5, 8.0, 15.0, 112.0, 0.0, 0.0, 0.0, 1.64458693433832E9, 0.0, 2022-02-12 00:42:14.338
108.0, -11284.077022561672, -11028.574231693057, -7912.2493162452365, -12487.293778335308, -12158.812541820114, -8814.477481183707, -11305.311179794215, -8894.742595522714, -11059.28552857465, -13218.911077846418, -9331.450978690504, -7848.256271869693, -8994.58783800457, -11690.141164081237, -12784.281406912973, -18017.182411811642, 0.0071875, -0.02740625, 0.987375, 192.0, 0.0, 0.0, 0.0, 0.0, 0.0, 0.0, 0.0, 0.0, 0.0, 1.644586934344825E9, 0.0, 2022-02-12 00:42:14.344
110.0, -11283.115897550095, -11023.589792679524, -7924.296906506647, -12480.364737554162, -12149.31305042661, -8816.802062607057, -11295.05172908923, -8897.33539787953, -11031.7034759168, -13210.663284142409, -9307.89224003461, -7834.599356007499, -8969.151552814432, -11665.956576580595, -12757.213444377596, -18014.43314724364, 0.0071875, -0.02740625, 0.987375, 192.0, 0.0, 0.0, 0.0, 0.0, 0.0, 0.0, 0.0, 0.0, 0.0, 1.644586934353061E9, 0.0, 2022-02-12 00:42:14.353
112.0, -11282.646510916533, -11031.122330560962, -7927.493205963756, -12482.644615488603, -12144.909756768913, -8814.052798039056, -11290.04493833124, -8893.37913911094, -11046.455627257303, -13222.777929637186, -9333.686153136034, -7867.3446616345245, -8977.578160474082, -11684.799097156418, -12780.146334188741, -18017.674150189658, 0.0071875, -0.02740625, 0.987375, 192.0, 0.0, 0.0, 0.0, 0.0, 0.0, 0.0, 0.0, 0.0, 0.0, 1.644586934360864E9, 0.0, 2022-02-12 00:42:14.360
114.0, -11284.479353961868, -11026.27200201416, -7903.398025440935, -12484.56686551176, -12139.657096821917, -8804.329789200996, -11282.512400449801, -8871.452077800284, -11030.228260782751, -13188.490353642745, -9300.002074241886, -7827.603259992989, -8973.174866816385, -11674.383184240245, -12755.134732143251, -18008.66639717417, 0.0071875, -0.02740625, 0.987375, 192.0, 0.0, 0.0, 0.0, 0.0, 0.0, 0.0, 0.0, 0.0, 0.0, 1.644586934368246E9, 0.0, 2022-02-12 00:42:14.368
116.0, -11314.162470598516, -11053.652888971912, -7935.3163165231135, -12478.911874164567, -12146.809655047615, -8815.662123639837, -11304.953551882929, -8913.093377720521, -11048.176711580361, -13219.13459529097, -9309.546269124303, -7826.150396603393, -8981.668529709403, -11690.521143736976, -12766.064735181897, -18018.23294380104, 0.00859375, -0.026703125, 0.9876875, 192.0, 0.0, 40.0, 127.5, 24.0, 15.0, 112.0, 0.0, 0.0, 0.0, 1.644586934375096E9, 0.0, 2022-02-12 00:42:14.375
118.0, -11285.216961528893, -11025.914374102877, -7918.194880270348, -12497.732042995936, -12139.478282866274, -8803.391015933874, -11296.728109923377, -8883.007929683678, -11057.922072162875, -13229.014066340216, -9320.968010540964, -7832.341829817514, -8986.20593383383, -11690.4093850147, -12779.073450454885, -18021.093967091318, 0.00859375, -0.026703125, 0.9876875, 192.0, 0.0, 0.0, 0.0, 0.0, 0.0, 0.0, 0.0, 0.0, 0.0, 1.644586934382682E9, 0.0, 2022-02-12 00:42:14.382
120.0, -11275.42689745747, -11012.905658829888, -7917.278458747681, -12484.008071900376, -12129.73292228376, -8808.21899273622, -11287.541542952245, -8884.147868650898, -11036.822025397067, -13208.964551563806, -9299.689149819511, -7810.884155140419, -8956.031078819165, -11665.844817858317, -12754.017144920486, -18019.37288276826, 0.00859375, -0.026703125, 0.9876875, 192.0, 0.0, 0.0, 0.0, 0.0, 0.0, 0.0, 0.0, 0.0, 0.0, 1.644586934390736E9, 0.0, 2022-02-12 00:42:14.390
122.0, -11278.824362614676, -11008.770586105657, -7921.458234960823, -12487.025557401843, -12131.476358351274, -8794.651483851849, -11284.345243495136, -8890.518115820661, -11048.132008091452, -13226.95770585033, -9326.555946654791, -7854.045373683617, -8980.953273886833, -11685.044966345426, -12779.922816744187, -18021.161022324686, 0.00859375, -0.026703125, 0.9876875, 192.0, 0.0, 0.0, 0.0, 0.0, 0.0, 0.0, 0.0, 0.0, 0.0, 1.644586934397937E9, 0.0, 2022-02-12 00:42:14.397
124.0, -11272.32000497818, -11006.93774306032, -7898.7488625942315, -12496.212124372974, -12118.44529133383, -8777.708861554725, -11277.170333524982, -8870.379194066429, -11032.865766628476, -13199.599170637033, -9298.057472474275, -7815.846242409497, -8942.463569934795, -11647.337573449324, -12759.068639167386, -18011.415661742172, 0.00859375, -0.026703125, 0.9876875, 192.0, 0.0, 0.0, 0.0, 0.0, 0.0, 0.0, 0.0, 0.0, 0.0, 1.644586934405262E9, 0.0, 2022-02-12 00:42:14.405
126.0, -11293.107127321617, -11034.765664907178, -7920.698275649343, -12481.974063154945, -12133.97975373027, -8776.278349909586, -11289.70966216441, -8896.262514145674, -11036.598507952513, -13205.857659084519, -9304.405367899582, -7820.227184322737, -8967.586930702559, -11657.105285776292, -12769.372793361283, -18017.71885367857, 0.01, -0.024, 0.986, 192.0, 0.0, 40.0, 127.5, 32.0, 15.0, 104.0, 0.0, 0.0, 0.0, 1.644586934413498E9, 0.0, 2022-02-12 00:42:14.413
128.0, -11265.435667685946, -10996.544181888603, -7897.94419979384, -12488.433717302529, -12119.808747745605, -8777.977082488189, -11279.785487626254, -8868.434592298818, -11047.483807502247, -13226.845947128051, -9303.846574288198, -7816.762663932164, -8966.178770801875, -11669.286986504434, -12776.860627753811, -18015.03664434393, 0.01, -0.024, 0.986, 192.0, 0.0, 0.0, 0.0, 0.0, 0.0, 0.0, 0.0, 0.0, 0.0, 1.644586934421245E9, 0.0, 2022-02-12 00:42:14.421
130.0, -11272.32000497818, -11004.099071514496, -7906.795490598141, -12482.175228855041, -12116.344227355032, -8776.099535953945, -11279.383156226058, -8874.961301679767, -11025.020304324664, -13173.335870902047, -9279.304358876272, -7790.54406768609, -8924.962154026289, -11643.73894259202, -12748.272746595472, -18012.823821642854, 0.01, -0.024, 0.986, 192.0, 0.0, 0.0, 0.0, 0.0, 0.0, 0.0, 0.0, 0.0, 0.0, 1.644586934427975E9, 0.0, 2022-02-12 00:42:14.427
132.0, -11293.934141866463, -11008.435309938826, -7917.837252359063, -12485.32682482324, -12125.240221648244, -8773.707899297226, -11285.194609784437, -8879.65516801538, -11059.419639041382, -13208.651627141433, -9317.861118061677, -7828.922012915852, -8974.091288339054, -11664.816637613374, -12781.95682548962, -18016.534211222435, 0.01, -0.024, 0.986, 192.0, 0.0, 0.0, 0.0, 0.0, 0.0, 0.0, 0.0, 0.0, 0.0, 1.644586934446708E9, 0.0, 2022-02-12 00:42:14.446
134.0, -11271.381231711059, -10982.261417181662, -7894.65849335891, -12484.298644578295, -12112.186802886345, -8770.35513762893, -11275.538656179746, -8865.394755052896, -11039.437179498336, -13195.41939442389, -9293.02832997183, -7797.987198589707, -8950.778418872169, -11638.73215183403, -12754.106551898307, -18011.013330341975, 0.01, -0.024, 0.986, 192.0, 0.0, 0.0, 0.0, 0.0, 0.0, 0.0, 0.0, 0.0, 0.0, 1.644586934452879E9, 0.0, 2022-02-12 00:42:14.452
136.0, -11296.303426778726, -11013.799728608099, -7913.903345334929, -12472.429868272528, -12115.673675021371, -8770.64571030685, -11284.904037106518, -8889.467583831261, -11047.260290057695, -13212.004388809728, -9292.31307414926, -7806.346751015992, -8946.15160776992, -11647.181111238137, -12761.952014202121, -18018.32235077886, 0.012, -0.028, 0.984, 192.0, 0.0, 48.0, 127.5, 16.0, 15.0, 96.0, 0.0, 0.0, 0.0, 1.644586934458912E9, 0.0, 2022-02-12 00:42:14.458
138.0, -11270.08483053265, -11000.925123801842, -7894.144403236438, -12488.61253125817, -12112.946762197824, -8755.468875821696, -11284.14407779504, -8860.387964294907, -11054.457551772304, -13223.359074993024, -9300.784385297822, -7815.287448798114, -8961.619014932992, -11649.93037580614, -12772.859665496311, -18010.923923364153, 0.012, -0.028, 0.984, 192.0, 0.0, 0.0, 0.0, 0.0, 0.0, 0.0, 0.0, 0.0, 0.0, 1.644586934465518E9, 0.0, 2022-02-12 00:42:14.465
140.0, -11267.290862475737, -10995.806574321578, -7905.074406275083, -12474.66504271806, -12104.363692326986, -8754.016012432101, -11280.388984726547, -8866.534694020116, -11026.51787120317, -13186.210475708303, -9281.31601587725, -7780.217561747738, -8928.426674416862, -11627.39981739519, -12750.552624529913, -18011.728586164547, 0.012, -0.028, 0.984, 192.0, 0.0, 0.0, 0.0, 0.0, 0.0, 0.0, 0.0, 0.0, 0.0, 1.644586934473571E9, 0.0, 2022-02-12 00:42:14.473
142.0, -11271.001252055317, -10995.158373732374, -7906.951952809329, -12479.738888709413, -12092.830192188048, -8756.474704322185, -11266.79912409772, -8862.846656184991, -11049.987202881242, -13186.769269319686, -9310.596801113701, -7815.712131942765, -8949.303203738118, -11652.031439784938, -12774.558398074914, -18017.540039722924, 0.012, -0.028, 0.984, 192.0, 0.0, 0.0, 0.0, 0.0, 0.0, 0.0, 0.0, 0.0, 0.0, 1.64458693448004E9, 0.0, 2022-02-12 00:42:14.480
144.0, -11273.32583347867, -10978.863952024454, -7879.36990015148, -12485.058603889776, -12077.765116425171, -8747.332840839963, -11251.421123912469, -8833.632926181905, -11032.061103828086, -13207.377577707479, -9277.69503327549, -7780.910465825852, -8919.15070046791, -11630.193785452102, -12746.28344133895, -18010.029853585944, 0.012, -0.028, 0.984, 192.0, 0.0, 0.0, 0.0, 0.0, 0.0, 0.0, 0.0, 0.0, 0.0, 1.64458693448834E9, 0.0, 2022-02-12 00:42:14.488
146.0, -11298.382139013069, -11027.769568892667, -7905.789662097653, -12470.641728716104, -12089.656244475394, -8752.049058920033, -11272.56587416719, -8874.268397601652, -11047.863787157989, -13214.95481907783, -9280.377242610126, -7791.706358397765, -8923.174014469865, -11626.595154594797, -12754.821807720877, -18014.097871076807, 0.006, -0.024, 0.986, 192.0, 0.0, 24.0, 127.5, 32.0, 15.0, 104.0, 0.0, 0.0, 0.0, 1.644586934495132E9, 0.0, 2022-02-12 00:42:14.495
148.0, -11267.849656087119, -10975.019451978142, -7883.415565897891, -12480.476496276438, -12085.364709539976, -8737.140445368344, -11266.150923508516, -8847.759228677658, -11052.200025582317, -13210.439766697857, -9281.159553666062, -7781.335148970503, -8924.33630518154, -11631.06550348586, -12766.33295611536, -18011.750937909, 0.006, -0.024, 0.986, 192.0, 0.0, 0.0, 0.0, 0.0, 0.0, 0.0, 0.0, 0.0, 0.0, 1.644586934503197E9, 0.0, 2022-02-12 00:42:14.503
150.0, -11256.293804203726, -10968.537446086102, -7890.188144467848, -12472.809847928269, -12084.2024188283, -8725.226965573665, -11267.156752009005, -8848.250967055676, -11026.51787120317, -13182.544789617634, -9255.253881842362, -7756.122381224916, -8913.451005631805, -11605.025721195427, -12740.606098247303, -18006.028891328442, 0.006, -0.024, 0.986, 192.0, 0.0, 0.0, 0.0, 0.0, 0.0, 0.0, 0.0, 0.0, 0.0, 1.644586934509842E9, 0.0, 2022-02-12 00:42:14.509
152.0, -11266.016813041784, -10985.16714396085, -7897.9889032827505, -12484.768031211857, -12079.732069937238, -8733.608869744405, -11265.6591851305, -8858.443362527296, -11057.452685529315, -13202.259028227214, -9289.921437492543, -7803.552782959078, -8939.155511755409, -11634.597079109799, -12771.563264317903, -18014.008464098988, 0.006, -0.024, 0.986, 192.0, 0.0, 0.0, 0.0, 0.0, 0.0, 0.0, 0.0, 0.0, 0.0, 1.644586934518333E9, 0.0, 2022-02-12 00:42:14.518
154.0, -11233.18210043694, -10945.090466152486, -7872.776135537164, -12487.718461479959, -12066.455133730786, -8711.905325878302, -11253.343373935626, -8832.671801170325, -11033.84924338451, -13168.127914443961, -9262.7864197238, -7772.752079099665, -8900.017607214166, -11599.124860659225, -12737.163929601185, -18001.67030115966, 0.006, -0.024, 0.986, 192.0, 0.0, 0.0, 0.0, 0.0, 0.0, 0.0, 0.0, 0.0, 0.0, 1.644586934525836E9, 0.0, 2022-02-12 00:42:14.525
156.0, -11280.344281237636, -11008.502365172191, -7900.291132961647, -12481.32586256574, -12069.96435761027, -8723.43882601724, -11253.298670446715, -8860.767943950646, -11033.17869105085, -13189.473830398778, -9275.12458266313, -7763.341994683981, -8905.896116005912, -11610.121918931238, -12746.7081244836, -18011.99680709801, 0.01, -0.028, 0.988, 192.0, 0.0, 40.0, 127.5, 16.0, 15.0, 112.0, 0.0, 0.0, 0.0, 1.644586934532957E9, 0.0, 2022-02-12 00:42:14.532
158.0, -11262.686403117945, -10969.386812375405, -7870.853885514008, -12488.791345213813, -12049.713677133761, -8708.239639787631, -11232.869176014565, -8814.298667228064, -11048.221415069273, -13220.229830769282, -9285.36168162366, -7778.272959980126, -8914.725055065759, -11617.900326001683, -12753.234833864552, -18008.353472751794, 0.01, -0.028, 0.988, 192.0, 0.0, 0.0, 0.0, 0.0, 0.0, 0.0, 0.0, 0.0, 0.0, 1.644586934540375E9, 0.0, 2022-02-12 00:42:14.540
160.0, -11265.882702575052, -10959.105009925963, -7879.302844918114, -12479.560074753772, -12053.871101602448, -8707.43497698724, -11252.002269268307, -8834.325830260019, -11023.32157174606, -13181.427202394869, -9241.7310764469, -7741.459636862235, -8879.23048487073, -11583.299825584869, -12727.329162040849, -18002.184391282128, 0.01, -0.028, 0.988, 192.0, 0.0, 0.0, 0.0, 0.0, 0.0, 0.0, 0.0, 0.0, 0.0, 1.644586934548513E9, 0.0, 2022-02-12 00:42:14.548
162.0, -11267.80495259821, -10953.74059125669, -7889.718757834287, -12487.539647524316, -12057.357973737477, -8710.92184912227, -11263.647528129522, -8849.122685089433, -11052.535301749147, -13187.4621733978, -9279.952559465475, -7779.144678013883, -8917.630781844948, -11610.25602939797, -12771.160932917706, -18016.578914711346, 0.01, -0.028, 0.988, 192.0, 0.0, 0.0, 0.0, 0.0, 0.0, 0.0, 0.0, 0.0, 0.0, 1.644586934562126E9, 0.0, 2022-02-12 00:42:14.562
164.0, -11248.135417477539, -10945.649259763868, -7864.550693577611, -12493.887542949622, -12046.405618954375, -8686.647854643805, -11242.860405786087, -8808.956600303245, -11035.346810263016, -13170.251330167215, -9248.704820716956, -7746.757000298143, -8886.606560540982, -11583.09865988477, -12742.684810481645, -18004.397213983204, 0.01, -0.028, 0.988, 192.0, 0.0, 0.0, 0.0, 0.0, 0.0, 0.0, 0.0, 0.0, 0.0, 1.644586934570157E9, 0.0, 2022-02-12 00:42:14.570
166.0, -11274.46577244589, -11001.372158690949, -7892.199801468826, -12489.417194058562, -12053.960508580269, -8703.72458740766, -11246.123760476561, -8837.857405883957, -11051.820045926577, -13192.446612411335, -9263.50167554637, -7764.459581906746, -8894.832002500534, -11583.232770351502, -12749.166816373685, -18012.98028385404, 0.012, -0.024, 0.988, 192.0, 0.0, 48.0, 127.5, 32.0, 15.0, 112.0, 0.0, 0.0, 0.0, 1.644586934578202E9, 0.0, 2022-02-12 00:42:14.578
168.0, -11249.722391333866, -10950.901919710866, -7869.691594802332, -12490.914760937067, -12039.387171195409, -8697.264933260076, -11246.928423276953, -8813.292838727575, -11060.961909408798, -13199.554467148122, -9279.282007131816, -7775.903675067863, -8899.61527581397, -11610.904229987173, -12760.789723490445, -18011.99680709801, 0.012, -0.024, 0.988, 192.0, 0.0, 0.0, 0.0, 0.0, 0.0, 0.0, 0.0, 0.0, 0.0, 1.644586934585338E9, 0.0, 2022-02-12 00:42:14.585
170.0, -11267.80495259821, -10961.273129138128, -7873.647853570921, -12487.450240546494, -12036.682610116317, -8695.610904170384, -11248.761266322288, -8829.140225546387, -11029.13302530444, -13178.432068637858, -9248.280137572305, -7729.300287878548, -8873.486086545718, -11578.561255760344, -12728.536156241436, -18005.894780861712, 0.012, -0.024, 0.988, 192.0, 0.0, 0.0, 0.0, 0.0, 0.0, 0.0, 0.0, 0.0, 0.0, 1.644586934592798E9, 0.0, 2022-02-12 00:42:14.592
172.0, -11273.057612545206, -10978.282806668616, -7883.79554555363, -12490.110098136676, -12036.436740927309, -8701.623523428862, -11250.392943667524, -8835.46576922724, -11057.877368673966, -13206.774080607187, -9267.010899425853, -7765.085430751495, -8904.577363083048, -11596.330892602313, -12765.170665403684, -18015.640141444223, 0.012, -0.024, 0.988, 192.0, 0.0, 0.0, 0.0, 0.0, 0.0, 0.0, 0.0, 0.0, 0.0, 1.644586934600739E9, 0.0, 2022-02-12 00:42:14.600
174.0, -11230.634001569033, -10922.895183908366, -7859.633309797444, -12491.831182459735, -12017.393054651388, -8679.651758629294, -11227.281239900738, -8802.094614755466, -11035.257403285195, -13177.403888392913, -9233.796207165267, -7729.657915789833, -8872.726127234237, -11567.430087021601, -12730.436054520138, -18003.592551182814, 0.012, -0.024, 0.988, 192.0, 0.0, 0.0, 0.0, 0.0, 0.0, 0.0, 0.0, 0.0, 0.0, 1.644586934609145E9, 0.0, 2022-02-12 00:42:14.609
176.0, -11264.072211274173, -10964.335318128506, -7889.428185156368, -12485.23741784542, -12025.2385169552, -8687.854848844392, -11238.434760383936, -8830.078998813511, -11037.269060286173, -13175.571045347579, -9249.68829747299, -7742.331354895992, -8875.47539180224, -11563.00444161945, -12740.293173824928, -18009.962798352575, 0.01, -0.026000000000000002, 0.988, 192.0, 0.0, 40.0, 127.5, 24.0, 15.0, 112.0, 0.0, 0.0, 0.0, 1.64458693461559E9, 0.0, 2022-02-12 00:42:14.615
178.0, -11234.433798126436, -10941.760056228644, -7861.264987142681, -12489.819525458757, -12006.574810335018, -8668.185313723721, -11210.517431559258, -8794.472669896206, -11049.316650547582, -13181.829533795064, -9261.199445867473, -7757.239968447682, -8883.23144712823, -11571.676918468109, -12748.563319273391, -18005.35833899478, 0.01, -0.026000000000000002, 0.988, 192.0, 0.0, 0.0, 0.0, 0.0, 0.0, 0.0, 0.0, 0.0, 0.0, 1.644586934625757E9, 0.0, 2022-02-12 00:42:14.625
180.0, -11234.165577192973, -10931.880585179399, -7862.31551913208, -12484.678624234037, -12005.457223112253, -8661.390383409307, -11231.483367858335, -8803.569829889517, -11020.147624033407, -13152.526396814155, -9223.089721571174, -7711.932982436774, -8842.595975708482, -11544.296031510357, -12718.075539836353, -17998.38459472473, 0.01, -0.026000000000000002, 0.988, 192.0, 0.0, 0.0, 0.0, 0.0, 0.0, 0.0, 0.0, 0.0, 0.0, 1.64458693463187E9, 0.0, 2022-02-12 00:42:14.631
182.0, -11242.972164508363, -10944.35285858546, -7875.0336617271505, -12482.063470132765, -12006.686569057294, -8670.398136424797, -11231.41631262497, -8820.17717601981, -11054.837531428044, -13176.956853503807, -9258.271367343828, -7748.276918921104, -8874.491915046205, -11574.515590013933, -12752.921909442177, -18008.979321596544, 0.01, -0.026000000000000002, 0.988, 192.0, 0.0, 0.0, 0.0, 0.0, 0.0, 0.0, 0.0, 0.0, 0.0, 1.644586934639864E9, 0.0, 2022-02-12 00:42:14.639
184.0, -11230.812815524676, -10915.563811727025, -7850.402039337402, -12486.176191112541, -11991.286217127588, -8647.755819291571, -11212.819661238154, -8782.782707546081, -11029.915336360376, -13146.625536277956, -9234.198538565463, -7714.794005727054, -8850.620251967937, -11538.931612841085, -12721.8529846493, -17996.95408307959, 0.01, -0.026000000000000002, 0.988, 192.0, 0.0, 0.0, 0.0, 0.0, 0.0, 0.0, 0.0, 0.0, 0.0, 1.64458693464772E9, 0.0, 2022-02-12 00:42:14.647
186.0, -11254.684478602943, -10958.233291892206, -7876.531228605656, -12476.855513674678, -11995.309531129544, -8657.255310685076, -11223.056760198684, -8810.677684626304, -11043.482845244747, -13170.832475523053, -9232.6786199425, -7725.791063999065, -8850.977879879223, -11546.128874555692, -12733.632353977246, -18003.637254671725, 0.01, -0.026000000000000002, 0.984, 192.0, 0.0, 40.0, 127.5, 24.0, 15.0, 96.0, 0.0, 0.0, 0.0, 1.644586934652918E9, 0.0, 2022-02-12 00:42:14.652
188.0, -11226.208356166882, -10929.7795212006, -7849.306803859092, -12493.239342360419, -11979.238626866178, -8642.99489772259, -11204.705978000877, -8776.613626076416, -11056.42450528437, -13165.736277787242, -9245.597928237668, -7730.730799523688, -8861.617310239948, -11546.173578044603, -12743.891804682233, -18003.167868038163, 0.01, -0.026000000000000002, 0.984, 192.0, 0.0, 0.0, 0.0, 0.0, 0.0, 0.0, 0.0, 0.0, 0.0, 1.644586934660966E9, 0.0, 2022-02-12 00:42:14.660
190.0, -11241.049914485207, -10947.057419664552, -7855.833513240042, -12486.846743446202, -11979.37273733291, -8644.42540936773, -11211.031521681729, -8785.017881991611, -11026.383760736438, -13159.254271895203, -9216.764177890323, -7698.521935763591, -8825.787463878092, -11513.249458461936, -12710.61005718828, -17999.7480511365, 0.01, -0.026000000000000002, 0.984, 192.0, 0.0, 0.0, 0.0, 0.0, 0.0, 0.0, 0.0, 0.0, 0.0, 1.644586934667469E9, 0.0, 2022-02-12 00:42:14.667
192.0, -11266.821475842176, -10949.694925510279, -7868.4622488572895, -12487.09261263521, -11982.770202490115, -8646.57117683544, -11219.860460741576, -8801.289951955076, -11055.105752361507, -13185.897551285929, -9242.133407847095, -7731.535462324079, -8856.029374126121, -11553.817874648319, -12747.557490772902, -18008.8005076409, 0.01, -0.026000000000000002, 0.984, 192.0, 0.0, 0.0, 0.0, 0.0, 0.0, 0.0, 0.0, 0.0, 0.0, 1.644586934675995E9, 0.0, 2022-02-12 00:42:14.675
194.0, -11237.563042350179, -10910.042930846565, -7844.143550889916, -12495.653330761592, -11968.442734294264, -8633.22718539562, -11203.990722178307, -8769.505771339629, -11034.765664907178, -13158.717830028276, -9218.753483146846, -7704.512203277613, -8834.303478515563, -11521.385493443668, -12722.478833494048, -17999.18925752512, 0.01, -0.024, 0.986, 192.0, 0.0, 40.0, 127.5, 40.0, 15.0, 112.0, 0.0, 0.0, 0.0, 1.644586934691035E9, 0.0, 2022-02-12 00:42:14.691
196.0, -11258.84190307163, -10956.489855824693, -7870.317443647081, -12488.009034157878, -11974.500057041652, -8648.985165236612, -11217.446472340402, -8801.446414166263, -11051.596528482025, -13158.337850372536, -9226.554241961747, -7715.822185971998, -8836.426894238817, -11529.163900514115, -12728.111473096786, -18005.783022139432, 0.01, -0.024, 0.986, 192.0, 0.0, 0.0, 0.0, 0.0, 0.0, 0.0, 0.0, 0.0, 0.0, 1.644586934698774E9, 0.0, 2022-02-12 00:42:14.698
198.0, -11216.753568262287, -10933.758131713645, -7848.300975358603, -12495.832144717235, -11963.145370858356, -8635.887042985803, -11206.829393724132, -8779.87698076689, -11062.548883265124, -13174.185237191348, -9239.227681067907, -7725.05345643204, -8846.485179243706, -11536.159996528626, -12743.288307581939, -18007.66056867368, 0.01, -0.024, 0.986, 192.0, 0.0, 0.0, 0.0, 0.0, 0.0, 0.0, 0.0, 0.0, 0.0, 1.64458693470566E9, 0.0, 2022-02-12 00:42:14.705
200.0, -11218.228783396338, -10924.839785675978, -7850.178521892849, -12492.278217348841, -11961.089010368469, -8631.70726677266, -11209.846879225599, -8784.861419780424, -11029.937688104832, -13132.812158204575, -9213.210250521928, -7685.334406534959, -8815.639771895381, -11515.864612563208, -12712.75582465599, -18003.816068627366, 0.01, -0.024, 0.986, 192.0, 0.0, 0.0, 0.0, 0.0, 0.0, 0.0, 0.0, 0.0, 0.0, 1.644586934713215E9, 0.0, 2022-02-12 00:42:14.713
202.0, -11265.480371174857, -10943.034105662598, -7856.526417318156, -12496.256827861886, -11967.548664516053, -8639.195101165187, -11217.915858973964, -8803.011036278134, -11058.078534374063, -13170.765420289687, -9248.011916638841, -7730.395523356859, -8837.678591928316, -11538.015191318416, -12747.736304728545, -18012.37678675375, 0.01, -0.024, 0.986, 192.0, 0.0, 0.0, 0.0, 0.0, 0.0, 0.0, 0.0, 0.0, 0.0, 1.644586934722615E9, 0.0, 2022-02-12 00:42:14.722
204.0, -11237.630097583546, -10918.49189025067, -7829.16788210486, -12502.80588898729, -11959.010298134124, -8623.012438179545, -11216.395940351003, -8774.847838264446, -11042.879348144454, -13171.4583243678, -9211.131538287585, -7688.776575181077, -8820.780673120104, -11518.859746320219, -12722.456481749592, -18006.27476051745, 0.012, -0.024, 0.99, 192.0, 0.0, 56.0, 127.5, 32.0, 15.5, 8.0, 0.0, 0.0, 0.0, 1.644586934729306E9, 0.0, 2022-02-12 00:42:14.729
206.0, -11238.814740039676, -10941.670649250824, -7859.879178986452, -12503.342330854217, -11963.257129580634, -8639.195101165187, -11222.520318331757, -8803.748643845158, -11047.796731924622, -13173.60409183551, -9223.939087860475, -7707.663799245811, -8826.927402845313, -11524.782958600874, -12732.023028376465, -18017.785908911934, 0.012, -0.024, 0.99, 192.0, 0.0, 0.0, 0.0, 0.0, 0.0, 0.0, 0.0, 0.0, 0.0, 1.644586934736398E9, 0.0, 2022-02-12 00:42:14.736
208.0, -11214.227821138838, -10914.245058804163, -7830.576042005545, -12514.115871681675, -11947.186225317268, -8620.129063144812, -11211.031521681729, -8770.153971928832, -11053.049391871618, -13175.526341858667, -9233.527986231802, -7720.180776140783, -8835.51047271615, -11530.348542970247, -12739.242641835528, -18015.729548422045, 0.012, -0.024, 0.99, 192.0, 0.0, 0.0, 0.0, 0.0, 0.0, 0.0, 0.0, 0.0, 0.0, 1.644586934742885E9, 0.0, 2022-02-12 00:42:14.742
210.0, -11235.618440582568, -10948.532634798603, -7835.649887996899, -12507.47740357845, -11950.60604221893, -8618.22916486611, -11211.903239715486, -8778.982910988678, -11030.138853804929, -13143.652754265398, -9195.15004100204, -7687.457822258213, -8799.971199032212, -11504.04053974635, -12705.89383910821, -18011.12508906425, 0.012, -0.024, 0.99, 192.0, 0.0, 0.0, 0.0, 0.0, 0.0, 0.0, 0.0, 0.0, 0.0, 1.644586934751029E9, 0.0, 2022-02-12 00:42:14.751
212.0, -11249.588280867134, -10923.453977519748, -7843.942385189818, -12502.515316309371, -11951.902443397337, -8616.128100887312, -11209.064568169662, -8778.133544699376, -11055.776304695166, -13160.528321329157, -9226.844814639666, -7713.09527314845, -8827.575603434516, -11529.387417958667, -12742.28247908145, -18019.37288276826, 0.012, -0.024, 0.99, 192.0, 0.0, 0.0, 0.0, 0.0, 0.0, 0.0, 0.0, 0.0, 0.0, 1.644586934766473E9, 0.0, 2022-02-12 00:42:14.766
214.0, -11230.61164982458, -10894.910799850322, -7818.886079655419, -12503.610551787682, -11935.183338544768, -8604.304028070454, -11201.330864588126, -8755.513579310606, -11035.391513751927, -13158.896643983919, -9194.524192157292, -7675.8125633969985, -8793.198620462254, -11503.392339157146, -12708.821917631856, -18006.520629706458, 0.015000000000000001, -0.023, 0.993, 192.0, 0.0, 72.0, 127.5, 40.0, 15.5, 16.0, 0.0, 0.0, 0.0, 1.644586934788587E9, 0.0, 2022-02-12 00:42:14.788
216.0, -11249.70003958941, -10931.63471599039, -7848.166864891871, -12497.32971159574, -11946.850949150437, -8616.016342165034, -11217.401768851492, -8789.354120415941, -11046.992069124231, -13174.609920335999, -9201.229715493884, -7685.826144912976, -8799.680626354293, -11500.352501911224, -12721.383598015738, -18016.89183913372, 0.015000000000000001, -0.023, 0.993, 192.0, 0.0, 0.0, 0.0, 0.0, 0.0, 0.0, 0.0, 0.0, 0.0, 1.64458693479502E9, 0.0, 2022-02-12 00:42:14.795
218.0, -11204.795384978699, -10912.188698314274, -7827.69266697081, -12514.786424015336, -11933.283440266066, -8605.734539715593, -11198.40278606448, -8760.050983435034, -11056.245691328728, -13177.582702348554, -9219.11111105813, -7709.787214969065, -8813.114024771932, -11514.367045684701, -12735.822824933866, -18014.142574565718, 0.015000000000000001, -0.023, 0.993, 192.0, 0.0, 0.0, 0.0, 0.0, 0.0, 0.0, 0.0, 0.0, 0.0, 1.644586934801223E9, 0.0, 2022-02-12 00:42:14.801
220.0, -11205.801213479188, -10928.63958223338, -7830.710152472277, -12512.394787358617, -11926.153233784824, -8602.404129791752, -11199.83329770962, -8766.421230604796, -11028.775397393156, -13154.69451602632, -9193.585418890169, -7668.637653426845, -8780.659291822827, -11488.79665002783, -12699.210667516074, -18012.75676640949, 0.015000000000000001, -0.023, 0.993, 192.0, 0.0, 0.0, 0.0, 0.0, 0.0, 0.0, 0.0, 0.0, 0.0, 1.644586934807128E9, 0.0, 2022-02-12 00:42:14.807
222.0, -11234.210280681882, -10930.628887489902, -7838.1756351203485, -12513.668836792569, -11927.762559385606, -8603.767586203527, -11206.628228024034, -8784.570847102505, -11053.071743616074, -13174.408754635902, -9229.974058863409, -7713.922287693297, -8807.45903342474, -11513.94236254005, -12736.42632203416, -18022.211554314086, 0.015000000000000001, -0.023, 0.993, 192.0, 0.0, 0.0, 0.0, 0.0, 0.0, 0.0, 0.0, 0.0, 0.0, 1.644586934813442E9, 0.0, 2022-02-12 00:42:14.813
224.0, -11231.148091691506, -10890.373395725894, -7817.187347076816, -12518.608572317193, -11915.916134824292, -8593.306969798443, -11197.061681397163, -8742.750733226625, -11035.771493407667, -13164.417524864379, -9193.786584590267, -7682.585141966956, -8784.50379186914, -11487.4108418716, -12709.358359498783, -18017.47298448956, 0.0175, -0.0225, 0.9924999999999999, 192.0, 0.0, 80.0, 127.5, 40.0, 15.5, 0.0, 0.0, 0.0, 0.0, 1.644586934819264E9, 0.0, 2022-02-12 00:42:14.819
226.0, -11254.975051280862, -10946.722143497724, -7848.390382336424, -12507.43270008954, -11927.06965530749, -8608.03676939449, -11214.585449050122, -8779.653463322338, -11042.298202788616, -13156.862635238485, -9196.178221246984, -7679.210028554205, -8796.909010041834, -11500.777185055875, -12719.528403225948, -18021.071615346864, 0.0175, -0.0225, 0.9924999999999999, 192.0, 0.0, 0.0, 0.0, 0.0, 0.0, 0.0, 0.0, 0.0, 0.0, 1.644586934825345E9, 0.0, 2022-02-12 00:42:14.825
228.0, -11224.5990305661, -10905.796099400057, -7822.887041912919, -12515.881659493645, -11910.2611434771, -8591.295312797465, -11197.26284709726, -8749.188035629753, -11059.039659385642, -13186.702214086321, -9207.868183597111, -7703.014636399107, -8803.189850233775, -11503.906429279617, -12735.152272600208, -18022.43507175864, 0.0175, -0.0225, 0.9924999999999999, 192.0, 0.0, 0.0, 0.0, 0.0, 0.0, 0.0, 0.0, 0.0, 0.0, 1.644586934831566E9, 0.0, 2022-02-12 00:42:14.831
230.0, -11209.377492592037, -10916.033198360587, -7826.709190214777, -12509.958447212988, -11901.87923930636, -8588.009606362535, -11191.11611737205, -8753.658384520815, -11025.646153169413, -13157.577891061055, -9173.871180280588, -7655.986566065141, -8758.866340978902, -11469.104763162704, -12697.958969826577, -18012.868525131766, 0.0175, -0.0225, 0.9924999999999999, 192.0, 0.0, 0.0, 0.0, 0.0, 0.0, 0.0, 0.0, 0.0, 0.0, 1.644586934837692E9, 0.0, 2022-02-12 00:42:14.837
232.0, -11224.777844521743, -10918.335428039483, -7839.159111876383, -12519.927325240056, -11904.1591172408, -8602.404129791752, -11201.040291910207, -8759.581596801472, -11053.451723271815, -13170.966585989785, -9217.412378479527, -7703.148746865839, -8794.427966407296, -11518.65858062012, -12734.816996433377, -18027.57597298336, 0.0175, -0.0225, 0.9924999999999999, 192.0, 0.0, 0.0, 0.0, 0.0, 0.0, 0.0, 0.0, 0.0, 0.0, 1.644586934843946E9, 0.0, 2022-02-12 00:42:14.843
234.0, -11213.423158338448, -10904.030311588087, -7817.992009877206, -12522.184851430042, -11902.773309084572, -8584.969769116613, -11196.435832552414, -8731.999544143622, -11032.016400339175, -13168.820818522076, -9180.420241405993, -7674.024423840574, -8764.811905004013, -11486.94145523804, -12711.302961266394, -18016.936542622632, 0.014750000000000001, -0.02425, 0.99125, 192.0, 0.0, 48.0, 127.5, 24.0, 15.0, 120.0, 0.0, 0.0, 0.0, 1.644586934849783E9, 0.0, 2022-02-12 00:42:14.849
236.0, -11246.235519198837, -10930.517128767626, -7844.702344501298, -12513.154746670098, -11904.941428296737, -8594.223391321111, -11200.280332598726, -8757.949919456234, -11042.722885933266, -13184.288225685148, -9191.417299678005, -7668.704708660211, -8767.605873060927, -11486.717937793486, -12721.60711546029, -18026.346627038318, 0.014750000000000001, -0.02425, 0.99125, 192.0, 0.0, 0.0, 0.0, 0.0, 0.0, 0.0, 0.0, 0.0, 0.0, 1.644586934855869E9, 0.0, 2022-02-12 00:42:14.855
238.0, -11209.064568169662, -10913.64156170387, -7815.779187176131, -12522.609534574693, -11893.385576413344, -8575.246760278555, -11186.779878947722, -8734.994677900635, -11051.261252315195, -13186.098716986027, -9206.05769229623, -7687.144897835839, -8773.506733597129, -11496.329187909269, -12732.648877221212, -18026.659551460692, 0.014750000000000001, -0.02425, 0.99125, 192.0, 0.0, 0.0, 0.0, 0.0, 0.0, 0.0, 0.0, 0.0, 0.0, 1.644586934861967E9, 0.0, 2022-02-12 00:42:14.861
240.0, -11225.716617788867, -10915.720273938212, -7818.439044766313, -12517.468633349972, -11895.464288647687, -8570.977577087591, -11195.988797663307, -8750.909119952812, -11029.110673559986, -13146.290260111125, -9169.154962200519, -7651.18094100725, -8760.587425301961, -11454.5537775223, -12701.08821405032, -18021.80922291389, 0.014750000000000001, -0.02425, 0.99125, 192.0, 0.0, 0.0, 0.0, 0.0, 0.0, 0.0, 0.0, 0.0, 0.0, 1.644586934868121E9, 0.0, 2022-02-12 00:42:14.868
242.0, -11221.201565408894, -10925.085654864986, -7836.007515908184, -12517.960371727988, -11901.052224761514, -8587.674330195705, -11209.31043735867, -8766.242416649153, -11066.862769944999, -13184.645853596432, -9215.981866834387, -7701.002979398129, -8802.653408366848, -11505.649865347132, -12743.869452937777, -18040.696446978625, 0.014750000000000001, -0.02425, 0.99125, 192.0, 0.0, 0.0, 0.0, 0.0, 0.0, 0.0, 0.0, 0.0, 0.0, 1.644586934875949E9, 0.0, 2022-02-12 00:42:14.875
244.0, -11197.68753024191, -10876.716479863702, -7804.0668730815505, -12521.089615951732, -11887.060032732492, -8565.747268885048, -11198.291027342204, -8735.531119767562, -11027.188423536829, -13157.08615268304, -9180.844924550644, -7655.8524555984095, -8764.409573603818, -11482.582865069255, -12715.214516546073, -18030.638161973737, 0.013375000000000001, -0.027125, 0.990625, 192.0, 0.0, 48.0, 127.5, 8.0, 15.0, 120.0, 0.0, 0.0, 0.0, 1.644586934889683E9, 0.0, 2022-02-12 00:42:14.889
246.0, -11266.508551419802, -10961.854274493966, -7835.806350208087, -12527.19164218803, -11899.26408520509, -8585.997949361557, -11207.768166991254, -8763.515503825605, -11050.389534281438, -13186.32223443058, -9180.397889661537, -7668.682356915755, -8768.142314927854, -11486.203847671015, -12720.42247300416, -18038.081292877352, 0.013375000000000001, -0.027125, 0.990625, 192.0, 0.0, 0.0, 0.0, 0.0, 0.0, 0.0, 0.0, 0.0, 0.0, 1.644586934897566E9, 0.0, 2022-02-12 00:42:14.897
248.0, -11220.039274697217, -10915.072073349009, -7808.090187083506, -12533.651296335614, -11882.075593718959, -8563.31092873942, -11199.967408176351, -8741.431980303763, -11069.097944390529, -13205.857659084519, -9211.220945265406, -7698.387825296859, -8782.268617423608, -11497.692644321043, -12737.990944146031, -18037.366037054784, 0.013375000000000001, -0.027125, 0.990625, 192.0, 0.0, 0.0, 0.0, 0.0, 0.0, 0.0, 0.0, 0.0, 0.0, 1.644586934906105E9, 0.0, 2022-02-12 00:42:14.906
250.0, -11225.917783488963, -10918.178965828296, -7814.773358675642, -12522.453072363505, -11882.50027686361, -8566.976614830091, -11195.83233545212, -8735.77698895657, -11038.476054486759, -13167.055030710106, -9165.869255765589, -7644.98950779313, -8740.068523891989, -11460.454638058502, -12702.049339061898, -18030.48169976255, 0.013375000000000001, -0.027125, 0.990625, 192.0, 0.0, 0.0, 0.0, 0.0, 0.0, 0.0, 0.0, 0.0, 0.0, 1.644586934911973E9, 0.0, 2022-02-12 00:42:14.911
