%OpenBCI Raw EEG Data
%Number of channels = 16
%Sample Rate = 125 Hz
%Board = OpenBCI_GUI$BoardCytonSerialDaisy
Sample Index, EXG Channel 0, EXG Channel 1, EXG Channel 2, EXG Channel 3, EXG Channel 4, EXG Channel 5, EXG Channel 6, EXG Channel 7, EXG Channel 8, EXG Channel 9, EXG Channel 10, EXG Channel 11, EXG Channel 12, EXG Channel 13, EXG Channel 14, EXG Channel 15, Accel Channel 0, Accel Channel 1, Accel Channel 2, Other, Other, Other, Other, Other, Other, Other, Analog Channel 0, Analog Channel 1, Analog Channel 2, Timestamp, Other, Timestamp (Formatted)
114.0, -10939.658992249846, -10698.327207365895, -7783.503268182668, -12965.956385845708, -11674.36083249579, -7901.453423673323, -11119.05409324814, -8427.971116062536, -11361.883445010597, -14526.756349415346, -8549.810475088416, -7167.645653205593, -8430.541566674896, -10689.721785750602, -12825.29685798846, -18203.68536754672, 0.004, -0.014, 0.495, 192.0, 0.0, 32.0, 127.5, 16.0, 15.0, 120.0, 0.0, 0.0, 0.0, 1.644587011570332E9, 0.0, 2022-02-12 00:43:31.570
116.0, -11003.070891269552, -10730.871347292823, -7811.800576663087, -12958.267385753083, -11685.536704723443, -7915.825595358086, -11142.545776670668, -8456.067258842857, -11347.310107625737, -14528.790358160777, -8544.35664944132, -7165.499885737883, -8426.607659650763, -10697.991931199067, -12819.418349196714, -18207.999254226597, 0.004, -0.014, 0.495, 192.0, 0.0, 0.0, 0.0, 0.0, 0.0, 0.0, 0.0, 0.0, 0.0, 1.644587011570337E9, 0.0, 2022-02-12 00:43:31.570
0.0, -4604.3475990709785, -4873.127326146046, -3458.328957358475, -5439.229957965607, -5377.226218846586, -3930.0848758321854, -4877.888247715026, -3962.360794825649, -5683.042786484098, -7271.313043989307, -4274.279388699459, -3595.792185758613, -4220.009353161973, -5355.768544169491, -6420.382132575766, -9103.440833501916, 0.008, -0.032, 0.99, 192.0, 0.0, 32.0, 127.5, 0.0, 15.0, 120.0, 0.0, 0.0, 0.0, 1.644587011693948E9, 0.0, 2022-02-12 00:43:31.693
2.0, -9203.040206794763, -9734.251765519592, -6894.999074339757, -10887.557075924526, -10747.098713767376, -7853.911263216885, -9741.493730723112, -7901.118147506493, -9504.945219152596, -12577.326605001284, -7637.144045489317, -6917.0825978616, -7375.114545239752, -10613.77055809147, -10710.531259838493, -15821.190574311087, 0.008, -0.032, 0.99, 192.0, 0.0, 0.0, 0.0, 0.0, 0.0, 0.0, 0.0, 0.0, 0.0, 1.644587011700108E9, 0.0, 2022-02-12 00:43:31.700
4.0, -9226.844814639666, -9767.354699057902, -6919.630696729505, -10868.96042453771, -10761.537940685505, -7857.1299144184495, -9762.54907400001, -7920.653572160432, -9500.988960384007, -12575.113782300208, -7633.791283821021, -6919.898917662968, -7373.058184749864, -10615.357531947797, -10713.16876568422, -15829.661885459649, 0.008, -0.032, 0.99, 192.0, 0.0, 0.0, 0.0, 0.0, 0.0, 0.0, 0.0, 0.0, 0.0, 1.644587011708009E9, 0.0, 2022-02-12 00:43:31.708
6.0, -9178.877971038577, -9720.617201401854, -6900.2293825422985, -10862.34430817894, -10735.587565372893, -7839.583795021033, -9733.000067830095, -7903.666246374399, -9517.17162336965, -12582.132230059175, -7656.27713874306, -6925.84448168808, -7382.8929523102, -10624.164119263187, -10725.372818156817, -15824.588039468294, 0.007, -0.029, 0.99, 192.0, 0.0, 24.0, 127.5, 24.0, 15.0, 120.0, 0.0, 0.0, 0.0, 1.64458701171597E9, 0.0, 2022-02-12 00:43:31.715
8.0, -9168.52911335577, -9705.105090749872, -6889.008806825735, -10864.177151224274, -10736.392228173283, -7833.861748440475, -9737.269251021058, -7897.899496304929, -9470.322366991326, -12546.414142419595, -7617.988600491119, -6885.030196312689, -7355.132085696708, -10606.327427187853, -10682.815096713914, -15815.60263819726, 0.007, -0.029, 0.99, 192.0, 0.0, 0.0, 0.0, 0.0, 0.0, 0.0, 0.0, 0.0, 0.0, 1.644587011722586E9, 0.0, 2022-02-12 00:43:31.722
10.0, -9191.014968277808, -9732.30716375198, -6906.17494656741, -10865.853532058421, -10735.498158395072, -7845.0376206681285, -9744.354754013391, -7916.294981991647, -9500.430166772625, -12582.378099248184, -7640.586214135435, -6922.491720019784, -7370.957120771065, -10623.046532040422, -10712.07353020591, -15823.001065611967, 0.007, -0.029, 0.99, 192.0, 0.0, 0.0, 0.0, 0.0, 0.0, 0.0, 0.0, 0.0, 0.0, 1.644587011737703E9, 0.0, 2022-02-12 00:43:31.737
12.0, -9189.360939188116, -9709.396625685291, -6876.290664230664, -10865.898235547333, -10712.967599984122, -7828.810254193575, -9739.97381210015, -7883.281455431159, -9477.11729730574, -12553.231424478463, -7610.768987032055, -6886.907742846935, -7342.436294846094, -10604.136956231232, -10691.778146240491, -15812.808670140348, 0.007, -0.029, 0.99, 192.0, 0.0, 0.0, 0.0, 0.0, 0.0, 0.0, 0.0, 0.0, 0.0, 1.644587011744777E9, 0.0, 2022-02-12 00:43:31.744
14.0, -9193.227790978885, -9729.177919528238, -6902.710426176838, -10864.19950296873, -10720.634248332293, -7828.474978026746, -9758.905739653796, -7912.294019734147, -9474.189218782094, -12540.870909794678, -7605.046940451496, -6872.222646739799, -7338.54709131087, -10592.782270047936, -10687.26309386052, -15818.016626598434, 0.007, -0.029, 0.99, 192.0, 0.0, 0.0, 0.0, 0.0, 0.0, 0.0, 0.0, 0.0, 0.0, 1.644587011752377E9, 0.0, 2022-02-12 00:43:31.752
16.0, -9179.704985583423, -9704.233372716115, -6885.253713757243, -10873.542532151048, -10708.631361559792, -7826.463321025768, -9730.876652106841, -7894.144403236438, -9496.7421289375, -12571.716317143002, -7639.245109468116, -6920.70358046336, -7368.677242836624, -10605.0533777539, -10706.64205630327, -15817.457832987051, 0.0075, -0.025500000000000002, 0.992, 192.0, 0.0, 32.0, 127.5, 40.0, 15.5, 8.0, 0.0, 0.0, 0.0, 1.644587011760773E9, 0.0, 2022-02-12 00:43:31.760
18.0, -9174.877008781077, -9701.72997733712, -6874.83780084107, -10859.215063955196, -10707.379663870295, -7819.131948844427, -9732.150701540793, -7883.303807175614, -9462.096925031772, -12545.67653485257, -7593.245219379094, -6866.321786203598, -7327.818253972323, -10582.81339202087, -10664.129038349276, -15807.757175893448, 0.0075, -0.025500000000000002, 0.992, 192.0, 0.0, 0.0, 0.0, 0.0, 0.0, 0.0, 0.0, 0.0, 0.0, 1.644587011768217E9, 0.0, 2022-02-12 00:43:31.768
20.0, -9198.033416036775, -9726.875689849341, -6889.634655670483, -10853.582424352458, -10706.35148362535, -7823.334076802025, -9746.45581799219, -7917.032589558672, -9490.729509679022, -12565.793104862345, -7619.150891202795, -6892.763899894226, -7360.0718212213305, -10612.183584235143, -10697.522544565505, -15816.474356231018, 0.0075, -0.025500000000000002, 0.992, 192.0, 0.0, 0.0, 0.0, 0.0, 0.0, 0.0, 0.0, 0.0, 0.0, 1.644587011775161E9, 0.0, 2022-02-12 00:43:31.775
22.0, -9167.255063921817, -9668.537636820989, -6854.251844197732, -10860.332651177961, -10681.809268213425, -7792.555724687068, -9716.280962977526, -7866.763516278686, -9470.121201291227, -12534.634773091648, -7592.149983900784, -6859.772725078193, -7341.631632045703, -10584.825049021847, -10672.555646008926, -15801.833963612791, 0.0075, -0.025500000000000002, 0.992, 192.0, 0.0, 0.0, 0.0, 0.0, 0.0, 0.0, 0.0, 0.0, 0.0, 1.64458701178567E9, 0.0, 2022-02-12 00:43:31.785
24.0, -9163.701136553424, -9677.500686347566, -6873.831972340581, -10844.887595759345, -10678.63532050077, -7797.718977656243, -9720.30427697948, -7884.5108013762, -9448.350602191758, -12518.899144995112, -7571.87695167982, -6845.489960371252, -7316.932954422588, -10568.284758124919, -10658.652860957725, -15802.392757224174, 0.0075, -0.025500000000000002, 0.992, 192.0, 0.0, 0.0, 0.0, 0.0, 0.0, 0.0, 0.0, 0.0, 0.0, 1.64458701179201E9, 0.0, 2022-02-12 00:43:31.792
26.0, -9133.302764094205, -9646.744685977064, -6857.962233777313, -10854.275328430573, -10665.000756383033, -7783.883247838408, -9704.367483182847, -7863.03077495465, -9456.39723019567, -12511.0536826913, -7586.40558557577, -6874.658986885427, -7311.166204353119, -10585.786174033425, -10678.814134456414, -15798.861181600236, 0.00875, -0.02375, 0.992, 192.0, 0.0, 40.0, 127.5, 40.0, 15.5, 0.0, 0.0, 0.0, 0.0, 1.644587011798047E9, 0.0, 2022-02-12 00:43:31.798
28.0, -9134.174482127963, -9667.352994364857, -6845.154684204422, -10850.654345828814, -10659.68104120267, -7778.518829169135, -9702.44523315969, -7850.2008736373045, -9425.775340291899, -12514.09351993722, -7555.046088104974, -6835.141102688444, -7288.68034943108, -10552.146798628188, -10638.268070014487, -15788.735841361982, 0.00875, -0.02375, 0.992, 192.0, 0.0, 0.0, 0.0, 0.0, 0.0, 0.0, 0.0, 0.0, 0.0, 1.644587011804633E9, 0.0, 2022-02-12 00:43:31.804
30.0, -9161.108334196608, -9685.502610862566, -6860.040946011656, -10854.67765983077, -10666.095991861343, -7781.424555948324, -9708.524907651534, -7882.119164719483, -9464.376802966215, -12538.188700460041, -7588.283132110016, -6878.123507276, -7325.873652204711, -10573.023327949444, -10670.275768074485, -15796.447193199063, 0.00875, -0.02375, 0.992, 192.0, 0.0, 0.0, 0.0, 0.0, 0.0, 0.0, 0.0, 0.0, 0.0, 1.644587011812486E9, 0.0, 2022-02-12 00:43:31.812
32.0, -9148.926633468465, -9641.6261364968, -6828.994372963235, -10862.724287834679, -10647.476988730072, -7759.6316051044, -9686.933122507706, -7841.014306666173, -9450.921052804119, -12510.696054780014, -7563.562102742447, -6852.217835452299, -7308.68516071858, -10553.465551551051, -10649.466293986594, -15788.35586170624, 0.00875, -0.02375, 0.992, 192.0, 0.0, 0.0, 0.0, 0.0, 0.0, 0.0, 0.0, 0.0, 0.0, 1.644587011822016E9, 0.0, 2022-02-12 00:43:31.822
34.0, -9159.297842895729, -9672.806820011952, -6854.3859546644635, -10844.19469168123, -10647.655802685715, -7777.401241946369, -9704.501593649578, -7877.358243150502, -9439.789884065376, -12492.278217348841, -7553.526169482014, -6836.057524211112, -7288.546238964348, -10554.404324818173, -10638.871567114778, -15793.764983864427, 0.00875, -0.02375, 0.992, 192.0, 0.0, 0.0, 0.0, 0.0, 0.0, 0.0, 0.0, 0.0, 0.0, 1.644587011844197E9, 0.0, 2022-02-12 00:43:31.844
36.0, -9126.150205868507, -9660.088677416883, -6837.309221900609, -10849.827331283966, -10636.614040924793, -7777.133021012905, -9692.20813419916, -7848.904472458897, -9456.039602284385, -12529.046836977821, -7583.589265774402, -6843.59006209255, -7308.305181062839, -10583.707461799082, -10663.883169160268, -15797.341262977276, 0.009375000000000001, -0.020875, 0.99, 192.0, 0.0, 40.0, 127.5, 56.0, 15.0, 112.0, 0.0, 0.0, 0.0, 1.644587011851417E9, 0.0, 2022-02-12 00:43:31.851
38.0, -9125.077322134654, -9633.065418370417, -6830.134311930456, -10847.212177182697, -10643.610136939304, -7759.095163237473, -9708.748425096086, -7852.212530638281, -9424.166014691116, -12487.204371357486, -7551.425105503215, -6817.907907713403, -7280.454907471527, -10552.61618526175, -10624.924078574668, -15789.451097184552, 0.009375000000000001, -0.020875, 0.99, 192.0, 0.0, 0.0, 0.0, 0.0, 0.0, 0.0, 0.0, 0.0, 0.0, 1.644587011857468E9, 0.0, 2022-02-12 00:43:31.857
40.0, -9183.594189118647, -9670.504590333056, -6846.026402238179, -10843.8594155144, -10647.186416052153, -7757.888169036886, -9702.266419204047, -7873.759612293198, -9452.932709805096, -12513.579429814748, -7557.527131739514, -6857.068163999101, -7317.625858500703, -10568.687089525116, -10658.272881301986, -15796.111917032233, 0.009375000000000001, -0.020875, 0.99, 192.0, 0.0, 0.0, 0.0, 0.0, 0.0, 0.0, 0.0, 0.0, 0.0, 1.644587011863626E9, 0.0, 2022-02-12 00:43:31.863
42.0, -9150.133627669053, -9624.459996755124, -6810.643590765428, -10849.313241161495, -10618.754997105003, -7727.892127977864, -9680.115840448838, -7837.438027553324, -9431.475035128002, -12488.098441135699, -7530.414465715226, -6820.4560065813075, -7284.657035429125, -10541.574423500828, -10631.495491444528, -15784.377251193197, 0.009375000000000001, -0.020875, 0.99, 192.0, 0.0, 0.0, 0.0, 0.0, 0.0, 0.0, 0.0, 0.0, 0.0, 1.644587011870015E9, 0.0, 2022-02-12 00:43:31.870
44.0, -9160.303671396217, -9656.870026215318, -6836.661021311405, -10836.684505544246, -10625.840500097334, -7736.765770526621, -9699.740672080598, -7873.536094848645, -9425.708285058534, -12483.136353866621, -7523.641887145268, -6797.701930725805, -7266.149791020131, -10524.631801203705, -10623.113587273787, -15786.545370405362, 0.009375000000000001, -0.020875, 0.99, 192.0, 0.0, 0.0, 0.0, 0.0, 0.0, 0.0, 0.0, 0.0, 0.0, 1.644587011875763E9, 0.0, 2022-02-12 00:43:31.875
46.0, -9121.165766854974, -9630.897299158252, -6819.651343780916, -10839.612584067892, -10614.66462786968, -7727.780369255587, -9683.58036083941, -7851.050239926606, -9449.714058603533, -12504.303455865796, -7548.4970269795695, -6820.29954437012, -7285.618160440703, -10548.61522300425, -10652.327317276873, -15789.384041951185, 0.0116875, -0.019437500000000003, 0.99, 192.0, 0.0, 56.0, 127.5, 56.0, 15.0, 120.0, 0.0, 0.0, 0.0, 1.644587011882139E9, 0.0, 2022-02-12 00:43:31.882
48.0, -9094.231914786329, -9584.584484646855, -6808.63193376445, -10840.9089852463, -10601.320636429864, -7720.873680218898, -9670.884569988797, -7839.337925832025, -9409.525622072892, -12459.264690788352, -7515.192927741162, -6781.29575029561, -7247.083752999753, -10509.589077185283, -10611.177755734654, -15777.69407960106, 0.0116875, -0.019437500000000003, 0.99, 192.0, 0.0, 0.0, 0.0, 0.0, 0.0, 0.0, 0.0, 0.0, 0.0, 1.644587011888285E9, 0.0, 2022-02-12 00:43:31.888
50.0, -9136.074380406664, -9623.320057787903, -6822.5123670711955, -10835.544566577026, -10603.645217853214, -7734.105912936439, -9681.166372438238, -7874.072536715572, -9429.396322893659, -12471.826371172236, -7541.880910620798, -6826.178053161866, -7285.506401718427, -10538.825158932825, -10640.503244460017, -15790.255759984942, 0.0116875, -0.019437500000000003, 0.99, 192.0, 0.0, 0.0, 0.0, 0.0, 0.0, 0.0, 0.0, 0.0, 0.0, 1.644587011900349E9, 0.0, 2022-02-12 00:43:31.900
52.0, -9107.106519592586, -9612.881793127275, -6786.906038153892, -10836.550395077515, -10590.591799091317, -7705.249810844638, -9664.33550886339, -7831.671277483854, -9416.208793665028, -12466.37254552514, -7511.996628284053, -6778.524133983152, -7268.049689298831, -10525.101187837266, -10622.845366340323, -15784.064326770822, 0.0116875, -0.019437500000000003, 0.99, 192.0, 0.0, 0.0, 0.0, 0.0, 0.0, 0.0, 0.0, 0.0, 0.0, 1.644587011906398E9, 0.0, 2022-02-12 00:43:31.906
54.0, -9144.702153766413, -9618.961467619118, -6814.286925111643, -10828.86139498489, -10597.118508472266, -7720.538404052068, -9678.953549737162, -7851.564330049077, -9410.397340106647, -12448.17822553852, -7503.570020624402, -6785.050843364102, -7249.318927445284, -10516.361655755241, -10614.016427280478, -15782.700870359049, 0.0116875, -0.019437500000000003, 0.99, 192.0, 0.0, 0.0, 0.0, 0.0, 0.0, 0.0, 0.0, 0.0, 0.0, 1.644587011912679E9, 0.0, 2022-02-12 00:43:31.912
56.0, -9110.526336494248, -9588.741909115543, -6796.561991758585, -10830.940107219232, -10571.034022692922, -7701.4053107983245, -9656.221825626115, -7833.727637973743, -9436.861805541732, -12484.164534111564, -7526.569965668913, -6809.4813000537515, -7270.575436422281, -10535.919432153634, -10635.384694979752, -15787.104164016744, 0.01384375, -0.022718750000000003, 0.991, 192.0, 0.0, 64.0, 127.5, 24.0, 15.5, 0.0, 0.0, 0.0, 0.0, 1.644587011919799E9, 0.0, 2022-02-12 00:43:31.919
58.0, -9103.172612568453, -9578.974196788573, -6789.00710213269, -10832.124749675364, -10570.0952494258, -7695.549153751034, -9649.091619144872, -7818.751969188687, -9396.248685866438, -12448.155873794065, -7478.781936023466, -6756.328851739032, -7212.393845605117, -10500.201344514055, -10587.596665334304, -15773.201378965543, 0.01384375, -0.022718750000000003, 0.991, 192.0, 0.0, 0.0, 0.0, 0.0, 0.0, 0.0, 0.0, 0.0, 0.0, 1.644587011928252E9, 0.0, 2022-02-12 00:43:31.928
60.0, -9127.558365769191, -9607.159746546717, -6811.515308799185, -10828.392008351328, -10581.561694331373, -7706.590915511956, -9664.067287929927, -7854.246539383715, -9429.284564171383, -12467.84776065919, -7515.170575996706, -6793.611561490484, -7259.980709550466, -10526.554051226862, -10625.304058230407, -15786.925350061101, 0.01384375, -0.022718750000000003, 0.991, 192.0, 0.0, 0.0, 0.0, 0.0, 0.0, 0.0, 0.0, 0.0, 0.0, 1.644587011936201E9, 0.0, 2022-02-12 00:43:31.936
62.0, -9085.157106537474, -9570.927568784664, -6774.746689170205, -10831.297735130518, -10561.936862699613, -7684.730909434666, -9655.171293636715, -7814.862765653464, -9408.117462172206, -12454.07908607472, -7498.943209522154, -6760.843904119004, -7232.085732470243, -10511.287809763886, -10609.277857455952, -15777.828190067792, 0.01384375, -0.022718750000000003, 0.991, 192.0, 0.0, 0.0, 0.0, 0.0, 0.0, 0.0, 0.0, 0.0, 0.0, 1.644587011942699E9, 0.0, 2022-02-12 00:43:31.942
64.0, -9116.784824941735, -9585.724423614076, -6788.2918463101205, -10821.57472629246, -10553.912586440158, -7690.967046137696, -9645.895319687763, -7837.88506244243, -9389.967845674497, -12438.07523704472, -7471.919950475687, -6754.853636604981, -7217.1994706630085, -10493.138193266177, -10593.38576714823, -15777.202341223043, 0.01384375, -0.022718750000000003, 0.991, 192.0, 0.0, 0.0, 0.0, 0.0, 0.0, 0.0, 0.0, 0.0, 0.0, 1.644587011949546E9, 0.0, 2022-02-12 00:43:31.949
66.0, -9103.597295713103, -9561.27161517997, -6778.43472700533, -10825.441578083228, -10553.71142074006, -7675.700804674721, -9649.6280610118, -7824.742236702709, -9408.855069739231, -12442.232661513408, -7494.9645990091085, -6782.748613685205, -7246.189683221542, -10525.659981448649, -10615.312828458886, -15778.319928445808, 0.011921875, -0.020359375000000002, 0.9824999999999999, 192.0, 0.0, 40.0, 127.5, 56.0, 15.0, 56.0, 0.0, 0.0, 0.0, 1.644587011957602E9, 0.0, 2022-02-12 00:43:31.957
68.0, -9086.609969927069, -9557.874150022764, -6773.4949914807075, -10821.977057692655, -10543.362563057251, -7659.205217266705, -9642.587261508377, -7821.5012337566895, -9381.205961848016, -12424.50772816035, -7466.823752739877, -6740.660278875862, -7207.655275780592, -10483.54929489485, -10583.103964698788, -15774.117800488211, 0.011921875, -0.020359375000000002, 0.9824999999999999, 192.0, 0.0, 0.0, 0.0, 0.0, 0.0, 0.0, 0.0, 0.0, 0.0, 1.644587011964155E9, 0.0, 2022-02-12 00:43:31.964
70.0, -9087.302874005183, -9559.595234345823, -6790.884648666936, -10823.698142015714, -10538.713400210549, -7668.078859815462, -9642.117874874815, -7834.822873452053, -9410.039712195363, -12437.024705055323, -7492.952942008132, -6784.872029408459, -7216.819491007268, -10503.08471954879, -10605.81333706538, -15782.320890703308, 0.011921875, -0.020359375000000002, 0.9824999999999999, 192.0, 0.0, 0.0, 0.0, 0.0, 0.0, 0.0, 0.0, 0.0, 0.0, 1.644587011972065E9, 0.0, 2022-02-12 00:43:31.972
72.0, -9089.091013561609, -9542.004411459495, -6759.793372129604, -10831.945935719721, -10529.683295450604, -7658.288795744038, -9633.892432915263, -7805.251515537681, -9394.505249798924, -12418.070425757222, -7480.793593024444, -6756.284148250121, -7223.390903877128, -10496.423899701107, -10595.084499726832, -15777.627024367694, 0.011921875, -0.020359375000000002, 0.9824999999999999, 192.0, 0.0, 0.0, 0.0, 0.0, 0.0, 0.0, 0.0, 0.0, 0.0, 1.6445870119802E9, 0.0, 2022-02-12 00:43:31.980
74.0, -9103.440833501916, -9587.981949804062, -6787.10720385399, -10814.46687155567, -10538.199310088075, -7667.497714459624, -9649.829226711898, -7829.212585593771, -9392.203020120027, -12424.664190371537, -7456.229025868061, -6731.786636327105, -7206.6941507690135, -10491.707681621037, -10584.109793199277, -15781.046841269355, 0.011921875, -0.020359375000000002, 0.9824999999999999, 192.0, 0.0, 0.0, 0.0, 0.0, 0.0, 0.0, 0.0, 0.0, 0.0, 1.644587011986947E9, 0.0, 2022-02-12 00:43:31.986
76.0, -9089.85097287309, -9552.085048208839, -6771.885665879926, -10818.177261135252, -10527.17990007161, -7651.046830540518, -9641.112046374326, -7817.366161032458, -9419.494500099958, -12452.872091874135, -7490.807174540422, -6753.758401126672, -7236.466674383482, -10505.677521905603, -10619.62671513876, -15781.963262792024, 0.012, -0.024, 0.978, 192.0, 0.0, 48.0, 127.5, 32.0, 15.0, 72.0, 0.0, 0.0, 0.0, 1.644587011994728E9, 0.0, 2022-02-12 00:43:31.994
78.0, -9097.85289738809, -9535.634164289733, -6759.391040729409, -10817.551412290504, -10518.46271973404, -7639.580385634946, -9628.326848545892, -7797.87543986743, -9376.266226323394, -12408.280361685796, -7434.860758168788, -6712.340618650987, -7188.27631333784, -10454.670841058594, -10573.559769816371, -15767.233463195977, 0.012, -0.024, 0.978, 192.0, 0.0, 0.0, 0.0, 0.0, 0.0, 0.0, 0.0, 0.0, 0.0, 1.644587012002707E9, 0.0, 2022-02-12 00:43:32.002
80.0, -9104.021978857754, -9566.434868149146, -6783.665035207872, -10816.61263902338, -10517.076911577811, -7655.606586409401, -9628.595069479356, -7828.296164071103, -9414.375950619693, -12437.404684711062, -7463.180418393662, -6744.661241133362, -7204.302514112296, -10492.69115837707, -10603.28758994193, -15777.314099945319, 0.012, -0.024, 0.978, 192.0, 0.0, 0.0, 0.0, 0.0, 0.0, 0.0, 0.0, 0.0, 0.0, 1.644587012009728E9, 0.0, 2022-02-12 00:43:32.009
82.0, -9059.363193436051, -9509.817899443853, -6748.058706290568, -10823.8546042269, -10503.55410618235, -7634.998278021608, -9610.80308089293, -7786.096070539484, -9391.823040464287, -12414.158870477542, -7452.116304888285, -6732.211319471756, -7203.676665267547, -10483.593998383762, -10582.031080964933, -15766.428800395584, 0.012, -0.024, 0.978, 192.0, 0.0, 0.0, 0.0, 0.0, 0.0, 0.0, 0.0, 0.0, 0.0, 1.644587012024519E9, 0.0, 2022-02-12 00:43:32.024
84.0, -9088.398109483494, -9546.407705117192, -6768.130572811434, -10810.085929642431, -10508.806766129348, -7642.016725780574, -9628.863290412819, -7814.013399364162, -9373.963996644497, -12407.766271563325, -7439.755790204501, -6713.547612851574, -7188.142202871109, -10469.825323799292, -10567.681261024627, -15767.032297495878, 0.012, -0.024, 0.978, 192.0, 0.0, 0.0, 0.0, 0.0, 0.0, 0.0, 0.0, 0.0, 0.0, 1.644587012032286E9, 0.0, 2022-02-12 00:43:32.032
86.0, -9078.384527967517, -9528.235736875027, -6765.604825687984, -10828.727284518158, -10504.60463817175, -7636.607603622389, -9623.94590663265, -7800.825870135531, -9397.321569600294, -12417.019893767821, -7458.173627635673, -6744.750648111182, -7209.756339759391, -10494.524001422405, -10596.135031716232, -15775.83888481127, 0.012, -0.024, 0.982, 192.0, 0.0, 48.0, 127.5, 32.0, 15.0, 88.0, 0.0, 0.0, 0.0, 1.644587012040612E9, 0.0, 2022-02-12 00:43:32.040
88.0, -9046.533292118704, -9510.60021049979, -6749.265700491154, -10820.010104180588, -10493.987559555479, -7628.5609756184795, -9624.66116245522, -7797.093128811494, -9367.012604118896, -12387.090907942165, -7415.884127126233, -6681.696377002761, -7161.476571735928, -10454.313213147308, -10558.807618475868, -15766.518207373407, 0.012, -0.024, 0.982, 192.0, 0.0, 0.0, 0.0, 0.0, 0.0, 0.0, 0.0, 0.0, 0.0, 1.644587012048384E9, 0.0, 2022-02-12 00:43:32.048
90.0, -9081.625530913536, -9539.210443402582, -6769.359918756476, -10810.912944187277, -10500.804841614348, -7632.1372547313285, -9632.730142203587, -7824.608126235978, -9385.944531672541, -12424.17245199352, -7442.885034428244, -6717.861499531448, -7185.750566214391, -10469.534751121373, -10585.741470544514, -15773.849579554748, 0.012, -0.024, 0.982, 192.0, 0.0, 0.0, 0.0, 0.0, 0.0, 0.0, 0.0, 0.0, 0.0, 1.644587012057707E9, 0.0, 2022-02-12 00:43:32.057
92.0, -9061.687774859402, -9508.722663965544, -6734.625307872929, -10819.674828013758, -10486.298559462854, -7609.8972689982975, -9627.075150856394, -7791.236971764204, -9372.734650699455, -12403.899419772557, -7423.997810363509, -6691.642903285373, -7180.609664989671, -10461.0187364839, -10572.911569227168, -15764.953585261535, 0.012, -0.024, 0.982, 192.0, 0.0, 0.0, 0.0, 0.0, 0.0, 0.0, 0.0, 0.0, 0.0, 1.64458701206586E9, 0.0, 2022-02-12 00:43:32.065
94.0, -9085.537086193215, -9543.993716716019, -6758.34050874001, -10811.71760698767, -10495.418071200618, -7620.112016214373, -9634.965316649117, -7812.985219119218, -9360.843522649231, -12401.396024393562, -7405.89289735471, -6675.326129832999, -7165.499885737883, -10452.279204401875, -10565.982528446022, -15768.619271352205, 0.012, -0.024, 0.982, 192.0, 0.0, 0.0, 0.0, 0.0, 0.0, 0.0, 0.0, 0.0, 0.0, 1.644587012072048E9, 0.0, 2022-02-12 00:43:32.072
96.0, -9077.110478533565, -9513.908268679175, -6746.561139412062, -10822.424092581761, -10480.062422759822, -7608.332646886426, -9605.863345368309, -7789.270018252137, -9393.320607342794, -12429.581574151705, -7442.259185583495, -6717.190947197789, -7189.505659282882, -10471.769925566903, -10586.322615900352, -15766.0711724843, 0.014, -0.024, 0.988, 192.0, 0.0, 56.0, 127.5, 32.0, 15.0, 112.0, 0.0, 0.0, 0.0, 1.644587012078559E9, 0.0, 2022-02-12 00:43:32.078
98.0, -9038.620774581525, -9464.220340755028, -6730.244365959688, -10814.936258189233, -10473.69217559006, -7590.0489199219855, -9612.52416521599, -7773.221465733227, -9352.506321967403, -12376.563236303717, -7402.897763597699, -6677.360138578432, -7153.362888498651, -10433.481387314963, -10547.9893741595, -15755.767018290404, 0.014, -0.024, 0.988, 192.0, 0.0, 0.0, 0.0, 0.0, 0.0, 0.0, 0.0, 0.0, 0.0, 1.644587012084727E9, 0.0, 2022-02-12 00:43:32.084
100.0, -9043.31464091714, -9512.03072214493, -6751.567930170051, -10813.528098288549, -10475.636777357671, -7595.011007191063, -9617.016865851507, -7801.585829447011, -9364.106877339707, -12380.228922394386, -7433.832577923844, -6700.51654583413, -7167.064507849755, -10454.044992213845, -10569.581159303327, -15762.874873027191, 0.014, -0.024, 0.988, 192.0, 0.0, 0.0, 0.0, 0.0, 0.0, 0.0, 0.0, 0.0, 0.0, 1.644587012094133E9, 0.0, 2022-02-12 00:43:32.094
102.0, -9054.110533489053, -9498.731434194022, -6712.51943260663, -10820.211269880685, -10453.195625924543, -7570.111163867851, -9582.125792756771, -7753.417820145824, -9361.782295916355, -12386.956797475434, -7399.902629840688, -6677.1142693894235, -7139.84008310319, -10432.1626343921, -10553.666717251148, -15751.430779866074, 0.014, -0.024, 0.988, 192.0, 0.0, 0.0, 0.0, 0.0, 0.0, 0.0, 0.0, 0.0, 0.0, 1.644587012100433E9, 0.0, 2022-02-12 00:43:32.100
104.0, -9092.667292674458, -9519.65266700419, -6731.160787482356, -10809.549487775505, -10463.253910929432, -7594.1616409017615, -9608.992589592051, -7787.1018990399725, -9352.260452778393, -12400.54665810426, -7379.65194936418, -6655.678946456784, -7155.307490266263, -10421.16557612009, -10539.9874496445, -15755.297631656842, 0.014, -0.024, 0.988, 192.0, 0.0, 0.0, 0.0, 0.0, 0.0, 0.0, 0.0, 0.0, 0.0, 1.644587012107342E9, 0.0, 2022-02-12 00:43:32.107
106.0, -9059.139675991497, -9489.902495134174, -6723.717656578739, -10817.126729145853, -10455.386096881164, -7590.294789110993, -9608.5679064474, -7783.078585038017, -9379.037842635851, -12423.323085704218, -7418.253412038495, -6691.2629236296325, -7179.179153344531, -10456.59309108175, -10571.257540137476, -15764.953585261535, 0.01, -0.03, 0.984, 192.0, 0.0, 40.0, 127.5, 8.0, 15.0, 96.0, 0.0, 0.0, 0.0, 1.644587012115874E9, 0.0, 2022-02-12 00:43:32.115
108.0, -9031.9823064783, -9458.855922085753, -6711.37949363941, -10819.361903591383, -10449.619346811694, -7575.4979342815805, -9601.504755199523, -7762.649090605866, -9340.548138683813, -12380.273625883297, -7384.4352226776155, -6647.140580074857, -7136.979059812911, -10422.707846487505, -10534.980658886512, -15758.315117158309, 0.01, -0.03, 0.984, 192.0, 0.0, 0.0, 0.0, 0.0, 0.0, 0.0, 0.0, 0.0, 0.0, 1.644587012122777E9, 0.0, 2022-02-12 00:43:32.122
110.0, -9057.955033535365, -9470.389422224693, -6733.61947937244, -10821.418264081272, -10449.373477622687, -7584.863315208354, -9598.487269698056, -7782.095108281984, -9359.256548792906, -12397.149192947054, -7403.076577553342, -6685.183249137789, -7167.332728783218, -10449.64169855615, -10562.003917932978, -15768.798085307848, 0.01, -0.03, 0.984, 192.0, 0.0, 0.0, 0.0, 0.0, 0.0, 0.0, 0.0, 0.0, 0.0, 1.644587012131055E9, 0.0, 2022-02-12 00:43:32.131
112.0, -9046.309774674151, -9474.524494948924, -6700.404787111854, -10820.993580936622, -10435.582451293762, -7558.376498028815, -9590.798269605431, -7756.122381224916, -9360.485894737947, -12381.033585194778, -7387.810336090367, -6669.112344874424, -7140.354173225663, -10436.074189671777, -10552.750295728481, -15763.344259660753, 0.01, -0.03, 0.984, 192.0, 0.0, 0.0, 0.0, 0.0, 0.0, 0.0, 0.0, 0.0, 0.0, 1.644587012144237E9, 0.0, 2022-02-12 00:43:32.144
114.0, -9042.845254283578, -9474.368032737737, -6723.695304834284, -10810.33179883144, -10442.690306030549, -7553.414410759737, -9606.28802851296, -7779.748175114176, -9344.571452685768, -12362.503989041328, -7373.371109172239, -6641.731457916672, -7126.831367830202, -10412.850727182715, -10540.881519422714, -15762.74076256046, 0.01, -0.03, 0.984, 192.0, 0.0, 0.0, 0.0, 0.0, 0.0, 0.0, 0.0, 0.0, 0.0, 1.644587012152091E9, 0.0, 2022-02-12 00:43:32.152
116.0, -9045.50511187376, -9469.473000702024, -6706.2832959035995, -10811.561144776482, -10429.838052968747, -7551.022774103019, -9594.396900462736, -7761.2185789607265, -9353.981537101452, -12368.471904810895, -7401.601362419291, -6645.955937618725, -7148.400801229573, -10418.259849340899, -10569.290586625408, -15762.606652093727, 0.01, -0.03, 0.984, 192.0, 0.0, 0.0, 127.5, 24.0, 15.0, 112.0, 0.0, 0.0, 0.0, 1.644587012160353E9, 0.0, 2022-02-12 00:43:32.160
118.0, -9053.931719533412, -9465.49439018898, -6685.339711348976, -10812.164641876774, -10420.271506341876, -7540.897433864765, -9583.623359635278, -7745.035915975084, -9332.523862424358, -12389.929579487989, -7344.917338480633, -6614.864661081393, -7116.8848415475895, -10404.53587824534, -10525.79409191538, -15755.230576423477, 0.01, -0.03, 0.984, 192.0, 0.0, 0.0, 0.0, 0.0, 0.0, 0.0, 0.0, 0.0, 0.0, 1.64458701216673E9, 0.0, 2022-02-12 00:43:32.166
120.0, -9028.003695965255, -9463.594491910279, -6707.624400570918, -10814.958609933688, -10416.069378384278, -7546.798294400966, -9578.236589221548, -7771.478029665713, -9343.27505150736, -12406.067538984722, -7375.114545239752, -6663.74792620515, -7128.910080064546, -10423.177233121067, -10546.111827625255, -15763.992460249956, 0.01, -0.03, 0.984, 192.0, 0.0, 0.0, 0.0, 0.0, 0.0, 0.0, 0.0, 0.0, 0.0, 1.644587012176505E9, 0.0, 2022-02-12 00:43:32.176
122.0, -9026.59553606457, -9437.10767473074, -6681.3387490914765, -10827.028551939555, -10412.694264971527, -7531.48734944908, -9582.438717179146, -7738.330392638492, -9328.411141444582, -12395.159887690532, -7374.309882439361, -6652.013260366114, -7113.576783368205, -10412.761320204892, -10541.015629889445, -15762.204320693532, 0.01, -0.03, 0.984, 192.0, 0.0, 0.0, 0.0, 0.0, 0.0, 0.0, 0.0, 0.0, 0.0, 1.644587012184162E9, 0.0, 2022-02-12 00:43:32.184
124.0, -9059.989042280798, -9484.44866948708, -6708.0490837155685, -10825.24041238313, -10412.11311961569, -7544.674878677712, -9583.601007890822, -7765.979500529707, -9326.801815843799, -12385.079250941188, -7353.388649629194, -6635.249452024634, -7087.291131888764, -10401.049006110312, -10528.699818694571, -15768.373402163197, 0.01, -0.03, 0.984, 192.0, 0.0, 0.0, 0.0, 0.0, 0.0, 0.0, 0.0, 0.0, 0.0, 1.644587012191319E9, 0.0, 2022-02-12 00:43:32.191
126.0, -9018.817128994124, -9462.856884343253, -6692.849897485959, -10830.560127563493, -10399.104404342701, -7533.230785516595, -9572.715708341088, -7749.752134055154, -9343.789141629833, -12402.155983705043, -7382.5576761433695, -6656.416554023809, -7132.21813824393, -10421.813776709292, -10559.768743487448, -15771.748515575948, 0.006, -0.036000000000000004, 0.99, 192.0, 0.0, 24.0, 127.0, 112.0, 15.0, 120.0, 0.0, 0.0, 0.0, 1.644587012197595E9, 0.0, 2022-02-12 00:43:32.197
128.0, -9029.545966332671, -9439.365200920725, -6672.934493176281, -10825.843909483423, -10394.34348277372, -7517.24928823105, -9573.721536841576, -7733.703581536243, -9300.963199253465, -12374.68568976947, -7338.278870377407, -6610.863698823893, -7088.229905155887, -10386.252151280898, -10517.591001700283, -15763.187797449566, 0.006, -0.036000000000000004, 0.99, 192.0, 0.0, 0.0, 0.0, 0.0, 0.0, 0.0, 0.0, 0.0, 0.0, 1.644587012204425E9, 0.0, 2022-02-12 00:43:32.204
130.0, -9038.799588537167, -9456.129009262206, -6696.493231832174, -10826.805034495, -10401.451337510507, -7530.302706992949, -9594.508659185012, -7768.929930797807, -9329.461673433982, -12400.434899381984, -7362.239940433496, -6635.36121074691, -7109.776986810803, -10414.035369638845, -10543.608432246261, -15775.056573755333, 0.006, -0.036000000000000004, 0.99, 192.0, 0.0, 0.0, 0.0, 0.0, 0.0, 0.0, 0.0, 0.0, 0.0, 1.644587012212516E9, 0.0, 2022-02-12 00:43:32.212
132.0, -9003.439128808872, -9402.14954640264, -6662.920911660303, -10829.956630463199, -10385.268674524865, -7514.008285285031, -9569.631167606256, -7726.3498576104475, -9313.390769170615, -12372.651681024037, -7345.699649536568, -6628.700390899228, -7087.089966188666, -10405.184078834543, -10534.958307142057, -15769.0216027524, 0.006, -0.036000000000000004, 0.99, 192.0, 0.0, 0.0, 0.0, 0.0, 0.0, 0.0, 0.0, 0.0, 0.0, 1.644587012219043E9, 0.0, 2022-02-12 00:43:32.219
134.0, -9036.095027458075, -9465.270872744426, -6681.204638624745, -10815.942086689722, -10393.382357762142, -7519.149186509751, -9591.669987639189, -7756.390602158381, -9304.025388243841, -12368.293090855252, -7326.812425471834, -6604.314637698489, -7083.4242800979955, -10395.39401476312, -10519.870879634724, -15770.87679754219, 0.006, -0.036000000000000004, 0.99, 192.0, 0.0, 0.0, 0.0, 0.0, 0.0, 0.0, 0.0, 0.0, 0.0, 1.644587012227362E9, 0.0, 2022-02-12 00:43:32.227
136.0, -9019.778254005701, -9445.82485506831, -6674.253246099144, -10823.988714693633, -10377.24439826541, -7502.29597119045, -9569.385298417246, -7738.889186249875, -9331.205109501494, -12396.769213291314, -7349.5665013273365, -6609.768463345584, -7098.712873305425, -10406.0557968683, -10552.079743394821, -15775.88358830018, 0.008, -0.026000000000000002, 0.984, 192.0, 0.0, 32.0, 127.5, 24.0, 15.0, 96.0, 0.0, 0.0, 0.0, 1.644587012235116E9, 0.0, 2022-02-12 00:43:32.235
138.0, -8993.179678103887, -9413.258363396926, -6655.41072552332, -10819.71953150267, -10369.600101661696, -7483.073470958886, -9563.149161714216, -7719.085540662473, -9287.79802176929, -12362.392230319052, -7312.954343909543, -6569.8705994928605, -7053.517646016794, -10363.363964958664, -10513.098301064767, -15764.260681183421, 0.008, -0.026000000000000002, 0.984, 192.0, 0.0, 0.0, 0.0, 0.0, 0.0, 0.0, 0.0, 0.0, 0.0, 1.644587012242475E9, 0.0, 2022-02-12 00:43:32.242
140.0, -9021.722855773312, -9414.465357597514, -6672.912141431826, -10809.23656335313, -10373.534008685829, -7489.890753017754, -9580.963502045095, -7753.618985845922, -9307.355798167682, -12370.930596700979, -7341.45281809006, -6604.02406502057, -7084.16188766502, -10378.607854677184, -10544.949536913578, -15775.101277244245, 0.008, -0.026000000000000002, 0.984, 192.0, 0.0, 0.0, 0.0, 0.0, 0.0, 0.0, 0.0, 0.0, 0.0, 1.644587012249681E9, 0.0, 2022-02-12 00:43:32.249
142.0, -8984.350739044039, -9388.492630540446, -6645.263033540611, -10811.225868609652, -10357.95484280048, -7473.305758631916, -9558.298833167415, -7709.7425114801545, -9297.945713751998, -12355.910224427013, -7317.000009655954, -6594.323407926966, -7068.962701435412, -10370.695337140005, -10533.527795496917, -15769.625099852694, 0.008, -0.026000000000000002, 0.984, 192.0, 0.0, 0.0, 0.0, 0.0, 0.0, 0.0, 0.0, 0.0, 0.0, 1.644587012257111E9, 0.0, 2022-02-12 00:43:32.257
144.0, -9016.425492337405, -9432.972602006508, -6662.563283749018, -10807.157851118785, -10360.078258523734, -7479.966578479598, -9559.349365156813, -7731.535462324079, -9282.880637989121, -12338.609974218605, -7292.211925055019, -6555.073744663447, -7045.001631379322, -10355.227929976933, -10517.635705189194, -15769.490989385962, 0.008, -0.026000000000000002, 0.984, 192.0, 0.0, 0.0, 0.0, 0.0, 0.0, 0.0, 0.0, 0.0, 0.0, 1.644587012272176E9, 0.0, 2022-02-12 00:43:32.272
146.0, -8998.87937293999, -9409.458566839525, -6650.292176043055, -10811.494089543115, -10354.66913636555, -7471.294101630939, -9563.08210648085, -7725.321677365503, -9309.300399935293, -12360.626442507082, -7328.511158050437, -6587.148497956812, -7078.171620150998, -10375.52331394235, -10542.982583401512, -15773.514303387918, 0.014, -0.026000000000000002, 0.98, 192.0, 0.0, 56.0, 127.5, 24.0, 15.0, 80.0, 0.0, 0.0, 0.0, 1.644587012279312E9, 0.0, 2022-02-12 00:43:32.279
148.0, -8974.87359939499, -9371.23708382095, -6639.384524748865, -10813.885726199833, -10353.417438676053, -7467.069621928886, -9564.04323149243, -7719.1302441513835, -9265.289815102795, -12331.189195059444, -7283.897076117644, -6548.189407371213, -7023.409846235496, -10344.364982171654, -10508.627952173705, -15768.082829485278, 0.014, -0.026000000000000002, 0.98, 192.0, 0.0, 0.0, 0.0, 0.0, 0.0, 0.0, 0.0, 0.0, 0.0, 1.644587012287491E9, 0.0, 2022-02-12 00:43:32.287
150.0, -9015.26320162573, -9433.218471195516, -6663.010318638125, -10809.504784286593, -10358.58069164523, -7486.582694838369, -9572.760411829999, -7748.880416021397, -9290.904914248576, -12364.247425108842, -7312.373198553705, -6572.821029760961, -7070.616730525105, -10379.233703521932, -10538.333420554807, -15781.739745347471, 0.014, -0.026000000000000002, 0.98, 192.0, 0.0, 0.0, 0.0, 0.0, 0.0, 0.0, 0.0, 0.0, 0.0, 1.644587012295358E9, 0.0, 2022-02-12 00:43:32.295
152.0, -8998.007654906232, -9396.181630633073, -6629.907385099815, -10825.03924668303, -10345.326107183231, -7464.610930038802, -9557.248301178015, -7711.24007835866, -9302.013731242863, -12365.83439896517, -7302.963114138021, -6561.86867497786, -7051.5506925047275, -10369.287177239321, -10531.471435007028, -15778.632852868182, 0.014, -0.026000000000000002, 0.98, 192.0, 0.0, 0.0, 0.0, 0.0, 0.0, 0.0, 0.0, 0.0, 0.0, 1.644587012302148E9, 0.0, 2022-02-12 00:43:32.302
154.0, -9004.869640454011, -9401.52369755789, -6653.823751666993, -10814.891554700322, -10367.029651049335, -7477.731404034067, -9586.238513736549, -7742.621927573911, -9290.45787935947, -12336.978296873367, -7287.20513429703, -6548.927014938237, -7037.044410353233, -10353.95388054298, -10516.115786566234, -15782.186780236576, 0.014, -0.025, 0.981, 192.0, 0.0, 56.0, 127.5, 32.0, 15.0, 88.0, 0.0, 0.0, 0.0, 1.644587012310001E9, 0.0, 2022-02-12 00:43:32.310
156.0, -8978.20400931883, -9399.757909745922, -6651.5215219880965, -10823.653438526802, -10358.692450367505, -7469.461258585604, -9575.397917675724, -7728.562680311523, -9319.425740173549, -12364.314480342207, -7332.7803412414005, -6584.1310124553465, -7075.914093961012, -10369.801267361792, -10551.744467227993, -15787.439440183574, 0.014, -0.025, 0.981, 192.0, 0.0, 0.0, 0.0, 0.0, 0.0, 0.0, 0.0, 0.0, 0.0, 1.644587012318124E9, 0.0, 2022-02-12 00:43:32.318
158.0, -8996.30892232763, -9374.299272811328, -6635.495321213642, -10824.256935627096, -10347.494226395396, -7451.490456043537, -9566.680737338154, -7716.3139243500145, -9287.686263047011, -12333.44672124943, -7293.485974488971, -6546.1553986257795, -7032.663468439993, -10341.123979225633, -10512.673617920116, -15774.40837316613, 0.014, -0.025, 0.981, 192.0, 0.0, 0.0, 0.0, 0.0, 0.0, 0.0, 0.0, 0.0, 0.0, 1.644587012324103E9, 0.0, 2022-02-12 00:43:32.324
160.0, -9027.333143631595, -9401.7695667469, -6661.0880686149685, -10820.546546047515, -10358.156008500579, -7467.337842862349, -9582.394013690235, -7752.948433512263, -9301.052606231286, -12355.619651749093, -7304.237163571974, -6575.592646073419, -7031.054142839211, -10368.638976650116, -10541.060333378355, -15790.971015807512, 0.014, -0.025, 0.981, 192.0, 0.0, 0.0, 0.0, 0.0, 0.0, 0.0, 0.0, 0.0, 0.0, 1.644587012331623E9, 0.0, 2022-02-12 00:43:32.331
162.0, -9009.988189934276, -9388.582037518268, -6636.478797969676, -10841.601889324415, -10347.583633373217, -7450.708144987601, -9561.852760535809, -7710.703636491733, -9303.801870799289, -12356.49136978285, -7302.069044359809, -6553.0844394069245, -7058.502085030328, -10361.53112191333, -10543.161397357155, -15790.658091385138, 0.014, -0.025, 0.981, 192.0, 0.0, 0.0, 0.0, 0.0, 0.0, 0.0, 0.0, 0.0, 0.0, 1.644587012339696E9, 0.0, 2022-02-12 00:43:32.339
164.0, -9016.850175482055, -9419.025113466396, -6653.086144099969, -10828.481415329148, -10352.970403786947, -7459.961767192098, -9584.405670691212, -7740.00677347264, -9302.84074578771, -12345.337849299653, -7285.886381374166, -6535.471264776143, -7046.2086255799095, -10348.991793273903, -10525.391760515186, -15791.865085585725, 0.013000000000000001, -0.0235, 0.9835, 192.0, 0.0, 48.0, 127.5, 40.0, 15.0, 104.0, 0.0, 0.0, 0.0, 1.644587012347675E9, 0.0, 2022-02-12 00:43:32.347
166.0, -8998.812317706623, -9391.778336975376, -6645.486550985164, -10832.437674097739, -10346.421342661542, -7453.390354322238, -9577.834257821352, -7727.869776233409, -9323.091426264218, -12370.841189723158, -7316.217698600019, -6566.719003524662, -7065.341718833652, -10367.588444660718, -10560.528702798927, -15795.17314376511, 0.013000000000000001, -0.0235, 0.9835, 192.0, 0.0, 0.0, 0.0, 0.0, 0.0, 0.0, 0.0, 0.0, 0.0, 1.644587012355637E9, 0.0, 2022-02-12 00:43:32.355
168.0, -9006.948352688356, -9365.023298862374, -6624.006524563614, -10834.918717732276, -10340.18520595851, -7443.086200128341, -9569.787629817441, -7719.040837173562, -9282.187733911007, -12327.67997117996, -7276.118669047198, -6524.071875103936, -7027.880195126557, -10330.305734909265, -10521.524908724417, -15786.992405294468, 0.013000000000000001, -0.0235, 0.9835, 192.0, 0.0, 0.0, 0.0, 0.0, 0.0, 0.0, 0.0, 0.0, 0.0, 1.644587012363001E9, 0.0, 2022-02-12 00:43:32.363
170.0, -9017.543079560171, -9408.162165661117, -6653.667289455806, -10830.068389185475, -10347.985964773414, -7457.391316579738, -9570.525237384467, -7745.170026441816, -9313.03314125933, -12348.891776668046, -7300.325608292295, -6554.850227218893, -7049.427276781474, -10369.130715028134, -10551.744467227993, -15803.957379336045, 0.013000000000000001, -0.0235, 0.9835, 192.0, 0.0, 0.0, 0.0, 0.0, 0.0, 0.0, 0.0, 0.0, 0.0, 1.644587012370593E9, 0.0, 2022-02-12 00:43:32.370
172.0, -9012.580992291092, -9386.257456094916, -6622.061922796002, -10845.446389370727, -10335.357229156165, -7434.458426768592, -9559.103495967805, -7710.9718574251965, -9314.50835639338, -12361.989898918855, -7308.68516071858, -6543.607299757874, -7043.079381356166, -10360.972328301947, -10546.201234603077, -15796.313082732331, 0.013000000000000001, -0.0235, 0.9835, 192.0, 0.0, 0.0, 0.0, 0.0, 0.0, 0.0, 0.0, 0.0, 0.0, 1.644587012377492E9, 0.0, 2022-02-12 00:43:32.377
174.0, -9023.108663929543, -9412.453700596536, -6636.657611925318, -10844.753485292613, -10339.984040258412, -7446.260147840995, -9574.190923475138, -7738.509206594134, -9297.901010263087, -12347.505968511818, -7278.197381281541, -6505.452871972665, -7019.475939211362, -10336.497168123386, -10529.236260561498, -15800.872838601214, 0.0115, -0.02175, 0.98475, 192.0, 0.0, 40.0, 127.5, 48.0, 15.0, 104.0, 0.0, 0.0, 0.0, 1.644587012391965E9, 0.0, 2022-02-12 00:43:32.391
176.0, -9007.440091066372, -9390.169011374595, -6631.673172911785, -10857.896311032333, -10332.183281443511, -7435.71012445809, -9577.27546420997, -7732.630697802389, -9330.623964145656, -12374.193951391453, -7307.455814773538, -6556.683070264229, -7054.121143117088, -10364.794476603804, -10560.551054543383, -15811.355806750753, 0.0115, -0.02175, 0.98475, 192.0, 0.0, 0.0, 0.0, 0.0, 0.0, 0.0, 0.0, 0.0, 0.0, 1.644587012399938E9, 0.0, 2022-02-12 00:43:32.399
178.0, -9008.177698633397, -9361.983461616452, -6617.971553560681, -10853.783590052557, -10326.528290096318, -7421.114435328775, -9560.981042502051, -7711.977685925685, -9297.386920140616, -12331.837395648647, -7267.960282321011, -6522.440197758699, -7023.4321979799515, -10331.579784343217, -10519.826176145814, -15800.224638012009, 0.0115, -0.02175, 0.98475, 192.0, 0.0, 0.0, 0.0, 0.0, 0.0, 0.0, 0.0, 0.0, 0.0, 1.644587012407263E9, 0.0, 2022-02-12 00:43:32.407
180.0, -9020.202937150352, -9383.351729315726, -6643.877225384382, -10844.842892270433, -10336.944203012492, -7436.872415169766, -9583.08691776835, -7747.651070076356, -9318.062283761774, -12352.289241825252, -7298.068082102309, -6540.9921456566035, -7049.181407592465, -10353.819770076248, -10545.865958436247, -15814.596809696772, 0.0115, -0.02175, 0.98475, 192.0, 0.0, 0.0, 0.0, 0.0, 0.0, 0.0, 0.0, 0.0, 0.0, 1.644587012414537E9, 0.0, 2022-02-12 00:43:32.414
182.0, -8985.758898944725, -9372.354671043715, -6613.098873269424, -10852.956575507711, -10323.689618550494, -7419.4157027501715, -9572.89452229673, -7709.921325435797, -9307.445205145503, -12345.851939422124, -7290.021454098399, -6541.014497401059, -7038.027887109267, -10343.023877504334, -10547.497635781483, -15809.768832894426, 0.0115, -0.02175, 0.98475, 192.0, 0.0, 0.0, 0.0, 0.0, 0.0, 0.0, 0.0, 0.0, 0.0, 1.644587012422666E9, 0.0, 2022-02-12 00:43:32.422
184.0, -9036.810283280645, -9404.898810970642, -6631.717876400695, -10844.619374825881, -10332.250336676876, -7427.171758076162, -9577.834257821352, -7738.1515786828495, -9293.676530561033, -12326.808253146202, -7275.761041135913, -6507.106901062358, -7017.3301717436525, -10345.549624627785, -10531.784359429403, -15817.234315542499, 0.012750000000000001, -0.022875, 0.984375, 192.0, 0.0, 56.0, 127.5, 32.0, 15.0, 96.0, 0.0, 0.0, 0.0, 1.644587012429648E9, 0.0, 2022-02-12 00:43:32.429
186.0, -9011.128128901497, -9391.733633486467, -6630.3320682444655, -10857.784552310057, -10334.28434542231, -7422.813167907378, -9583.332786957359, -7745.147674697361, -9330.84748159021, -12361.811084963214, -7302.449024015549, -6539.852206689383, -7055.082268128666, -10368.706031883483, -10566.362508101764, -15824.677446446116, 0.012750000000000001, -0.022875, 0.984375, 192.0, 0.0, 0.0, 0.0, 0.0, 0.0, 0.0, 0.0, 0.0, 0.0, 1.644587012437849E9, 0.0, 2022-02-12 00:43:32.437
188.0, -9008.73649224478, -9372.868761166186, -6611.623658135374, -10859.952671522222, -10325.455406362464, -7420.04155159492, -9574.101516497316, -7730.9319652237855, -9298.705673063478, -12352.892738925546, -7270.776602122379, -6500.1331567923025, -7014.402093220007, -10333.300868666276, -10532.834891418803, -15821.414091755641, 0.012750000000000001, -0.022875, 0.984375, 192.0, 0.0, 0.0, 0.0, 0.0, 0.0, 0.0, 0.0, 0.0, 0.0, 1.644587012444196E9, 0.0, 2022-02-12 00:43:32.444
190.0, -9045.147483962475, -9422.57904083479, -6631.539062445052, -10860.444409900238, -10337.815921046249, -7431.820920922866, -9594.732176629564, -7755.943567269274, -9328.27703097785, -12375.713870014415, -7282.734785405968, -6531.313840307455, -7032.5293579732615, -10363.028688791836, -10561.601586532783, -15834.914545406646, 0.012750000000000001, -0.022875, 0.984375, 192.0, 0.0, 0.0, 0.0, 0.0, 0.0, 0.0, 0.0, 0.0, 0.0, 1.644587012452345E9, 0.0, 2022-02-12 00:43:32.452
192.0, -9019.219460394319, -9385.296331083338, -6602.63825686434, -10877.498790919637, -10327.04238021879, -7410.94439160161, -9570.122905984272, -7709.854270202431, -9340.145807283618, -12370.952948445434, -7288.926218620089, -6534.510139764565, -7047.527378502772, -10349.818807818749, -10559.724039998537, -15829.773644181925, 0.012750000000000001, -0.022875, 0.984375, 192.0, 0.0, 0.0, 0.0, 0.0, 0.0, 0.0, 0.0, 0.0, 0.0, 1.644587012459406E9, 0.0, 2022-02-12 00:43:32.459
194.0, -9033.904556501455, -9404.518831314901, -6629.3932949773425, -10868.178113481774, -10332.80913028826, -7423.416665007671, -9592.385243461758, -7744.38771538588, -9317.682304106034, -12351.216358091398, -7280.432555727071, -6518.618049456841, -7025.421503236474, -10339.492301880397, -10540.479188022517, -15831.986466883001, 0.014375, -0.025437500000000002, 0.9841875, 192.0, 0.0, 64.0, 127.5, 16.0, 15.0, 96.0, 0.0, 0.0, 0.0, 1.644587012467046E9, 0.0, 2022-02-12 00:43:32.467
196.0, -9020.046474939165, -9380.535409514358, -6628.476873454675, -10867.328747192472, -10323.890784250592, -7415.347685259305, -9582.908103812708, -7733.189491413772, -9343.342106740727, -12377.524361315294, -7312.484957275982, -6551.765686484062, -7059.329099575174, -10376.372680231652, -10581.919322242657, -15838.80374894187, 0.014375, -0.025437500000000002, 0.9841875, 192.0, 0.0, 0.0, 0.0, 0.0, 0.0, 0.0, 0.0, 0.0, 0.0, 1.644587012475234E9, 0.0, 2022-02-12 00:43:32.475
198.0, -9031.892899500477, -9369.203075075517, -6606.281591210555, -10865.451200658226, -10320.560374326751, -7395.32052222735, -9574.257978708503, -7709.831918457976, -9316.207088971983, -12351.529282513773, -7268.3849654656615, -6497.294485246478, -7011.33990422963, -10333.99377274439, -10541.75323745647, -15821.414091755641, 0.014375, -0.025437500000000002, 0.9841875, 192.0, 0.0, 0.0, 0.0, 0.0, 0.0, 0.0, 0.0, 0.0, 0.0, 1.644587012482922E9, 0.0, 2022-02-12 00:43:32.482
200.0, -9054.512864889248, -9425.373008891704, -6632.567242689996, -10859.505636633116, -10330.372790142632, -7404.618847920758, -9593.033444050961, -7757.910520781341, -9343.073885807264, -12371.0200036788, -7286.266361029907, -6506.168127795235, -7029.109541071599, -10345.169644972044, -10567.413040091162, -15835.003952384468, 0.014375, -0.025437500000000002, 0.9841875, 192.0, 0.0, 0.0, 0.0, 0.0, 0.0, 0.0, 0.0, 0.0, 0.0, 1.644587012489362E9, 0.0, 2022-02-12 00:43:32.489
202.0, -9010.636390523481, -9347.812455631787, -6599.35255042941, -10874.302491462528, -10312.670208534028, -7384.904609311177, -9566.770144315977, -7716.1351103943725, -9342.22451951796, -12361.229939607376, -7284.992311595955, -6502.502441704565, -7033.401076007018, -10336.966554756948, -10566.56367380186, -15832.813481427847, 0.014375, -0.025437500000000002, 0.9841875, 192.0, 0.0, 0.0, 0.0, 0.0, 0.0, 0.0, 0.0, 0.0, 0.0, 1.644587012497549E9, 0.0, 2022-02-12 00:43:32.497
204.0, -9020.69467552837, -9383.23997059345, -6614.551736659019, -10875.956520552221, -10321.275630149321, -7396.058129794375, -9586.082051525362, -7743.739514796676, -9312.966086025965, -12321.220317032376, -7256.2926717153405, -6478.317854203922, -7008.769453617269, -10309.049225932267, -10542.021458389934, -15833.864013417247, 0.013187500000000001, -0.02871875, 0.98609375, 192.0, 0.0, 48.0, 127.5, 0.0, 15.0, 112.0, 0.0, 0.0, 0.0, 1.644587012504425E9, 0.0, 2022-02-12 00:43:32.504
206.0, -9036.989097236288, -9391.510116041913, -6623.179510018767, -10890.194581770253, -10326.371827885132, -7397.823917606344, -9587.333749214858, -7745.259433419637, -9345.197301530518, -12391.449498110951, -7295.519983234404, -6540.925090423238, -7044.666355212493, -10362.849874836193, -10581.42758386464, -15850.985449670012, 0.013187500000000001, -0.02871875, 0.98609375, 192.0, 0.0, 0.0, 0.0, 0.0, 0.0, 0.0, 0.0, 0.0, 0.0, 1.644587012519075E9, 0.0, 2022-02-12 00:43:32.519
208.0, -9020.135881916987, -9371.885284410153, -6611.534251157553, -10891.178058526286, -10323.108473194656, -7385.597513389292, -9590.999435305528, -7727.221575644205, -9317.972876783953, -12370.595320534148, -7271.290692244851, -6502.0777585599135, -7019.319477000175, -10332.250336676876, -10555.633670763216, -15844.168167611144, 0.013187500000000001, -0.02871875, 0.98609375, 192.0, 0.0, 0.0, 0.0, 0.0, 0.0, 0.0, 0.0, 0.0, 0.0, 1.644587012527082E9, 0.0, 2022-02-12 00:43:32.527
210.0, -9054.445809655883, -9408.676255783588, -6637.0822950699685, -10891.736852137668, -10324.740150539894, -7401.310789741372, -9605.639827923755, -7761.44209640528, -9342.068057306775, -12396.433937124484, -7307.567573495815, -6544.143741624802, -7045.046334868233, -10351.897520053091, -10582.120487942755, -15859.926147452135, 0.013187500000000001, -0.02871875, 0.98609375, 192.0, 0.0, 0.0, 0.0, 0.0, 0.0, 0.0, 0.0, 0.0, 0.0, 1.644587012536671E9, 0.0, 2022-02-12 00:43:32.536
212.0, -9027.556661076149, -9384.983406660964, -6606.505108655108, -10898.800003385544, -10299.348568838665, -7386.357472700772, -9578.728327599565, -7724.204090142738, -9326.108911765685, -12382.508800328827, -7293.01658785541, -6519.355657023866, -7027.634325937549, -10336.161891956555, -10579.482982097028, -15859.501464307485, 0.013187500000000001, -0.02871875, 0.98609375, 192.0, 0.0, 0.0, 0.0, 0.0, 0.0, 0.0, 0.0, 0.0, 0.0, 1.644587012543057E9, 0.0, 2022-02-12 00:43:32.543
214.0, -9031.69173380038, -9403.445947581047, -6622.531309429563, -10890.775727126089, -10303.014254929336, -7393.688844882113, -9585.433850936157, -7736.877529248897, -9306.998170256396, -12363.375707075085, -7264.518113674893, -6483.883438573294, -6993.3243981986525, -10327.556470341262, -10549.062257893356, -15855.27698460543, 0.01259375, -0.029359375, 0.987046875, 192.0, 0.0, 48.0, 127.5, 8.0, 15.0, 112.0, 0.0, 0.0, 0.0, 1.644587012549764E9, 0.0, 2022-02-12 00:43:32.549
216.0, -9043.471103128328, -9404.787052248366, -6619.513823928097, -10903.560924954525, -10308.222211387421, -7399.053263551386, -9591.513525428001, -7741.616099073422, -9349.287670765838, -12401.26191392683, -7304.68419846108, -6532.096151363391, -7042.364125533596, -10370.114191784167, -10584.109793199277, -15860.216720130054, 0.01259375, -0.029359375, 0.987046875, 192.0, 0.0, 0.0, 0.0, 0.0, 0.0, 0.0, 0.0, 0.0, 0.0, 1.644587012557981E9, 0.0, 2022-02-12 00:43:32.557
218.0, -9054.781085822713, -9383.75406071592, -6606.281591210555, -10897.257733018128, -10309.697426521472, -7384.74814709999, -9602.018845321994, -7727.601555299945, -9326.779464099343, -12379.603073549639, -7262.797029351835, -6490.164278765235, -7004.723787870859, -10327.824691274725, -10557.980603931022, -15860.864920719257, 0.01259375, -0.029359375, 0.987046875, 192.0, 0.0, 0.0, 0.0, 0.0, 0.0, 0.0, 0.0, 0.0, 0.0, 1.64458701256502E9, 0.0, 2022-02-12 00:43:32.565
220.0, -9071.589597653103, -9419.025113466396, -6636.098818313935, -10895.581352183981, -10314.324237623721, -7399.254429251484, -9594.106327784817, -7756.01062250264, -9349.287670765838, -12379.111335171621, -7294.469451245004, -6506.972790595626, -7025.890889870035, -10351.092857252701, -10583.57335133235, -15871.772572013448, 0.01259375, -0.029359375, 0.987046875, 192.0, 0.0, 0.0, 0.0, 0.0, 0.0, 0.0, 0.0, 0.0, 0.0, 1.644587012571665E9, 0.0, 2022-02-12 00:43:32.571
222.0, -9016.201974892852, -9379.060194380307, -6604.0911202539355, -10912.501622736649, -10294.475888547408, -7378.802583074878, -9580.583522389355, -7726.618078543911, -9342.291574751327, -12398.758518547837, -7292.435442499572, -6524.585965226408, -7024.43802648044, -10335.603098345173, -10579.103002441288, -15867.771609755948, 0.01259375, -0.029359375, 0.987046875, 192.0, 0.0, 0.0, 0.0, 0.0, 0.0, 0.0, 0.0, 0.0, 0.0, 1.644587012579408E9, 0.0, 2022-02-12 00:43:32.579
224.0, -9048.679059586413, -9398.439156823059, -6617.9492018162255, -10907.360721511928, -10304.668284019028, -7387.8326878348225, -9591.781746361465, -7741.929023495797, -9314.776577326844, -12377.54671305975, -7259.779543850368, -6493.964075322638, -7003.136814014532, -10311.485566077896, -10565.177865645632, -15871.52670282444, 0.006, -0.022, 0.986, 192.0, 0.0, 24.0, 127.5, 40.0, 15.0, 104.0, 0.0, 0.0, 0.0, 1.644587012587597E9, 0.0, 2022-02-12 00:43:32.587
226.0, -9024.963858719333, -9396.561610288813, -6616.45163493772, -10902.488041220671, -10301.449632817465, -7382.423565676638, -9602.108252299817, -7752.143770711872, -9344.951432341508, -12409.800280308758, -7295.475279745493, -6514.505328477065, -7030.785921905747, -10350.66817410805, -10598.549020117405, -15878.701612794594, 0.006, -0.022, 0.986, 192.0, 0.0, 0.0, 0.0, 0.0, 0.0, 0.0, 0.0, 0.0, 0.0, 1.644587012594522E9, 0.0, 2022-02-12 00:43:32.594
228.0, -9030.149463432965, -9374.94747340053, -6592.803489304005, -10906.265486033617, -10293.581818769195, -7363.5363416119035, -9587.534914914957, -7718.280877862082, -9305.768824311355, -12371.77996299028, -7261.187703751052, -6463.99038600807, -6993.436156920929, -10295.213496114433, -10567.52479881344, -15870.85615049078, 0.006, -0.022, 0.986, 192.0, 0.0, 0.0, 0.0, 0.0, 0.0, 0.0, 0.0, 0.0, 0.0, 1.644587012602001E9, 0.0, 2022-02-12 00:43:32.602
230.0, -9066.851027828578, -9423.115482701718, -6618.530347172064, -10901.549267953547, -10305.1823741415, -7377.662644107658, -9600.23070576557, -7756.569416114023, -9330.84748159021, -12391.181277177488, -7265.590997408748, -6496.534525934998, -7009.417654206473, -10313.497223078874, -10591.485868869528, -15884.557769841884, 0.006, -0.022, 0.986, 192.0, 0.0, 0.0, 0.0, 0.0, 0.0, 0.0, 0.0, 0.0, 0.0, 1.644587012610211E9, 0.0, 2022-02-12 00:43:32.610
232.0, -9048.74611481978, -9371.773525687877, -6589.517782869075, -10914.602686715447, -10291.74897572386, -7359.065992720842, -9582.03638577895, -7723.377075597892, -9335.94367932602, -12389.035509709778, -7255.063325770298, -6475.23331346909, -6996.520697655761, -10321.56620282724, -10592.29053166992, -15882.009670973977, 0.006, -0.022, 0.986, 192.0, 0.0, 0.0, 0.0, 0.0, 0.0, 0.0, 0.0, 0.0, 0.0, 1.644587012618049E9, 0.0, 2022-02-12 00:43:32.618
234.0, -9044.432228139905, -9379.6636914806, -6605.432224921254, -10909.35002676845, -10297.873353704616, -7374.846324306289, -9597.749662131031, -7744.678288063799, -9318.352856439693, -12362.861616952612, -7241.473465141472, -6470.315929688923, -6995.246648221809, -10310.479737577407, -10570.721098270547, -15888.514028610472, 0.008, -0.024, 0.988, 192.0, 0.0, 32.0, 127.5, 32.0, 15.0, 112.0, 0.0, 0.0, 0.0, 1.644587012624629E9, 0.0, 2022-02-12 00:43:32.624
236.0, -9053.752905577769, -9394.929932943574, -6610.59547789043, -10930.472425278715, -10310.435034088498, -7374.756917328467, -9614.781691405975, -7754.714221324232, -9350.47231322197, -12403.720605816914, -7295.765852423412, -6521.635534958307, -7025.6673724254815, -10352.568072386752, -10608.562601633383, -15901.343929927818, 0.008, -0.024, 0.988, 192.0, 0.0, 0.0, 0.0, 0.0, 0.0, 0.0, 0.0, 0.0, 0.0, 1.644587012641705E9, 0.0, 2022-02-12 00:43:32.641
238.0, -9052.322393932629, -9397.612142278213, -6587.886105523838, -10927.052608377053, -10286.541019265775, -7360.69767006608, -9583.064566023895, -7730.90961347933, -9328.835824589232, -12390.644835310559, -7249.8330175677565, -6469.3771564218, -6985.791860317214, -10311.262048633344, -10576.420793106652, -15891.598569345304, 0.008, -0.024, 0.988, 192.0, 0.0, 0.0, 0.0, 0.0, 0.0, 0.0, 0.0, 0.0, 0.0, 1.64458701264721E9, 0.0, 2022-02-12 00:43:32.647
240.0, -9053.819960811134, -9430.335096160781, -6611.333085457455, -10915.787329171579, -10297.828650215704, -7371.091231237797, -9597.682606897666, -7756.256491691648, -9344.236176518938, -12409.040320997277, -7270.530732933371, -6486.275075230012, -7004.813194848681, -10319.688656292994, -10595.419775893663, -15901.209819461086, 0.008, -0.024, 0.988, 192.0, 0.0, 0.0, 0.0, 0.0, 0.0, 0.0, 0.0, 0.0, 0.0, 1.644587012654288E9, 0.0, 2022-02-12 00:43:32.654
242.0, -9033.234004167796, -9363.033993605852, -6582.1417071988235, -10924.996247887166, -10283.74705120886, -7352.159303684152, -9582.438717179146, -7720.404293585336, -9339.721124138967, -12407.810975052236, -7277.102145803231, -6485.515115918532, -6992.273866209253, -10304.958856696947, -10594.704520071093, -15893.587874601828, 0.008, -0.024, 0.988, 192.0, 0.0, 0.0, 0.0, 0.0, 0.0, 0.0, 0.0, 0.0, 0.0, 1.644587012662227E9, 0.0, 2022-02-12 00:43:32.662
244.0, -9049.193149708886, -9368.107839597207, -6590.92594276976, -10913.663913448325, -10279.835495929181, -7351.60051007277, -9591.84880159483, -7734.888223992375, -9317.7493593394, -12375.199779891942, -7233.136264459642, -6456.65901382673, -6972.514924110762, -10291.816030957227, -10574.81146750587, -15887.351737898796, 0.01, -0.024, 0.986, 192.0, 0.0, 40.0, 127.5, 32.0, 15.0, 104.0, 0.0, 0.0, 0.0, 1.644587012670346E9, 0.0, 2022-02-12 00:43:32.670
246.0, -9061.8889405595, -9381.51888627039, -6593.965780015681, -10926.382056043394, -10285.065804131724, -7352.6733938066245, -9594.910990585207, -7736.542253082068, -9358.317775525782, -12408.839155297179, -7264.33929971925, -6489.404319453754, -7010.758758873792, -10316.894688236081, -10610.596610378816, -15894.928979269145, 0.01, -0.024, 0.986, 192.0, 0.0, 0.0, 0.0, 0.0, 0.0, 0.0, 0.0, 0.0, 0.0, 1.644587012676952E9, 0.0, 2022-02-12 00:43:32.676
248.0, -9034.910385001944, -9369.001909375418, -6578.498372852609, -10928.34900955546, -10277.220341827911, -7351.019364716932, -9585.478554425068, -7723.041799431062, -9322.063246019274, -12365.454419309428, -7229.694095813525, -6442.867987497805, -6981.656787592982, -10299.437975816487, -10582.120487942755, -15891.307996667385, 0.01, -0.024, 0.986, 192.0, 0.0, 0.0, 0.0, 0.0, 0.0, 0.0, 0.0, 0.0, 0.0, 1.644587012685045E9, 0.0, 2022-02-12 00:43:32.685
250.0, -9052.389449165994, -9403.691816770055, -6614.328219214466, -10922.87283216391, -10292.240714101878, -7371.582969615814, -9610.892487870751, -7767.365308685936, -9337.351839226703, -12395.11518420162, -7265.166314264097, -6473.244008212568, -6993.1455842430105, -10326.394179629586, -10610.57425863436, -15914.352645200808, 0.01, -0.024, 0.986, 192.0, 0.0, 0.0, 0.0, 0.0, 0.0, 0.0, 0.0, 0.0, 0.0, 1.644587012691888E9, 0.0, 2022-02-12 00:43:32.691
252.0, -9061.710126603857, -9364.33039478426, -6584.510992111086, -10940.933041683798, -10280.03666162928, -7348.784190271401, -9594.016920806995, -7729.188529156271, -9348.572414943268, -12408.302713430252, -7271.290692244851, -6481.04476702747, -6998.219430234365, -10320.001580715369, -10615.692808114625, -15912.408043433195, 0.01, -0.024, 0.986, 192.0, 0.0, 0.0, 0.0, 0.0, 0.0, 0.0, 0.0, 0.0, 0.0, 1.644587012700078E9, 0.0, 2022-02-12 00:43:32.700
254.0, -9083.011339069764, -9389.453755552026, -6604.851079565416, -10938.07201839352, -10291.32429257921, -7353.6121670737475, -9604.90222035673, -7757.7540585701545, -9341.710429395489, -12403.11710871662, -7242.725162830969, -6455.250853926045, -6969.788011287214, -10288.977359411403, -10592.75991830348, -15914.53145915645, 0.006, -0.026000000000000002, 0.988, 192.0, 0.0, 24.0, 127.5, 24.0, 15.0, 112.0, 0.0, 0.0, 0.0, 1.644587012706529E9, 0.0, 2022-02-12 00:43:32.706
0.0, -9071.544894164193, -9406.105805171228, -6610.886050568349, -10947.54915804257, -10296.822821715215, -7356.920225253132, -9618.737950174565, -7765.44305866278, -9371.438249521047, -12441.070370801732, -7273.525866690382, -6478.206095481646, -7014.96088683139, -10330.261031420354, -10634.334162990352, -15927.62958140726, 0.006, -0.026000000000000002, 0.988, 192.0, 0.0, 0.0, 0.0, 0.0, 0.0, 0.0, 0.0, 0.0, 0.0, 1.644587012714564E9, 0.0, 2022-02-12 00:43:32.714
2.0, -9060.45842891436, -9388.135002629162, -6593.071710237469, -10949.806684232555, -10293.358301324643, -7353.142780440186, -9607.495022713545, -7737.950412982752, -9346.806627131298, -12405.732262817892, -7242.658107597603, -6448.813551522917, -6985.881267295035, -10305.584705541696, -10605.835688809835, -15921.304037726408, 0.006, -0.026000000000000002, 0.988, 192.0, 0.0, 0.0, 0.0, 0.0, 0.0, 0.0, 0.0, 0.0, 0.0, 1.644587012723061E9, 0.0, 2022-02-12 00:43:32.723
4.0, -9091.437946729417, -9414.845337253253, -6624.654725152818, -10948.487931309692, -10303.2824758628, -7365.212722446052, -9624.392941521757, -7775.233122734204, -9371.639415221145, -12428.039303784288, -7271.335395733762, -6474.696871602163, -7007.249534994309, -10329.27755466432, -10626.376941964263, -15939.72187515758, 0.006, -0.026000000000000002, 0.988, 192.0, 0.0, 0.0, 0.0, 0.0, 0.0, 0.0, 0.0, 0.0, 0.0, 1.64458701272967E9, 0.0, 2022-02-12 00:43:32.729
6.0, -9046.019201996232, -9353.176874301062, -6588.109622968391, -10959.820265748533, -10290.273760589811, -7347.778361770912, -9612.591220449356, -7731.110779179428, -9368.174894830572, -12417.154004234553, -7275.761041135913, -6480.173048993713, -7007.7636251167805, -10333.077351221724, -10626.57810766436, -15936.659686167204, 0.006, -0.026000000000000002, 0.988, 192.0, 0.0, 0.0, 0.0, 0.0, 0.0, 0.0, 0.0, 0.0, 0.0, 1.644587012737195E9, 0.0, 2022-02-12 00:43:32.737
8.0, -9075.992891310798, -9381.161258359107, -6599.35255042941, -10952.399486589371, -10287.099812877157, -7350.237053660996, -9613.842918138853, -7741.750209540154, -9335.966031070475, -12395.428108623995, -7253.968090291988, -6461.107010973336, -6973.14077295551, -10302.433109573498, -10600.940656774123, -15934.692732655138, 0.008, -0.026000000000000002, 0.988, 192.0, 0.0, 32.0, 127.5, 24.0, 15.0, 112.0, 0.0, 0.0, 0.0, 1.644587012745317E9, 0.0, 2022-02-12 00:43:32.745
10.0, -9105.117214336064, -9428.301087415348, -6601.386559174844, -10961.228425649218, -10286.697481476962, -7350.527626338915, -9618.827357152386, -7757.888169036886, -9373.584016988756, -12428.151062506566, -7276.610407425214, -6484.598694395864, -7010.982276318345, -10337.011258245857, -10640.503244460017, -15944.974535104579, 0.008, -0.026000000000000002, 0.988, 192.0, 0.0, 0.0, 0.0, 0.0, 0.0, 0.0, 0.0, 0.0, 0.0, 1.644587012752234E9, 0.0, 2022-02-12 00:43:32.752
12.0, -9077.065775044653, -9408.899773228142, -6586.410890389788, -10968.02335596363, -10286.719833221416, -7347.443085604083, -9613.306476271926, -7733.457712347235, -9363.168104072583, -12431.034437541299, -7241.540520374838, -6445.818417765906, -6984.920142283457, -10296.442842059474, -10613.122357502265, -15944.505148471017, 0.008, -0.026000000000000002, 0.988, 192.0, 0.0, 0.0, 0.0, 0.0, 0.0, 0.0, 0.0, 0.0, 0.0, 1.644587012766774E9, 0.0, 2022-02-12 00:43:32.766
14.0, -9090.163897295464, -9421.304991400837, -6618.93267857226, -10962.748344272179, -10300.309693850242, -7359.960062499054, -9645.738857476576, -7773.802611089064, -9376.847371679232, -12446.121865048632, -7271.178933522575, -6476.350900691856, -6998.867630823569, -10325.94714474048, -10638.044552569932, -15958.9667271336, 0.008, -0.026000000000000002, 0.988, 192.0, 0.0, 0.0, 0.0, 0.0, 0.0, 0.0, 0.0, 0.0, 0.0, 1.644587012776306E9, 0.0, 2022-02-12 00:43:32.776
16.0, -9064.012356282754, -9381.541238014846, -6586.120317711869, -10976.449963623281, -10281.46717327442, -7339.5305680669035, -9611.719502415599, -7736.966936226719, -9380.177781603072, -12442.009144068856, -7279.359671993217, -6473.04284251247, -7005.349636715608, -10316.76057776935, -10642.693715416637, -15953.982288120067, 0.008, -0.026000000000000002, 0.988, 192.0, 0.0, 0.0, 0.0, 0.0, 0.0, 0.0, 0.0, 0.0, 0.0, 1.644587012782326E9, 0.0, 2022-02-12 00:43:32.782
18.0, -9089.985083339821, -9390.101956141229, -6602.124166741868, -10972.918387999343, -10288.955007666947, -7350.147646683175, -9625.063493855418, -7753.574282357012, -9356.641394691635, -12419.813861824736, -7250.704735601514, -6447.60655732233, -6973.81132528917, -10296.241676359377, -10614.530517402949, -15950.406009007218, 0.008, -0.024, 0.988, 192.0, 0.0, 32.0, 127.5, 32.0, 15.0, 112.0, 0.0, 0.0, 0.0, 1.644587012789562E9, 0.0, 2022-02-12 00:43:32.789
20.0, -9114.32613305165, -9434.693686329567, -6610.215498234689, -10981.724975314733, -10294.341778080676, -7366.307957924361, -9629.578546235389, -7760.637433604888, -9383.597598504735, -12443.864338858646, -7288.054500586331, -6498.389720724788, -7008.098901283611, -10337.659458835062, -10662.720878448592, -15971.997794151044, 0.008, -0.024, 0.988, 192.0, 0.0, 0.0, 0.0, 0.0, 0.0, 0.0, 0.0, 0.0, 0.0, 1.644587012797414E9, 0.0, 2022-02-12 00:43:32.797
22.0, -9101.540935223215, -9414.91239248662, -6585.069785722469, -10979.93683575831, -10293.715929235928, -7350.594681572281, -9632.819549181408, -7743.538349096579, -9368.688984953045, -12419.903268802556, -7252.694040858036, -6445.013754965515, -6997.124194756055, -10309.85388873266, -10633.127168789766, -15969.427343538684, 0.008, -0.024, 0.988, 192.0, 0.0, 0.0, 0.0, 0.0, 0.0, 0.0, 0.0, 0.0, 0.0, 1.644587012805725E9, 0.0, 2022-02-12 00:43:32.805
24.0, -9119.221165087363, -9444.43904691208, -6619.044437294536, -10984.004853249175, -10304.80239448576, -7363.625748589725, -9648.71163948913, -7776.082489023506, -9389.945493930041, -12449.005240083367, -7273.279997501373, -6466.292615686967, -7014.178575775454, -10334.016124488846, -10657.602328968327, -15986.682890258182, 0.008, -0.024, 0.988, 192.0, 0.0, 0.0, 0.0, 0.0, 0.0, 0.0, 0.0, 0.0, 0.0, 1.644587012813461E9, 0.0, 2022-02-12 00:43:32.813
26.0, -9087.03465307172, -9421.081473956285, -6594.435166649243, -10997.862934811466, -10292.397176313065, -7352.539283339893, -9634.04889512645, -7743.113665951928, -9396.33809284426, -12472.876903161634, -7288.501535475438, -6480.530676904998, -7013.060988552688, -10329.702237808971, -10659.815151669402, -15982.033727411477, 0.008, -0.024, 0.988, 192.0, 0.0, 0.0, 0.0, 0.0, 0.0, 0.0, 0.0, 0.0, 0.0, 1.644587012819803E9, 0.0, 2022-02-12 00:43:32.819
28.0, -9126.485482035338, -9448.641174869677, -6609.679056367762, -10989.905713785376, -10306.255257875355, -7360.585911343803, -9659.082848916394, -7770.449849420768, -9377.294406568339, -12464.763219924358, -7275.403413224628, -6459.140057461269, -6996.6101046335825, -10308.401025343064, -10640.547947948928, -15985.699413502147, 0.01, -0.028, 0.984, 192.0, 0.0, 40.0, 127.5, 16.0, 15.0, 96.0, 0.0, 0.0, 0.0, 1.644587012827052E9, 0.0, 2022-02-12 00:43:32.827
30.0, -9138.443665318926, -9440.125160232206, -6612.294210469033, -10998.734652845224, -10309.429205588009, -7363.357527656261, -9662.122686162316, -7779.8822855809085, -9419.136872188672, -12493.37345282715, -7308.752215951946, -6492.555915421953, -7032.864634140091, -10345.795493816793, -10685.854933959834, -16001.077413687399, 0.01, -0.028, 0.984, 192.0, 0.0, 0.0, 0.0, 0.0, 0.0, 0.0, 0.0, 0.0, 0.0, 1.644587012835241E9, 0.0, 2022-02-12 00:43:32.835
32.0, -9112.292124306217, -9412.118424429706, -6585.695634567218, -11009.910525072877, -10294.587647269684, -7340.648155289669, -9631.031409624984, -7736.698715293255, -9389.878438696676, -12455.308432019763, -7274.10701204622, -6461.241121440068, -7000.09697676861, -10315.62063880213, -10651.477950987572, -15990.102707159844, 0.01, -0.028, 0.984, 192.0, 0.0, 0.0, 0.0, 0.0, 0.0, 0.0, 0.0, 0.0, 0.0, 1.644587012841574E9, 0.0, 2022-02-12 00:43:32.841
34.0, -9137.706057751902, -9451.01045978194, -6622.151329773824, -11007.317722716061, -10313.340760867686, -7371.895894038188, -9665.877779230808, -7792.466317709246, -9404.719997015, -12465.27731004683, -7295.408224512127, -6494.656979400752, -7020.548822945217, -10337.502996623874, -10672.130962864276, -16005.368948622818, 0.01, -0.028, 0.984, 192.0, 0.0, 0.0, 0.0, 0.0, 0.0, 0.0, 0.0, 0.0, 0.0, 1.644587012849966E9, 0.0, 2022-02-12 00:43:32.849
36.0, -9093.404900241483, -9433.10671247324, -6592.602323603907, -11018.046560054609, -10310.010350943847, -7356.7861147864005, -9656.62415702631, -7756.547064369567, -9412.163127918617, -12491.786478970824, -7294.000064611443, -6490.2760374875115, -7031.367067261585, -10347.896557795591, -10688.268922361009, -16010.062814958432, 0.009000000000000001, -0.026000000000000002, 0.985, 192.0, 0.0, 32.0, 127.5, 32.0, 15.0, 104.0, 0.0, 0.0, 0.0, 1.64458701285768E9, 0.0, 2022-02-12 00:43:32.857
38.0, -9139.315383352683, -9446.96479403553, -6605.49928015462, -11009.597600650502, -10314.234830645899, -7365.860923035255, -9676.5842648249, -7781.625721648422, -9398.506212056423, -12476.073202618743, -7272.832962612268, -6454.602653336841, -7007.5848111611385, -10324.159005184056, -10661.022145869989, -16008.766413780024, 0.009000000000000001, -0.026000000000000002, 0.985, 192.0, 0.0, 0.0, 0.0, 0.0, 0.0, 0.0, 0.0, 0.0, 0.0, 1.644587012864933E9, 0.0, 2022-02-12 00:43:32.864
40.0, -9162.71765979739, -9466.477866945013, -6616.250469237622, -11018.158318776885, -10316.358246369153, -7365.45859163506, -9675.399622368768, -7786.096070539484, -9441.645078855167, -12499.497830807904, -7308.305181062839, -6494.165241022735, -7025.041523580733, -10352.880996809125, -10703.110480679332, -16025.016131999033, 0.009000000000000001, -0.026000000000000002, 0.985, 192.0, 0.0, 0.0, 0.0, 0.0, 0.0, 0.0, 0.0, 0.0, 0.0, 1.644587012872237E9, 0.0, 2022-02-12 00:43:32.872
42.0, -9123.937383167433, -9430.402151394148, -6596.692692839229, -11026.56257469208, -10305.204725885955, -7345.654946047658, -9658.993441938574, -7753.663689334833, -9414.845337253253, -12470.217045571453, -7272.6094451677145, -6471.768793078518, -7007.026017549756, -10317.699351036472, -10670.58869249686, -16017.662408073236, 0.009000000000000001, -0.026000000000000002, 0.985, 192.0, 0.0, 0.0, 0.0, 0.0, 0.0, 0.0, 0.0, 0.0, 0.0, 1.644587012887244E9, 0.0, 2022-02-12 00:43:32.887
44.0, -9139.673011263969, -9480.425355485124, -6621.950164073725, -11032.03875208363, -10309.362150354642, -7360.02711773242, -9660.066325672427, -7780.172858258827, -9409.950305217542, -12485.706804478981, -7298.448061758049, -6481.268284472023, -7027.477863726362, -10316.313542880243, -10689.341806094862, -16026.021960499522, 0.009000000000000001, -0.026000000000000002, 0.985, 192.0, 0.0, 0.0, 0.0, 0.0, 0.0, 0.0, 0.0, 0.0, 0.0, 1.644587012894051E9, 0.0, 2022-02-12 00:43:32.894
46.0, -9128.631249503047, -9449.11056150324, -6595.977437016659, -11037.8055021531, -10305.405891586053, -7353.098076951275, -9654.366630836324, -7763.118477239428, -9431.787959550376, -12506.76214775588, -7306.315875806317, -6483.257589728545, -7038.094942342633, -10333.658496577562, -10699.44479458866, -16029.374722167817, 0.009500000000000001, -0.027000000000000003, 0.9855, 192.0, 0.0, 40.0, 127.5, 16.0, 15.0, 104.0, 0.0, 0.0, 0.0, 1.644587012901984E9, 0.0, 2022-02-12 00:43:32.901
48.0, -9143.115179910086, -9454.117352261228, -6609.299076712022, -11023.455682212792, -10327.891746508092, -7352.539283339893, -9690.911733020752, -7779.524657669624, -9420.880308256186, -12477.995452641899, -7270.016642810899, -6458.603615594342, -7007.696569883415, -10318.012275458846, -10684.0220909145, -16030.827585557412, 0.009500000000000001, -0.027000000000000003, 0.9855, 192.0, 0.0, 0.0, 0.0, 0.0, 0.0, 0.0, 0.0, 0.0, 0.0, 1.644587012913055E9, 0.0, 2022-02-12 00:43:32.913
50.0, -9151.966470714387, -9468.623634412723, -6619.759693117106, -11032.061103828086, -10316.961743469446, -7354.483885107504, -9667.62121529832, -7790.119384541439, -9454.050297027863, -12512.975932714455, -7315.725960222002, -6502.48008996011, -7033.132855073554, -10363.00633704738, -10730.424312403717, -16042.495196163083, 0.009500000000000001, -0.027000000000000003, 0.9855, 192.0, 0.0, 0.0, 0.0, 0.0, 0.0, 0.0, 0.0, 0.0, 0.0, 1.644587012918981E9, 0.0, 2022-02-12 00:43:32.918
52.0, -9152.637023048046, -9460.800523853364, -6594.457518393698, -11044.108694089497, -10309.719778265928, -7346.347850125772, -9658.255834371548, -7760.391564415881, -9428.211680437527, -12488.411365558073, -7282.243047027951, -6469.220694210612, -7006.131947771543, -10321.342685382688, -10690.54880029545, -16035.275582704018, 0.009500000000000001, -0.027000000000000003, 0.9855, 192.0, 0.0, 0.0, 0.0, 0.0, 0.0, 0.0, 0.0, 0.0, 0.0, 1.644587012925444E9, 0.0, 2022-02-12 00:43:32.925
54.0, -9184.510610641315, -9502.866506918253, -6631.583765933963, -11043.795769667122, -10331.780950043316, -7368.5878358588025, -9693.10220397737, -7804.558611459567, -9447.165959735628, -12515.814604260278, -7300.750291436946, -6484.084604273392, -7031.076494583666, -10332.451502376975, -10716.40976863024, -16048.79838809948, 0.009500000000000001, -0.027000000000000003, 0.9855, 192.0, 0.0, 0.0, 0.0, 0.0, 0.0, 0.0, 0.0, 0.0, 0.0, 1.644587012934537E9, 0.0, 2022-02-12 00:43:32.934
56.0, -9132.431046060448, -9455.346698206271, -6610.796643590527, -11062.124200120474, -10330.059865720257, -7357.07668746432, -9693.213962699649, -7778.25060823567, -9458.610052896745, -12526.498738109916, -7319.458701546037, -6490.320740976423, -7036.664430697493, -10342.442732148496, -10737.286297951496, -16055.07922829142, 0.009750000000000002, -0.029500000000000002, 0.98775, 192.0, 0.0, 40.0, 127.5, 0.0, 15.0, 120.0, 0.0, 0.0, 0.0, 1.644587012940823E9, 0.0, 2022-02-12 00:43:32.940
58.0, -9148.300784623718, -9456.39723019567, -6615.490509926142, -11060.581929753058, -10318.146385925578, -7360.272986921429, -9679.557046837455, -7786.766622873142, -9431.318572916814, -12496.480345306438, -7296.928143135088, -6470.226522711101, -7014.826776364658, -10308.222211387421, -10707.536126081483, -16052.531129423516, 0.009750000000000002, -0.029500000000000002, 0.98775, 192.0, 0.0, 0.0, 0.0, 0.0, 0.0, 0.0, 0.0, 0.0, 0.0, 1.644587012946895E9, 0.0, 2022-02-12 00:43:32.946
60.0, -9179.526171627782, -9482.705233419567, -6623.671248396784, -11062.727697220767, -10330.261031420354, -7364.519818367937, -9689.481221375612, -7787.97361707373, -9466.58962566729, -12525.358799142696, -7334.635536031192, -6516.71815117814, -7048.935538403456, -10350.265842707855, -10746.361106200351, -16066.635080174814, 0.009750000000000002, -0.029500000000000002, 0.98775, 192.0, 0.0, 0.0, 0.0, 0.0, 0.0, 0.0, 0.0, 0.0, 0.0, 1.644587012954839E9, 0.0, 2022-02-12 00:43:32.954
62.0, -9155.520398082781, -9454.743201105977, -6602.97353303117, -11062.057144887107, -10317.207612658454, -7344.40324835816, -9674.706718290654, -7766.359480185447, -9440.7286573325, -12493.596970271705, -7297.263419301918, -6471.500572145053, -7006.444872193918, -10324.293115650788, -10716.633286074792, -16055.302745735973, 0.009750000000000002, -0.029500000000000002, 0.98775, 192.0, 0.0, 0.0, 0.0, 0.0, 0.0, 0.0, 0.0, 0.0, 0.0, 1.6445870129623E9, 0.0, 2022-02-12 00:43:32.962
64.0, -9194.72535785739, -9502.888858662709, -6632.947222345737, -11059.37493555247, -10331.691543065494, -7360.69767006608, -9703.473413404634, -7814.2816202976255, -9452.955061549552, -12526.632848576648, -7304.237163571974, -6477.692005359174, -7033.91516612949, -10331.892708765592, -10737.465111907139, -16069.361992998362, 0.009750000000000002, -0.029500000000000002, 0.98775, 192.0, 0.0, 0.0, 0.0, 0.0, 0.0, 0.0, 0.0, 0.0, 0.0, 1.644587012969426E9, 0.0, 2022-02-12 00:43:32.969
66.0, -9171.837171535155, -9464.220340755028, -6612.607134891407, -11076.451668316326, -10317.542888825285, -7349.8347222608, -9683.334491650403, -7773.690852366788, -9467.863675101242, -12541.76497957289, -7319.503405034949, -6494.299351489467, -7047.303861058219, -10329.27755466432, -10747.724562612124, -16073.027679089033, 0.009875000000000002, -0.027750000000000004, 0.988875, 192.0, 0.0, 40.0, 127.5, 24.0, 15.0, 120.0, 0.0, 0.0, 0.0, 1.644587012985061E9, 0.0, 2022-02-12 00:43:32.985
68.0, -9156.548578327725, -9466.410811711647, -6619.133844272357, -11075.177618882373, -10330.104569209167, -7352.31576589534, -9695.829116800918, -7794.656788665866, -9448.082381258295, -12518.8544415062, -7304.840660672267, -6467.8572377988385, -7010.557593173694, -10336.944203012492, -10717.683818064192, -16073.340603511406, 0.009875000000000002, -0.027750000000000004, 0.988875, 192.0, 0.0, 0.0, 0.0, 0.0, 0.0, 0.0, 0.0, 0.0, 0.0, 1.644587013002483E9, 0.0, 2022-02-12 00:43:33.002
70.0, -9184.600017619136, -9498.373806282736, -6629.594460677441, -11080.452630573825, -10349.170607229544, -7357.210797931051, -9713.06231177596, -7819.087245355517, -9478.994843839984, -12562.730915871969, -7349.007707715954, -6511.331380764411, -7047.236805824853, -10355.496150910396, -10758.833379606413, -16087.668071707258, 0.009875000000000002, -0.027750000000000004, 0.988875, 192.0, 0.0, 0.0, 0.0, 0.0, 0.0, 0.0, 0.0, 0.0, 0.0, 1.644587013007648E9, 0.0, 2022-02-12 00:43:33.007
72.0, -9189.048014765742, -9480.470058974035, -6603.644085364829, -11079.804429984622, -10344.56614787175, -7345.610242558747, -9718.247916489592, -7789.046500807584, -9463.39332621018, -12533.494834124427, -7315.748311966457, -6469.488915144077, -7042.006497622311, -10330.66336282055, -10744.908242810756, -16085.254083306085, 0.009875000000000002, -0.027750000000000004, 0.988875, 192.0, 0.0, 0.0, 0.0, 0.0, 0.0, 0.0, 0.0, 0.0, 0.0, 1.644587013014459E9, 0.0, 2022-02-12 00:43:33.014
74.0, -9197.809898592222, -9504.811108685864, -6633.081332812469, -11078.23980787275, -10359.184188745521, -7361.45762937756, -9728.30620149448, -7829.234937338226, -9480.961797352053, -12553.857273323212, -7325.091341148775, -6483.816383339928, -7058.926768174979, -10340.542833869797, -10762.141437785798, -16099.827420690945, 0.009875000000000002, -0.027750000000000004, 0.988875, 192.0, 0.0, 0.0, 0.0, 0.0, 0.0, 0.0, 0.0, 0.0, 0.0, 1.644587013020214E9, 0.0, 2022-02-12 00:43:33.020
76.0, -9165.9139592545, -9455.749029606466, -6614.238812236645, -11093.461345846814, -10344.677906594028, -7341.944556468076, -9703.540468638, -7797.920143356341, -9487.35439626627, -12571.24693050944, -7343.97856521351, -6509.520889463532, -7056.0657448847, -10354.423267176542, -10773.60788269137, -16095.893513666811, 0.0079375, -0.027875000000000004, 0.9884375, 192.0, 0.0, 24.0, 127.5, 16.0, 15.0, 112.0, 0.0, 0.0, 0.0, 1.644587013026199E9, 0.0, 2022-02-12 00:43:33.026
78.0, -9184.57766587468, -9492.11531783525, -6627.493396698642, -11084.967682953797, -10354.311508454264, -7357.031983975409, -9720.773663613041, -7817.902602899386, -9458.811218596842, -12534.970049258478, -7319.078721890298, -6484.084604273392, -7046.052163368722, -10332.965592499446, -10748.84214983489, -16098.553371256992, 0.0079375, -0.027875000000000004, 0.9884375, 192.0, 0.0, 0.0, 0.0, 0.0, 0.0, 0.0, 0.0, 0.0, 0.0, 1.644587013032345E9, 0.0, 2022-02-12 00:43:33.032
80.0, -9211.288000498773, -9513.036550645418, -6631.628469422873, -11093.10371793553, -10353.328031698231, -7360.675318321624, -9724.841681103908, -7822.55176574609, -9490.662454445655, -12580.053517824832, -7345.8337600033, -6490.834831098894, -7069.476791557884, -10364.481552181429, -10789.589379976915, -16110.33274058494, 0.0079375, -0.027875000000000004, 0.9884375, 192.0, 0.0, 0.0, 0.0, 0.0, 0.0, 0.0, 0.0, 0.0, 0.0, 1.644587013038291E9, 0.0, 2022-02-12 00:43:33.038
82.0, -9174.541732614247, -9473.719832148532, -6614.395274447832, -11100.926828494887, -10344.09676123819, -7343.665640791135, -9713.375236198335, -7789.381776974414, -9468.310709990348, -12555.354840201717, -7309.5345270078815, -6463.766868563517, -7034.384552763052, -10330.082217464713, -10756.464094694149, -16099.067461379465, 0.0079375, -0.027875000000000004, 0.9884375, 192.0, 0.0, 0.0, 0.0, 0.0, 0.0, 0.0, 0.0, 0.0, 0.0, 1.644587013044516E9, 0.0, 2022-02-12 00:43:33.044
84.0, -9211.980904576887, -9524.346533339803, -6643.497245728641, -11094.310712136115, -10367.700203382994, -7359.64713807668, -9753.004879117594, -7836.186329863826, -9479.955968851564, -12563.982613561466, -7329.06995166182, -6471.366461678322, -7059.172637363987, -10341.146330970088, -10774.725469914136, -16112.746728986112, 0.0079375, -0.027875000000000004, 0.9884375, 192.0, 0.0, 0.0, 0.0, 0.0, 0.0, 0.0, 0.0, 0.0, 0.0, 1.644587013051096E9, 0.0, 2022-02-12 00:43:33.051
86.0, -9192.28901771176, -9486.907361377163, -6617.904498327315, -11111.29803792215, -10341.794531559293, -7342.3468878682725, -9709.01664602955, -7796.936666600307, -9494.082271347317, -12557.47825592497, -7338.211815144041, -6493.025302055515, -7065.565236278205, -10353.328031698231, -10787.555371231481, -16117.731167999646, 0.008968750000000001, -0.026937500000000003, 0.9882187499999999, 192.0, 0.0, 40.0, 127.5, 24.0, 15.0, 112.0, 0.0, 0.0, 0.0, 1.644587013058456E9, 0.0, 2022-02-12 00:43:33.058
88.0, -9205.565953918214, -9495.31161729236, -6631.829635122971, -11112.885011778477, -10345.482569394419, -7344.73852452499, -9717.934992067218, -7800.848221879986, -9466.477866945013, -12554.416066934595, -7303.521907749404, -6464.70564183064, -7017.687799654937, -10316.76057776935, -10757.827551105924, -16114.71368249818, 0.008968750000000001, -0.026937500000000003, 0.9882187499999999, 192.0, 0.0, 0.0, 0.0, 0.0, 0.0, 0.0, 0.0, 0.0, 0.0, 1.644587013065741E9, 0.0, 2022-02-12 00:43:33.065
90.0, -9201.810860849722, -9509.348512810291, -6640.3680015048985, -11121.892764793965, -10356.501979410885, -7348.046582704375, -9730.071989306449, -7816.181518576327, -9501.525402250934, -12594.895076143155, -7348.7394867824905, -6512.918354620738, -7074.7965067382465, -10352.456313664474, -10803.492165028116, -16123.81084249149, 0.008968750000000001, -0.026937500000000003, 0.9882187499999999, 192.0, 0.0, 0.0, 0.0, 0.0, 0.0, 0.0, 0.0, 0.0, 0.0, 1.644587013073556E9, 0.0, 2022-02-12 00:43:33.073
92.0, -9196.647607880546, -9482.057032830362, -6616.541041915541, -11122.652724105445, -10350.534063641318, -7333.696762764069, -9730.854300362385, -7790.879343852919, -9484.180448553616, -12562.730915871969, -7325.426617315605, -6481.268284472023, -7046.365087791096, -10337.480644879419, -10780.55927521697, -16119.631066278347, 0.008968750000000001, -0.026937500000000003, 0.9882187499999999, 192.0, 0.0, 0.0, 0.0, 0.0, 0.0, 0.0, 0.0, 0.0, 0.0, 1.644587013080395E9, 0.0, 2022-02-12 00:43:33.080
94.0, -9216.272439512306, -9510.846079688798, -6653.086144099969, -11123.993828772764, -10361.709935868972, -7363.737507312001, -9748.087495337426, -7841.729562488743, -9499.804317927876, -12573.39269797715, -7348.963004227043, -6491.930066577204, -7068.649777013037, -10357.932491056024, -10796.317255057962, -16133.802072263012, 0.008968750000000001, -0.026937500000000003, 0.9882187499999999, 192.0, 0.0, 0.0, 0.0, 0.0, 0.0, 0.0, 0.0, 0.0, 0.0, 1.64458701308821E9, 0.0, 2022-02-12 00:43:33.088
96.0, -9205.230677751384, -9501.033663872919, -6626.241699009144, -11137.606041146046, -10351.450485163985, -7348.828893760311, -9729.535547439522, -7802.368140502947, -9515.651704746688, -12591.989349363965, -7368.431373647616, -6500.37902598131, -7076.629349783582, -10373.131677285633, -10806.889630185322, -16137.355999631405, 0.010484375, -0.023468750000000003, 0.988109375, 192.0, 0.0, 48.0, 127.5, 48.0, 15.0, 112.0, 0.0, 0.0, 0.0, 1.644587013096648E9, 0.0, 2022-02-12 00:43:33.096
98.0, -9230.242279796872, -9528.660420019678, -6634.556547946519, -11132.241622476771, -10372.192904018511, -7356.74141129749, -9760.135085598837, -7820.629515722932, -9486.393271254692, -12574.44322996655, -7320.35277132425, -6465.353842419844, -7055.059916384211, -10329.47872036442, -10785.27549329704, -16139.278249654562, 0.010484375, -0.023468750000000003, 0.988109375, 192.0, 0.0, 0.0, 0.0, 0.0, 0.0, 0.0, 0.0, 0.0, 0.0, 1.644587013109857E9, 0.0, 2022-02-12 00:43:33.109
100.0, -9231.382218764093, -9530.716780509565, -6648.526388231086, -11134.789721344678, -10370.583578417729, -7358.194274687085, -9758.414001275778, -7844.232957867737, -9521.373751327248, -12619.280829343896, -7356.540245597393, -6503.62002892733, -7079.44566958495, -10369.041308050313, -10828.771988007067, -16152.823406794478, 0.010484375, -0.023468750000000003, 0.988109375, 192.0, 0.0, 0.0, 0.0, 0.0, 0.0, 0.0, 0.0, 0.0, 0.0, 1.644587013117849E9, 0.0, 2022-02-12 00:43:33.117
102.0, -9229.057637340742, -9495.222210314538, -6620.676114639773, -11139.595346402568, -10365.845008593204, -7339.910547722644, -9746.88050113684, -7817.433216265824, -9507.135690109217, -12581.752250403435, -7335.060219175843, -6478.697833859663, -7069.4544398134285, -10333.211461688456, -10804.050958639498, -16147.52604335857, 0.010484375, -0.023468750000000003, 0.988109375, 192.0, 0.0, 0.0, 0.0, 0.0, 0.0, 0.0, 0.0, 0.0, 0.0, 1.644587013126013E9, 0.0, 2022-02-12 00:43:33.126
104.0, -9250.850588184667, -9526.715818252065, -6647.922891130793, -11136.801378345655, -10375.389203475619, -7355.869693263733, -9769.79103920353, -7843.607109022989, -9523.944201939608, -12585.082660327276, -7346.325498381317, -6499.797880625472, -7075.712928260914, -10349.885863052114, -10819.674828013758, -16154.075104483976, 0.010484375, -0.023468750000000003, 0.988109375, 192.0, 0.0, 0.0, 0.0, 0.0, 0.0, 0.0, 0.0, 0.0, 0.0, 1.644587013132873E9, 0.0, 2022-02-12 00:43:33.132
106.0, -9222.82150063771, -9505.392254041702, -6622.754826874117, -11154.6827739099, -10377.825543621248, -7347.9795274710095, -9769.142838614325, -7820.629515722932, -9534.695391022611, -12618.856146199245, -7353.3215943958285, -6506.793976639984, -7081.770251008303, -10368.638976650116, -10836.304525888507, -16156.019706251587, 0.012, -0.026000000000000002, 0.986, 192.0, 0.0, 48.0, 127.5, 24.0, 15.0, 104.0, 0.0, 0.0, 0.0, 1.644587013142067E9, 0.0, 2022-02-12 00:43:33.142
108.0, -9238.691239200978, -9520.12205363775, -6637.059943325513, -11154.392201231982, -10376.48443895393, -7354.506236851959, -9762.370260044368, -7827.290335570614, -9508.610905243268, -12588.793049906857, -7334.032038930898, -6461.621101095808, -7047.72854420287, -10341.638069348106, -10809.124804630854, -16160.937090031755, 0.012, -0.026000000000000002, 0.986, 192.0, 0.0, 0.0, 0.0, 0.0, 0.0, 0.0, 0.0, 0.0, 0.0, 1.644587013149002E9, 0.0, 2022-02-12 00:43:33.149
110.0, -9266.250940114372, -9534.918908467163, -6658.852894169438, -11167.803247905165, -10389.247285037909, -7366.464420135549, -9774.283739839047, -7850.2008736373045, -9545.714801039077, -12625.628724769203, -7373.214646961052, -6515.667619188741, -7083.021948697799, -10380.664215167071, -10852.442485385238, -16178.818485596, 0.012, -0.026000000000000002, 0.986, 192.0, 0.0, 0.0, 0.0, 0.0, 0.0, 0.0, 0.0, 0.0, 0.0, 1.644587013160584E9, 0.0, 2022-02-12 00:43:33.160
112.0, -9240.792303179778, -9495.624541714733, -6629.54975718853, -11164.91987287043, -10375.590369175718, -7349.901777494166, -9756.31293729698, -7816.226222065237, -9522.916021694664, -12600.68417795708, -7340.558748311848, -6473.1322494902915, -7066.928692689979, -10362.469895180451, -10827.319124617474, -16173.297604715539, 0.012, -0.026000000000000002, 0.986, 192.0, 0.0, 0.0, 0.0, 0.0, 0.0, 0.0, 0.0, 0.0, 0.0, 1.644587013166808E9, 0.0, 2022-02-12 00:43:33.166
114.0, -9254.426867297516, -9543.747847527009, -6656.573016234996, -11162.416477491437, -10389.180229804544, -7366.151495713174, -9777.904722440806, -7846.9822224357395, -9532.415513088168, -12607.076776871298, -7347.957175726554, -6486.364482207833, -7081.0773469301885, -10369.913026084068, -10839.47847360116, -16181.59010190846, 0.012, -0.026000000000000002, 0.986, 192.0, 0.0, 0.0, 0.0, 0.0, 0.0, 0.0, 0.0, 0.0, 0.0, 1.644587013172863E9, 0.0, 2022-02-12 00:43:33.172
116.0, -9243.92154740352, -9521.463158305069, -6633.528367701575, -11172.519465985235, -10377.356156987687, -7342.838626246289, -9757.005841375094, -7815.0415796091065, -9544.217234160571, -12630.300239360362, -7359.445972376582, -6498.6132381693415, -7084.854791743135, -10363.028688791836, -10857.00224125412, -16186.06045079952, 0.006, -0.024, 0.992, 192.0, 0.0, 24.0, 127.5, 32.0, 15.5, 0.0, 0.0, 0.0, 0.0, 1.644587013179465E9, 0.0, 2022-02-12 00:43:33.179
118.0, -9242.535739247292, -9535.298888122903, -6640.993850349647, -11173.726460185822, -10386.475668725452, -7353.3215943958285, -9772.003861904604, -7830.106655371983, -9518.758597225977, -12608.708454216536, -7336.088399420786, -6471.433516911688, -7051.796561693735, -10351.517540397352, -10827.162662406286, -16182.931206575777, 0.006, -0.024, 0.992, 192.0, 0.0, 0.0, 0.0, 0.0, 0.0, 0.0, 0.0, 0.0, 0.0, 1.644587013186314E9, 0.0, 2022-02-12 00:43:33.186
120.0, -9284.355853123172, -9553.180283687148, -6657.511789502119, -11190.043233638196, -10388.643787937617, -7364.7656875569455, -9776.429507306757, -7844.903510201396, -9558.32118491187, -12642.25842264395, -7378.579065630325, -6528.855148417372, -7098.69052156097, -10393.114136828677, -10865.741773336145, -16201.21493354022, 0.006, -0.024, 0.992, 192.0, 0.0, 0.0, 0.0, 0.0, 0.0, 0.0, 0.0, 0.0, 0.0, 1.644587013192982E9, 0.0, 2022-02-12 00:43:33.192
122.0, -9248.727172461411, -9515.562297768867, -6631.382600233866, -11195.83233545212, -10376.57384593175, -7337.809483743845, -9764.69484146772, -7816.382684276425, -9532.840196232819, -12622.678294501102, -7357.07668746432, -6481.536505405486, -7059.35145131963, -10356.993717788902, -10836.036304955043, -16191.380165979883, 0.006, -0.024, 0.992, 192.0, 0.0, 0.0, 0.0, 0.0, 0.0, 0.0, 0.0, 0.0, 0.0, 1.64458701320068E9, 0.0, 2022-02-12 00:43:33.200
124.0, -9277.896198975588, -9539.389257358225, -6659.903426158837, -11192.412518550458, -10396.757471174893, -7366.039736990898, -9792.142783658837, -7863.544865077122, -9546.005373716996, -12624.913468946634, -7371.247693448984, -6504.201174283168, -7089.5263063342945, -10366.202636504488, -10852.151912707319, -16204.947674864254, 0.006, -0.024, 0.992, 192.0, 0.0, 0.0, 0.0, 0.0, 0.0, 0.0, 0.0, 0.0, 0.0, 1.644587013208844E9, 0.0, 2022-02-12 00:43:33.208
126.0, -9292.93892299401, -9560.534007612945, -6640.904443371826, -11210.31626585916, -10403.15007008911, -7356.36143164175, -9794.355606359912, -7833.817044951564, -9565.250225693015, -12659.513969363448, -7377.707347596568, -6510.437310986199, -7100.456309372939, -10398.143279331121, -10879.801020598534, -16218.649294215358, 0.012, -0.02, 0.99, 192.0, 0.0, 48.0, 127.5, 48.0, 15.0, 120.0, 0.0, 0.0, 0.0, 1.644587013216873E9, 0.0, 2022-02-12 00:43:33.216
128.0, -9296.917533507054, -9569.407650161702, -6650.180417320778, -11206.069434412651, -10400.82548866576, -7360.585911343803, -9798.244809895135, -7849.306803859092, -9542.540853326424, -12639.866785987233, -7343.553882068859, -6485.850392085361, -7065.453477555929, -10354.222101476444, -10853.560072608003, -16218.962218637733, 0.012, -0.02, 0.99, 192.0, 0.0, 0.0, 0.0, 0.0, 0.0, 0.0, 0.0, 0.0, 0.0, 1.64458701322287E9, 0.0, 2022-02-12 00:43:33.222
130.0, -9301.074957975741, -9583.80217359092, -6663.278539571588, -11208.371664091548, -10402.926552644558, -7371.158286471163, -9802.715158786197, -7861.935539476341, -9577.70014735462, -12676.657757360668, -7382.3788621877275, -6517.768683167539, -7093.92959999199, -10396.958636874991, -10892.876791104889, -16235.21193685674, 0.012, -0.02, 0.99, 192.0, 0.0, 0.0, 0.0, 0.0, 0.0, 0.0, 0.0, 0.0, 0.0, 1.644587013238455E9, 0.0, 2022-02-12 00:43:33.238
132.0, -9269.69310876049, -9536.46117883458, -6641.686754427762, -11211.50090831529, -10399.529087487352, -7351.846379261778, -9789.952312702217, -7820.78597793412, -9556.5553970999, -12649.16511168064, -7364.206893945563, -6476.686176858685, -7072.069593914699, -10365.532084170829, -10868.53574139306, -16223.20905008424, 0.012, -0.02, 0.99, 192.0, 0.0, 0.0, 0.0, 0.0, 0.0, 0.0, 0.0, 0.0, 0.0, 1.64458701324502E9, 0.0, 2022-02-12 00:43:33.245
134.0, -9295.799946284289, -9566.188998960139, -6674.432060054786, -11213.847841483099, -10414.571811505773, -7367.783173058412, -9811.633504823865, -7861.421449353868, -9567.932435027651, -12656.071800717331, -7383.630559877224, -6504.827023127917, -7089.123974934098, -10370.807095862281, -10886.171267768297, -16233.535556022593, 0.012, -0.02, 0.99, 192.0, 0.0, 0.0, 0.0, 0.0, 0.0, 0.0, 0.0, 0.0, 0.0, 1.644587013254448E9, 0.0, 2022-02-12 00:43:33.254
136.0, -9292.849516016187, -9551.570958086368, -6654.516655745108, -11227.638867812022, -10407.82158468027, -7362.55286485587, -9796.456670338712, -7841.729562488743, -9579.689452611143, -12671.60626311377, -7389.173792502141, -6524.496558248587, -7106.871260031612, -10379.278407010843, -10900.722253408701, -16236.173061868318, 0.012, -0.02, 0.98, 192.0, 0.0, 48.0, 127.5, 48.0, 15.0, 80.0, 0.0, 0.0, 0.0, 1.644587013261323E9, 0.0, 2022-02-12 00:43:33.261
138.0, -9280.444297843493, -9576.046118264929, -6655.433077267776, -11222.542670076213, -10408.20156433601, -7369.906588781666, -9798.736548273153, -7850.044411426117, -9552.777952286953, -12655.110675705753, -7360.429449132615, -6483.771679851017, -7076.6740532724925, -10356.569034644252, -10870.927378049777, -16242.945640438276, 0.012, -0.02, 0.98, 192.0, 0.0, 0.0, 0.0, 0.0, 0.0, 0.0, 0.0, 0.0, 0.0, 1.644587013268169E9, 0.0, 2022-02-12 00:43:33.268
140.0, -9306.439376645014, -9580.918798556186, -6671.995719909159, -11226.744798033811, -10421.031465653357, -7385.105775011275, -9816.32737115948, -7877.335891406047, -9580.784688089454, -12677.03773701641, -7394.024121048942, -6527.268174561045, -7112.347437423163, -10404.044139867323, -10906.15372731134, -16256.535501067103, 0.012, -0.02, 0.98, 192.0, 0.0, 0.0, 0.0, 0.0, 0.0, 0.0, 0.0, 0.0, 0.0, 1.644587013275708E9, 0.0, 2022-02-12 00:43:33.275
142.0, -9299.376225397138, -9560.84693203532, -6655.388373778865, -11235.059646971184, -10407.441605024529, -7368.319614925339, -9803.31865588649, -7842.8695014559635, -9570.860513551297, -12672.187408469606, -7371.359452171261, -6482.050595527959, -7072.82955322618, -10376.037404064824, -10889.233456758673, -16251.55106205357, 0.012, -0.02, 0.98, 192.0, 0.0, 0.0, 0.0, 0.0, 0.0, 0.0, 0.0, 0.0, 0.0, 1.644587013285064E9, 0.0, 2022-02-12 00:43:33.285
144.0, -9341.956298584497, -9597.012054564006, -6684.825621226504, -11229.941097490919, -10423.221936609976, -7387.095080267797, -9821.602382850931, -7880.621597840977, -9593.368720217792, -12686.17960049863, -7386.715100612057, -6501.2507440150675, -7087.3581871221295, -10383.882866368636, -10901.370453997904, -16261.654050547368, 0.012, -0.02, 0.98, 192.0, 0.0, 0.0, 0.0, 0.0, 0.0, 0.0, 0.0, 0.0, 0.0, 1.644587013291888E9, 0.0, 2022-02-12 00:43:33.291
146.0, -9306.998170256396, -9561.316318668882, -6658.227045324689, -11243.799179053209, -10413.096596371723, -7373.415812661149, -9816.282667670568, -7853.575987050055, -9607.293857013448, -12696.349644225795, -7398.494469940004, -6517.81338665645, -7117.510690392339, -10391.974197861457, -10918.49189025067, -16263.196320914785, 0.014, -0.028, 0.982, 192.0, 0.0, 56.0, 127.5, 16.0, 15.0, 88.0, 0.0, 0.0, 0.0, 1.644587013306816E9, 0.0, 2022-02-12 00:43:33.306
148.0, -9316.542365138814, -9565.205522204104, -6666.340728561965, -11242.726295319355, -10422.149052876122, -7368.498428880982, -9833.649973112342, -7870.429202369357, -9578.460106666102, -12672.835609058811, -7367.291434680395, -6487.593828152875, -7085.078309187688, -10356.47962766643, -10892.29564574905, -16261.40818135836, 0.014, -0.028, 0.982, 192.0, 0.0, 0.0, 0.0, 0.0, 0.0, 0.0, 0.0, 0.0, 0.0, 1.64458701332649E9, 0.0, 2022-02-12 00:43:33.326
150.0, -9319.425740173549, -9588.943074815641, -6681.60697002494, -11250.795275067721, -10434.10723615971, -7386.022196533942, -9842.14363600536, -7897.541868393644, -9615.295781528448, -12704.239810018518, -7418.186356805129, -6533.727828708628, -7124.17151024002, -10404.066491611778, -10939.502530038659, -16280.518922867648, 0.014, -0.028, 0.982, 192.0, 0.0, 0.0, 0.0, 0.0, 0.0, 0.0, 0.0, 0.0, 0.0, 1.644587013332035E9, 0.0, 2022-02-12 00:43:33.332
154.0, -9357.311947025293, -9631.098464858349, -6687.664292772329, -11256.025583270262, -10438.689343773049, -7400.1037955407855, -9853.364211721922, -7898.078310260572, -9596.5650196749, -12694.18152501363, -7389.062033779864, -6494.500517189565, -7104.479623374895, -10380.552456444795, -10922.962239141732, -16289.526675883137, 0.014, -0.028, 0.982, 192.0, 0.0, 0.0, 0.0, 0.0, 0.0, 0.0, 0.0, 0.0, 0.0, 1.644587013338061E9, 0.0, 2022-02-12 00:43:33.338
156.0, -9337.70946713799, -9603.80698487842, -6665.647824483851, -11267.536731664746, -10429.413369824097, -7382.401213932182, -9840.780179593585, -7868.417545368379, -9629.958525891128, -12745.56818551638, -7417.046417837909, -6527.692857705696, -7119.991734026878, -10403.06066311129, -10953.651184278868, -16299.473202165747, 0.012, -0.022, 0.982, 192.0, 0.0, 48.0, 127.5, 40.0, 15.0, 88.0, 0.0, 0.0, 0.0, 1.644587013344285E9, 0.0, 2022-02-12 00:43:33.344
158.0, -9328.925231567053, -9608.679665169677, -6668.285330329577, -11261.814685084188, -10429.68159075756, -7382.3788621877275, -9837.069790014004, -7875.0336617271505, -9593.212258006604, -12715.818013646367, -7379.607245875269, -6500.1331567923025, -7094.913076748023, -10380.686566911527, -10921.934058896788, -16290.13017298343, 0.012, -0.022, 0.982, 192.0, 0.0, 0.0, 0.0, 0.0, 0.0, 0.0, 0.0, 0.0, 0.0, 1.644587013350143E9, 0.0, 2022-02-12 00:43:33.350
160.0, -9358.965976114987, -9621.867194398308, -6682.210467125234, -11274.197551512427, -10442.01975369689, -7392.7947751039, -9860.583825180987, -7896.781909082164, -9625.890508400264, -12739.577918002358, -7417.314638771372, -6552.592701028908, -7130.139426009587, -10411.755491704404, -10962.144847171885, -16305.686987124323, 0.012, -0.022, 0.982, 192.0, 0.0, 0.0, 0.0, 0.0, 0.0, 0.0, 0.0, 0.0, 0.0, 1.644587013356473E9, 0.0, 2022-02-12 00:43:33.356
162.0, -9321.057417518785, -9599.873077854285, -6660.909254659326, -11282.199476027426, -10427.02173316738, -7379.629597619724, -9827.793816065052, -7861.287338887137, -9605.595124434843, -12711.884106622232, -7398.203897262085, -6525.189462326702, -7105.999541997856, -10384.843991380214, -10935.255698592151, -16301.238989977717, 0.012, -0.022, 0.982, 192.0, 0.0, 0.0, 0.0, 0.0, 0.0, 0.0, 0.0, 0.0, 0.0, 1.644587013362357E9, 0.0, 2022-02-12 00:43:33.362
164.0, -9363.011641861396, -9652.71260174663, -6697.901391732859, -11285.194609784437, -10441.72918101897, -7393.957065815576, -9848.133903519381, -7897.385406182458, -9605.639827923755, -12733.319429554873, -7411.32437125735, -6516.561688966953, -7118.740036337381, -10393.002378106401, -10943.905823696354, -16313.04071105012, 0.012, -0.022, 0.982, 192.0, 0.0, 0.0, 0.0, 0.0, 0.0, 0.0, 0.0, 0.0, 0.0, 1.644587013374789E9, 0.0, 2022-02-12 00:43:33.374
166.0, -9363.458676750502, -9620.369627519802, -6677.516600789619, -11294.470583733391, -10425.032427910857, -7388.637350635213, -9844.155293006337, -7881.001577496717, -9633.355991048336, -12754.173607131674, -7423.170795818663, -6542.065029390458, -7114.8284810577015, -10404.021788122867, -10962.748344272179, -16321.064987309575, 0.012, -0.028, 0.982, 192.0, 0.0, 48.0, 127.5, 16.0, 15.0, 88.0, 0.0, 0.0, 0.0, 1.644587013381189E9, 0.0, 2022-02-12 00:43:33.381
168.0, -9353.489798723436, -9616.011037351018, -6677.941283934269, -11279.584321926157, -10430.150977391122, -7385.50810641147, -9850.27967098709, -7888.042377000139, -9604.343426745347, -12727.016237618476, -7385.55280990038, -6513.47714823212, -7100.344550650662, -10390.521334471863, -10939.25666084965, -16317.578115174547, 0.012, -0.028, 0.982, 192.0, 0.0, 0.0, 0.0, 0.0, 0.0, 0.0, 0.0, 0.0, 0.0, 1.644587013389365E9, 0.0, 2022-02-12 00:43:33.389
170.0, -9347.365420742683, -9655.372459336813, -6691.777013752105, -11280.85837136011, -10438.39877109513, -7394.404100704683, -9848.80445585304, -7906.2590487312145, -9637.267546328014, -12758.822769978378, -7423.506071985492, -6543.473189291142, -7136.017934801333, -10419.980933663957, -10977.209922934762, -16326.742330401223, 0.012, -0.028, 0.982, 192.0, 0.0, 0.0, 0.0, 0.0, 0.0, 0.0, 0.0, 0.0, 0.0, 1.644587013396847E9, 0.0, 2022-02-12 00:43:33.396
172.0, -9337.240080504427, -9611.361874504313, -6666.452487284242, -11285.395775484536, -10429.569832035284, -7371.828838804822, -9843.149464505848, -7882.968531008784, -9608.031464580472, -12729.094949852819, -7394.985246060521, -6514.594735454886, -7104.814899541724, -10379.34546224421, -10953.047687178576, -16318.89686809741, 0.012, -0.028, 0.982, 192.0, 0.0, 0.0, 0.0, 0.0, 0.0, 0.0, 0.0, 0.0, 0.0, 1.644587013404037E9, 0.0, 2022-02-12 00:43:33.404
174.0, -9381.988272903953, -9642.654316741744, -6702.349388879466, -11285.619292929088, -10450.02167821189, -7389.732586113523, -9868.831618884995, -7916.831423858574, -9618.782653663475, -12739.175586602163, -7396.952199572587, -6519.601526212875, -7111.565126367227, -10382.474706467952, -10966.50343734067, -16332.598487448513, 0.012, -0.028, 0.982, 192.0, 0.0, 0.0, 0.0, 0.0, 0.0, 0.0, 0.0, 0.0, 0.0, 1.644587013411557E9, 0.0, 2022-02-12 00:43:33.411
176.0, -9357.13313306965, -9622.560098476422, -6679.37179557941, -11299.387967513558, -10431.067398913789, -7378.534362141414, -9854.772371622608, -7896.021949770684, -9644.263642342525, -12734.548775499914, -7417.113473071275, -6535.0018781425815, -7120.729341593903, -10401.496040999418, -10990.553914374581, -16341.248612552718, 0.008, -0.026000000000000002, 0.984, 192.0, 0.0, 32.0, 127.5, 24.0, 15.0, 96.0, 0.0, 0.0, 0.0, 1.644587013419592E9, 0.0, 2022-02-12 00:43:33.419
178.0, -9359.904749382109, -9606.37743549078, -6677.4048420673425, -11292.28011277677, -10433.950773948523, -7374.086364994809, -9864.316566505024, -7897.273647460181, -9608.299685513937, -12732.76063594349, -7374.891027795199, -6500.222563770123, -7099.048149472255, -10369.510694683873, -10958.412105847849, -16337.89585088442, 0.008, -0.026000000000000002, 0.984, 192.0, 0.0, 0.0, 0.0, 0.0, 0.0, 0.0, 0.0, 0.0, 0.0, 1.644587013426621E9, 0.0, 2022-02-12 00:43:33.426
180.0, -9346.270185264371, -9618.313267029915, -6694.392167853376, -11287.318025507693, -10436.387114094152, -7382.423565676638, -9863.064868815527, -7912.338723223058, -9640.709714974131, -12757.593424033335, -7415.37003700376, -6548.457628304676, -7131.435827187995, -10415.48823302844, -10997.460603411271, -16350.815159179589, 0.008, -0.026000000000000002, 0.984, 192.0, 0.0, 0.0, 0.0, 0.0, 0.0, 0.0, 0.0, 0.0, 0.0, 1.644587013433093E9, 0.0, 2022-02-12 00:43:33.433
182.0, -9326.198318743505, -9597.481441197568, -6666.340728561965, -11298.09156633515, -10421.009113908902, -7358.574254342825, -9845.116418017915, -7877.134725705949, -9603.00232207803, -12728.603211474803, -7381.305978453873, -6499.552011436464, -7096.1647744375205, -10382.944093101512, -10964.022393706131, -16339.035789851641, 0.008, -0.026000000000000002, 0.984, 192.0, 0.0, 0.0, 0.0, 0.0, 0.0, 0.0, 0.0, 0.0, 0.0, 1.644587013441563E9, 0.0, 2022-02-12 00:43:33.441
184.0, -9377.920255413086, -9643.794255708965, -6696.403824854354, -11293.509458721812, -10436.632983283162, -7377.12620224073, -9863.71306940473, -7911.422301700391, -9609.75254890353, -12735.107569111296, -7388.927923313132, -6516.271116289034, -7106.893611776068, -10380.217180277967, -10974.706527555767, -16354.167920847884, 0.007, -0.025, 0.985, 192.0, 0.0, 24.0, 127.5, 32.0, 15.0, 104.0, 0.0, 0.0, 0.0, 1.644587013449213E9, 0.0, 2022-02-12 00:43:33.449
186.0, -9365.716202940488, -9617.598011207345, -6680.623493268907, -11313.581325242678, -10426.909974445101, -7373.929902783621, -9858.080429801992, -7890.724586334776, -9644.084828386884, -12768.635185794257, -7420.354476017294, -6530.397418784788, -7118.628277615104, -10398.590314220228, -10998.622894122946, -16359.845263939533, 0.007, -0.025, 0.985, 192.0, 0.0, 0.0, 0.0, 0.0, 0.0, 0.0, 0.0, 0.0, 0.0, 1.644587013456639E9, 0.0, 2022-02-12 00:43:33.456
188.0, -9369.04661286433, -9630.539671246966, -6688.84893522846, -11313.402511287035, -10432.944945448035, -7376.232132462518, -9861.008508325638, -7894.859659059008, -9625.443473511157, -12733.56529874388, -7386.290417467406, -6503.932953349705, -7089.950989478945, -10373.444601708008, -10971.331414143016, -16354.816121437088, 0.007, -0.025, 0.985, 192.0, 0.0, 0.0, 0.0, 0.0, 0.0, 0.0, 0.0, 0.0, 0.0, 1.644587013463937E9, 0.0, 2022-02-12 00:43:33.463
190.0, -9369.292482053337, -9650.298613345458, -6702.9975894686695, -11318.76692995631, -10451.742762534948, -7395.946371072098, -9889.730499950707, -7931.181243798882, -9656.043011670472, -12762.153179902218, -7423.483720241037, -6541.327421823433, -7148.199635529475, -10411.174346348565, -11014.157356519385, -16370.90937744491, 0.007, -0.025, 0.985, 192.0, 0.0, 0.0, 0.0, 0.0, 0.0, 0.0, 0.0, 0.0, 0.0, 1.644587013471725E9, 0.0, 2022-02-12 00:43:33.471
192.0, -9371.281787309861, -9629.891470657763, -6677.740118234172, -11327.461758549423, -10441.885643230158, -7380.076632508831, -9878.085241089493, -7888.265894444692, -9635.166482349216, -12769.797476505933, -7406.496394455004, -6515.153529066269, -7123.411550928539, -10388.57673270425, -10995.158373732374, -16368.897720443932, 0.007, -0.025, 0.985, 192.0, 0.0, 0.0, 0.0, 0.0, 0.0, 0.0, 0.0, 0.0, 0.0, 1.644587013481297E9, 0.0, 2022-02-12 00:43:33.481
194.0, -9406.396377849147, -9657.205302382148, -6709.524298849618, -11321.76206371332, -10461.219902183999, -7399.075615295842, -9900.951075667272, -7929.504862964734, -9642.229633597093, -12776.301834142427, -7413.447786980604, -6529.503349006575, -7128.105417264154, -10399.417328765074, -11006.803632593588, -16375.469133313793, 0.0095, -0.0235, 0.9855, 192.0, 0.0, 48.0, 127.5, 40.0, 15.0, 104.0, 0.0, 0.0, 0.0, 1.644587013493702E9, 0.0, 2022-02-12 00:43:33.493
196.0, -9378.23317983546, -9646.118837132315, -6697.208487654744, -11337.944726698963, -10451.16161717911, -7392.481850681526, -9881.460354502244, -7900.693464361842, -9655.864197714829, -12786.695395314146, -7434.816054679877, -6550.0893056499135, -7142.723458137925, -10409.922648659069, -11026.60727818099, -16380.610034538513, 0.0095, -0.0235, 0.9855, 192.0, 0.0, 0.0, 0.0, 0.0, 0.0, 0.0, 0.0, 0.0, 0.0, 1.64458701350142E9, 0.0, 2022-02-12 00:43:33.501
198.0, -9365.783258173855, -9639.949755662652, -6696.873211487915, -11334.167281886015, -10445.774846765382, -7390.626655891736, -9867.62462468441, -7892.758595080209, -9639.234499840082, -12757.012278677497, -7402.8083566198775, -6515.511156977554, -7120.952859038456, -10392.622398450661, -10994.309007443073, -16378.754839748723, 0.0095, -0.0235, 0.9855, 192.0, 0.0, 0.0, 0.0, 0.0, 0.0, 0.0, 0.0, 0.0, 0.0, 1.64458701350945E9, 0.0, 2022-02-12 00:43:33.509
200.0, -9391.800688719832, -9663.732011763097, -6709.61370582744, -11328.981677172385, -10458.560044593816, -7388.458536679571, -9883.650825458864, -7921.2347175162695, -9676.494857847078, -12784.48257261307, -7442.303889072406, -6547.96588992666, -7147.1714552845315, -10415.689398728538, -11025.333228747038, -16386.823819497087, 0.0095, -0.0235, 0.9855, 192.0, 0.0, 0.0, 0.0, 0.0, 0.0, 0.0, 0.0, 0.0, 0.0, 1.644587013515963E9, 0.0, 2022-02-12 00:43:33.515
202.0, -9389.207886363016, -9631.098464858349, -6681.495211302664, -11338.212947632426, -10443.651431042128, -7372.387632416205, -9873.123153820414, -7890.5904758680435, -9644.017773153517, -12760.8120752349, -7400.260257751973, -6495.707511390151, -7120.036437515788, -10377.870247110159, -11003.517926158658, -16379.470095571292, 0.0095, -0.0235, 0.9855, 192.0, 0.0, 0.0, 0.0, 0.0, 0.0, 0.0, 0.0, 0.0, 0.0, 1.644587013524119E9, 0.0, 2022-02-12 00:43:33.524
204.0, -9439.29814568736, -9698.53367788001, -6722.37655191142, -11350.774628016308, -10472.507533133929, -7399.500298440493, -9900.548744267076, -7931.829444388086, -9667.19653215367, -12781.666252811701, -7418.789853905422, -6529.704514706674, -7137.448446446472, -10402.658331711094, -11017.219545509763, -16396.859752757522, 0.01075, -0.01975, 0.98775, 192.0, 0.0, 48.0, 127.5, 64.0, 15.0, 120.0, 0.0, 0.0, 0.0, 1.64458701353233E9, 0.0, 2022-02-12 00:43:33.532
206.0, -9424.724808302499, -9684.072099217427, -6713.011170984647, -11363.269253166825, -10468.30540517633, -7391.386615203216, -9896.458375031754, -7911.3105429781135, -9699.20423021367, -12825.363913221827, -7460.073525914375, -6564.416773845765, -7157.117981567143, -10410.436738781542, -11046.701496446312, -16404.325235405595, 0.01075, -0.01975, 0.98775, 192.0, 0.0, 0.0, 0.0, 0.0, 0.0, 0.0, 0.0, 0.0, 0.0, 1.644587013539233E9, 0.0, 2022-02-12 00:43:33.539
208.0, -9413.325418630293, -9681.859276516352, -6712.050045973068, -11361.615224077133, -10468.461867387517, -7397.019254805953, -9897.464203532243, -7916.965534325306, -9667.665918787232, -12794.518505873502, -7427.797606920912, -6526.5529187384755, -7123.277440461808, -10401.764261932882, -11019.18649902183, -16409.220267441306, 0.01075, -0.01975, 0.98775, 192.0, 0.0, 0.0, 0.0, 0.0, 0.0, 0.0, 0.0, 0.0, 0.0, 1.644587013545703E9, 0.0, 2022-02-12 00:43:33.545
210.0, -9448.01532602493, -9707.384968684313, -6735.318211951043, -11370.44416313698, -10489.293693219865, -7410.139728801219, -9918.854822975973, -7936.769179912709, -9709.888364063307, -12837.97029709462, -7470.310624874905, -6572.284587894033, -7178.642711477603, -10433.660201270604, -11060.00078439722, -16422.787776325677, 0.01075, -0.01975, 0.98775, 192.0, 0.0, 0.0, 0.0, 0.0, 0.0, 0.0, 0.0, 0.0, 0.0, 1.644587013553866E9, 0.0, 2022-02-12 00:43:33.553
212.0, -9419.941534989064, -9671.979805467106, -6710.641886072384, -11374.422773650023, -10476.284977946876, -7395.655798394179, -9902.046311145581, -7905.789662097653, -9678.282997403503, -12806.364930434816, -7447.310679830394, -6547.988241671114, -7153.564054198749, -10408.11215735819, -11042.991106866732, -16418.898572790455, 0.01075, -0.01975, 0.98775, 192.0, 0.0, 0.0, 0.0, 0.0, 0.0, 0.0, 0.0, 0.0, 0.0, 1.644587013561854E9, 0.0, 2022-02-12 00:43:33.561
214.0, -9465.404983211158, -9718.203213000681, -6740.369706197943, -11372.478171882412, -10492.937027566079, -7408.843327622811, -9924.06277943406, -7936.925642123895, -9692.521058621533, -12810.567058392413, -7455.133790389752, -6535.381857798321, -7156.760353655858, -10419.91387843059, -11052.110618604496, -16428.64393337297, 0.011375, -0.021875, 0.988875, 192.0, 0.0, 48.0, 127.5, 32.0, 15.0, 120.0, 0.0, 0.0, 0.0, 1.644587013570176E9, 0.0, 2022-02-12 00:43:33.570
216.0, -9436.727695075, -9687.715433563642, -6719.224955943222, -11391.119526758139, -10468.953605765535, -7403.724778142546, -9900.213468100246, -7921.2347175162695, -9711.676503619732, -12822.100558531352, -7468.47778182957, -6567.143686669313, -7178.665063222059, -10431.313268102798, -11075.602302027024, -16436.534099165692, 0.011375, -0.021875, 0.988875, 192.0, 0.0, 0.0, 0.0, 0.0, 0.0, 0.0, 0.0, 0.0, 0.0, 1.644587013576669E9, 0.0, 2022-02-12 00:43:33.576
218.0, -9429.753950804943, -9699.763023825053, -6730.534938637607, -11391.410099436058, -10481.06825126031, -7405.490565954515, -9917.446663075289, -7928.051999575138, -9684.653244573265, -12803.079223999886, -7443.153255361707, -6531.425599029732, -7137.895481335579, -10414.214183594488, -11041.314726032582, -16436.82467184361, 0.011375, -0.021875, 0.988875, 192.0, 0.0, 0.0, 0.0, 0.0, 0.0, 0.0, 0.0, 0.0, 0.0, 1.644587013584411E9, 0.0, 2022-02-12 00:43:33.584
220.0, -9456.911320318142, -9713.218773987148, -6749.4892179357075, -11395.96985530494, -10486.477373418496, -7409.804452634389, -9928.331962625023, -7945.821636417108, -9724.26053574807, -12851.135474578796, -7485.24159017105, -6570.071765192958, -7182.777784201835, -10445.596032809739, -11086.733470765766, -16450.883919106, 0.011375, -0.021875, 0.988875, 192.0, 0.0, 0.0, 0.0, 0.0, 0.0, 0.0, 0.0, 0.0, 0.0, 1.644587013591451E9, 0.0, 2022-02-12 00:43:33.591
222.0, -9427.742293803965, -9660.20043613916, -6718.688514076294, -11399.859058840164, -10476.21792271351, -7395.342873971806, -9910.539974038598, -7911.154080766926, -9699.941837780696, -12819.083073029886, -7466.823752739877, -6557.86771272036, -7161.27540603583, -10415.309419072797, -11059.620804741478, -16441.473834690314, 0.011375, -0.021875, 0.988875, 192.0, 0.0, 0.0, 0.0, 0.0, 0.0, 0.0, 0.0, 0.0, 0.0, 1.644587013599191E9, 0.0, 2022-02-12 00:43:33.599
224.0, -9469.24948325747, -9723.165300269759, -6747.231691745722, -11393.801736092775, -10499.374329969207, -7406.60815317728, -9948.20266344579, -7953.95767139884, -9702.15466048177, -12819.798328852456, -7461.548741048425, -6558.359451098377, -7161.588330458204, -10420.427968553064, -11068.71796473479, -16450.83921561709, 0.010687499999999999, -0.0219375, 0.9894375, 192.0, 0.0, 40.0, 127.5, 40.0, 15.0, 120.0, 0.0, 0.0, 0.0, 1.644587013606892E9, 0.0, 2022-02-12 00:43:33.606
226.0, -9428.211680437527, -9693.862163288852, -6730.37847642642, -11407.995093821895, -10477.26845470291, -7389.017330290953, -9922.498157322188, -7921.592345427555, -9722.83002410293, -12838.998477339564, -7480.659482557712, -6583.773384544062, -7179.492077766905, -10428.54165179034, -11091.136764423461, -16452.582651684603, 0.010687499999999999, -0.0219375, 0.9894375, 192.0, 0.0, 0.0, 0.0, 0.0, 0.0, 0.0, 0.0, 0.0, 0.0, 1.64458701362143E9, 0.0, 2022-02-12 00:43:33.621
228.0, -9435.207776452038, -9703.696930849186, -6738.00042128568, -11398.987340806407, -10483.303425705843, -7395.789908860911, -9939.619593574953, -7929.817787387108, -9686.396680640779, -12816.669084628713, -7448.607081008802, -6543.406134057776, -7126.563146896738, -10406.860459668691, -11055.821008184077, -16449.118131294028, 0.010687499999999999, -0.0219375, 0.9894375, 192.0, 0.0, 0.0, 0.0, 0.0, 0.0, 0.0, 0.0, 0.0, 0.0, 1.644587013631348E9, 0.0, 2022-02-12 00:43:33.631
230.0, -9468.802448368366, -9736.464588220668, -6759.703965151783, -11402.63067515262, -10489.494858919961, -7407.166946788663, -9938.077323207537, -7945.262842805725, -9724.104073536882, -12841.121893062818, -7489.220200684095, -6568.216570403168, -7184.923551669544, -10444.098465931233, -11101.91030525092, -16469.324108281628, 0.010687499999999999, -0.0219375, 0.9894375, 192.0, 0.0, 0.0, 0.0, 0.0, 0.0, 0.0, 0.0, 0.0, 0.0, 1.644587013638034E9, 0.0, 2022-02-12 00:43:33.638
232.0, -9451.144570248673, -9697.527849379523, -6733.887700305903, -11410.051454311784, -10483.951626295046, -7394.068824537853, -9924.912145723361, -7922.419359972401, -9715.476300177133, -12833.119968547819, -7471.204694653117, -6542.288546835011, -7169.32203403974, -10416.1587853621, -11081.458459074314, -16460.271651777228, 0.010687499999999999, -0.0219375, 0.9894375, 192.0, 0.0, 0.0, 0.0, 0.0, 0.0, 0.0, 0.0, 0.0, 0.0, 1.644587013646071E9, 0.0, 2022-02-12 00:43:33.646
234.0, -9489.343701522792, -9740.5996609449, -6763.570816942552, -11415.795852636797, -10506.102205050256, -7413.246621280507, -9949.096733224003, -7961.423154046912, -9724.171128770247, -12841.479520974102, -7491.991816996553, -6556.884235964327, -7178.329787055229, -10423.1101778877, -11090.779136512178, -16473.570939728135, 0.01234375, -0.02096875, 0.98871875, 192.0, 0.0, 56.0, 127.5, 48.0, 15.0, 112.0, 0.0, 0.0, 0.0, 1.644587013652315E9, 0.0, 2022-02-12 00:43:33.652
236.0, -9473.675128659623, -9723.388817714313, -6757.580549428529, -11436.158291835582, -10504.157603282643, -7409.491528212015, -9943.844073277007, -7948.2356248182805, -9746.299355781002, -12864.211245085151, -7505.313456691916, -6597.027969006058, -7202.402615833595, -10446.199529910033, -11123.457386905837, -16482.086954365608, 0.01234375, -0.02096875, 0.98871875, 192.0, 0.0, 0.0, 0.0, 0.0, 0.0, 0.0, 0.0, 0.0, 0.0, 1.644587013659293E9, 0.0, 2022-02-12 00:43:33.659
238.0, -9462.543959920878, -9711.877669319829, -6756.731183139227, -11433.543137734312, -10515.467585977029, -7417.918135871665, -9967.469867166266, -7957.176322600404, -9721.69008513571, -12843.804102397455, -7476.8820377447655, -6561.7122127666735, -7162.504751980871, -10419.176270863565, -11094.869505747498, -16485.21619858935, 0.01234375, -0.02096875, 0.98871875, 192.0, 0.0, 0.0, 0.0, 0.0, 0.0, 0.0, 0.0, 0.0, 0.0, 1.644587013667208E9, 0.0, 2022-02-12 00:43:33.667
240.0, -9503.917038907652, -9760.805637932497, -6775.685462437327, -11438.706390703486, -10531.002048373468, -7431.128016844752, -9977.617559148975, -7976.86820946553, -9761.878521666351, -12879.544541781492, -7527.575794169402, -6604.180527231757, -7214.874889239656, -10455.49785560344, -11137.15900625694, -16501.42121331945, 0.01234375, -0.02096875, 0.98871875, 192.0, 0.0, 0.0, 0.0, 0.0, 0.0, 0.0, 0.0, 0.0, 0.0, 1.644587013673526E9, 0.0, 2022-02-12 00:43:33.673
242.0, -9479.240713028994, -9738.02921033254, -6753.333717982021, -11444.942527406518, -10517.479242978006, -7415.995885848509, -9954.125875726448, -7942.535929982178, -9745.047658091506, -12877.354070824871, -7512.756587595533, -6581.15823044279, -7203.006112933888, -10431.313268102798, -11117.489471136269, -16495.296835338693, 0.01234375, -0.02096875, 0.98871875, 192.0, 0.0, 0.0, 0.0, 0.0, 0.0, 0.0, 0.0, 0.0, 0.0, 1.644587013681218E9, 0.0, 2022-02-12 00:43:33.681
244.0, -9531.096760165306, -9782.419774820779, -6783.463869507775, -11440.226309326448, -10516.361655755241, -7437.542967503425, -9964.050050264603, -7977.449354821367, -9750.009745360583, -12870.559140510457, -7510.990799783564, -6573.469230350164, -7190.399729061095, -10435.224823382476, -11115.321351924105, -16507.009149433274, 0.015171875000000001, -0.022484375, 0.985359375, 192.0, 0.0, 72.0, 127.5, 32.0, 15.0, 88.0, 0.0, 0.0, 0.0, 1.644587013688818E9, 0.0, 2022-02-12 00:43:33.688
246.0, -9511.963666911563, -9751.194387816715, -6771.170410057356, -11457.213635112481, -10513.187708042587, -7428.602269721302, -9966.151114243403, -7958.830351690096, -9772.137972371338, -12893.6931960217, -7522.993686556064, -6603.889954553838, -7207.610572291681, -10466.629024342183, -11142.858701093042, -16516.016902448762, 0.015171875000000001, -0.022484375, 0.985359375, 192.0, 0.0, 0.0, 0.0, 0.0, 0.0, 0.0, 0.0, 0.0, 0.0, 1.644587013698305E9, 0.0, 2022-02-12 00:43:33.698
248.0, -9488.15905906666, -9742.924242368252, -6781.161639828878, -11462.756867737398, -10522.530737224906, -7418.409874249683, -9970.39794568991, -7960.126752868504, -9746.321707525458, -12875.789448713, -7500.306665933927, -6566.20491340219, -7182.062528379265, -10427.44641631203, -11116.90832578043, -16517.35800711608, 0.015171875000000001, -0.022484375, 0.985359375, 192.0, 0.0, 0.0, 0.0, 0.0, 0.0, 0.0, 0.0, 0.0, 0.0, 1.644587013704341E9, 0.0, 2022-02-12 00:43:33.704
250.0, -9506.487489520012, -9760.380954787846, -6803.289866839632, -11463.628585771154, -10534.712437953049, -7436.157159347196, -9975.807067848094, -7981.830296734607, -9786.465440567188, -12900.130498424829, -7553.079134592907, -6620.9443355732365, -7216.975953218455, -10468.327756920786, -11159.06371582314, -16532.914821256974, 0.015171875000000001, -0.022484375, 0.985359375, 192.0, 0.0, 0.0, 0.0, 0.0, 0.0, 0.0, 0.0, 0.0, 0.0, 1.644587013711463E9, 0.0, 2022-02-12 00:43:33.711
