%OpenBCI Raw EEG Data
%Number of channels = 16
%Sample Rate = 125 Hz
%Board = OpenBCI_GUI$BoardCytonSerialDaisy
Sample Index, EXG Channel 0, EXG Channel 1, EXG Channel 2, EXG Channel 3, EXG Channel 4, EXG Channel 5, EXG Channel 6, EXG Channel 7, EXG Channel 8, EXG Channel 9, EXG Channel 10, EXG Channel 11, EXG Channel 12, EXG Channel 13, EXG Channel 14, EXG Channel 15, Accel Channel 0, Accel Channel 1, Accel Channel 2, Other, Other, Other, Other, Other, Other, Other, Analog Channel 0, Analog Channel 1, Analog Channel 2, Timestamp, Other, Timestamp (Formatted)
34.0, -12452.022725584833, -11764.259548695034, -8149.535435382776, -12815.998532295052, -12356.40196280503, -8794.964408274223, -11570.268758567425, -8988.910494912923, -11594.00631117896, -13697.350167912266, -11098.803412771633, -8867.875798687435, -8771.159800429321, -12290.553723639694, -12506.940961711522, -18547.097569358062, 0.0, 0.0, 0.0, 192.0, 0.0, 0.0, 0.0, 0.0, 0.0, 0.0, 0.0, 0.0, 0.0, 1.644586877818499E9, 0.0, 2022-02-12 00:41:17.818
36.0, -12456.291908775796, -11788.310025728944, -8149.647194105053, -12801.559305376924, -12350.836378435657, -8787.722443070703, -11555.33779327128, -9002.142727630464, -11596.219133880037, -13718.919601311638, -11082.017252685697, -8863.673670729837, -8775.83131502048, -12274.214598442864, -12507.455051833995, -18554.00425839475, 0.006, -0.024, 0.982, 192.0, 0.0, 24.0, 127.5, 32.0, 15.0, 88.0, 0.0, 0.0, 0.0, 1.644586877818503E9, 0.0, 2022-02-12 00:41:17.818
0.0, -4756.2724061337, -4830.837825636605, -3228.7318383135607, -5083.010206581379, -5088.374625250653, -3788.7100921523684, -4643.261986167668, -3762.8044203286677, -5803.831613520577, -6861.896140801447, -5553.693241321235, -4433.200291776692, -4402.936029784207, -6163.135905639638, -6261.014194609427, -9281.7406990219, 0.008, -0.024, 0.979, 192.0, 0.0, 40.0, 127.5, 32.0, 15.0, 64.0, 0.0, 0.0, 0.0, 1.644586877917746E9, 0.0, 2022-02-12 00:41:17.917
2.0, -9495.713948692555, -9633.467749770612, -6434.262565882513, -10163.785238717228, -10171.58599753213, -7573.083945880408, -9277.69503327549, -7496.8421455433545, -8968.101020825032, -11971.504923284641, -7865.51181858919, -7180.207333589475, -7432.849101167811, -10896.095442306452, -10075.093516718569, -15251.735180823229, 0.008, -0.024, 0.979, 192.0, 0.0, 0.0, 0.0, 0.0, 0.0, 0.0, 0.0, 0.0, 0.0, 1.644586877925113E9, 0.0, 2022-02-12 00:41:17.925
4.0, -9507.202745342582, -9667.800029253964, -6459.028298738993, -10152.899939167493, -10175.564608045175, -7588.908980954765, -9283.662949045056, -7530.7720936265105, -8969.620939447992, -11961.871321424404, -7859.409792352891, -7170.238455562408, -7428.781083676945, -10890.351043981438, -10072.813638784128, -15253.880948290938, 0.008, -0.024, 0.979, 192.0, 0.0, 0.0, 0.0, 0.0, 0.0, 0.0, 0.0, 0.0, 0.0, 1.64458687793163E9, 0.0, 2022-02-12 00:41:17.931
6.0, -9483.73341366451, -9649.4268953117, -6437.168292661702, -10163.427610805942, -10160.901863682493, -7570.960530157153, -9260.059506900252, -7496.9539042656315, -8974.11364008351, -11989.60983629344, -7886.634217099455, -7208.817566492268, -7446.081333885352, -10907.338369767473, -10087.878714547005, -15247.242480187713, 0.008, -0.024, 0.979, 192.0, 0.0, 0.0, 0.0, 0.0, 0.0, 0.0, 0.0, 0.0, 0.0, 1.644586877939903E9, 0.0, 2022-02-12 00:41:17.939
8.0, -9474.055108315362, -9646.007078410039, -6431.4015425922325, -10147.513168753763, -10153.659898478973, -7561.416335274736, -9259.947748177976, -7486.33682564936, -8944.654040891415, -11962.02778363559, -7841.126065388449, -7166.416307260551, -7398.114490284263, -10870.547398394037, -10052.540606563165, -15233.674971303342, 0.01, -0.02, 0.978, 192.0, 0.0, 40.0, 127.5, 48.0, 15.0, 72.0, 0.0, 0.0, 0.0, 1.644586877947862E9, 0.0, 2022-02-12 00:41:17.947
10.0, -9476.670262416634, -9631.679610214187, -6443.113856686814, -10147.535520498219, -10153.481084523331, -7569.731184212111, -9259.232492355406, -7501.223087456595, -8965.172942301386, -11958.94324290076, -7866.562350578589, -7194.7136157409695, -7439.308755315395, -10900.319922008506, -10075.540551607675, -15236.223070171247, 0.01, -0.02, 0.978, 192.0, 0.0, 0.0, 0.0, 0.0, 0.0, 0.0, 0.0, 0.0, 0.0, 1.644586877956609E9, 0.0, 2022-02-12 00:41:17.956
12.0, -9469.182428024105, -9613.440586738658, -6407.9769144030715, -10146.52969199773, -10134.81737790315, -7544.607823444346, -9240.769951435323, -7466.086145172852, -8940.161340255898, -11948.952013129237, -7841.617803766466, -7181.749603956891, -7421.986153362532, -10877.878770575378, -10049.210196639324, -15215.704168761275, 0.01, -0.02, 0.978, 192.0, 0.0, 0.0, 0.0, 0.0, 0.0, 0.0, 0.0, 0.0, 0.0, 1.644586877963372E9, 0.0, 2022-02-12 00:41:17.963
14.0, -9481.386480496703, -9649.292784844969, -6432.787350748462, -10132.67161043544, -10138.505415738275, -7569.8652946788425, -9252.191692851984, -7499.032616499975, -8931.399456429417, -11956.79747543305, -7823.289373313114, -7167.042156105299, -7406.719911899557, -10866.233511714163, -10042.527025047186, -15216.754700750675, 0.01, -0.02, 0.978, 192.0, 0.0, 0.0, 0.0, 0.0, 0.0, 0.0, 0.0, 0.0, 0.0, 1.644586877969809E9, 0.0, 2022-02-12 00:41:17.969
16.0, -9460.688765131088, -9618.559136218923, -6410.435606293155, -10138.348953527087, -10131.911651123959, -7552.766210170533, -9243.228643325407, -7479.228970912573, -8950.085514794055, -11981.876132711905, -7843.025963667151, -7196.904086697589, -7417.851080638299, -10891.669796904302, -10060.475475844798, -15214.58658153851, 0.011, -0.020999999999999998, 0.979, 192.0, 0.0, 48.0, 127.5, 40.0, 15.0, 80.0, 0.0, 0.0, 0.0, 1.644586877984784E9, 0.0, 2022-02-12 00:41:17.984
18.0, -9459.928805819609, -9631.47844451409, -6410.279144081967, -10130.81641564565, -10134.347991269588, -7547.06651533443, -9254.046887641774, -7479.944226735142, -8924.269249948175, -11957.982117889182, -7808.2913527836035, -7161.387164758106, -7374.846324306289, -10856.085819731454, -10025.338533561056, -15205.802345967573, 0.011, -0.020999999999999998, 0.979, 192.0, 0.0, 0.0, 0.0, 0.0, 0.0, 0.0, 0.0, 0.0, 0.0, 1.644586877992893E9, 0.0, 2022-02-12 00:41:17.992
20.0, -9484.06868983134, -9651.90793894624, -6436.587147305864, -10133.118645324546, -10134.951488369881, -7559.225864318117, -9244.480341014903, -7494.651674586735, -8943.67056413538, -11973.762449474627, -7839.539091532122, -7202.737892000425, -7419.750978917001, -10902.041006331565, -10058.977908966293, -15214.854802471973, 0.011, -0.020999999999999998, 0.979, 192.0, 0.0, 0.0, 0.0, 0.0, 0.0, 0.0, 0.0, 0.0, 0.0, 1.644586877999278E9, 0.0, 2022-02-12 00:41:17.999
22.0, -9444.126122489706, -9600.565981932401, -6407.731045214063, -10146.708505953373, -10118.09827305058, -7545.323079266916, -9226.82246289521, -7460.073525914375, -8932.561747141093, -11962.139542357869, -7822.819986679553, -7186.689339481514, -7379.8531150642775, -10883.19848575574, -10034.79332146565, -15205.020034911639, 0.011, -0.020999999999999998, 0.979, 192.0, 0.0, 0.0, 0.0, 0.0, 0.0, 0.0, 0.0, 0.0, 0.0, 1.64458687800721E9, 0.0, 2022-02-12 00:41:18.007
24.0, -9454.96671855053, -9625.555232233433, -6423.220804121591, -10125.161424298456, -10124.75909289826, -7562.7350881976, -9238.177149078507, -7489.19784893964, -8928.650191861414, -11940.994792103147, -7822.998800635195, -7201.955580944488, -7403.210688020074, -10884.986625312165, -10030.07710338558, -15207.612837268452, 0.011, -0.020999999999999998, 0.979, 192.0, 0.0, 0.0, 0.0, 0.0, 0.0, 0.0, 0.0, 0.0, 0.0, 1.644586878015426E9, 0.0, 2022-02-12 00:41:18.015
26.0, -9444.48375040099, -9613.641752438754, -6402.098405611326, -10125.429645231921, -10110.76690086924, -7546.954756612153, -9221.815672137222, -7469.505962074514, -8942.977660057266, -11964.665289481318, -7839.539091532122, -7205.353046101695, -7406.138766543719, -10901.839840631466, -10043.532853547675, -15202.181363365813, 0.010499999999999999, -0.0235, 0.9824999999999999, 192.0, 0.0, 40.0, 127.5, 24.0, 15.0, 104.0, 0.0, 0.0, 0.0, 1.644586878023201E9, 0.0, 2022-02-12 00:41:18.023
28.0, -9465.449686700069, -9606.28802851296, -6396.778690430962, -10111.593915414085, -10105.156613010957, -7544.116085066329, -9223.648515182556, -7468.8130579964, -8907.281924162142, -11938.536100213063, -7792.756890387165, -7164.516408981849, -7377.662644107658, -10854.43179064176, -10003.679693183863, -15190.849028926974, 0.010499999999999999, -0.0235, 0.9824999999999999, 192.0, 0.0, 0.0, 0.0, 0.0, 0.0, 0.0, 0.0, 0.0, 0.0, 1.644586878029928E9, 0.0, 2022-02-12 00:41:18.029
30.0, -9476.625558927723, -9645.6270987543, -6410.435606293155, -10111.951543325371, -10097.959351296347, -7548.251157790561, -9211.91384934352, -7478.67017730119, -8941.614203645493, -11970.879074439892, -7819.668390711355, -7196.881734953134, -7394.784080360423, -10882.952616566732, -10031.619373752997, -15200.147354620382, 0.010499999999999999, -0.0235, 0.9824999999999999, 192.0, 0.0, 0.0, 0.0, 0.0, 0.0, 0.0, 0.0, 0.0, 0.0, 1.644586878037323E9, 0.0, 2022-02-12 00:41:18.037
32.0, -9436.504177630446, -9586.260865481003, -6380.148992556214, -10122.345104497088, -10092.125545993513, -7526.927593580198, -9202.01202654982, -7444.784932706944, -8914.456834132294, -11936.211518789712, -7801.407015491369, -7182.487211523916, -7370.107754481764, -10856.465799387193, -10005.98192286276, -15181.57305497802, 0.010499999999999999, -0.0235, 0.9824999999999999, 192.0, 0.0, 0.0, 0.0, 0.0, 0.0, 0.0, 0.0, 0.0, 0.0, 1.644586878044886E9, 0.0, 2022-02-12 00:41:18.044
34.0, -9450.988108037485, -9627.119854345305, -6405.250001579524, -10112.2868194922, -10098.47344141882, -7539.9810123420975, -9203.464889939414, -7463.605101538313, -8911.461700375283, -11933.2163850327, -7804.35744575947, -7188.142202871109, -7368.498428880982, -10864.490075646649, -9996.951818102816, -15183.987043379193, 0.010499999999999999, -0.0235, 0.9824999999999999, 192.0, 0.0, 0.0, 0.0, 0.0, 0.0, 0.0, 0.0, 0.0, 0.0, 1.644586878051897E9, 0.0, 2022-02-12 00:41:18.051
36.0, -9440.683953843589, -9608.277333769482, -6387.547419970921, -10122.300401008177, -10084.637711600984, -7526.860538346832, -9194.211267734918, -7449.679964742657, -8931.399456429417, -11949.622565462896, -7817.16499533236, -7199.8992204546, -7382.3788621877275, -10874.146029251342, -10016.263725312201, -15181.14837183337, 0.01225, -0.02375, 0.98625, 192.0, 0.0, 56.0, 127.5, 32.0, 15.0, 120.0, 0.0, 0.0, 0.0, 1.644586878059636E9, 0.0, 2022-02-12 00:41:18.059
38.0, -9434.358410162737, -9595.693301641144, -6387.078033337359, -10106.877697334015, -10084.2800836897, -7528.849843603354, -9193.585418890169, -7451.199883365618, -8902.543354337617, -11901.298093950521, -7777.468297179735, -7161.230702546919, -7347.353678626261, -10855.437619142249, -9979.53980917213, -15170.24072053918, 0.01225, -0.02375, 0.98625, 192.0, 0.0, 0.0, 0.0, 0.0, 0.0, 0.0, 0.0, 0.0, 0.0, 1.644586878067604E9, 0.0, 2022-02-12 00:41:18.067
40.0, -9453.066820271828, -9623.253002554537, -6402.478385267065, -10105.402482199965, -10083.877752289505, -7535.085980306385, -9197.809898592222, -7472.210523153606, -8928.359619183495, -11945.331030527477, -7810.772396418142, -7191.1373366281205, -7372.588798116303, -10884.226666000684, -10010.519326987187, -15178.756735176652, 0.01225, -0.02375, 0.98625, 192.0, 0.0, 0.0, 0.0, 0.0, 0.0, 0.0, 0.0, 0.0, 0.0, 1.644586878074579E9, 0.0, 2022-02-12 00:41:18.074
42.0, -9433.620802595711, -9589.300702726925, -6369.777783128951, -10113.404406714966, -10071.405478883444, -7533.834282616888, -9185.53879088626, -7438.794665192922, -8906.723130550758, -11942.470007237198, -7788.934742085307, -7175.513467253861, -7370.532437626414, -10852.554244107514, -9986.915884842383, -15166.016240837127, 0.01225, -0.02375, 0.98625, 192.0, 0.0, 0.0, 0.0, 0.0, 0.0, 0.0, 0.0, 0.0, 0.0, 1.644586878082134E9, 0.0, 2022-02-12 00:41:18.082
44.0, -9452.083343515795, -9607.450319224634, -6389.559076971898, -10106.609476400552, -10078.334519664588, -7545.837169389388, -9195.038282279764, -7471.852895242321, -8900.397586869907, -11938.916079868804, -7767.141791241383, -7178.307435310774, -7348.7394867824905, -10869.742735593645, -9980.411527205888, -15170.441886239278, 0.01225, -0.02375, 0.98625, 192.0, 0.0, 0.0, 0.0, 0.0, 0.0, 0.0, 0.0, 0.0, 0.0, 1.64458687809002E9, 0.0, 2022-02-12 00:41:18.090
46.0, -9422.422578623602, -9569.98879551754, -6372.772916885962, -10116.600706172074, -10067.024536970202, -7536.896471607265, -9180.53200012827, -7447.444790297126, -8917.966058011778, -11938.93843161326, -7782.028053048618, -7219.881679997645, -7375.427469662127, -10894.150840538841, -9998.896419870427, -15170.397182750366, 0.015125000000000001, -0.023875, 0.987125, 192.0, 0.0, 72.0, 127.5, 32.0, 15.0, 112.0, 0.0, 0.0, 0.0, 1.644586878104327E9, 0.0, 2022-02-12 00:41:18.104
48.0, -9417.14756693215, -9591.513525428001, -6371.722384896563, -10109.76107236875, -10065.929301491893, -7530.7720936265105, -9182.275436195783, -7445.097857129319, -8893.312083877574, -11924.096873294935, -7753.216654445727, -7167.355080527674, -7342.5257018239145, -10855.415267397793, -9960.585529874032, -15158.796627378062, 0.015125000000000001, -0.023875, 0.987125, 192.0, 0.0, 0.0, 0.0, 0.0, 0.0, 0.0, 0.0, 0.0, 0.0, 1.644586878111796E9, 0.0, 2022-02-12 00:41:18.111
50.0, -9441.48861664398, -9628.617421223811, -6394.476460752066, -10109.358740968555, -10071.919569005915, -7543.534939710491, -9189.025663021286, -7465.884979472755, -8915.306200421595, -11942.000620603636, -7784.464393194246, -7189.885638938623, -7371.851190549278, -10878.929302564777, -9995.253085524213, -15169.4807612277, 0.015125000000000001, -0.023875, 0.987125, 192.0, 0.0, 0.0, 0.0, 0.0, 0.0, 0.0, 0.0, 0.0, 0.0, 1.644586878120015E9, 0.0, 2022-02-12 00:41:18.120
52.0, -9404.00474119243, -9573.18509497465, -6364.323957481856, -10119.461729462353, -10055.558092064632, -7532.694343649668, -9175.234636692363, -7439.889900671233, -8906.410206128385, -11930.444768720243, -7765.286596451592, -7181.235513834419, -7353.634518818202, -10863.39484016834, -9977.774021360163, -15159.958918089738, 0.015125000000000001, -0.023875, 0.987125, 192.0, 0.0, 0.0, 0.0, 0.0, 0.0, 0.0, 0.0, 0.0, 0.0, 1.6445868781278E9, 0.0, 2022-02-12 00:41:18.127
54.0, -9444.617860867722, -9592.005263806017, -6386.9662746150825, -10098.629903630008, -10060.721345033806, -7542.462055976636, -9186.455212408926, -7463.292177115939, -8892.686235032825, -11923.627486661373, -7758.514017881635, -7173.144182341598, -7339.396457600172, -10859.729154077668, -9966.329928199046, -15160.964746590227, 0.015125000000000001, -0.023875, 0.987125, 192.0, 0.0, 0.0, 0.0, 0.0, 0.0, 0.0, 0.0, 0.0, 0.0, 1.644586878134602E9, 0.0, 2022-02-12 00:41:18.134
56.0, -9431.989125250475, -9571.75458332951, -6365.821524360362, -10112.800909614672, -10060.207254911335, -7536.382381484793, -9182.655415851525, -7449.344688575828, -8921.140005724432, -11941.665344436806, -7784.352634471969, -7205.4648048239715, -7365.100963723775, -10889.72519513669, -9991.632102922453, -15160.785932634584, 0.0125625, -0.0239375, 0.9865625, 192.0, 0.0, 40.0, 127.5, 32.0, 15.0, 104.0, 0.0, 0.0, 0.0, 1.644586878142427E9, 0.0, 2022-02-12 00:41:18.142
58.0, -9409.972656961996, -9594.6651213962, -6352.321070709357, -10103.770804854728, -10052.808827496629, -7528.20164301415, -9179.704985583423, -7441.119246616274, -8890.741633265214, -11925.594440173441, -7743.404238629847, -7159.956653112967, -7324.197271370563, -10851.48136037366, -9953.902358281894, -15149.297135984558, 0.0125625, -0.0239375, 0.9865625, 192.0, 0.0, 0.0, 0.0, 0.0, 0.0, 0.0, 0.0, 0.0, 0.0, 1.64458687815042E9, 0.0, 2022-02-12 00:41:18.150
60.0, -9422.847261768255, -9604.5669441899, -6369.68837615113, -10108.352912468066, -10053.166455407913, -7543.043201332474, -9183.884761796566, -7463.873322471777, -8920.782377813146, -11954.137617842867, -7770.9639395432405, -7195.630037263637, -7365.011556745953, -10877.901122319832, -9986.714719142285, -15157.075543055003, 0.0125625, -0.0239375, 0.9865625, 192.0, 0.0, 0.0, 0.0, 0.0, 0.0, 0.0, 0.0, 0.0, 0.0, 1.644586878156632E9, 0.0, 2022-02-12 00:41:18.156
62.0, -9408.475090083492, -9574.883827553253, -6346.73313459553, -10116.086616049603, -10042.169397135902, -7532.7613988830335, -9168.842037778144, -7432.200900578607, -8909.204174185297, -11930.914155353805, -7757.016451003129, -7191.159688372575, -7337.250690132462, -10865.9652907807, -9968.810971833584, -15147.352534216945, 0.0125625, -0.0239375, 0.9865625, 192.0, 0.0, 0.0, 0.0, 0.0, 0.0, 0.0, 0.0, 0.0, 0.0, 1.644586878164105E9, 0.0, 2022-02-12 00:41:18.164
64.0, -9430.893889772164, -9581.924627056675, -6370.6495011627085, -10103.435528687898, -10041.923527946894, -7541.63504143179, -9168.774982544779, -7456.005508423509, -8904.286790405129, -11925.281515751067, -7750.445038133269, -7175.960502142966, -7332.757989496946, -10873.833104828967, -9957.478637394743, -15149.85592959594, 0.0125625, -0.0239375, 0.9865625, 192.0, 0.0, 0.0, 0.0, 0.0, 0.0, 0.0, 0.0, 0.0, 0.0, 1.644586878172198E9, 0.0, 2022-02-12 00:41:18.172
66.0, -9418.555726832834, -9557.695336067121, -6359.83125684634, -10114.56669742664, -10043.532853547675, -7518.992724298564, -9175.212284947907, -7444.8296361958555, -8919.776549312657, -11919.738283126151, -7770.047518020573, -7207.1635374025755, -7355.199140930074, -10862.009032012109, -9983.250198751712, -15143.351571959445, 0.01128125, -0.02296875, 0.98628125, 192.0, 0.0, 40.0, 127.5, 40.0, 15.0, 104.0, 0.0, 0.0, 0.0, 1.644586878179915E9, 0.0, 2022-02-12 00:41:18.179
68.0, -9423.62957282419, -9591.84880159483, -6354.980928299538, -10100.95448505336, -10032.513443531208, -7522.144320266762, -9161.041278963243, -7434.726647702057, -8891.121612920953, -11927.226117518678, -7730.954316968241, -7164.382298515117, -7321.336248080283, -10846.04988647102, -9945.676916322342, -15133.4721009102, 0.01128125, -0.02296875, 0.98628125, 192.0, 0.0, 0.0, 0.0, 0.0, 0.0, 0.0, 0.0, 0.0, 0.0, 1.644586878186627E9, 0.0, 2022-02-12 00:41:18.186
70.0, -9419.472148355502, -9605.773938390486, -6374.494001209021, -10102.675569376419, -10040.023629668192, -7531.956736082642, -9172.597130846636, -7457.123095646274, -8917.519023122672, -11953.310603298021, -7767.074736008017, -7195.697092497003, -7350.54997808337, -10883.958445067221, -9973.728355613752, -15147.66545863932, 0.01128125, -0.02296875, 0.98628125, 192.0, 0.0, 0.0, 0.0, 0.0, 0.0, 0.0, 0.0, 0.0, 0.0, 1.644586878194627E9, 0.0, 2022-02-12 00:41:18.194
72.0, -9368.7113366975, -9530.783835742932, -6340.1840734701245, -10105.603647900063, -10023.081007371069, -7511.080206761385, -9149.507778824303, -7415.191223048118, -8892.127441421442, -11930.69063790925, -7742.8454450184645, -7182.822487690746, -7326.812425471834, -10857.538683121049, -9953.477675137243, -15135.416702677812, 0.01128125, -0.02296875, 0.98628125, 192.0, 0.0, 0.0, 0.0, 0.0, 0.0, 0.0, 0.0, 0.0, 0.0, 1.644586878202705E9, 0.0, 2022-02-12 00:41:18.202
74.0, -9389.029072407375, -9559.483475623545, -6359.272463234957, -10083.47542088931, -10027.663114984407, -7513.538898651469, -9157.263834150295, -7437.7888366924335, -8862.667842229348, -11891.418622901276, -7710.636581258367, -7152.982908842911, -7294.558858222826, -10833.465854342683, -9939.261965663669, -15129.4711386527, 0.01128125, -0.02296875, 0.98628125, 192.0, 0.0, 0.0, 0.0, 0.0, 0.0, 0.0, 0.0, 0.0, 0.0, 1.644586878209746E9, 0.0, 2022-02-12 00:41:18.209
76.0, -9408.452738339036, -9563.484437881045, -6350.354117197289, -10095.008921028248, -10022.768082948694, -7504.911125291721, -9143.42810433246, -7420.265069039473, -8923.933973781344, -11923.001637816626, -7758.066982992528, -7189.125679627143, -7347.934823982099, -10859.438581399749, -9965.748782843208, -15129.605249119431, 0.013640625, -0.023484375000000002, 0.984140625, 192.0, 0.0, 64.0, 127.5, 32.0, 15.0, 88.0, 0.0, 0.0, 0.0, 1.644586878217739E9, 0.0, 2022-02-12 00:41:18.217
78.0, -9403.602409792235, -9560.086972723839, -6346.06258226187, -10094.450127416865, -10020.197632336334, -7506.207526470128, -9141.595261287124, -7412.151385802196, -8895.077871689544, -11890.099869978414, -7721.723046508199, -7146.567958184238, -7300.482070503483, -10823.273458871063, -9928.846052747494, -15118.943467014251, 0.013640625, -0.023484375000000002, 0.984140625, 192.0, 0.0, 0.0, 0.0, 0.0, 0.0, 0.0, 0.0, 0.0, 0.0, 1.644586878232323E9, 0.0, 2022-02-12 00:41:18.232
80.0, -9427.652886826145, -9571.41930716268, -6364.793344115418, -10086.247037201767, -10025.562051005609, -7517.025770786497, -9151.877063736567, -7439.6663832266795, -8929.790130828635, -11913.636256889851, -7759.1622184708385, -7188.6115895046705, -7347.823065259822, -10852.420133640782, -9961.457247907789, -15131.66160960932, 0.013640625, -0.023484375000000002, 0.984140625, 192.0, 0.0, 0.0, 0.0, 0.0, 0.0, 0.0, 0.0, 0.0, 0.0, 1.644586878239416E9, 0.0, 2022-02-12 00:41:18.239
82.0, -9391.19719161954, -9525.620582773756, -6335.132579223226, -10088.392804669476, -10006.540716474143, -7493.422328641693, -9130.7546652263, -7407.234002022029, -8914.210964943286, -11884.44487863122, -7735.424665859302, -7165.701051437981, -7323.996105670465, -10838.00325846711, -9939.619593574953, -15118.60819084742, 0.013640625, -0.023484375000000002, 0.984140625, 192.0, 0.0, 0.0, 0.0, 0.0, 0.0, 0.0, 0.0, 0.0, 0.0, 1.644586878246999E9, 0.0, 2022-02-12 00:41:18.246
84.0, -9390.191363119051, -9539.143388169216, -6350.957614297583, -10082.357833666543, -10016.688408456852, -7501.267790945505, -9146.222072389373, -7438.817016937378, -8897.33539787953, -11870.676204046751, -7723.24296513116, -7162.102420580676, -7313.7590067099345, -10830.627182796858, -9927.616706802453, -15119.636371092365, 0.013640625, -0.023484375000000002, 0.984140625, 192.0, 0.0, 0.0, 0.0, 0.0, 0.0, 0.0, 0.0, 0.0, 0.0, 1.64458687825636E9, 0.0, 2022-02-12 00:41:18.256
86.0, -9388.09029914025, -9512.142480867205, -6337.63597460222, -10095.85828731755, -10012.285114799157, -7488.996683239542, -9131.76049372679, -7421.51676672897, -8909.204174185297, -11882.790849541529, -7751.048535233562, -7199.161612887575, -7338.390629099683, -10851.302546418017, -9947.710925067775, -15119.61401934791, 0.0128203125, -0.0227421875, 0.9870703125, 192.0, 0.0, 48.0, 127.5, 40.0, 15.0, 120.0, 0.0, 0.0, 0.0, 1.644586878263171E9, 0.0, 2022-02-12 00:41:18.263
88.0, -9386.257456094916, -9523.966553684062, -6328.49411112, -10088.012825013737, -10010.40756826491, -7488.52729660598, -9126.820758202168, -7422.790816162922, -8884.304330862085, -11845.418732812255, -7703.036988143563, -7142.119961037632, -7299.7891664253675, -10814.735092489134, -9911.746968239186, -15109.063995965005, 0.0128203125, -0.0227421875, 0.9870703125, 192.0, 0.0, 0.0, 0.0, 0.0, 0.0, 0.0, 0.0, 0.0, 0.0, 1.644586878269571E9, 0.0, 2022-02-12 00:41:18.269
90.0, -9398.215639378506, -9558.187074445137, -6350.801152086396, -10074.758240551739, -10017.023684623682, -7501.133680478773, -9140.969412442377, -7442.147426861218, -8918.636610345437, -11856.862825973372, -7737.570433327011, -7173.188885830508, -7332.8920999636775, -10854.34238366394, -9943.35233489899, -15117.222382691192, 0.0128203125, -0.0227421875, 0.9870703125, 192.0, 0.0, 0.0, 0.0, 0.0, 0.0, 0.0, 0.0, 0.0, 0.0, 1.644586878277615E9, 0.0, 2022-02-12 00:41:18.277
92.0, -9377.249703079427, -9502.039492373407, -6309.606887055264, -10074.735888807285, -9999.566972204086, -7477.57494182288, -9120.204641843397, -7399.299132740394, -8898.721206035758, -11870.787962769027, -7715.308095849526, -7136.397914457073, -7308.953381652043, -10838.38323812285, -9922.92284046684, -15102.023196461583, 0.0128203125, -0.0227421875, 0.9870703125, 192.0, 0.0, 0.0, 0.0, 0.0, 0.0, 0.0, 0.0, 0.0, 0.0, 1.644586878284579E9, 0.0, 2022-02-12 00:41:18.284
94.0, -9381.854162437221, -9526.827576974341, -6334.126750722737, -10066.756316036739, -10002.249181538724, -7493.154107708229, -9123.646810489514, -7431.485644756037, -8891.456889087784, -11871.212645913678, -7709.04960740204, -7151.08301056421, -7297.039901857365, -10824.212232138185, -9910.070587405036, -15105.13008894087, 0.0128203125, -0.0227421875, 0.9870703125, 192.0, 0.0, 0.0, 0.0, 0.0, 0.0, 0.0, 0.0, 0.0, 0.0, 1.644586878291889E9, 0.0, 2022-02-12 00:41:18.291
96.0, -9365.693851196034, -9504.945219152596, -6314.1219394352365, -10070.109077705036, -9994.381367490456, -7484.213409926107, -9118.416502286971, -7405.870545610255, -8905.918467750367, -11877.895817505816, -7724.606421542933, -7178.262731821863, -7327.97471618351, -10847.033363227054, -9932.042352204604, -15105.666530807797, 0.008, -0.028, 0.996, 192.0, 0.0, 32.0, 127.5, 16.0, 15.5, 16.0, 0.0, 0.0, 0.0, 1.644586878300579E9, 0.0, 2022-02-12 00:41:18.300
98.0, -9365.984423873953, -9492.428242257625, -6309.62923879972, -10065.862246258528, -9989.955722088305, -7473.462220843104, -9115.220202829863, -7400.550830429892, -8869.038089399111, -11836.612145496863, -7684.596798967934, -7123.992696284377, -7290.44613724305, -10817.886688457333, -9897.598313998975, -15095.764708014096, 0.008, -0.028, 0.996, 192.0, 0.0, 0.0, 0.0, 0.0, 0.0, 0.0, 0.0, 0.0, 0.0, 1.644586878307142E9, 0.0, 2022-02-12 00:41:18.307
100.0, -9372.66759546609, -9520.36792282676, -6326.147177952192, -10057.055658943136, -9986.848829609016, -7480.123040690785, -9116.874231919555, -7414.207746292084, -8894.295560633607, -11864.507122577086, -7705.04864514454, -7144.377487227618, -7300.616180970214, -10833.510557831592, -9928.711942280763, -15104.347777884936, 0.008, -0.028, 0.996, 192.0, 0.0, 0.0, 0.0, 0.0, 0.0, 0.0, 0.0, 0.0, 0.0, 1.644586878315233E9, 0.0, 2022-02-12 00:41:18.315
102.0, -9329.662839134078, -9485.342739265292, -6293.357168836256, -10058.687336288374, -9974.600073647509, -7467.740174262545, -9100.065720089164, -7383.474097666037, -8880.236313371219, -11842.53535777752, -7676.192543052739, -7121.332838694196, -7288.501535475438, -10814.153947133296, -9908.550668782076, -15092.389594601345, 0.008, -0.028, 0.996, 192.0, 0.0, 0.0, 0.0, 0.0, 0.0, 0.0, 0.0, 0.0, 0.0, 1.64458687832193E9, 0.0, 2022-02-12 00:41:18.321
104.0, -9351.031106833352, -9498.619675471744, -6321.140387194203, -10053.457028085832, -9987.83230636505, -7487.0967849608405, -9122.059836633187, -7422.4108365071825, -8868.971034165745, -11829.05725587097, -7676.773688408576, -7124.350324195662, -7275.157544035619, -10817.082025656942, -9898.67119773283, -15097.75401327062, 0.008, -0.028, 0.996, 192.0, 0.0, 0.0, 0.0, 0.0, 0.0, 0.0, 0.0, 0.0, 0.0, 1.644586878329788E9, 0.0, 2022-02-12 00:41:18.329
106.0, -9350.986403344441, -9478.97249209553, -6307.952857965572, -10066.555150336642, -9983.272550496167, -7474.8256772548775, -9119.265868576273, -7411.257316023984, -8893.736767022225, -11837.506215275076, -7699.483060775168, -7156.134504811109, -7308.975733396499, -10838.584403822948, -9928.130796924925, -15102.716100539697, 0.006, -0.022, 0.992, 192.0, 0.0, 24.0, 127.5, 40.0, 15.5, 0.0, 0.0, 0.0, 0.0, 1.644586878337931E9, 0.0, 2022-02-12 00:41:18.337
108.0, -9351.388734744636, -9482.392308997192, -6305.471814331033, -10066.264577658723, -9977.438745193333, -7465.57205505038, -9112.537993495225, -7397.242772250506, -8867.048784142587, -11822.687008701207, -7668.5929499379345, -7125.154986996054, -7279.762003393413, -10804.766214462068, -9889.19405808378, -15088.232170132658, 0.006, -0.022, 0.992, 192.0, 0.0, 0.0, 0.0, 0.0, 0.0, 0.0, 0.0, 0.0, 0.0, 1.644586878351329E9, 0.0, 2022-02-12 00:41:18.351
110.0, -9372.309967554804, -9505.21344008606, -6327.264765174958, -10058.441467099365, -9981.864390595483, -7470.802363252922, -9110.638095216525, -7422.053208595898, -8892.485069332728, -11856.214625384167, -7700.310075320015, -7156.89446412259, -7307.791090940367, -10835.499863088115, -9912.551631039576, -15097.351681870423, 0.006, -0.022, 0.992, 192.0, 0.0, 0.0, 0.0, 0.0, 0.0, 0.0, 0.0, 0.0, 0.0, 1.644586878359557E9, 0.0, 2022-02-12 00:41:18.359
112.0, -9331.965068812975, -9455.860788328742, -6293.8712589587285, -10069.594987582563, -9966.374631687955, -7463.6721567716795, -9099.529278222237, -7387.251542478984, -8883.56672329506, -11832.946459406194, -7677.645406442333, -7140.242414503386, -7279.158506293119, -10829.263726385085, -9894.647883730875, -15087.829838732463, 0.006, -0.022, 0.992, 192.0, 0.0, 0.0, 0.0, 0.0, 0.0, 0.0, 0.0, 0.0, 0.0, 1.644586878367536E9, 0.0, 2022-02-12 00:41:18.367
114.0, -9345.823150375265, -9493.367015524747, -6317.072369703337, -10064.498789846753, -9973.706003869296, -7473.976310965576, -9115.644885974514, -7418.23106029404, -8871.22856035573, -11826.553860491975, -7674.203237796216, -7121.042266016277, -7277.057442314321, -10815.47270005616, -9887.33886329399, -15090.93673121175, 0.006, -0.022, 0.992, 192.0, 0.0, 0.0, 0.0, 0.0, 0.0, 0.0, 0.0, 0.0, 0.0, 1.64458687837463E9, 0.0, 2022-02-12 00:41:18.374
116.0, -9340.548138683813, -9488.695500933589, -6300.085043917304, -10066.46574335882, -9964.519436898165, -7471.875246986777, -9102.144432323508, -7399.992036818509, -8888.640569286415, -11833.304087317478, -7692.308150805015, -7162.392993258595, -7306.204117084041, -10840.216081168186, -9911.031712416616, -15093.954216713217, 0.006, -0.016, 0.988, 192.0, 0.0, 24.0, 127.5, 64.0, 15.0, 112.0, 0.0, 0.0, 0.0, 1.644586878382342E9, 0.0, 2022-02-12 00:41:18.382
118.0, -9328.65701063359, -9465.91907333363, -6284.550581520865, -10058.03913569917, -9953.142398970414, -7457.14544739073, -9094.120156064053, -7387.944446557099, -8859.270377072142, -11820.697703444685, -7644.497769415113, -7119.12001599312, -7265.345128219739, -10805.593229006914, -9871.916159619828, -15084.27591136407, 0.006, -0.016, 0.988, 192.0, 0.0, 0.0, 0.0, 0.0, 0.0, 0.0, 0.0, 0.0, 0.0, 1.644586878390124E9, 0.0, 2022-02-12 00:41:18.390
120.0, -9345.532577697346, -9487.823782899832, -6305.270648630935, -10048.629051283486, -9961.948986285804, -7466.9578632066095, -9102.010321856776, -7407.345760744305, -8873.106106889976, -11829.77251169354, -7670.716365661188, -7144.779818627813, -7285.260532529418, -10831.476549086161, -9895.988988398194, -15087.606321287909, 0.006, -0.016, 0.988, 192.0, 0.0, 0.0, 0.0, 0.0, 0.0, 0.0, 0.0, 0.0, 0.0, 1.64458687839716E9, 0.0, 2022-02-12 00:41:18.397
122.0, -9312.250830203395, -9450.518721403923, -6275.296959316369, -10054.79813275315, -9938.211433674269, -7448.4729705420705, -9076.954016322377, -7369.213684703552, -8863.248987585186, -11827.067950614448, -7657.730002132655, -7125.423207929517, -7272.520038189893, -10815.338589589428, -9880.208656812747, -15076.564559526989, 0.006, -0.016, 0.988, 192.0, 0.0, 0.0, 0.0, 0.0, 0.0, 0.0, 0.0, 0.0, 0.0, 1.644586878404135E9, 0.0, 2022-02-12 00:41:18.404
124.0, -9326.824167588255, -9465.047355299874, -6300.956761951061, -10046.975022193792, -9938.859634263472, -7458.844179969333, -9082.541952436204, -7396.7957373614, -8848.250967055676, -11812.271095785034, -7642.08378101394, -7105.038416986277, -7252.8281513247675, -10812.991656421622, -9863.3777932379, -15079.917321195284, 0.006, -0.016, 0.988, 192.0, 0.0, 0.0, 0.0, 0.0, 0.0, 0.0, 0.0, 0.0, 0.0, 1.644586878411869E9, 0.0, 2022-02-12 00:41:18.411
126.0, -9324.834862331732, -9445.511930645935, -6285.198782110069, -10055.08870543107, -9934.076360950037, -7446.349554818816, -9079.971501823844, -7385.597513389292, -8877.062365658567, -11827.38087503682, -7669.911702860797, -7148.445504718484, -7267.7367648764575, -10832.14710141982, -9885.416613270834, -15080.74433574013, 0.012, -0.02, 0.99, 192.0, 0.0, 48.0, 127.5, 48.0, 15.0, 120.0, 0.0, 0.0, 0.0, 1.644586878419887E9, 0.0, 2022-02-12 00:41:18.419
128.0, -9308.719254579455, -9444.237881211982, -6270.8042586808515, -10046.03624892667, -9928.510776580666, -7428.870490654766, -9080.776164624234, -7366.375013157727, -8839.489083229195, -11793.71914788713, -7630.617336108367, -7104.3231611637075, -7234.790293549335, -10793.99267363461, -9847.955089563739, -15066.059239632994, 0.012, -0.02, 0.99, 192.0, 0.0, 0.0, 0.0, 0.0, 0.0, 0.0, 0.0, 0.0, 0.0, 1.64458687842673E9, 0.0, 2022-02-12 00:41:18.426
130.0, -9330.13222576764, -9480.604169440767, -6288.8197647118295, -10040.336554090567, -9930.00834345917, -7449.724668231567, -9069.846161585589, -7391.900705325688, -8859.203321838775, -11813.835717896905, -7651.247996240616, -7127.07723701921, -7257.365555449195, -10817.886688457333, -9875.76065966614, -15075.446972304222, 0.012, -0.02, 0.99, 192.0, 0.0, 0.0, 0.0, 0.0, 0.0, 0.0, 0.0, 0.0, 0.0, 1.644586878434591E9, 0.0, 2022-02-12 00:41:18.434
132.0, -9282.657120544567, -9436.973564264008, -6260.5895114647765, -10052.451199585343, -9932.958773727272, -7429.742208688523, -9081.42436521344, -7373.12523998323, -8846.261661799153, -11807.376063749321, -7640.27328971306, -7121.377542183107, -7249.497741400927, -10804.56504876197, -9860.248549014157, -15073.569425769976, 0.012, -0.02, 0.99, 192.0, 0.0, 0.0, 0.0, 0.0, 0.0, 0.0, 0.0, 0.0, 0.0, 1.644586878442363E9, 0.0, 2022-02-12 00:41:18.442
134.0, -9313.234306959428, -9458.006555796452, -6278.9626454070385, -10043.354039592034, -9925.67210503484, -7439.152293104207, -9077.51280993376, -7394.784080360423, -8838.885586128901, -11772.797915076962, -7627.868071540364, -7115.633143858093, -7241.71933433048, -10804.430938295238, -9847.105723274437, -15074.217626359181, 0.012, -0.02, 0.99, 192.0, 0.0, 0.0, 0.0, 0.0, 0.0, 0.0, 0.0, 0.0, 0.0, 1.644586878450463E9, 0.0, 2022-02-12 00:41:18.450
136.0, -9308.585144112723, -9428.144625204162, -6269.887837158184, -10048.69610651685, -9917.401959586377, -7422.276726040451, -9066.31458596165, -7368.230207947518, -8857.571644493539, -11818.350770276878, -7646.2859089715375, -7148.51255995185, -7257.4102589381055, -10819.80893848049, -9866.730554906197, -15067.825027444964, 0.006, -0.02, 0.986, 192.0, 0.0, 24.0, 127.5, 48.0, 15.0, 104.0, 0.0, 0.0, 0.0, 1.644586878456889E9, 0.0, 2022-02-12 00:41:18.456
138.0, -9304.070091732752, -9427.608183337234, -6259.583682964288, -10043.868129714505, -9911.09876764998, -7409.603286934292, -9065.487571416805, -7369.3477951702835, -8831.330696503008, -11788.377080962311, -7613.182975433228, -7108.748806565858, -7227.570680090271, -10784.403775263283, -9827.771464320596, -15056.202120328204, 0.006, -0.02, 0.986, 192.0, 0.0, 0.0, 0.0, 0.0, 0.0, 0.0, 0.0, 0.0, 0.0, 1.644586878465086E9, 0.0, 2022-02-12 00:41:18.465
140.0, -9323.203184986494, -9463.996823310474, -6282.002482652961, -10042.392914580454, -9922.766378255652, -7422.23202255154, -9075.568208166147, -7393.89001058221, -8852.251929313175, -11807.487822471598, -7639.043943768018, -7122.606888128149, -7252.559930391304, -10815.316237844972, -9866.104706061447, -15070.015498401583, 0.006, -0.02, 0.986, 192.0, 0.0, 0.0, 0.0, 0.0, 0.0, 0.0, 0.0, 0.0, 0.0, 1.644586878479884E9, 0.0, 2022-02-12 00:41:18.479
142.0, -9288.401518869581, -9439.208738709538, -6255.649775940154, -10049.70193501734, -9904.594410013488, -7409.916211356665, -9053.529388133215, -7361.882312522211, -8836.918632616835, -11783.102069270859, -7627.84571979591, -7105.127823964099, -7237.71837207298, -10790.438746266216, -9853.319508233013, -15059.152550596304, 0.006, -0.02, 0.986, 192.0, 0.0, 0.0, 0.0, 0.0, 0.0, 0.0, 0.0, 0.0, 0.0, 1.644586878486794E9, 0.0, 2022-02-12 00:41:18.486
144.0, -9322.17500474155, -9456.933672062596, -6277.755651206452, -10039.688353501362, -9908.349503081978, -7425.383618519738, -9062.447734170883, -7389.240847735507, -8830.280164513608, -11783.482048926599, -7616.803958034988, -7104.345512908163, -7228.017714979376, -10793.255066067584, -9835.773388835596, -15061.275966319557, 0.006, -0.02, 0.986, 192.0, 0.0, 0.0, 0.0, 0.0, 0.0, 0.0, 0.0, 0.0, 0.0, 1.644586878494704E9, 0.0, 2022-02-12 00:41:18.494
146.0, -9310.641504602612, -9421.416750123113, -6271.5642179923325, -10058.240301399268, -9905.734348980708, -7420.600345206302, -9060.03374576971, -7373.16994347214, -8856.677574715326, -11813.791014407994, -7638.820426323466, -7137.671963891025, -7248.536616389349, -10817.57376403496, -9861.924929848306, -15067.847379189418, 0.006, -0.024, 0.992, 192.0, 0.0, 24.0, 127.5, 32.0, 15.5, 0.0, 0.0, 0.0, 0.0, 1.644586878504023E9, 0.0, 2022-02-12 00:41:18.504
148.0, -9282.768879266845, -9405.591715048757, -6264.769287677919, -10057.010955454225, -9903.409767557356, -7417.47110098256, -9071.276673230728, -7372.611149860758, -8820.825376609013, -11760.19153120417, -7606.969190474652, -7118.404760170551, -7216.484214840439, -10782.28035954003, -9829.447845154744, -15065.54514951052, 0.006, -0.024, 0.992, 192.0, 0.0, 0.0, 0.0, 0.0, 0.0, 0.0, 0.0, 0.0, 0.0, 1.644586878510112E9, 0.0, 2022-02-12 00:41:18.510
150.0, -9318.464615161969, -9449.736410347989, -6284.327064076312, -10052.339440863067, -9908.908296693362, -7426.143577831219, -9073.444792442893, -7396.5275164279365, -8853.682440958315, -11788.310025728944, -7641.279118213549, -7131.100551021165, -7238.992421506932, -10812.85754595489, -9862.327261248502, -15077.79390547203, 0.006, -0.024, 0.992, 192.0, 0.0, 0.0, 0.0, 0.0, 0.0, 0.0, 0.0, 0.0, 0.0, 1.644586878517515E9, 0.0, 2022-02-12 00:41:18.517
152.0, -9303.287780676816, -9443.634384111689, -6246.530264202388, -10062.688298545874, -9891.920970907328, -7409.3797694897385, -9034.910385001944, -7357.881350264711, -8844.138246075898, -11788.980578062605, -7613.9429347447085, -7115.655495602548, -7230.029371980354, -10801.145231860308, -9846.166950007315, -15068.003841400605, 0.006, -0.024, 0.992, 192.0, 0.0, 0.0, 0.0, 0.0, 0.0, 0.0, 0.0, 0.0, 0.0, 1.644586878525265E9, 0.0, 2022-02-12 00:41:18.525
154.0, -9316.944696539009, -9467.662509401145, -6269.932540647094, -10045.857434971027, -9906.516660036643, -7417.001714348998, -9060.79370508119, -7378.7355278415125, -8836.69511517228, -11776.307138956445, -7600.107204926873, -7100.031626228289, -7217.937078230033, -10787.018929364554, -9831.057170755526, -15066.618033244376, 0.006, -0.024, 0.992, 192.0, 0.0, 0.0, 0.0, 0.0, 0.0, 0.0, 0.0, 0.0, 0.0, 1.644586878532531E9, 0.0, 2022-02-12 00:41:18.532
156.0, -9298.54921085229, -9409.838546495264, -6261.930616132095, -10056.22864439829, -9900.414633800345, -7411.860813124277, -9060.07844925862, -7377.014443518454, -8857.303423560075, -11809.052444583469, -7631.578461119946, -7140.577690670216, -7247.642546611136, -10810.778833720546, -9866.57409269501, -15072.02715540256, 0.01, -0.024, 0.996, 192.0, 0.0, 40.0, 127.5, 32.0, 15.5, 16.0, 0.0, 0.0, 0.0, 1.644586878538814E9, 0.0, 2022-02-12 00:41:18.538
158.0, -9276.800963497277, -9382.23414209296, -6246.217339780014, -10056.653327542941, -9882.19796206927, -7403.724778142546, -9036.162082691442, -7367.045565491387, -8817.27144924062, -11764.99715626206, -7588.55135304348, -7105.932486764489, -7195.674740752547, -10782.928560129234, -9821.84825203994, -15063.108809364894, 0.01, -0.024, 0.996, 192.0, 0.0, 0.0, 0.0, 0.0, 0.0, 0.0, 0.0, 0.0, 0.0, 1.644586878547112E9, 0.0, 2022-02-12 00:41:18.547
160.0, -9287.909780491565, -9432.39145665067, -6265.708060945041, -10040.917699446405, -9887.987063883194, -7397.13101352823, -9046.734457818802, -7373.706385339068, -8823.351123732464, -11763.209016705636, -7602.990579961608, -7101.037454728777, -7225.111988200187, -10791.04224336651, -9846.61398489642, -15069.926091423762, 0.01, -0.024, 0.996, 192.0, 0.0, 0.0, 0.0, 0.0, 0.0, 0.0, 0.0, 0.0, 0.0, 1.644586878554946E9, 0.0, 2022-02-12 00:41:18.554
162.0, -9274.006995440364, -9426.669410070112, -6239.534168187877, -10055.848664742549, -9875.42538349931, -7387.408004690172, -9028.808358765646, -7337.9435942105765, -8826.927402845313, -11793.47327869812, -7587.12084139834, -7097.505879104839, -7206.38122634664, -10786.191914819708, -9828.933755032273, -15051.821178414963, 0.01, -0.024, 0.996, 192.0, 0.0, 0.0, 0.0, 0.0, 0.0, 0.0, 0.0, 0.0, 0.0, 1.64458687856208E9, 0.0, 2022-02-12 00:41:18.562
164.0, -9293.65417881658, -9447.098904502262, -6258.488447485977, -10048.98667919477, -9880.09689809047, -7399.902629840688, -9044.722800817824, -7373.393460916694, -8813.471652683218, -11771.389755176277, -7580.92940818422, -7090.755652279336, -7191.070281394754, -10770.32217625644, -9816.975571748682, -15059.420771529767, 0.01, -0.025, 0.993, 192.0, 0.0, 40.0, 127.5, 24.0, 15.0, 120.0, 0.0, 0.0, 0.0, 1.644586878569457E9, 0.0, 2022-02-12 00:41:18.569
166.0, -9291.575466582235, -9427.071741470307, -6245.367973490712, -10055.602795553541, -9868.496342718166, -7394.381748960227, -9040.051286226664, -7366.464420135549, -8832.448283725773, -11796.624874666319, -7608.466757353158, -7142.209368015453, -7212.863232238678, -10798.172449847752, -9846.926909318794, -15067.869730933873, 0.01, -0.025, 0.993, 192.0, 0.0, 0.0, 0.0, 0.0, 0.0, 0.0, 0.0, 0.0, 0.0, 1.644586878577839E9, 0.0, 2022-02-12 00:41:18.577
168.0, -9284.177039167529, -9404.965866204007, -6231.733409372975, -10052.138275162968, -9846.882205829885, -7382.021234276443, -9012.089253913076, -7345.230262903007, -8792.393957661863, -11772.149714487758, -7565.26083532105, -7102.847946029658, -7162.392993258595, -10769.048126822487, -9802.245772152635, -15055.285698805536, 0.01, -0.025, 0.993, 192.0, 0.0, 0.0, 0.0, 0.0, 0.0, 0.0, 0.0, 0.0, 0.0, 1.644586878585718E9, 0.0, 2022-02-12 00:41:18.585
170.0, -9326.868871077166, -9471.64111991419, -6257.706136430042, -10047.936147205372, -9855.28646174508, -7387.899743068188, -9021.92402147341, -7362.843437533789, -8816.153862017854, -11794.09912754287, -7583.1869343742055, -7118.650629359559, -7188.90216218259, -10794.573818990448, -9820.529499117078, -15060.985393641638, 0.01, -0.025, 0.993, 192.0, 0.0, 0.0, 0.0, 0.0, 0.0, 0.0, 0.0, 0.0, 0.0, 1.644586878599202E9, 0.0, 2022-02-12 00:41:18.599
172.0, -9277.493867575391, -9417.86282275472, -6229.475883182989, -10058.285004888177, -9843.551795906043, -7373.594626616791, -9012.491585313272, -7338.614146544236, -8807.682550869293, -11759.65508933724, -7574.670919736734, -7119.611754371137, -7183.716557468958, -10777.474734482139, -9812.594629835443, -15052.290565048525, 0.01, -0.025, 0.993, 192.0, 0.0, 0.0, 0.0, 0.0, 0.0, 0.0, 0.0, 0.0, 0.0, 1.644586878607276E9, 0.0, 2022-02-12 00:41:18.607
174.0, -9275.325748363228, -9415.918220987109, -6249.57010144831, -10043.08581865857, -9857.007546068138, -7380.836591820311, -9031.423512866917, -7367.380841658216, -8790.717576827714, -11769.556912130942, -7573.6874429807, -7091.359149379629, -7180.1626301005645, -10766.477676210126, -9806.47025185469, -15057.766742440075, 0.012, -0.0235, 0.9895, 192.0, 0.0, 56.0, 127.5, 40.0, 15.0, 104.0, 0.0, 0.0, 0.0, 1.644586878614296E9, 0.0, 2022-02-12 00:41:18.614
176.0, -9286.613379313158, -9410.106767428728, -6232.9404035735615, -10052.920586218905, -9844.512920917621, -7373.236998705506, -9020.940544717378, -7356.808466530856, -8820.914783586835, -11787.773583862017, -7602.163565416761, -7127.3901614415845, -7207.1635374025755, -10796.876048669345, -9833.247641712147, -15056.69385870622, 0.012, -0.0235, 0.9895, 192.0, 0.0, 0.0, 0.0, 0.0, 0.0, 0.0, 0.0, 0.0, 0.0, 1.644586878621714E9, 0.0, 2022-02-12 00:41:18.621
178.0, -9268.687280260001, -9410.732616273477, -6216.377760932179, -10052.562958307619, -9833.225289967691, -7363.938673012099, -9009.563506789626, -7332.422713330116, -8788.080070981989, -11747.763961287017, -7553.101486337363, -7079.0209864403, -7154.234606532408, -10759.123952284332, -9794.087385426448, -15045.696800434209, 0.012, -0.0235, 0.9895, 192.0, 0.0, 0.0, 0.0, 0.0, 0.0, 0.0, 0.0, 0.0, 0.0, 1.644586878633911E9, 0.0, 2022-02-12 00:41:18.633
180.0, -9301.142013209106, -9439.789884065376, -6235.555557674833, -10040.113036646013, -9841.383676693878, -7373.79579231689, -9029.59066982158, -7358.596606087281, -8808.688379369782, -11776.083621511892, -7573.598036002879, -7107.564164109727, -7187.024615648344, -10780.51457172806, -9821.401217150835, -15057.923204651262, 0.012, -0.0235, 0.9895, 192.0, 0.0, 0.0, 0.0, 0.0, 0.0, 0.0, 0.0, 0.0, 0.0, 1.644586878640192E9, 0.0, 2022-02-12 00:41:18.640
182.0, -9261.579425523214, -9380.71422347, -6206.99002826095, -10043.264632614211, -9820.350685161435, -7348.180693171107, -9002.478003797294, -7329.002896428454, -8796.149050730355, -11756.861121280328, -7552.743858426078, -7091.895591246556, -7169.746717184391, -10765.918882598744, -9810.024179223083, -15045.540338223022, 0.012, -0.0235, 0.9895, 192.0, 0.0, 0.0, 0.0, 0.0, 0.0, 0.0, 0.0, 0.0, 0.0, 1.644586878646185E9, 0.0, 2022-02-12 00:41:18.646
184.0, -9256.21500685394, -9385.273979338883, -6225.8996040701395, -10039.442484312354, -9821.89295552885, -7356.674356064124, -9011.865736468522, -7349.544149582881, -8782.0227482346, -11726.909783710216, -7543.892567621776, -7080.719719018904, -7148.959594840956, -10755.055934793465, -9794.959103460205, -15046.412056256779, 0.015000000000000001, -0.02275, 0.98675, 192.0, 0.0, 72.0, 127.5, 40.0, 15.0, 96.0, 0.0, 0.0, 0.0, 1.64458687865248E9, 0.0, 2022-02-12 00:41:18.652
186.0, -9251.20821609595, -9383.262322337905, -6219.886984811662, -10045.991545437759, -9830.744246333152, -7359.870655521233, -9026.12614943101, -7342.302184379361, -8811.951734060256, -11747.831016520384, -7574.693271481189, -7106.044245486766, -7177.234551576919, -10782.928560129234, -9828.240850954158, -15054.79396042752, 0.015000000000000001, -0.02275, 0.98675, 192.0, 0.0, 0.0, 0.0, 0.0, 0.0, 0.0, 0.0, 0.0, 0.0, 1.644586878659476E9, 0.0, 2022-02-12 00:41:18.659
188.0, -9256.751448720866, -9381.205961848016, -6205.5148131269, -10049.612528039519, -9817.37790314888, -7348.985355971498, -9016.000809192754, -7341.028134945409, -8770.958634729222, -11738.152711171237, -7540.696268164667, -7070.728489247381, -7139.303641236263, -10747.769266101035, -9793.863867981896, -15051.664716203775, 0.015000000000000001, -0.02275, 0.98675, 192.0, 0.0, 0.0, 0.0, 0.0, 0.0, 0.0, 0.0, 0.0, 0.0, 1.644586878667897E9, 0.0, 2022-02-12 00:41:18.667
190.0, -9296.157574195573, -9426.736465303477, -6230.392304705657, -10043.577557036586, -9831.258336455625, -7365.995033501988, -9038.397257136972, -7369.727774826023, -8798.563039131528, -11765.75711557354, -7553.883797393299, -7098.936390749978, -7175.558170742771, -10771.685632668214, -9820.618906094898, -15069.568463512476, 0.015000000000000001, -0.02275, 0.98675, 192.0, 0.0, 0.0, 0.0, 0.0, 0.0, 0.0, 0.0, 0.0, 0.0, 1.644586878674285E9, 0.0, 2022-02-12 00:41:18.674
192.0, -9257.913739432543, -9382.18943860405, -6201.044464235838, -10057.23447289878, -9821.647086339843, -7350.8852542502, -9029.50126284376, -7344.40324835816, -8803.368664189418, -11758.693964325663, -7548.586433957391, -7095.4048151260395, -7168.6514817060815, -10770.165714045253, -9818.94252526075, -15064.204044843204, 0.015000000000000001, -0.02275, 0.98675, 192.0, 0.0, 0.0, 0.0, 0.0, 0.0, 0.0, 0.0, 0.0, 0.0, 1.644586878681954E9, 0.0, 2022-02-12 00:41:18.681
194.0, -9269.156666893563, -9389.945493930041, -6216.780092332375, -10050.148969906446, -9818.27197292709, -7356.182617686108, -9023.443940096371, -7355.936748497099, -8787.78949830407, -11740.142016427759, -7541.97031759862, -7078.775117251292, -7137.582556913204, -10755.45826619366, -9802.111661685904, -15066.46157103319, 0.0165, -0.022375, 0.985375, 192.0, 0.0, 72.0, 127.5, 40.0, 15.0, 96.0, 0.0, 0.0, 0.0, 1.644586878690267E9, 0.0, 2022-02-12 00:41:18.690
196.0, -9264.440448813493, -9376.199171090027, -6211.214507963003, -10064.454086357842, -9813.287533913557, -7346.5713675703255, -9026.170852919919, -7349.8347222608, -8811.907030571345, -11751.966089244615, -7566.378422543815, -7107.072425731711, -7175.513467253861, -10778.212342049163, -9826.385656164368, -15066.372164055369, 0.0165, -0.022375, 0.985375, 192.0, 0.0, 0.0, 0.0, 0.0, 0.0, 0.0, 0.0, 0.0, 0.0, 1.644586878697193E9, 0.0, 2022-02-12 00:41:18.697
198.0, -9228.610602451636, -9341.173987528562, -6197.982275245461, -10061.3248421341, -9806.537307088054, -7333.249727874962, -9018.347742360562, -7336.423675587616, -8781.910989512324, -11717.767920227996, -7525.25121274605, -7071.913131703513, -7139.281289491808, -10743.969469543634, -9789.527629557566, -15053.944594138216, 0.0165, -0.022375, 0.985375, 192.0, 0.0, 0.0, 0.0, 0.0, 0.0, 0.0, 0.0, 0.0, 0.0, 1.644586878706372E9, 0.0, 2022-02-12 00:41:18.706
200.0, -9268.59787328218, -9395.6675405106, -6218.255307466425, -10061.682470045385, -9819.32250491649, -7347.9795274710095, -9034.329239646106, -7366.486771880004, -8797.244286208665, -11729.994324445048, -7547.267681034527, -7091.806184268736, -7154.905158866068, -10764.17544653123, -9810.739435045652, -15064.382858798846, 0.0165, -0.022375, 0.985375, 192.0, 0.0, 0.0, 0.0, 0.0, 0.0, 0.0, 0.0, 0.0, 0.0, 1.644586878712678E9, 0.0, 2022-02-12 00:41:18.712
202.0, -9253.68925973049, -9365.939720385042, -6193.534278098855, -10071.383127138988, -9809.666551311797, -7336.3566203542505, -9021.07465518411, -7331.528643551904, -8799.79238507657, -11735.85048149234, -7540.9197856092205, -7088.654588300537, -7156.335670511207, -10755.212397004652, -9804.480946598167, -15062.326498308958, 0.0165, -0.022375, 0.985375, 192.0, 0.0, 0.0, 0.0, 0.0, 0.0, 0.0, 0.0, 0.0, 0.0, 1.644586878726423E9, 0.0, 2022-02-12 00:41:18.726
204.0, -9278.432640842515, -9387.531505528868, -6213.270868452892, -10065.124638691503, -9808.571315833487, -7346.526664081414, -9026.014390708731, -7351.6228618172245, -8785.576675602993, -11738.443283849154, -7528.983954070086, -7070.326157847186, -7142.969327326933, -10749.870330079833, -9793.327426114969, -15065.03105938805, 0.01225, -0.0251875, 0.9836875, 192.0, 0.0, 32.0, 127.5, 16.0, 15.0, 88.0, 0.0, 0.0, 0.0, 1.644586878734408E9, 0.0, 2022-02-12 00:41:18.734
206.0, -9256.058544642752, -9373.360499544204, -6206.297124182835, -10068.745621293261, -9800.994074463139, -7340.4693413340265, -9019.621791794514, -7347.621899559725, -8810.945905559767, -11763.164313216725, -7550.039297346985, -7103.183222196487, -7164.985795615411, -10775.32896701443, -9822.094121228949, -15069.389649556835, 0.01225, -0.0251875, 0.9836875, 192.0, 0.0, 0.0, 0.0, 0.0, 0.0, 0.0, 0.0, 0.0, 0.0, 1.644586878742384E9, 0.0, 2022-02-12 00:41:18.742
208.0, -9238.423018267515, -9346.963089342486, -6189.823888519274, -10060.989565967271, -9793.75210925962, -7320.151605624153, -9012.759806246735, -7320.5092335354375, -8779.295835411052, -11719.354894084323, -7509.806157327433, -7057.742125718847, -7124.037399773289, -10743.544786398983, -9787.806545234507, -15059.532530252043, 0.01225, -0.0251875, 0.9836875, 192.0, 0.0, 0.0, 0.0, 0.0, 0.0, 0.0, 0.0, 0.0, 0.0, 1.644586878749402E9, 0.0, 2022-02-12 00:41:18.749
210.0, -9255.41034405355, -9378.076717624273, -6212.287391696857, -10061.682470045385, -9801.977551219172, -7333.674411019613, -9021.208765650841, -7346.92899548161, -8795.009111763133, -11722.864117963805, -7526.257041246538, -7087.089966188666, -7135.816769101235, -10765.762420387557, -9805.665589054297, -15066.372164055369, 0.01225, -0.0251875, 0.9836875, 192.0, 0.0, 0.0, 0.0, 0.0, 0.0, 0.0, 0.0, 0.0, 0.0, 1.644586878757047E9, 0.0, 2022-02-12 00:41:18.757
212.0, -9227.045980339764, -9344.169121285573, -6186.895809995629, -10076.56873185262, -9793.953274959717, -7309.8250996858005, -9021.007599950743, -7324.644306259669, -8792.438661150773, -11727.468577321599, -7528.5369191809805, -7080.764422507814, -7134.967402811933, -10742.561309642948, -9801.195240163237, -15062.527664009056, 0.01225, -0.0251875, 0.9836875, 192.0, 0.0, 0.0, 0.0, 0.0, 0.0, 0.0, 0.0, 0.0, 0.0, 1.64458687876491E9, 0.0, 2022-02-12 00:41:18.764
214.0, -9259.612472011146, -9354.428571990558, -6206.855917794218, -10070.08672596058, -9789.818202235485, -7323.213794614529, -9014.100910914054, -7339.463512833538, -8778.066489466011, -11705.161536355203, -7519.506814421036, -7055.216378595398, -7122.182204983498, -10731.787768815491, -9784.453783566212, -15065.723963466164, 0.012125, -0.02459375, 0.98684375, 192.0, 0.0, 48.0, 127.5, 32.0, 15.0, 120.0, 0.0, 0.0, 0.0, 1.644586878774838E9, 0.0, 2022-02-12 00:41:18.774
216.0, -9250.515312017837, -9355.300290024315, -6200.999760746928, -10073.238321928779, -9786.666606267287, -7319.168128868119, -9017.476024326805, -7334.143797653174, -8806.006170035145, -11728.675571522186, -7547.200625801162, -7086.531172577283, -7150.680679164015, -10768.087001810909, -9814.449824625233, -15069.277890834557, 0.012125, -0.02459375, 0.98684375, 192.0, 0.0, 0.0, 0.0, 0.0, 0.0, 0.0, 0.0, 0.0, 0.0, 1.644586878780401E9, 0.0, 2022-02-12 00:41:18.780
218.0, -9237.30543104475, -9342.358629984694, -6185.107670439204, -10078.155705708947, -9778.687033496743, -7316.642381744669, -9011.284591112684, -7322.3867800696835, -8784.727309313692, -11704.043949132438, -7511.415482928215, -7047.460323269406, -7119.142367737576, -10745.042353277488, -9780.162248630792, -15062.214739586681, 0.012125, -0.02459375, 0.98684375, 192.0, 0.0, 0.0, 0.0, 0.0, 0.0, 0.0, 0.0, 0.0, 0.0, 1.644586878786688E9, 0.0, 2022-02-12 00:41:18.786
220.0, -9261.802942967766, -9370.499476253925, -6207.5264701278775, -10076.680490574896, -9777.16711487378, -7324.107864392742, -9013.519765558216, -7350.907605994655, -8793.869172795912, -11728.072074421892, -7537.522320452013, -7090.085099945677, -7138.02959180231, -10765.98593783211, -9803.005731464116, -15073.278853092057, 0.012125, -0.02459375, 0.98684375, 192.0, 0.0, 0.0, 0.0, 0.0, 0.0, 0.0, 0.0, 0.0, 0.0, 1.644586878794659E9, 0.0, 2022-02-12 00:41:18.794
222.0, -9230.82342515271, -9336.837749104232, -6171.964844699484, -10085.218856956822, -9759.017498376072, -7296.5034599904375, -9000.35458807404, -7318.765797467923, -8784.436736635773, -11715.935077182661, -7519.551517909947, -7069.566198535705, -7122.2269084724085, -10747.009306789554, -9794.914399971294, -15067.489751278134, 0.012125, -0.02459375, 0.98684375, 192.0, 0.0, 0.0, 0.0, 0.0, 0.0, 0.0, 0.0, 0.0, 0.0, 1.644586878802608E9, 0.0, 2022-02-12 00:41:18.802
224.0, -9240.479378757404, -9347.834807376243, -6191.947304242529, -10067.85155151505, -9771.757992715597, -7306.561744995326, -9021.991076706778, -7330.791035984878, -8768.924625983791, -11696.511411250998, -7494.718729820101, -7041.3359452886525, -7091.537963335271, -10728.390303658283, -9775.93776892874, -15061.41007678629, 0.0110625, -0.024296875000000002, 0.990421875, 192.0, 0.0, 40.0, 127.5, 32.0, 15.5, 8.0, 0.0, 0.0, 0.0, 1.64458687880995E9, 0.0, 2022-02-12 00:41:18.809
226.0, -9246.670811971524, -9339.743475883422, -6183.565400071789, -10080.681452832396, -9755.016536118572, -7296.391701268161, -8997.918247928412, -7312.842585187267, -8800.865268810425, -11717.566754527898, -7530.414465715226, -7087.8275737556905, -7130.832330087702, -10760.17448427373, -9807.185507677259, -15068.294414078524, 0.0110625, -0.024296875000000002, 0.990421875, 192.0, 0.0, 0.0, 0.0, 0.0, 0.0, 0.0, 0.0, 0.0, 0.0, 1.644586878817199E9, 0.0, 2022-02-12 00:41:18.817
228.0, -9224.92256461651, -9307.288742934315, -6166.6674812635765, -10081.62022609952, -9747.372239514856, -7290.759061665423, -8992.531477514682, -7299.677407703091, -8769.952806228734, -11677.73594590854, -7494.450508886637, -7027.0755323261665, -7090.666245301515, -10721.081283221398, -9769.053431636505, -15056.827969172951, 0.0110625, -0.024296875000000002, 0.990421875, 192.0, 0.0, 0.0, 0.0, 0.0, 0.0, 0.0, 0.0, 0.0, 0.0, 1.644586878825412E9, 0.0, 2022-02-12 00:41:18.825
230.0, -9228.856471640644, -9342.51509219588, -6192.573153087277, -10071.472534116809, -9755.620033218866, -7297.39752976865, -9008.960009689334, -7332.556823796848, -8786.716614570214, -11696.779632184462, -7518.478634176092, -7066.504009545328, -7110.112262977632, -10745.89171956679, -9793.349777859423, -15074.105867636905, 0.0110625, -0.024296875000000002, 0.990421875, 192.0, 0.0, 0.0, 0.0, 0.0, 0.0, 0.0, 0.0, 0.0, 0.0, 1.644586878831888E9, 0.0, 2022-02-12 00:41:18.831
232.0, -9220.25105002535, -9309.836841802222, -6156.989175914428, -10078.602740598053, -9739.683239422231, -7274.710509146513, -8995.25839033823, -7296.928143135088, -8782.849762779446, -11690.02940535896, -7512.801291084444, -7058.792657708247, -7098.712873305425, -10735.74402758408, -9784.409080077301, -15065.433390788245, 0.0110625, -0.024296875000000002, 0.990421875, 192.0, 0.0, 0.0, 0.0, 0.0, 0.0, 0.0, 0.0, 0.0, 0.0, 1.644586878846889E9, 0.0, 2022-02-12 00:41:18.846
234.0, -9252.057582385252, -9340.659897406089, -6177.418670346578, -10074.981757996293, -9746.142893569815, -7286.042843585354, -9012.759806246735, -7322.140910880675, -8763.73902127016, -11675.098440062815, -7484.503982604026, -7032.685820184448, -7079.892704474057, -10716.476823863606, -9767.64527173582, -15065.992184399627, 0.01, -0.02, 0.992, 192.0, 0.0, 40.0, 127.5, 48.0, 15.5, 0.0, 0.0, 0.0, 0.0, 1.644586878854879E9, 0.0, 2022-02-12 00:41:18.854
236.0, -9247.430771283003, -9336.524824681857, -6177.865705235685, -10084.145973222969, -9736.553995198488, -7289.7532331649345, -9005.808413721135, -7321.559765524837, -8802.943981044767, -11709.922457924184, -7517.897488820254, -7070.639082269559, -7110.112262977632, -10752.239614992097, -9801.03877795205, -15079.582045028454, 0.01, -0.02, 0.992, 192.0, 0.0, 0.0, 0.0, 0.0, 0.0, 0.0, 0.0, 0.0, 0.0, 1.644586878861806E9, 0.0, 2022-02-12 00:41:18.861
238.0, -9228.25297454035, -9322.242059974917, -6163.717050995476, -10090.09153724808, -9732.083646307427, -7272.4976864454375, -8993.44789903735, -7295.408224512127, -8777.59710283245, -11699.417138030189, -7486.29212216045, -7027.857843382102, -7078.484544573373, -10720.701303565658, -9764.940710656729, -15071.714230980186, 0.01, -0.02, 0.992, 192.0, 0.0, 0.0, 0.0, 0.0, 0.0, 0.0, 0.0, 0.0, 0.0, 1.644586878869495E9, 0.0, 2022-02-12 00:41:18.869
240.0, -9252.25874808535, -9329.662839134078, -6182.179591915559, -10082.223723199812, -9729.267326506058, -7276.096317302742, -8994.476079282294, -7320.218660857518, -8792.483364639684, -11708.804870701417, -7507.459224159626, -7066.4593060564175, -7103.0267599853, -10738.560347385448, -9781.771574231574, -15074.910530437295, 0.01, -0.02, 0.992, 192.0, 0.0, 0.0, 0.0, 0.0, 0.0, 0.0, 0.0, 0.0, 0.0, 1.644586878877673E9, 0.0, 2022-02-12 00:41:18.877
242.0, -9206.169451018506, -9297.923362007543, -6152.250606089903, -10096.864115818038, -9722.874727591841, -7261.031241539865, -8994.319617071107, -7296.861087901722, -8785.174344202798, -11684.888504134238, -7505.268753203006, -7046.588605235649, -7092.677902302493, -10732.16774847123, -9776.675376495765, -15068.540283267534, 0.01, -0.02, 0.992, 192.0, 0.0, 0.0, 0.0, 0.0, 0.0, 0.0, 0.0, 0.0, 0.0, 1.644586878884596E9, 0.0, 2022-02-12 00:41:18.884
244.0, -9233.282117042794, -9333.641449647122, -6172.367176099679, -10091.075014004115, -9732.016591074062, -7275.671634158091, -9003.59559102006, -7315.390684055172, -8768.522294583594, -11677.154800552702, -7486.426232627182, -7032.663468439993, -7070.952006691934, -10719.963695998633, -9765.208931590192, -15079.023251417071, 0.008, -0.026000000000000002, 0.992, 192.0, 0.0, 32.0, 127.5, 24.0, 15.5, 0.0, 0.0, 0.0, 0.0, 1.644586878892196E9, 0.0, 2022-02-12 00:41:18.892
246.0, -9254.49392253088, -9312.541402881314, -6169.6626150205875, -10101.937961809394, -9727.702704394187, -7274.799916124334, -9002.053320652643, -7314.630724743692, -8805.223858979209, -11706.860268933806, -7509.314418949416, -7064.000614166333, -7100.411605884029, -10748.79744634598, -9796.993112205639, -15088.947425955228, 0.008, -0.026000000000000002, 0.992, 192.0, 0.0, 0.0, 0.0, 0.0, 0.0, 0.0, 0.0, 0.0, 0.0, 1.644586878899162E9, 0.0, 2022-02-12 00:41:18.899
248.0, -9229.9293553745, -9312.809623814777, -6155.491609035923, -10103.703749621362, -9719.879593834828, -7259.95835780601, -8990.96685540281, -7289.01562559791, -8773.171457430299, -11664.280195746445, -7474.579808065869, -7027.008477092801, -7065.386422322563, -10718.197908186665, -9760.917396654773, -15078.062126405493, 0.008, -0.026000000000000002, 0.992, 192.0, 0.0, 0.0, 0.0, 0.0, 0.0, 0.0, 0.0, 0.0, 0.0, 1.644586878907144E9, 0.0, 2022-02-12 00:41:18.907
250.0, -9244.972079392921, -9323.918440809064, -6181.039652948339, -10094.740700094784, -9723.63468690332, -7271.335395733762, -9002.54505903066, -7320.486881790982, -8789.622341349404, -11693.873905405273, -7498.7196920776005, -7046.588605235649, -7075.5564660497275, -10735.587565372893, -9781.726870742665, -15088.187466643747, 0.008, -0.026000000000000002, 0.992, 192.0, 0.0, 0.0, 0.0, 0.0, 0.0, 0.0, 0.0, 0.0, 0.0, 1.644586878914271E9, 0.0, 2022-02-12 00:41:18.914
252.0, -9215.333666245184, -9291.620170071146, -6148.897844421607, -10108.867002590538, -9711.229468730626, -7259.712488617002, -8990.16219260242, -7298.8727449027, -8791.79046056157, -11700.422966530678, -7505.380511925282, -7056.535131518261, -7068.806239224225, -10736.54869038447, -9781.481001553655, -15088.612149788398, 0.008, -0.026000000000000002, 0.992, 192.0, 0.0, 0.0, 0.0, 0.0, 0.0, 0.0, 0.0, 0.0, 0.0, 1.644586878921784E9, 0.0, 2022-02-12 00:41:18.921
254.0, -9234.131483332096, -9324.924269309553, -6157.7491352259085, -10091.052662259659, -9717.86793683385, -7251.844674568734, -9005.45078580985, -7317.0447131448645, -8766.667099793804, -11677.98181509755, -7476.5914650668465, -7017.0395990657335, -7070.795544480747, -10712.587620328382, -9766.12535311286, -15086.309920109503, 0.008, -0.024, 0.99, 192.0, 0.0, 32.0, 127.5, 32.0, 15.0, 120.0, 0.0, 0.0, 0.0, 1.644586878929732E9, 0.0, 2022-02-12 00:41:18.929
0.0, -9250.627070740113, -9312.764920325866, -6160.721917238465, -10105.514240922243, -9708.949590796185, -7246.077924499265, -8988.30699781263, -7308.349884551751, -8797.423100164307, -11701.115870608792, -7495.38928215376, -7048.488503514351, -7091.4709081019055, -10735.520510139528, -9795.137917415848, -15088.120411410382, 0.008, -0.024, 0.99, 192.0, 0.0, 0.0, 0.0, 0.0, 0.0, 0.0, 0.0, 0.0, 0.0, 1.644586878936982E9, 0.0, 2022-02-12 00:41:18.936
2.0, -9228.811768151732, -9286.993358968897, -6144.78512344183, -10110.230459002312, -9704.501593649578, -7243.619232609181, -8983.076689610087, -7283.58415169527, -8777.887675510368, -11664.481361446544, -7458.28538635795, -7005.7072646268925, -7056.535131518261, -10704.540992324472, -9760.939748399229, -15081.37018458488, 0.008, -0.024, 0.99, 192.0, 0.0, 0.0, 0.0, 0.0, 0.0, 0.0, 0.0, 0.0, 0.0, 1.644586878944431E9, 0.0, 2022-02-12 00:41:18.944
4.0, -9248.950689905965, -9296.962236995965, -6171.003719687906, -10102.541458909685, -9707.139099495304, -7249.922424545578, -8997.337102572574, -7316.731788722491, -8785.64373083636, -11676.752469152507, -7482.559380836414, -7037.87142489808, -7078.350434106641, -10729.910222281245, -9781.771574231574, -15091.719042267687, 0.008, -0.024, 0.99, 192.0, 0.0, 0.0, 0.0, 0.0, 0.0, 0.0, 0.0, 0.0, 0.0, 1.644586878952796E9, 0.0, 2022-02-12 00:41:18.952
6.0, -9218.7758348913, -9264.418097069038, -6144.315736808269, -10116.578354427618, -9694.331549922414, -7229.783502791346, -8989.938675157866, -7291.273151787896, -8783.45325987974, -11657.328803220846, -7476.5914650668465, -7026.3155730146855, -7069.230922368875, -10721.371855899317, -9780.69869049772, -15088.299225366025, 0.008, -0.024, 0.99, 192.0, 0.0, 0.0, 0.0, 0.0, 0.0, 0.0, 0.0, 0.0, 0.0, 1.644586878960403E9, 0.0, 2022-02-12 00:41:18.960
8.0, -9219.915773858522, -9322.242059974917, -6156.832713703241, -10101.66974087593, -9691.671692332231, -7238.903014529111, -8989.223419335296, -7300.794994925856, -8772.187980674265, -11669.801076626907, -7453.479761300059, -6996.878325567046, -7041.3359452886525, -10691.778146240491, -9762.146742599814, -15087.516914310088, 0.01, -0.022, 0.988, 192.0, 0.0, 40.0, 127.5, 40.0, 15.0, 112.0, 0.0, 0.0, 0.0, 1.644586878974174E9, 0.0, 2022-02-12 00:41:18.974
10.0, -9229.325858274206, -9310.932077280531, -6152.004736900894, -10112.756206125761, -9679.601750326367, -7235.036162738343, -8977.578160474082, -7300.996160625954, -8795.813774563525, -11688.062451846892, -7491.09774721834, -7033.289317284742, -7066.839285712157, -10721.483614621595, -9786.040757422537, -15095.161210913804, 0.01, -0.022, 0.988, 192.0, 0.0, 0.0, 0.0, 0.0, 0.0, 0.0, 0.0, 0.0, 0.0, 1.644586878982475E9, 0.0, 2022-02-12 00:41:18.982
12.0, -9231.851605397655, -9274.901065218577, -6132.603422713688, -10114.790214871195, -9681.859276516352, -7225.5366713448375, -8978.181657574374, -7290.133212820675, -8765.907140482324, -11658.35698346579, -7441.610984994291, -6988.988159774323, -7027.679029426459, -10689.744137495058, -9751.775533172553, -15088.008652688106, 0.01, -0.022, 0.988, 192.0, 0.0, 0.0, 0.0, 0.0, 0.0, 0.0, 0.0, 0.0, 0.0, 1.644586878990143E9, 0.0, 2022-02-12 00:41:18.990
14.0, -9242.379277036105, -9286.635731057613, -6158.576149770755, -10098.920476307927, -9687.96130275265, -7230.834034780745, -8993.090271126064, -7311.903811920144, -8780.88280926738, -11670.605739427298, -7458.017165424486, -7009.1717850174655, -7042.028849366767, -10707.446719103662, -9775.490734039633, -15099.631559804864, 0.01, -0.022, 0.988, 192.0, 0.0, 0.0, 0.0, 0.0, 0.0, 0.0, 0.0, 0.0, 0.0, 1.64458687899683E9, 0.0, 2022-02-12 00:41:18.996
16.0, -9202.01202654982, -9232.142178075574, -6130.189434312515, -10112.979723570315, -9676.874837502819, -7210.561002559782, -8970.49265748175, -7275.895151602645, -8775.36192838692, -11657.440561943122, -7452.630395010758, -7005.059064037689, -7044.845169168136, -10694.572114297403, -9772.070917137971, -15089.215646888691, 0.01, -0.022, 0.988, 192.0, 0.0, 0.0, 0.0, 0.0, 0.0, 0.0, 0.0, 0.0, 0.0, 1.644586879004817E9, 0.0, 2022-02-12 00:41:19.004
18.0, -9218.328800002195, -9272.420021584037, -6147.936719410029, -10110.006941557758, -9687.760137052554, -7226.341334145229, -8993.582009504082, -7302.069044359809, -8765.750678271137, -11633.658305842675, -7442.28153732795, -6985.14365972801, -7031.277660283764, -10678.59061701186, -9757.586986730932, -15094.17773415777, 0.012, -0.024, 0.988, 192.0, 0.0, 48.0, 127.5, 32.0, 15.0, 112.0, 0.0, 0.0, 0.0, 1.644586879012662E9, 0.0, 2022-02-12 00:41:19.012
20.0, -9221.145119803563, -9294.7941177838, -6147.64614673211, -10111.213935758346, -9681.30048290497, -7220.529880586849, -8991.816221692112, -7304.997122883454, -8802.496946155661, -11673.3550039953, -7466.779049250967, -7007.160128016488, -7055.0152128953005, -10702.842259745868, -9794.109737170904, -15104.124260440381, 0.012, -0.024, 0.988, 192.0, 0.0, 0.0, 0.0, 0.0, 0.0, 0.0, 0.0, 0.0, 0.0, 1.644586879019762E9, 0.0, 2022-02-12 00:41:19.019
22.0, -9206.929410329987, -9274.163457651552, -6136.246757059903, -10109.783424113206, -9684.116802706338, -7210.091615926221, -8988.798736190645, -7291.653131443636, -8778.468820866206, -11653.976041552549, -7428.289345298928, -6961.428458860929, -7023.34279100213, -10673.092087875853, -9760.895044910318, -15092.769574257085, 0.012, -0.024, 0.988, 192.0, 0.0, 0.0, 0.0, 0.0, 0.0, 0.0, 0.0, 0.0, 0.0, 1.644586879026286E9, 0.0, 2022-02-12 00:41:19.026
24.0, -9203.062558539219, -9256.080896387208, -6158.464391048478, -10099.90395306396, -9686.419032385234, -7220.507528842393, -9000.73456772978, -7330.969849940521, -8788.460050637728, -11651.83027408484, -7457.413668324193, -6986.350653928596, -7045.761590690803, -10700.540030066972, -9784.051452166015, -15107.61113257541, 0.012, -0.024, 0.988, 192.0, 0.0, 0.0, 0.0, 0.0, 0.0, 0.0, 0.0, 0.0, 0.0, 1.644586879034447E9, 0.0, 2022-02-12 00:41:19.034
26.0, -9221.525099459303, -9255.41034405355, -6131.441132002013, -10129.676476678429, -9666.39186935328, -7220.753398031402, -8975.87942789548, -7278.398546981639, -8783.229742435187, -11642.956631536083, -7446.394258307727, -6986.775337073248, -7033.222262051376, -10694.147431152753, -9774.753126472608, -15103.252542406624, 0.012, -0.024, 0.988, 192.0, 0.0, 0.0, 0.0, 0.0, 0.0, 0.0, 0.0, 0.0, 0.0, 1.644586879042548E9, 0.0, 2022-02-12 00:41:19.042
28.0, -9247.900157916565, -9291.664873560057, -6142.92992865204, -10121.831014374617, -9681.456945116157, -7226.542499845326, -8994.9231141714, -7310.518003763915, -8783.341501157463, -11679.41232674269, -7431.351534289305, -6985.791860317214, -7001.214563991376, -10697.477841076594, -9758.659870464788, -15110.539211099054, 0.008, -0.026000000000000002, 0.988, 192.0, 0.0, 32.0, 127.5, 24.0, 15.0, 112.0, 0.0, 0.0, 0.0, 1.644586879049079E9, 0.0, 2022-02-12 00:41:19.049
30.0, -9240.144102590573, -9300.270295175349, -6138.7278006944425, -10129.542366211697, -9675.24316015758, -7211.455072337994, -8988.530515257182, -7302.426672271094, -8798.473632153706, -11692.801021671417, -7455.200845623118, -7009.842337351124, -7047.7955994362355, -10715.292181407474, -9788.588856290444, -15115.255429179124, 0.008, -0.026000000000000002, 0.988, 192.0, 0.0, 0.0, 0.0, 0.0, 0.0, 0.0, 0.0, 0.0, 0.0, 1.644586879057475E9, 0.0, 2022-02-12 00:41:19.057
32.0, -9218.686427913479, -9261.847646456677, -6114.453806215979, -10130.548194712186, -9660.401601839258, -7199.206316376486, -8977.846381407546, -7279.20320978203, -8765.437753848762, -11674.718460407074, -7424.310734785883, -6976.135906712521, -7010.714055384881, -10680.177590868187, -9752.088457594928, -15104.213667418202, 0.008, -0.026000000000000002, 0.988, 192.0, 0.0, 0.0, 0.0, 0.0, 0.0, 0.0, 0.0, 0.0, 0.0, 1.644586879065047E9, 0.0, 2022-02-12 00:41:19.065
34.0, -9248.63776548359, -9299.733853308422, -6152.183550856537, -10126.681342921418, -9676.360747380346, -7209.868098481667, -8991.726814714291, -7315.591849755269, -8778.133544699376, -11669.577559182353, -7443.555586761902, -6990.753947586292, -7026.181462547954, -10699.78007075549, -9768.494638025122, -15110.226286676681, 0.008, -0.026000000000000002, 0.988, 192.0, 0.0, 0.0, 0.0, 0.0, 0.0, 0.0, 0.0, 0.0, 0.0, 1.644586879072143E9, 0.0, 2022-02-12 00:41:19.072
36.0, -9215.400721478549, -9268.441411070993, -6131.9775738689395, -10146.44028501991, -9663.91082571874, -7196.144127386109, -8973.756012172224, -7285.081718573776, -8790.628169849893, -11676.193675541124, -7453.211540366596, -7000.968694802367, -7037.87142489808, -10704.652751046748, -9777.569446273978, -15113.310827411513, 0.008, -0.026000000000000002, 0.988, 192.0, 0.0, 0.0, 0.0, 0.0, 0.0, 0.0, 0.0, 0.0, 0.0, 1.644586879081066E9, 0.0, 2022-02-12 00:41:19.081
38.0, -9250.224739339918, -9310.038007502319, -6142.6617077185765, -10125.116720809547, -9674.527904335011, -7202.492022811416, -8988.955198401833, -7296.481108245982, -8770.153971928832, -11661.106248033793, -7430.792740677923, -6966.457601363373, -7011.831642607647, -10695.868515475811, -9756.111771596881, -15110.18158318777, 0.008, -0.022, 0.988, 192.0, 0.0, 32.0, 127.5, 40.0, 15.0, 112.0, 0.0, 0.0, 0.0, 1.64458687909472E9, 0.0, 2022-02-12 00:41:19.094
40.0, -9246.06731487123, -9297.431623629525, -6138.6160419721655, -10132.962183113359, -9670.81751475543, -7206.828261235745, -8990.028082135688, -7306.49468976196, -8803.592181633972, -11691.012882114994, -7443.443828039626, -6982.617912604561, -7035.055105096711, -10715.06866396292, -9790.667568524786, -15119.859888536917, 0.008, -0.022, 0.988, 192.0, 0.0, 0.0, 0.0, 0.0, 0.0, 0.0, 0.0, 0.0, 0.0, 1.644586879102002E9, 0.0, 2022-02-12 00:41:19.102
42.0, -9234.533814732291, -9261.35590807866, -6121.047570830295, -10134.459749991865, -9664.939005963684, -7194.445394807505, -8981.892047153957, -7284.254704028929, -8781.575713345494, -11653.171378752158, -7417.51580447147, -6951.928967467424, -7006.713093127381, -10691.174649140197, -9755.888254152329, -15116.171850701792, 0.008, -0.022, 0.988, 192.0, 0.0, 0.0, 0.0, 0.0, 0.0, 0.0, 0.0, 0.0, 0.0, 1.644586879109311E9, 0.0, 2022-02-12 00:41:19.109
44.0, -9240.97111713542, -9296.135222451117, -6148.495513021411, -10125.116720809547, -9676.494857847078, -7200.927400699545, -8997.426509550394, -7316.240050344473, -8795.389091418874, -11683.50269597801, -7442.572110005869, -6980.1145172255665, -7020.571174689672, -10699.847125988857, -9778.374109074368, -15128.152385729836, 0.008, -0.022, 0.988, 192.0, 0.0, 0.0, 0.0, 0.0, 0.0, 0.0, 0.0, 0.0, 0.0, 1.64458687911874E9, 0.0, 2022-02-12 00:41:19.118
46.0, -9219.669904669512, -9248.816579439233, -6120.220556285448, -10137.29842153769, -9658.233482627093, -7180.56496150076, -8974.515971483705, -7267.826171854279, -8789.55528611604, -11670.06929756037, -7437.878243670255, -6986.082432995133, -7027.097884070621, -10685.094974648355, -9777.189466618236, -15121.357455415424, 0.006, -0.022, 0.987, 192.0, 0.0, 16.0, 127.5, 40.0, 15.0, 104.0, 0.0, 0.0, 0.0, 1.644586879125301E9, 0.0, 2022-02-12 00:41:19.125
48.0, -9235.003201365853, -9290.726100292934, -6134.615079714666, -10124.915555109448, -9669.230540899103, -7188.388072060117, -8987.949369901344, -7289.596770953748, -8767.896445738847, -11650.533872906431, -7408.463347967071, -6948.173874398933, -7002.62272389206, -10673.919102420701, -9756.245882063613, -15120.217516448203, 0.006, -0.022, 0.987, 192.0, 0.0, 0.0, 0.0, 0.0, 0.0, 0.0, 0.0, 0.0, 0.0, 1.644586879131817E9, 0.0, 2022-02-12 00:41:19.131
50.0, -9234.39970426556, -9281.606588555169, -6135.26328030387, -10135.175005814435, -9676.003119469062, -7192.4337378065275, -8990.25159958024, -7302.292561804362, -8800.909972299334, -11675.903102863205, -7444.8072844514, -6978.281674180231, -7031.657639939504, -10709.16780342672, -9789.952312702217, -15134.589688132965, 0.006, -0.022, 0.987, 192.0, 0.0, 0.0, 0.0, 0.0, 0.0, 0.0, 0.0, 0.0, 0.0, 1.644586879140035E9, 0.0, 2022-02-12 00:41:19.140
52.0, -9225.995448350364, -9254.650384742068, -6106.5412886788, -10139.712409938862, -9670.169314166227, -7182.062528379265, -8993.336140315074, -7284.277055773385, -8774.557265586527, -11652.59023339632, -7411.480833468537, -6932.728818980315, -7001.885116325036, -10679.864666445812, -9760.02332687656, -15132.354513687435, 0.006, -0.022, 0.987, 192.0, 0.0, 0.0, 0.0, 0.0, 0.0, 0.0, 0.0, 0.0, 0.0, 1.64458687914692E9, 0.0, 2022-02-12 00:41:19.146
54.0, -9237.998335122864, -9276.532742563813, -6130.480006990434, -10131.844595890594, -9671.778639767008, -7192.679606995536, -8994.654893237936, -7312.082625875786, -8789.152954715842, -11665.755410880496, -7425.763598175478, -6956.33226112512, -7013.86565135308, -10701.076471933899, -9780.251655608614, -15145.787912105074, 0.006, -0.022, 0.987, 192.0, 0.0, 0.0, 0.0, 0.0, 0.0, 0.0, 0.0, 0.0, 0.0, 1.644586879155126E9, 0.0, 2022-02-12 00:41:19.155
56.0, -9216.428901723493, -9258.561940021747, -6106.228364256426, -10145.032125119225, -9662.256796629048, -7188.4998307823935, -8975.454744750827, -7277.549180692337, -8802.228725222198, -11657.887596832228, -7433.027915123453, -6964.490647851307, -7013.53037518625, -10698.058986432432, -9783.917341699283, -15139.864699824418, 0.007, -0.024, 0.9864999999999999, 192.0, 0.0, 32.0, 127.5, 24.0, 15.0, 104.0, 0.0, 0.0, 0.0, 1.64458687916148E9, 0.0, 2022-02-12 00:41:19.161
58.0, -9240.278213057305, -9281.651292044078, -6120.7122946634645, -10134.52680522523, -9672.806820011952, -7186.04113889231, -8993.246733337251, -7303.410149027128, -8780.346367400452, -11644.856529814784, -7409.089196811819, -6933.488778291796, -6991.849183064603, -10670.700451219136, -9767.712326969186, -15140.490548669166, 0.007, -0.024, 0.9864999999999999, 192.0, 0.0, 0.0, 0.0, 0.0, 0.0, 0.0, 0.0, 0.0, 0.0, 1.644586879169874E9, 0.0, 2022-02-12 00:41:19.169
60.0, -9233.460930998437, -9275.348100107682, -6130.2788412903365, -10140.874700650538, -9677.120706691827, -7180.855534178679, -8996.331274072085, -7303.499556004948, -8807.369626446918, -11640.564994879365, -7437.744133203523, -6963.238950161809, -7023.454549724406, -10712.855841261846, -9801.75403377462, -15150.191205762769, 0.007, -0.024, 0.9864999999999999, 192.0, 0.0, 0.0, 0.0, 0.0, 0.0, 0.0, 0.0, 0.0, 0.0, 1.644586879177697E9, 0.0, 2022-02-12 00:41:19.177
62.0, -9221.994486092864, -9262.764067979344, -6110.430492214024, -10148.541348998708, -9681.054613715962, -7169.813772417757, -8999.415814806916, -7285.01466334041, -8789.108251226933, -11645.25886121498, -7421.047380095409, -6928.32552532262, -6997.459470922884, -10677.562436766915, -9774.59666426142, -15144.491510926666, 0.007, -0.024, 0.9864999999999999, 192.0, 0.0, 0.0, 0.0, 0.0, 0.0, 0.0, 0.0, 0.0, 0.0, 1.644586879184292E9, 0.0, 2022-02-12 00:41:19.184
64.0, -9275.92924546352, -9303.734815565922, -6141.812341429275, -10146.95437514238, -9696.343206923391, -7193.864249451667, -9008.580030033592, -7316.798843955857, -8817.427911451807, -11676.394841241223, -7439.9569559045985, -6944.1952638858875, -7030.942384116935, -10705.524469080505, -9797.708368028208, -15160.584766934488, 0.007, -0.024, 0.9864999999999999, 192.0, 0.0, 0.0, 0.0, 0.0, 0.0, 0.0, 0.0, 0.0, 0.0, 1.644586879192205E9, 0.0, 2022-02-12 00:41:19.192
66.0, -9238.06539035623, -9266.228588369917, -6110.810471869764, -10157.884378181026, -9686.73195680761, -7170.529028240327, -9003.886163697978, -7286.780451152379, -8822.993495821178, -11685.536704723443, -7435.330144802349, -6954.722935524337, -7033.512834729295, -10703.155184168243, -9803.18454541976, -15155.197996520757, 0.006500000000000001, -0.024, 0.98825, 192.0, 0.0, 24.0, 127.5, 32.0, 15.0, 120.0, 0.0, 0.0, 0.0, 1.644586879200311E9, 0.0, 2022-02-12 00:41:19.200
68.0, -9228.767064662823, -9289.206181669973, -6124.914422621063, -10158.286709581222, -9688.453041130668, -7184.700034224991, -9003.036797408677, -7298.604523969237, -8791.008149505633, -11635.088817487815, -7405.691731654612, -6927.789083455692, -7005.86372683808, -10680.334053079374, -9783.425603321268, -15157.723743644208, 0.006500000000000001, -0.024, 0.98825, 192.0, 0.0, 0.0, 0.0, 0.0, 0.0, 0.0, 0.0, 0.0, 0.0, 1.644586879207475E9, 0.0, 2022-02-12 00:41:19.207
70.0, -9257.35494582116, -9301.723158564944, -6131.083504090728, -10160.946567171404, -9691.112898720849, -7196.054720408288, -9008.915306200422, -7301.890230404167, -8819.238402752686, -11689.537666980943, -7453.90444444471, -6960.735554782815, -7038.564328976194, -10722.891774522279, -9819.635429338865, -15169.592519949976, 0.006500000000000001, -0.024, 0.98825, 192.0, 0.0, 0.0, 0.0, 0.0, 0.0, 0.0, 0.0, 0.0, 0.0, 1.644586879222275E9, 0.0, 2022-02-12 00:41:19.222
72.0, -9248.503655016859, -9268.910797704553, -6106.138957278605, -10160.432477048931, -9690.419994642734, -7180.587313245215, -9002.478003797294, -7281.4160324831055, -8794.763242574125, -11656.278271231446, -7411.346723001805, -6924.36926655403, -7007.160128016488, -10695.801460242446, -9788.655911523809, -15164.608080936443, 0.006500000000000001, -0.024, 0.98825, 192.0, 0.0, 0.0, 0.0, 0.0, 0.0, 0.0, 0.0, 0.0, 0.0, 1.644586879229855E9, 0.0, 2022-02-12 00:41:19.229
74.0, -9273.112925662152, -9304.852402788687, -6133.765713425364, -10161.147732871501, -9702.713454093153, -7196.524107041849, -9020.02412319471, -7325.650134760158, -8815.863289339935, -11663.900216090706, -7425.8753568977545, -6952.197188400887, -7028.528395715761, -10719.650771576258, -9804.70446404272, -15174.979290363704, 0.006500000000000001, -0.024, 0.98825, 192.0, 0.0, 0.0, 0.0, 0.0, 0.0, 0.0, 0.0, 0.0, 0.0, 1.64458687923716E9, 0.0, 2022-02-12 00:41:19.237
76.0, -9246.044963126775, -9276.286873374806, -6107.278896245825, -10182.940683715426, -9692.789279554998, -7177.1674963435535, -8996.085404883075, -7280.454907471527, -8818.992533563678, -11687.92834138016, -7434.413723279682, -6949.626737788527, -7031.0094393503, -10716.230954674596, -9811.521746101589, -15173.615833951932, 0.009250000000000001, -0.027, 0.989125, 192.0, 0.0, 48.0, 127.5, 8.0, 15.0, 120.0, 0.0, 0.0, 0.0, 1.644586879244499E9, 0.0, 2022-02-12 00:41:19.244
78.0, -9256.594986509679, -9314.038969759818, -6120.377018496635, -10178.716204013373, -9700.411224414256, -7189.818583705257, -9001.963913674821, -7301.39849202615, -8808.241344480675, -11675.389012740734, -7423.193147563118, -6933.622888758528, -7009.3505989731075, -10701.83643124538, -9783.157382387804, -15172.274729284612, 0.009250000000000001, -0.027, 0.989125, 192.0, 0.0, 0.0, 0.0, 0.0, 0.0, 0.0, 0.0, 0.0, 0.0, 1.644586879252396E9, 0.0, 2022-02-12 00:41:19.252
80.0, -9270.45306807197, -9319.068112262263, -6130.100027334694, -10182.046613937213, -9711.721207108641, -7189.080976138232, -9019.845309239068, -7319.5704602683145, -8841.187815807798, -11706.45793753361, -7460.051174169919, -6963.574226328639, -7049.516683759294, -10733.97823977211, -9826.452711397733, -15185.439906768788, 0.009250000000000001, -0.027, 0.989125, 192.0, 0.0, 0.0, 0.0, 0.0, 0.0, 0.0, 0.0, 0.0, 0.0, 1.644586879259607E9, 0.0, 2022-02-12 00:41:19.259
82.0, -9276.957425708464, -9299.59974284169, -6113.425625971035, -10191.523753586263, -9713.196422242692, -7184.8564964361785, -9011.73162600179, -7295.028244856388, -8825.362780733441, -11680.194637798624, -7428.266993554473, -6933.309964336153, -7034.697477185426, -10712.252344161552, -9802.916324486296, -15180.254302055158, 0.009250000000000001, -0.027, 0.989125, 192.0, 0.0, 0.0, 0.0, 0.0, 0.0, 0.0, 0.0, 0.0, 0.0, 1.644586879267354E9, 0.0, 2022-02-12 00:41:19.267
84.0, -9303.041911487808, -9325.818339087766, -6138.526634994345, -10186.87459073956, -9726.160434026771, -7199.720406498958, -9029.434207610395, -7331.372181340716, -8839.80200765157, -11686.430774501656, -7447.623604252769, -6941.758923740259, -7046.767419191292, -10712.207640672641, -9821.982362506671, -15191.206656838258, 0.009250000000000001, -0.027, 0.989125, 192.0, 0.0, 0.0, 0.0, 0.0, 0.0, 0.0, 0.0, 0.0, 0.0, 1.644586879274177E9, 0.0, 2022-02-12 00:41:19.274
86.0, -9261.869998201133, -9283.037100200308, -6109.916402091551, -10195.010625721292, -9717.4432536892, -7189.125679627143, -9010.412873078927, -7296.168183823608, -8828.492024957184, -11676.707765663597, -7441.745095461023, -6954.678232035427, -7040.665392954993, -10721.617725088327, -9831.213632966714, -15195.05115688457, 0.010625, -0.0275, 0.9885625, 192.0, 0.0, 48.0, 127.5, 16.0, 15.0, 112.0, 0.0, 0.0, 0.0, 1.644586879282331E9, 0.0, 2022-02-12 00:41:19.282
88.0, -9280.131373421118, -9294.503545105881, -6123.9980010983945, -10181.152544159002, -9728.999105572595, -7194.75831922988, -9027.35549537605, -7319.302239334851, -8834.996382593677, -11668.907006848694, -7429.9210226441655, -6927.699676477871, -7027.947250359924, -10711.492384850071, -9810.828842023473, -15192.234837083202, 0.010625, -0.0275, 0.9885625, 192.0, 0.0, 0.0, 0.0, 0.0, 0.0, 0.0, 0.0, 0.0, 0.0, 1.644586879289185E9, 0.0, 2022-02-12 00:41:19.289
90.0, -9297.498678862892, -9339.028220060853, -6137.45375126049, -10194.787108276738, -9743.818312146463, -7204.6377902791255, -9041.392390893983, -7321.02332365791, -8875.743612735703, -11698.4113095297, -7473.395165609738, -6968.938644997913, -7068.2250938683865, -10744.572966643926, -9851.240795998669, -15204.10361338897, 0.010625, -0.0275, 0.9885625, 192.0, 0.0, 0.0, 0.0, 0.0, 0.0, 0.0, 0.0, 0.0, 0.0, 1.644586879297329E9, 0.0, 2022-02-12 00:41:19.297
92.0, -9276.130411163618, -9319.984533784931, -6124.355629009679, -10200.218582179377, -9747.238129048124, -7195.697092497003, -9047.159140963453, -7301.06321585932, -8860.142095105899, -11693.091594349336, -7450.976365921065, -6926.380923555008, -7045.940404646445, -10717.750873297558, -9830.833653310974, -15201.399052309878, 0.010625, -0.0275, 0.9885625, 192.0, 0.0, 0.0, 0.0, 0.0, 0.0, 0.0, 0.0, 0.0, 0.0, 1.644586879304781E9, 0.0, 2022-02-12 00:41:19.304
94.0, -9326.623001888156, -9346.717220153478, -6155.31279508028, -10197.759890289295, -9757.40817277529, -7218.3170578857735, -9042.711143816847, -7341.765742512434, -8878.895208703902, -11692.64455946023, -7466.600235295325, -6950.386697100008, -7053.3164803166965, -10735.699324095169, -9850.23496749818, -15216.709997261763, 0.010625, -0.0275, 0.9885625, 192.0, 0.0, 0.0, 0.0, 0.0, 0.0, 0.0, 0.0, 0.0, 0.0, 1.644586879312583E9, 0.0, 2022-02-12 00:41:19.312
96.0, -9314.88833604912, -9320.968010540964, -6127.64133544461, -10212.132061974056, -9754.569501229465, -7202.42496757805, -9032.69756230087, -7306.8746694177, -8893.66971178886, -11710.36949281329, -7474.311587132405, -6958.366269870552, -7078.171620150998, -10742.069571264932, -9851.084333787481, -15217.201735639781, 0.0123125, -0.02775, 0.98828125, 192.0, 0.0, 56.0, 127.5, 16.0, 15.0, 112.0, 0.0, 0.0, 0.0, 1.644586879319261E9, 0.0, 2022-02-12 00:41:19.319
98.0, -9325.438359432026, -9339.743475883422, -6147.601443243199, -10213.249649196821, -9777.591798018431, -7212.304438627296, -9057.575053879626, -7331.103960407253, -8883.633778528427, -11696.17613508417, -7455.156142134207, -6941.870682462536, -7073.097774159643, -10728.032675747, -9841.316621460512, -15221.850898486484, 0.0123125, -0.02775, 0.98828125, 192.0, 0.0, 0.0, 0.0, 0.0, 0.0, 0.0, 0.0, 0.0, 0.0, 1.644586879327305E9, 0.0, 2022-02-12 00:41:19.327
100.0, -9313.055493003785, -9362.296386038826, -6151.021260144861, -10213.853146297115, -9787.247751623125, -7221.7145230429805, -9058.60323412457, -7342.413943101638, -8909.427691629851, -11719.287838850956, -7494.249343186539, -6982.394395160008, -7105.083120475188, -10755.570024915938, -9878.018185856126, -15235.038427715115, 0.0123125, -0.02775, 0.98828125, 192.0, 0.0, 0.0, 0.0, 0.0, 0.0, 0.0, 0.0, 0.0, 0.0, 1.644586879342254E9, 0.0, 2022-02-12 00:41:19.342
102.0, -9303.824222543744, -9345.979612586452, -6133.83276865873, -10220.871594056081, -9785.034928922048, -7228.464749868483, -9051.584786365604, -7325.359562082239, -8894.675540289349, -11714.012827159504, -7476.390299366749, -6938.964955683346, -7078.909227718023, -10743.634193376804, -9845.116418017915, -15228.265849145157, 0.0123125, -0.02775, 0.98828125, 192.0, 0.0, 0.0, 0.0, 0.0, 0.0, 0.0, 0.0, 0.0, 0.0, 1.644586879350396E9, 0.0, 2022-02-12 00:41:19.350
104.0, -9359.077734837263, -9381.228313592472, -6166.019280674373, -10212.444986396431, -9802.98337971966, -7249.7212588454795, -9068.393298195995, -7371.046527748887, -8903.817403771569, -11714.102234137325, -7497.713863577112, -6970.771488043248, -7100.3892541395735, -10775.32896701443, -9872.407897997844, -15245.58845109802, 0.0123125, -0.02775, 0.98828125, 192.0, 0.0, 0.0, 0.0, 0.0, 0.0, 0.0, 0.0, 0.0, 0.0, 1.644586879356908E9, 0.0, 2022-02-12 00:41:19.356
106.0, -9345.242005019427, -9336.927156082053, -6145.634489731132, -10231.868652328092, -9803.542173331043, -7239.5065116294045, -9071.924873819933, -7349.8347222608, -8922.302296436108, -11745.908766497227, -7501.178383967685, -6975.219485189854, -7108.5476408657605, -10773.585530946915, -9888.434098772299, -15247.667163332364, 0.01015625, -0.028874999999999998, 0.987140625, 192.0, 0.0, 32.0, 127.5, 8.0, 15.0, 104.0, 0.0, 0.0, 0.0, 1.644586879364906E9, 0.0, 2022-02-12 00:41:19.364
108.0, -9350.740534155433, -9375.439211778548, -6154.686946235532, -10228.337076704154, -9808.101929199926, -7235.125569716164, -9072.729536620323, -7349.11946643823, -8906.47726136175, -11710.056568390915, -7478.513715090003, -6950.029069188723, -7088.811050511725, -10756.911129583255, -9864.830656627495, -15247.287183676623, 0.01015625, -0.028874999999999998, 0.987140625, 192.0, 0.0, 0.0, 0.0, 0.0, 0.0, 0.0, 0.0, 0.0, 0.0, 1.64458687937194E9, 0.0, 2022-02-12 00:41:19.371
110.0, -9354.272109779371, -9389.14083112965, -6161.705393994498, -10237.970678564392, -9816.528536859578, -7242.300479686318, -9077.60221691158, -7365.212722446052, -8936.942689054333, -11752.27901366699, -7521.183195255184, -6989.770470830259, -7123.83623407319, -10778.257045538074, -9898.648845988375, -15255.847901803007, 0.01015625, -0.028874999999999998, 0.987140625, 192.0, 0.0, 0.0, 0.0, 0.0, 0.0, 0.0, 0.0, 0.0, 0.0, 1.644586879379647E9, 0.0, 2022-02-12 00:41:19.379
112.0, -9342.157464284595, -9369.113668097696, -6145.053344375294, -10248.587757180663, -9815.187432192259, -7238.947718018022, -9068.303891218173, -7333.987335441988, -8915.507366121694, -11719.019617917493, -7497.870325788299, -6968.893941509002, -7094.331931392185, -10754.787713860002, -9871.156200308347, -15250.550538367099, 0.01015625, -0.028874999999999998, 0.987140625, 192.0, 0.0, 0.0, 0.0, 0.0, 0.0, 0.0, 0.0, 0.0, 0.0, 1.644586879387501E9, 0.0, 2022-02-12 00:41:19.387
114.0, -9371.706470454512, -9403.445947581047, -6167.114516152682, -10233.07564652868, -9837.80739758103, -7259.891302572644, -9095.7965368982, -7372.678205094124, -8932.427636674362, -11741.617231561808, -7520.333828965882, -6976.962921257368, -7120.997562527366, -10790.148173588297, -9893.10561336346, -15262.419314672867, 0.01015625, -0.028874999999999998, 0.987140625, 192.0, 0.0, 0.0, 0.0, 0.0, 0.0, 0.0, 0.0, 0.0, 0.0, 1.644586879394751E9, 0.0, 2022-02-12 00:41:19.394
116.0, -9374.835714678255, -9396.896886455643, -6147.668498476565, -10251.962870593414, -9842.322449961, -7250.14594199013, -9088.778089139234, -7364.363356156749, -8958.310956753607, -11754.894167768261, -7527.687552891679, -6983.534334127228, -7130.6758678765145, -10794.640874223815, -9910.67408450533, -15266.330869952544, 0.01, -0.024, 0.99, 192.0, 0.0, 40.0, 127.5, 32.0, 15.0, 120.0, 0.0, 0.0, 0.0, 1.644586879401216E9, 0.0, 2022-02-12 00:41:19.401
118.0, -9377.115592612696, -9401.568401046801, -6163.024146917361, -10246.911376346514, -9853.833598355484, -7255.264491470396, -9094.857763631078, -7367.9396352695985, -8938.127331510465, -11741.214900161613, -7508.040369515464, -6962.322528639142, -7113.845004301668, -10776.446554237195, -9886.310683049045, -15267.291994964124, 0.01, -0.024, 0.99, 192.0, 0.0, 0.0, 0.0, 0.0, 0.0, 0.0, 0.0, 0.0, 0.0, 1.64458687940927E9, 0.0, 2022-02-12 00:41:19.409
120.0, -9385.81042120581, -9401.7695667469, -6173.283597622347, -10252.767533393804, -9867.33405200649, -7265.836866597756, -9106.301856792195, -7379.428431919627, -8974.024233105687, -11766.47237139611, -7555.426067760714, -7005.394340204518, -7156.603891444671, -10812.835194210435, -9927.81787250255, -15279.160771269891, 0.01, -0.024, 0.99, 192.0, 0.0, 0.0, 0.0, 0.0, 0.0, 0.0, 0.0, 0.0, 0.0, 1.644586879417204E9, 0.0, 2022-02-12 00:41:19.417
122.0, -9376.243874578939, -9399.467337068003, -6162.59946377271, -10265.016289355313, -9871.603235197454, -7261.299462473329, -9110.19106032742, -7361.100001466275, -8949.303203738118, -11742.354839128833, -7533.901337850254, -6973.85602877808, -7131.41347544354, -10782.123897328842, -9907.72365423723, -15274.288090978635, 0.01, -0.024, 0.99, 192.0, 0.0, 0.0, 0.0, 0.0, 0.0, 0.0, 0.0, 0.0, 0.0, 1.644586879425386E9, 0.0, 2022-02-12 00:41:19.425
124.0, -9420.187404178072, -9442.092113744273, -6196.775281044875, -10264.546902721751, -9892.882095918905, -7281.952474350032, -9124.250307589808, -7396.549868172392, -8976.594683718049, -11771.881493554294, -7552.430934003703, -6986.641226606515, -7167.153914827575, -10808.990694164122, -9930.902413237383, -15288.637910918942, 0.01, -0.024, 0.99, 192.0, 0.0, 0.0, 0.0, 0.0, 0.0, 0.0, 0.0, 0.0, 0.0, 1.644586879431894E9, 0.0, 2022-02-12 00:41:19.431
126.0, -9394.19232537655, -9406.843412738253, -6170.422574332068, -10279.857847673637, -9887.741194694185, -7270.9107125891105, -9109.319342293662, -7369.258388192462, -8998.186468861875, -11788.444136195676, -7574.156829614262, -7008.322418728164, -7174.75350794238, -10825.7545025056, -9949.029677990637, -15293.890570865939, 0.01, -0.024, 0.988, 192.0, 0.0, 40.0, 127.5, 32.0, 15.0, 112.0, 0.0, 0.0, 0.0, 1.644586879439881E9, 0.0, 2022-02-12 00:41:19.439
128.0, -9413.280715141382, -9431.050351983351, -6180.07852793676, -10270.917149891515, -9901.085186134003, -7279.96316909351, -9126.194909357419, -7393.040644292909, -8974.091288339054, -11758.51515037002, -7548.765247913033, -6980.248627692298, -7152.5135222093495, -10792.673920711746, -9919.860651476461, -15293.734108654751, 0.01, -0.024, 0.988, 192.0, 0.0, 0.0, 0.0, 0.0, 0.0, 0.0, 0.0, 0.0, 0.0, 1.64458687944803E9, 0.0, 2022-02-12 00:41:19.448
130.0, -9419.561555333323, -9439.58871836528, -6188.661597807598, -10276.505086005342, -9923.794558500596, -7296.168183823608, -9139.04716241922, -7401.467251952559, -9011.910439957433, -11782.632682637297, -7586.07030940894, -7012.233974007842, -7189.863287194167, -10832.258860142096, -9961.16667522987, -15309.290922795646, 0.01, -0.024, 0.988, 192.0, 0.0, 0.0, 0.0, 0.0, 0.0, 0.0, 0.0, 0.0, 0.0, 1.644586879454492E9, 0.0, 2022-02-12 00:41:19.454
132.0, -9407.424558094091, -9422.266116412417, -6170.534333054345, -10280.394289540565, -9920.53120381012, -7288.948570364544, -9139.09186590813, -7384.681091866624, -8993.202029848342, -11772.306176698945, -7564.679689965212, -6987.177668473443, -7152.379411742618, -10815.09272040042, -9939.485483108221, -15306.005216360714, 0.01, -0.024, 0.988, 192.0, 0.0, 0.0, 0.0, 0.0, 0.0, 0.0, 0.0, 0.0, 0.0, 1.644586879469491E9, 0.0, 2022-02-12 00:41:19.469
134.0, -9435.654811341145, -9456.82191334032, -6201.46914738049, -10273.018213870313, -9941.58654708702, -7312.104977620242, -9162.449438863927, -7423.014333607475, -9005.473137554305, -11774.340185444378, -7587.50082105408, -7008.948267572912, -7187.359891815173, -10829.889575229834, -9959.982032773738, -15317.56106824411, 0.01, -0.024, 0.988, 192.0, 0.0, 0.0, 0.0, 0.0, 0.0, 0.0, 0.0, 0.0, 0.0, 1.644586879476668E9, 0.0, 2022-02-12 00:41:19.476
136.0, -9424.702456558045, -9428.099921715251, -6179.8773622366625, -10289.826725700705, -9939.731352297229, -7298.760986180424, -9144.81391248869, -7399.589705418313, -9012.178660890897, -11767.925234785705, -7602.230620650127, -7027.097884070621, -7201.307380355285, -10856.82342729848, -9976.678785881852, -15319.528021756176, 0.01, -0.024, 0.984, 192.0, 0.0, 40.0, 127.5, 32.0, 15.0, 96.0, 0.0, 0.0, 0.0, 1.644586879485449E9, 0.0, 2022-02-12 00:41:19.485
138.0, -9447.702401602555, -9474.837419371297, -6191.008530975406, -10286.205743098944, -9953.991765259716, -7301.6667129596135, -9154.894549238034, -7415.146519559207, -9006.054282910143, -11794.702624643163, -7573.955663914164, -6988.80934581868, -7190.779708716836, -10816.23265936764, -9953.656489092886, -15317.583419988565, 0.01, -0.024, 0.984, 192.0, 0.0, 0.0, 0.0, 0.0, 0.0, 0.0, 0.0, 0.0, 0.0, 1.644586879492066E9, 0.0, 2022-02-12 00:41:19.492
140.0, -9465.337927977793, -9483.152268308671, -6199.815118290797, -10298.61096127164, -9964.20651247579, -7317.424692800605, -9162.985880730854, -7436.291269813928, -9045.147483962475, -11806.638456182296, -7614.948763245197, -7031.791750406236, -7221.066322453777, -10853.448313885727, -9991.721509900273, -15334.727207985785, 0.01, -0.024, 0.984, 192.0, 0.0, 0.0, 0.0, 0.0, 0.0, 0.0, 0.0, 0.0, 0.0, 1.644586879500251E9, 0.0, 2022-02-12 00:41:19.500
142.0, -9442.293279444371, -9457.760686607444, -6184.884152994651, -10306.635237531094, -9971.046146279115, -7301.44319551506, -9163.924653997976, -7397.935676328621, -9029.993001221777, -11780.799839591962, -7593.848716479388, -7009.417654206473, -7193.350159329196, -10827.676752528758, -9971.783753846139, -15325.071254381091, 0.01, -0.024, 0.984, 192.0, 0.0, 0.0, 0.0, 0.0, 0.0, 0.0, 0.0, 0.0, 0.0, 1.644586879506819E9, 0.0, 2022-02-12 00:41:19.506
144.0, -9482.97345435303, -9502.844155173798, -6220.535185400866, -10297.672188004517, -9994.671940168375, -7324.35373358175, -9190.858506066621, -7443.8908629287325, -9047.159140963453, -11805.543220703987, -7619.664981325267, -7023.678067168959, -7217.467691596472, -10848.553281850014, -9998.091757070037, -15338.281135354178, 0.01, -0.024, 0.984, 192.0, 0.0, 0.0, 0.0, 0.0, 0.0, 0.0, 0.0, 0.0, 0.0, 1.64458687951475E9, 0.0, 2022-02-12 00:41:19.514
146.0, -9448.462360914036, -9462.074573287318, -6197.669350823087, -10312.625505045116, -9992.325007000567, -7312.127329364697, -9180.375537917083, -7413.1348625582295, -9055.451638156372, -11808.538354460998, -7633.277193698549, -7048.913186659001, -7233.628002837659, -10857.113999976398, -10017.537774746153, -15340.069274910604, 0.012, -0.024, 0.98, 192.0, 0.0, 48.0, 127.5, 32.0, 15.0, 80.0, 0.0, 0.0, 0.0, 1.644586879521734E9, 0.0, 2022-02-12 00:41:19.521
148.0, -9470.031794313407, -9504.900515663687, -6208.666409095098, -10304.601228785663, -10006.965399618794, -7328.600565028259, -9197.541677658759, -7438.124112859263, -9040.811245538145, -11774.764868589029, -7611.081911454429, -7011.541069929728, -7209.935153715033, -10842.33949689144, -9996.281265769156, -15344.718437757307, 0.012, -0.024, 0.98, 192.0, 0.0, 0.0, 0.0, 0.0, 0.0, 0.0, 0.0, 0.0, 0.0, 1.644586879530015E9, 0.0, 2022-02-12 00:41:19.530
150.0, -9492.942332380097, -9530.94029795412, -6224.022057535894, -10315.732397524405, -10020.17528059188, -7343.866806491234, -9199.732148615378, -7450.28346184295, -9089.22512402834, -11835.360447807367, -7654.041964297529, -7047.281509313764, -7261.858256084712, -10877.498790919637, -10036.93908893336, -15358.017725708214, 0.012, -0.024, 0.98, 192.0, 0.0, 0.0, 0.0, 0.0, 0.0, 0.0, 0.0, 0.0, 0.0, 1.644586879536407E9, 0.0, 2022-02-12 00:41:19.536
152.0, -9467.10371578976, -9482.951102608575, -6204.419577648589, -10329.366961642143, -10023.818614938094, -7344.269137891429, -9198.882782326076, -7434.324316301861, -9062.850065571078, -11806.19142129319, -7642.5308159030465, -7036.284451041753, -7245.630889610159, -10867.57461638148, -10013.179184577368, -15355.111998929026, 0.012, -0.024, 0.98, 192.0, 0.0, 0.0, 0.0, 0.0, 0.0, 0.0, 0.0, 0.0, 0.0, 1.644586879544693E9, 0.0, 2022-02-12 00:41:19.544
154.0, -9515.227021602037, -9535.164777656171, -6241.7469908889525, -10330.2386796759, -10050.305432117633, -7368.833705047811, -9231.985715864386, -7475.697395288635, -9078.27276924524, -11830.465415771654, -7660.345156233926, -7062.994785665845, -7260.29363397284, -10893.435584716271, -10036.693219744351, -15372.61341483753, 0.012, -0.024, 0.98, 192.0, 0.0, 0.0, 0.0, 0.0, 0.0, 0.0, 0.0, 0.0, 0.0, 1.644586879552706E9, 0.0, 2022-02-12 00:41:19.552
156.0, -9507.269800575948, -9511.06959713335, -6218.6799906110755, -10347.80715081777, -10047.936147205372, -7350.348812383272, -9214.506651700336, -7440.560453004891, -9097.450565987894, -11849.91143344777, -7671.029290083563, -7070.97435843639, -7279.985520837966, -10897.995340585154, -10053.457028085832, -15374.356850905044, 0.012, -0.026000000000000002, 0.984, 192.0, 0.0, 48.0, 127.5, 24.0, 15.0, 96.0, 0.0, 0.0, 0.0, 1.64458687955986E9, 0.0, 2022-02-12 00:41:19.559
158.0, -9514.243544846004, -9534.74009451152, -6234.505025685433, -10339.067618735746, -10054.75342926424, -7361.994071244487, -9212.427939465993, -7454.396182822727, -9072.729536620323, -11809.566534705942, -7652.834970096943, -7047.192102335943, -7257.611424638203, -10866.725250092179, -10029.674771985385, -15366.354926390044, 0.012, -0.026000000000000002, 0.984, 192.0, 0.0, 0.0, 0.0, 0.0, 0.0, 0.0, 0.0, 0.0, 0.0, 1.644586879567036E9, 0.0, 2022-02-12 00:41:19.567
160.0, -9528.12397815275, -9549.849873763309, -6251.00061309345, -10340.453426891974, -10068.365641637522, -7372.857019049767, -9231.985715864386, -7484.012244226008, -9114.594353985114, -11851.833683470928, -7702.791118954554, -7073.880085215579, -7305.377102539194, -10916.591991971969, -10074.042984729169, -15385.756240577251, 0.012, -0.026000000000000002, 0.984, 192.0, 0.0, 0.0, 0.0, 0.0, 0.0, 0.0, 0.0, 0.0, 0.0, 1.644586879575306E9, 0.0, 2022-02-12 00:41:19.575
162.0, -9499.78196618342, -9503.939390652107, -6230.816987850308, -10348.678868851528, -10066.46574335882, -7364.855094534767, -9226.062503583731, -7446.550720518914, -9086.833487371623, -11825.011590124559, -7671.163400550295, -7050.768381448792, -7260.964186306499, -10885.523067179092, -10052.004164696236, -15380.861208541539, 0.012, -0.026000000000000002, 0.984, 192.0, 0.0, 0.0, 0.0, 0.0, 0.0, 0.0, 0.0, 0.0, 0.0, 1.644586879588826E9, 0.0, 2022-02-12 00:41:19.588
164.0, -9527.073446163351, -9555.370754643769, -6261.282415542891, -10344.56614787175, -10083.56482786713, -7382.155344743174, -9236.120788588618, -7472.411688853704, -9093.762528152767, -11818.931915632715, -7683.546266978535, -7073.6789195154815, -7297.06225360182, -10898.643541174359, -10064.677603802396, -15390.941845290881, 0.012, -0.026000000000000002, 0.984, 192.0, 0.0, 0.0, 0.0, 0.0, 0.0, 0.0, 0.0, 0.0, 0.0, 1.644586879596628E9, 0.0, 2022-02-12 00:41:19.596
166.0, -9538.830463746843, -9548.84404526282, -6247.133761302682, -10364.19097950351, -10083.341310422578, -7381.551847642881, -9228.744712918367, -7455.71493574559, -9126.61959250207, -11865.177674910747, -7717.543270295057, -7097.148251193554, -7323.370256825717, -10931.478253779203, -10078.759202809239, -15396.775650593718, 0.014, -0.02, 0.982, 192.0, 0.0, 56.0, 127.5, 48.0, 15.0, 88.0, 0.0, 0.0, 0.0, 1.644586879604964E9, 0.0, 2022-02-12 00:41:19.604
168.0, -9572.313376940892, -9595.827412107876, -6261.5282847318995, -10365.017994048358, -10113.650275903974, -7398.472118195548, -9264.887483702598, -7482.157049436218, -9109.520507993759, -11850.336116592422, -7692.509316505113, -7063.195951365942, -7303.924239149599, -10903.203297043241, -10063.694127046363, -15402.631807641008, 0.014, -0.02, 0.982, 192.0, 0.0, 0.0, 0.0, 0.0, 0.0, 0.0, 0.0, 0.0, 0.0, 1.644586879611693E9, 0.0, 2022-02-12 00:41:19.611
170.0, -9581.164667745194, -9601.482403455067, -6276.034566883393, -10379.926607600048, -10115.036084060202, -7412.643124180213, -9255.142123120086, -7491.477726874081, -9151.8100085032, -11880.913303007283, -7734.463540847724, -7102.69148381847, -7343.866806491234, -10946.11864639743, -10110.699845635872, -15417.76393863725, 0.014, -0.02, 0.982, 192.0, 0.0, 0.0, 0.0, 0.0, 0.0, 0.0, 0.0, 0.0, 0.0, 1.644586879619458E9, 0.0, 2022-02-12 00:41:19.619
172.0, -9558.477647123056, -9553.873187765264, -6261.304767287346, -10393.807040906793, -10118.590011428596, -7407.435167722127, -9248.235434083395, -7470.1318109192625, -9134.442703061426, -11846.402209568289, -7716.068055161007, -7092.387329624574, -7314.027227643398, -10932.551137513059, -10081.776688310705, -15409.24792399978, 0.014, -0.02, 0.982, 192.0, 0.0, 0.0, 0.0, 0.0, 0.0, 0.0, 0.0, 0.0, 0.0, 1.644586879627367E9, 0.0, 2022-02-12 00:41:19.627
174.0, -9581.656406123211, -9598.241400509049, -6290.697311246075, -10372.997566818902, -10145.81443617516, -7420.645048695213, -9277.136239664107, -7513.293029462461, -9142.779903743256, -11866.20585515569, -7740.677325806299, -7110.469890888917, -7345.364373369739, -10947.97384118722, -10100.932133308905, -15421.809604383661, 0.014, -0.02, 0.982, 192.0, 0.0, 0.0, 0.0, 0.0, 0.0, 0.0, 0.0, 0.0, 0.0, 1.644586879635529E9, 0.0, 2022-02-12 00:41:19.635
176.0, -9567.217179205081, -9581.879923567763, -6271.832438925796, -10391.393052505618, -10142.372267529043, -7412.687827669124, -9264.485152302403, -7489.95780825112, -9161.264796407795, -11883.751974553106, -7757.463485892235, -7115.096701991165, -7364.7656875569455, -10949.002021432165, -10114.745511382283, -15421.921363105937, 0.014, -0.022, 0.984, 192.0, 0.0, 56.0, 127.5, 40.0, 15.0, 96.0, 0.0, 0.0, 0.0, 1.644586879641398E9, 0.0, 2022-02-12 00:41:19.641
178.0, -9590.194772505138, -9612.032426837972, -6287.813936211341, -10388.621436193162, -10158.756096214784, -7430.502168000004, -9285.249922901383, -7507.280410203983, -9139.740066497334, -11852.504235804587, -7739.20211067225, -7084.228942898387, -7349.342983882783, -10930.673590978813, -10092.438470415887, -15425.542345707698, 0.014, -0.022, 0.984, 192.0, 0.0, 0.0, 0.0, 0.0, 0.0, 0.0, 0.0, 0.0, 0.0, 1.644586879649117E9, 0.0, 2022-02-12 00:41:19.649
180.0, -9615.273429783992, -9642.475502786101, -6306.701160276075, -10396.310436285787, -10172.480067310342, -7447.243624597028, -9291.26254215986, -7527.39698021376, -9179.839096050155, -11902.773309084572, -7778.8317535915085, -7126.4513881744615, -7391.900705325688, -10981.568513103546, -10133.520976724742, -15443.110816849568, 0.014, -0.022, 0.984, 192.0, 0.0, 0.0, 0.0, 0.0, 0.0, 0.0, 0.0, 0.0, 0.0, 1.64458687965693E9, 0.0, 2022-02-12 00:41:19.656
182.0, -9606.645656424243, -9588.920723071185, -6291.0549391573595, -10418.371608063175, -10188.573323318164, -7444.7178774735785, -9307.199335956495, -7517.003419042042, -9171.010156990309, -11877.091154705424, -7756.3458986694695, -7114.493204890872, -7368.118449225241, -10966.302271640572, -10115.237249760301, -15441.970877882348, 0.014, -0.022, 0.984, 192.0, 0.0, 0.0, 0.0, 0.0, 0.0, 0.0, 0.0, 0.0, 0.0, 1.644586879665194E9, 0.0, 2022-02-12 00:41:19.665
184.0, -9635.14413060476, -9650.656241256744, -6326.817730285851, -10404.133546845145, -10211.506213129309, -7471.763488264501, -9318.352856439693, -7546.9100531232425, -9186.589322875658, -11902.035701517547, -7781.379852459414, -7135.526196423316, -7389.352606457783, -10989.101050984986, -10139.95827912787, -15458.980555412836, 0.011, -0.022, 0.984, 192.0, 0.0, 32.0, 127.5, 40.0, 15.0, 96.0, 0.0, 0.0, 0.0, 1.644586879671568E9, 0.0, 2022-02-12 00:41:19.671
186.0, -9612.546516960445, -9636.686400972176, -6309.8974597331835, -10424.272468599376, -10216.490652142842, -7464.588578294347, -9316.698827350001, -7537.321154751916, -9198.860430581622, -11907.087195764447, -7806.234992293716, -7136.934356324, -7411.927868357643, -11002.46739416926, -10159.29253808171, -15462.333317081133, 0.011, -0.022, 0.984, 192.0, 0.0, 0.0, 0.0, 0.0, 0.0, 0.0, 0.0, 0.0, 0.0, 1.644586879679743E9, 0.0, 2022-02-12 00:41:19.679
188.0, -9643.078999886395, -9653.226691869104, -6320.447483116089, -10416.739930717937, -10230.393437194043, -7475.272712143983, -9325.885394321132, -7543.959622855142, -9183.124802485085, -11894.614922358385, -7783.659730393855, -7116.393103169573, -7398.22624900654, -10971.420821120837, -10139.95827912787, -15462.109799636579, 0.011, -0.022, 0.984, 192.0, 0.0, 0.0, 0.0, 0.0, 0.0, 0.0, 0.0, 0.0, 0.0, 1.644586879687509E9, 0.0, 2022-02-12 00:41:19.687
190.0, -9648.979860422596, -9665.67661353071, -6337.0101257574715, -10420.785596464348, -10239.959983820914, -7488.594351839346, -9331.741551368423, -7556.186027072195, -9226.867166384121, -11917.793681358538, -7823.267021568659, -7162.772972914336, -7447.847121697322, -11013.263286741172, -10179.565570302675, -15473.620948031063, 0.011, -0.022, 0.984, 192.0, 0.0, 0.0, 0.0, 0.0, 0.0, 0.0, 0.0, 0.0, 0.0, 1.644586879694242E9, 0.0, 2022-02-12 00:41:19.694
192.0, -9629.533842746478, -9624.415293266213, -6316.737093536508, -10429.30161110182, -10240.004687309825, -7478.737232534556, -9327.18179549954, -7543.06555307693, -9203.151965517041, -11901.655721861807, -7810.906506884874, -7135.012106300844, -7428.445807510115, -10989.950417274287, -10154.129285112534, -15467.96595668387, 0.011, -0.022, 0.984, 192.0, 0.0, 0.0, 0.0, 0.0, 0.0, 0.0, 0.0, 0.0, 0.0, 1.64458687970244E9, 0.0, 2022-02-12 00:41:19.702
194.0, -9673.589131067889, -9674.237331657092, -6350.890559064217, -10425.278297099865, -10264.211626554923, -7493.467032130603, -9344.303231752305, -7568.971224900631, -9213.880802855589, -11914.105643523413, -7821.83650992352, -7150.434809975006, -7428.266993554473, -11008.971751805753, -10169.48493355333, -15479.432401589442, 0.0075, -0.020999999999999998, 0.983, 192.0, 0.0, 16.0, 127.5, 48.0, 15.0, 88.0, 0.0, 0.0, 0.0, 1.644586879717093E9, 0.0, 2022-02-12 00:41:19.717
196.0, -9657.71939250462, -9654.590148280877, -6336.853663546284, -10440.67864902957, -10272.727641192394, -7493.6681978307015, -9346.761923642389, -7562.265701564039, -9229.147044318563, -11925.393274473343, -7845.574062535055, -7175.08878410921, -7464.186246894151, -11023.768606635167, -10196.888172255538, -15485.713241781385, 0.0075, -0.020999999999999998, 0.983, 192.0, 0.0, 0.0, 0.0, 0.0, 0.0, 0.0, 0.0, 0.0, 0.0, 1.644586879724071E9, 0.0, 2022-02-12 00:41:19.724
198.0, -9650.835055212387, -9687.447212630179, -6351.583463142331, -10435.984782693957, -10286.473964032408, -7507.548631137447, -9356.95431911401, -7564.456172520659, -9214.573706933703, -11909.344721954432, -7823.222318079748, -7141.114132537143, -7444.919043173676, -11005.03784478162, -10178.000948190804, -15489.513038338786, 0.0075, -0.020999999999999998, 0.983, 192.0, 0.0, 0.0, 0.0, 0.0, 0.0, 0.0, 0.0, 0.0, 0.0, 1.644586879731834E9, 0.0, 2022-02-12 00:41:19.731
200.0, -9674.147924679271, -9689.34711090888, -6367.721422639063, -10447.428875855074, -10292.598342013162, -7522.747817367055, -9359.70358368201, -7590.384196088815, -9249.934166661998, -11942.492358981654, -7875.793621038631, -7195.51827854136, -7484.816907026399, -11037.8055021531, -10214.635457353052, -15500.621855333075, 0.0075, -0.020999999999999998, 0.983, 192.0, 0.0, 0.0, 0.0, 0.0, 0.0, 0.0, 0.0, 0.0, 0.0, 1.64458687974001E9, 0.0, 2022-02-12 00:41:19.740
202.0, -9682.216904427636, -9655.081886658894, -6349.728268352541, -10462.918634762602, -10300.779080483804, -7518.143358009263, -9362.877531394664, -7572.659262735756, -9225.526061716802, -11909.54588765453, -7849.507969559189, -7174.239417819908, -7466.622587039779, -11040.554766721103, -10197.156393189001, -15502.700567567417, 0.0075, -0.020999999999999998, 0.983, 192.0, 0.0, 0.0, 0.0, 0.0, 0.0, 0.0, 0.0, 0.0, 0.0, 1.644586879746869E9, 0.0, 2022-02-12 00:41:19.746
204.0, -9726.316896237957, -9730.586079428922, -6383.16647805768, -10458.73885854946, -10312.3349323672, -7535.980050084598, -9382.636473493156, -7607.617391063856, -9243.183939836495, -11928.053132063525, -7865.1765424223595, -7183.6271504911365, -7488.7955175394445, -11052.222377326772, -10215.753044575817, -15518.615009619596, 0.00775, -0.0215, 0.9844999999999999, 192.0, 0.0, 32.0, 127.5, 40.0, 15.0, 104.0, 0.0, 0.0, 0.0, 1.644586879754491E9, 0.0, 2022-02-12 00:41:19.754
206.0, -9700.63474185881, -9699.360692424858, -6370.1801145291465, -10471.300538933343, -10316.917039980537, -7535.644773917767, -9385.408089805615, -7589.333664099416, -9266.876788959122, -11967.682774982784, -7891.819821813086, -7192.389034317617, -7508.733273593578, -11064.42642979937, -10234.617916896095, -15519.732596842361, 0.00775, -0.0215, 0.9844999999999999, 192.0, 0.0, 0.0, 0.0, 0.0, 0.0, 0.0, 0.0, 0.0, 0.0, 1.644586879762666E9, 0.0, 2022-02-12 00:41:19.762
208.0, -9697.6396081018, -9714.40341644328, -6380.126640811759, -10469.35593716573, -10324.673095306527, -7544.898396122265, -9384.357557816214, -7597.112071169862, -9243.250995069862, -11942.335896770466, -7873.22317042627, -7169.098516595187, -7484.705148304123, -11044.734542934244, -10211.528564873763, -15520.380797431566, 0.00775, -0.0215, 0.9844999999999999, 192.0, 0.0, 0.0, 0.0, 0.0, 0.0, 0.0, 0.0, 0.0, 0.0, 1.644586879769565E9, 0.0, 2022-02-12 00:41:19.769
210.0, -9731.480149207133, -9728.999105572595, -6391.660140950697, -10480.64356811566, -10339.782874558316, -7546.865349634332, -9398.595619034246, -7612.26655391056, -9284.780536267823, -11962.608928991429, -7917.501976192234, -7226.587203334237, -7522.412541200226, -11080.34087185155, -10249.21360602541, -15532.718960370894, 0.00775, -0.0215, 0.9844999999999999, 192.0, 0.0, 0.0, 0.0, 0.0, 0.0, 0.0, 0.0, 0.0, 0.0, 1.644586879776524E9, 0.0, 2022-02-12 00:41:19.776
212.0, -9711.363579197357, -9711.318875708446, -6377.623245432765, -10487.282036218887, -10345.102589738679, -7547.692364179178, -9399.221467878993, -7583.321044840938, -9264.753373235866, -11941.419475247798, -7894.859659059008, -7192.210220361975, -7514.231802729583, -11057.787961696144, -10226.526585403275, -15522.951248043926, 0.00775, -0.0215, 0.9844999999999999, 192.0, 0.0, 0.0, 0.0, 0.0, 0.0, 0.0, 0.0, 0.0, 0.0, 1.644586879784343E9, 0.0, 2022-02-12 00:41:19.784
214.0, -9763.510199011589, -9758.79398093152, -6414.593030761842, -10490.098356020255, -10373.064622052267, -7573.843905191888, -9425.417712380615, -7633.947746032209, -9277.203294897472, -11965.961690659726, -7909.2541824882255, -7202.782595489335, -7532.582584927391, -11077.613959028002, -10247.112542046612, -15537.88221334007, 0.006875, -0.02175, 0.98425, 192.0, 0.0, 24.0, 127.5, 40.0, 15.0, 96.0, 0.0, 0.0, 0.0, 1.644586879792127E9, 0.0, 2022-02-12 00:41:19.792
216.0, -9746.589928458921, -9719.767835112552, -6398.186850331646, -10505.811632372337, -10368.750735372394, -7574.246236592083, -9416.901697743142, -7611.998332977097, -9300.560867853268, -11955.724591699194, -7941.843025904063, -7235.371438905173, -7558.577663728913, -11101.887953506464, -10271.40888826953, -15546.867614611105, 0.006875, -0.02175, 0.98425, 192.0, 0.0, 0.0, 0.0, 0.0, 0.0, 0.0, 0.0, 0.0, 0.0, 1.644586879800206E9, 0.0, 2022-02-12 00:41:19.800
218.0, -9754.345983784913, -9753.40721051779, -6406.45699578011, -10494.769870611415, -10375.52331394235, -7585.869143708843, -9420.097997200251, -7622.45894938218, -9276.64450128609, -11955.478722510186, -7922.4640634613115, -7201.776766988846, -7530.950907582153, -11087.582837055068, -10244.832664112171, -15546.174710532989, 0.006875, -0.02175, 0.98425, 192.0, 0.0, 0.0, 0.0, 0.0, 0.0, 0.0, 0.0, 0.0, 0.0, 1.644586879806768E9, 0.0, 2022-02-12 00:41:19.806
220.0, -9757.02819311955, -9761.543245499523, -6422.863176210306, -10499.866068347224, -10394.946979874014, -7590.160678644262, -9441.48861664398, -7643.313126958982, -9304.271257432849, -11999.399900364864, -7957.668060978421, -7247.039049510843, -7569.328852811916, -11104.90543900793, -10287.569199510717, -15559.675164183995, 0.006875, -0.02175, 0.98425, 192.0, 0.0, 0.0, 0.0, 0.0, 0.0, 0.0, 0.0, 0.0, 0.0, 1.644586879814876E9, 0.0, 2022-02-12 00:41:19.814
222.0, -9758.5034082536, -9742.521910968055, -6400.779652688462, -10513.36652199823, -10394.455241495996, -7585.511515797558, -9426.24472692546, -7612.355960888382, -9292.402481127081, -11980.959711189236, -7943.42999976039, -7222.072150954265, -7558.600015473368, -11088.588665555557, -10267.832609156681, -15554.46720772591, 0.006875, -0.02175, 0.98425, 192.0, 0.0, 0.0, 0.0, 0.0, 0.0, 0.0, 0.0, 0.0, 0.0, 1.644586879822925E9, 0.0, 2022-02-12 00:41:19.822
224.0, -9796.657836038808, -9793.349777859423, -6434.620193793798, -10515.55699295485, -10412.783671949348, -7603.750539273088, -9447.76945683592, -7648.878711328353, -9318.151690739596, -11989.65453978235, -7958.606834245544, -7239.439456396039, -7575.542637770491, -11118.741168825767, -10278.002652883846, -15569.55463523324, 0.0084375, -0.021875, 0.987125, 192.0, 0.0, 40.0, 127.5, 40.0, 15.0, 120.0, 0.0, 0.0, 0.0, 1.644586879836586E9, 0.0, 2022-02-12 00:41:19.836
226.0, -9770.662757237287, -9754.055411106994, -6421.991458176549, -10528.476301250017, -10412.001360893413, -7592.909943212265, -9451.323384204316, -7633.74658033211, -9328.880528078143, -12004.339635889488, -7983.014939190739, -7255.24213972594, -7594.251047879583, -11123.122110739007, -10298.588609527185, -15570.515760244818, 0.0084375, -0.021875, 0.987125, 192.0, 0.0, 0.0, 0.0, 0.0, 0.0, 0.0, 0.0, 0.0, 0.0, 1.644586879844429E9, 0.0, 2022-02-12 00:41:19.844
228.0, -9791.159306902804, -9780.519876542077, -6428.384057090767, -10528.900984394668, -10422.573736020773, -7607.6620945527675, -9460.241730241982, -7648.61049039489, -9305.411196400071, -11993.968426462225, -7963.188941858882, -7243.5521773758155, -7576.771983715533, -11107.989979742764, -10277.197990083456, -15574.650832969051, 0.0084375, -0.021875, 0.987125, 192.0, 0.0, 0.0, 0.0, 0.0, 0.0, 0.0, 0.0, 0.0, 0.0, 1.644586879852432E9, 0.0, 2022-02-12 00:41:19.852
230.0, -9795.562600560499, -9795.27202788258, -6448.545330589453, -10527.381065771708, -10444.232576397966, -7621.36371390387, -9485.320387520836, -7682.8533629004205, -9340.212862516984, -12011.402787137366, -7998.728215542819, -7272.855314356722, -7611.685408554722, -11144.982116816296, -10322.728493538916, -15588.79948720926, 0.0084375, -0.021875, 0.987125, 192.0, 0.0, 0.0, 0.0, 0.0, 0.0, 0.0, 0.0, 0.0, 0.0, 1.644586879859255E9, 0.0, 2022-02-12 00:41:19.859
232.0, -9791.293417369536, -9765.745373457119, -6432.519129814998, -10534.041885619388, -10444.545500820339, -7611.148966687795, -9472.646948414678, -7644.140141503828, -9324.119606509163, -11998.751699775661, -7985.473631080822, -7244.826226809768, -7597.26853338105, -11133.180395743895, -10311.530269566807, -15584.84322844067, 0.0084375, -0.021875, 0.987125, 192.0, 0.0, 0.0, 0.0, 0.0, 0.0, 0.0, 0.0, 0.0, 0.0, 1.64458687986711E9, 0.0, 2022-02-12 00:41:19.867
234.0, -9826.989153264662, -9811.007655979116, -6465.018566253015, -10530.264440806443, -10458.269471915899, -7627.8010163069985, -9498.105585349273, -7676.1031360749175, -9340.726952639456, -12010.888697014892, -7999.041139965194, -7251.732915846457, -7622.973039504653, -11129.022971275208, -10321.90147899407, -15591.548751777264, 0.009218750000000001, -0.0219375, 0.9895625, 192.0, 0.0, 40.0, 127.5, 40.0, 15.5, 0.0, 0.0, 0.0, 0.0, 1.644586879875189E9, 0.0, 2022-02-12 00:41:19.875
236.0, -9812.818147279995, -9794.109737170904, -6453.865045769817, -10549.889272438202, -10459.990556238956, -7623.241260438116, -9492.651759702178, -7655.830103853954, -9361.268205793882, -12025.32792393302, -8020.63292510902, -7275.3140062468065, -7647.828179338954, -11151.419419219425, -10343.962650771458, -15596.868466957625, 0.009218750000000001, -0.0219375, 0.9895625, 192.0, 0.0, 0.0, 0.0, 0.0, 0.0, 0.0, 0.0, 0.0, 0.0, 1.644586879882236E9, 0.0, 2022-02-12 00:41:19.882
238.0, -9831.079522499982, -9794.087385426448, -6467.253740698546, -10546.670621236637, -10467.232521442476, -7636.048810011007, -9498.373806282736, -7669.241150527138, -9337.664763649078, -12010.911048759348, -8001.991570233295, -7256.270319970885, -7624.1576819607835, -11139.416532446925, -10317.408778358553, -15597.494315802374, 0.009218750000000001, -0.0219375, 0.9895625, 192.0, 0.0, 0.0, 0.0, 0.0, 0.0, 0.0, 0.0, 0.0, 0.0, 1.644586879888613E9, 0.0, 2022-02-12 00:41:19.888
240.0, -9841.80835983853, -9821.580031106476, -6485.246894985068, -10554.292566095897, -10482.230541971987, -7653.103191030406, -9513.26006808997, -7690.005921126119, -9374.880418167164, -12040.482406673718, -8050.1372277900255, -7289.037977342365, -7658.311147488493, -11172.74298342979, -10358.33482245622, -15615.37571136662, 0.009218750000000001, -0.0219375, 0.9895625, 192.0, 0.0, 0.0, 0.0, 0.0, 0.0, 0.0, 0.0, 0.0, 0.0, 1.644586879896334E9, 0.0, 2022-02-12 00:41:19.896
242.0, -9820.015408994605, -9795.875524982874, -6467.611368609831, -10565.177865645632, -10484.97980653999, -7652.320879974471, -9507.06863487585, -7670.023461583074, -9359.480066237458, -12026.71373208925, -8031.205300236381, -7266.038032297854, -7656.321842231971, -11163.042326336184, -10340.743999569893, -15612.224115398421, 0.009218750000000001, -0.0219375, 0.9895625, 192.0, 0.0, 0.0, 0.0, 0.0, 0.0, 0.0, 0.0, 0.0, 0.0, 1.644586879904249E9, 0.0, 2022-02-12 00:41:19.904
244.0, -9863.467200215722, -9831.504205644633, -6502.614200426841, -10569.067069180855, -10503.822327115813, -7670.738717405644, -9527.229908374538, -7704.489851533157, -9373.852237922221, -12017.147185462378, -8043.252890497791, -7295.005893111932, -7666.268368514582, -11176.45337300937, -10354.915005554558, -15624.76344403785, 0.008609375, -0.02096875, 0.98878125, 192.0, 0.0, 32.0, 127.5, 48.0, 15.0, 112.0, 0.0, 0.0, 0.0, 1.644586879912535E9, 0.0, 2022-02-12 00:41:19.912
246.0, -9849.542063420065, -9817.109682215416, -6492.466508444132, -10582.0981361983, -10509.700835907559, -7667.140086548339, -9525.88880370722, -7684.28387454556, -9402.753043502933, -12054.541653936107, -8074.902960646506, -7314.138986365675, -7682.965121622697, -11194.267713340249, -10378.317281999265, -15630.910173763059, 0.008609375, -0.02096875, 0.98878125, 192.0, 0.0, 0.0, 0.0, 0.0, 0.0, 0.0, 0.0, 0.0, 0.0, 1.644586879920158E9, 0.0, 2022-02-12 00:41:19.920
248.0, -9864.540083949576, -9837.159196991826, -6495.394586967777, -10564.104981911776, -10513.768853398426, -7666.000147581119, -9533.398989844203, -7692.263447316104, -9380.066022880796, -12032.793406581093, -8047.589128922121, -7265.5686456642925, -7664.055545813507, -11173.301777041172, -10352.635127620117, -15631.42426388553, 0.008609375, -0.02096875, 0.98878125, 192.0, 0.0, 0.0, 0.0, 0.0, 0.0, 0.0, 0.0, 0.0, 0.0, 1.644586879926667E9, 0.0, 2022-02-12 00:41:19.926
250.0, -9878.509924234144, -9851.509016932132, -6518.483938990109, -10570.408173848173, -10527.51517623844, -7677.958330864708, -9547.525292339957, -7716.246869116649, -9412.587811063268, -12057.447380715297, -8080.401489782512, -7309.579230496792, -7700.913572420308, -11208.751643747288, -10391.527162972352, -15641.594307612695, 0.008609375, -0.02096875, 0.98878125, 192.0, 0.0, 0.0, 0.0, 0.0, 0.0, 0.0, 0.0, 0.0, 0.0, 1.644586879934657E9, 0.0, 2022-02-12 00:41:19.934
252.0, -9862.528426948598, -9835.102836501937, -6496.601581168364, -10587.887238012223, -10529.727998939516, -7679.053566343018, -9540.864472492274, -7697.42670028528, -9400.942552202052, -12048.23846199971, -8071.013757111283, -7292.591904710759, -7695.549153751034, -11181.88484691201, -10371.589406918218, -15640.09674073419, 0.008609375, -0.02096875, 0.98878125, 192.0, 0.0, 0.0, 0.0, 0.0, 0.0, 0.0, 0.0, 0.0, 0.0, 1.644586879942773E9, 0.0, 2022-02-12 00:41:19.942
254.0, -9890.155183095358, -9867.088182817482, -6533.236090330612, -10584.445069366106, -10545.307164824864, -7692.486964760657, -9561.830408791353, -7734.307078636537, -9407.826889494287, -12060.218997027756, -8090.683292231953, -7309.8250996858005, -7710.927153936286, -11199.319207587148, -10379.300758755298, -15653.95482229648, 0.008304687500000001, -0.021484375, 0.986390625, 192.0, 0.0, 32.0, 127.5, 40.0, 15.0, 96.0, 0.0, 0.0, 0.0, 1.64458687994973E9, 0.0, 2022-02-12 00:41:19.949
